Channel              :,CH1
Frequency            :,1.200kHz
Period               :,0.833ms
PK-PK                :,367.2mV
Probe attenuation    :,1X
Voltage per ADC value:,0.244141mV
Time interval        :,2.00000us

index,CH1_Voltage(mV)
1,-58.593750
2,-58.593750
3,-54.687500
4,-54.687500
5,-50.781250
6,-46.875000
7,-42.968750
8,-42.968750
9,-39.062500
10,-35.156250
11,-31.250000
12,-31.250000
13,-27.343750
14,-23.437500
15,-19.531250
16,-19.531250
17,-15.625000
18,-11.718750
19,-7.812500
20,-7.812500
21,-3.906250
22,-3.906250
23,0.000000
24,3.906250
25,7.812500
26,7.812500
27,11.718750
28,15.625000
29,15.625000
30,19.531250
31,23.437500
32,27.343750
33,27.343750
34,31.250000
35,31.250000
36,35.156250
37,39.062500
38,39.062500
39,42.968750
40,46.875000
41,46.875000
42,50.781250
43,50.781250
44,54.687500
45,58.593750
46,58.593750
47,62.500000
48,62.500000
49,66.406250
50,70.312500
51,70.312500
52,74.218750
53,74.218750
54,78.125000
55,78.125000
56,82.031250
57,82.031250
58,85.937500
59,85.937500
60,89.843750
61,89.843750
62,93.750000
63,93.750000
64,97.656250
65,97.656250
66,101.562500
67,101.562500
68,105.468750
69,105.468750
70,105.468750
71,109.375000
72,109.375000
73,113.281250
74,113.281250
75,117.187500
76,117.187500
77,117.187500
78,117.187500
79,121.093750
80,121.093750
81,125.000000
82,125.000000
83,125.000000
84,128.906250
85,128.906250
86,128.906250
87,128.906250
88,128.906250
89,132.812500
90,132.812500
91,136.718750
92,136.718750
93,136.718750
94,136.718750
95,136.718750
96,140.625000
97,140.625000
98,140.625000
99,140.625000
100,144.531250
101,144.531250
102,144.531250
103,144.531250
104,144.531250
105,144.531250
106,144.531250
107,144.531250
108,144.531250
109,148.437500
110,148.437500
111,148.437500
112,148.437500
113,148.437500
114,148.437500
115,148.437500
116,148.437500
117,148.437500
118,148.437500
119,148.437500
120,148.437500
121,152.343750
122,148.437500
123,148.437500
124,152.343750
125,152.343750
126,152.343750
127,148.437500
128,148.437500
129,148.437500
130,148.437500
131,148.437500
132,148.437500
133,148.437500
134,148.437500
135,148.437500
136,148.437500
137,148.437500
138,148.437500
139,148.437500
140,144.531250
141,144.531250
142,144.531250
143,144.531250
144,144.531250
145,144.531250
146,144.531250
147,140.625000
148,140.625000
149,140.625000
150,140.625000
151,140.625000
152,136.718750
153,136.718750
154,136.718750
155,136.718750
156,136.718750
157,132.812500
158,132.812500
159,132.812500
160,132.812500
161,128.906250
162,128.906250
163,128.906250
164,125.000000
165,125.000000
166,125.000000
167,125.000000
168,121.093750
169,121.093750
170,117.187500
171,117.187500
172,117.187500
173,113.281250
174,113.281250
175,113.281250
176,109.375000
177,109.375000
178,105.468750
179,105.468750
180,105.468750
181,101.562500
182,97.656250
183,97.656250
184,97.656250
185,93.750000
186,93.750000
187,89.843750
188,89.843750
189,85.937500
190,85.937500
191,82.031250
192,82.031250
193,78.125000
194,78.125000
195,78.125000
196,70.312500
197,70.312500
198,66.406250
199,66.406250
200,62.500000
201,62.500000
202,58.593750
203,54.687500
204,54.687500
205,50.781250
206,50.781250
207,46.875000
208,46.875000
209,42.968750
210,39.062500
211,35.156250
212,35.156250
213,31.250000
214,31.250000
215,27.343750
216,23.437500
217,19.531250
218,19.531250
219,15.625000
220,11.718750
221,11.718750
222,7.812500
223,3.906250
224,3.906250
225,0.000000
226,-3.906250
227,-3.906250
228,-7.812500
229,-11.718750
230,-15.625000
231,-15.625000
232,-19.531250
233,-23.437500
234,-27.343750
235,-27.343750
236,-31.250000
237,-35.156250
238,-35.156250
239,-39.062500
240,-42.968750
241,-46.875000
242,-50.781250
243,-50.781250
244,-54.687500
245,-58.593750
246,-58.593750
247,-62.500000
248,-66.406250
249,-70.312500
250,-70.312500
251,-74.218750
252,-78.125000
253,-78.125000
254,-82.031250
255,-85.937500
256,-85.937500
257,-89.843750
258,-93.750000
259,-97.656250
260,-101.562500
261,-101.562500
262,-105.468750
263,-109.375000
264,-109.375000
265,-113.281250
266,-117.187500
267,-117.187500
268,-121.093750
269,-121.093750
270,-125.000000
271,-128.906250
272,-132.812500
273,-132.812500
274,-136.718750
275,-140.625000
276,-140.625000
277,-144.531250
278,-144.531250
279,-148.437500
280,-148.437500
281,-152.343750
282,-156.250000
283,-156.250000
284,-160.156250
285,-160.156250
286,-164.062500
287,-164.062500
288,-167.968750
289,-167.968750
290,-171.875000
291,-171.875000
292,-171.875000
293,-175.781250
294,-179.687500
295,-179.687500
296,-179.687500
297,-183.593750
298,-183.593750
299,-187.500000
300,-187.500000
301,-187.500000
302,-191.406250
303,-191.406250
304,-195.312500
305,-195.312500
306,-195.312500
307,-195.312500
308,-199.218750
309,-199.218750
310,-199.218750
311,-199.218750
312,-203.125000
313,-203.125000
314,-203.125000
315,-203.125000
316,-207.031250
317,-207.031250
318,-207.031250
319,-207.031250
320,-207.031250
321,-207.031250
322,-207.031250
323,-210.937500
324,-210.937500
325,-210.937500
326,-210.937500
327,-210.937500
328,-210.937500
329,-210.937500
330,-210.937500
331,-210.937500
332,-210.937500
333,-210.937500
334,-210.937500
335,-210.937500
336,-210.937500
337,-210.937500
338,-210.937500
339,-210.937500
340,-210.937500
341,-210.937500
342,-210.937500
343,-210.937500
344,-207.031250
345,-207.031250
346,-207.031250
347,-207.031250
348,-207.031250
349,-207.031250
350,-203.125000
351,-203.125000
352,-203.125000
353,-203.125000
354,-199.218750
355,-199.218750
356,-199.218750
357,-195.312500
358,-195.312500
359,-195.312500
360,-191.406250
361,-191.406250
362,-191.406250
363,-187.500000
364,-187.500000
365,-183.593750
366,-183.593750
367,-183.593750
368,-179.687500
369,-179.687500
370,-175.781250
371,-175.781250
372,-175.781250
373,-171.875000
374,-171.875000
375,-167.968750
376,-164.062500
377,-164.062500
378,-164.062500
379,-160.156250
380,-156.250000
381,-156.250000
382,-152.343750
383,-152.343750
384,-148.437500
385,-148.437500
386,-144.531250
387,-144.531250
388,-140.625000
389,-136.718750
390,-132.812500
391,-132.812500
392,-128.906250
393,-128.906250
394,-125.000000
395,-121.093750
396,-121.093750
397,-117.187500
398,-117.187500
399,-113.281250
400,-109.375000
401,-105.468750
402,-105.468750
403,-101.562500
404,-101.562500
405,-97.656250
406,-93.750000
407,-93.750000
408,-89.843750
409,-85.937500
410,-82.031250
411,-82.031250
412,-78.125000
413,-74.218750
414,-70.312500
415,-70.312500
416,-66.406250
417,-62.500000
418,-62.500000
419,-58.593750
420,-54.687500
421,-50.781250
422,-46.875000
423,-46.875000
424,-42.968750
425,-39.062500
426,-39.062500
427,-35.156250
428,-31.250000
429,-31.250000
430,-27.343750
431,-23.437500
432,-19.531250
433,-19.531250
434,-15.625000
435,-11.718750
436,-7.812500
437,-7.812500
438,-3.906250
439,0.000000
440,3.906250
441,3.906250
442,7.812500
443,11.718750
444,11.718750
445,15.625000
446,19.531250
447,19.531250
448,23.437500
449,27.343750
450,27.343750
451,31.250000
452,35.156250
453,35.156250
454,39.062500
455,39.062500
456,42.968750
457,46.875000
458,46.875000
459,50.781250
460,54.687500
461,54.687500
462,58.593750
463,58.593750
464,62.500000
465,66.406250
466,66.406250
467,70.312500
468,70.312500
469,74.218750
470,74.218750
471,78.125000
472,78.125000
473,85.937500
474,82.031250
475,85.937500
476,85.937500
477,89.843750
478,89.843750
479,93.750000
480,93.750000
481,97.656250
482,97.656250
483,101.562500
484,101.562500
485,105.468750
486,105.468750
487,109.375000
488,109.375000
489,109.375000
490,113.281250
491,113.281250
492,113.281250
493,117.187500
494,117.187500
495,117.187500
496,117.187500
497,121.093750
498,125.000000
499,125.000000
500,125.000000
501,125.000000
502,128.906250
503,132.812500
504,128.906250
505,132.812500
506,132.812500
507,132.812500
508,136.718750
509,136.718750
510,136.718750
511,136.718750
512,136.718750
513,140.625000
514,140.625000
515,140.625000
516,140.625000
517,140.625000
518,140.625000
519,144.531250
520,144.531250
521,144.531250
522,144.531250
523,144.531250
524,144.531250
525,148.437500
526,148.437500
527,148.437500
528,148.437500
529,148.437500
530,148.437500
531,148.437500
532,148.437500
533,148.437500
534,148.437500
535,148.437500
536,148.437500
537,148.437500
538,148.437500
539,152.343750
540,152.343750
541,148.437500
542,148.437500
543,148.437500
544,148.437500
545,148.437500
546,148.437500
547,148.437500
548,148.437500
549,148.437500
550,148.437500
551,148.437500
552,148.437500
553,148.437500
554,148.437500
555,148.437500
556,148.437500
557,148.437500
558,144.531250
559,144.531250
560,144.531250
561,144.531250
562,144.531250
563,144.531250
564,140.625000
565,140.625000
566,140.625000
567,140.625000
568,140.625000
569,140.625000
570,136.718750
571,136.718750
572,136.718750
573,136.718750
574,132.812500
575,132.812500
576,132.812500
577,132.812500
578,128.906250
579,132.812500
580,128.906250
581,125.000000
582,125.000000
583,125.000000
584,121.093750
585,121.093750
586,121.093750
587,117.187500
588,117.187500
589,117.187500
590,113.281250
591,113.281250
592,109.375000
593,109.375000
594,109.375000
595,105.468750
596,105.468750
597,101.562500
598,101.562500
599,101.562500
600,97.656250
601,93.750000
602,93.750000
603,89.843750
604,89.843750
605,89.843750
606,85.937500
607,82.031250
608,82.031250
609,78.125000
610,78.125000
611,74.218750
612,74.218750
613,70.312500
614,70.312500
615,66.406250
616,66.406250
617,62.500000
618,58.593750
619,58.593750
620,54.687500
621,54.687500
622,50.781250
623,46.875000
624,46.875000
625,42.968750
626,39.062500
627,35.156250
628,35.156250
629,31.250000
630,31.250000
631,27.343750
632,27.343750
633,23.437500
634,19.531250
635,19.531250
636,15.625000
637,11.718750
638,7.812500
639,7.812500
640,3.906250
641,0.000000
642,0.000000
643,-3.906250
644,-7.812500
645,-11.718750
646,-11.718750
647,-15.625000
648,-19.531250
649,-23.437500
650,-23.437500
651,-27.343750
652,-31.250000
653,-35.156250
654,-35.156250
655,-42.968750
656,-42.968750
657,-46.875000
658,-46.875000
659,-50.781250
660,-54.687500
661,-54.687500
662,-58.593750
663,-62.500000
664,-66.406250
665,-66.406250
666,-70.312500
667,-74.218750
668,-78.125000
669,-78.125000
670,-82.031250
671,-85.937500
672,-85.937500
673,-89.843750
674,-93.750000
675,-93.750000
676,-97.656250
677,-101.562500
678,-105.468750
679,-105.468750
680,-109.375000
681,-109.375000
682,-113.281250
683,-117.187500
684,-117.187500
685,-121.093750
686,-125.000000
687,-125.000000
688,-128.906250
689,-132.812500
690,-132.812500
691,-136.718750
692,-136.718750
693,-140.625000
694,-144.531250
695,-144.531250
696,-148.437500
697,-148.437500
698,-152.343750
699,-152.343750
700,-156.250000
701,-160.156250
702,-160.156250
703,-164.062500
704,-164.062500
705,-167.968750
706,-167.968750
707,-171.875000
708,-171.875000
709,-175.781250
710,-175.781250
711,-175.781250
712,-179.687500
713,-179.687500
714,-183.593750
715,-183.593750
716,-183.593750
717,-187.500000
718,-191.406250
719,-191.406250
720,-191.406250
721,-191.406250
722,-195.312500
723,-195.312500
724,-195.312500
725,-199.218750
726,-199.218750
727,-199.218750
728,-203.125000
729,-199.218750
730,-203.125000
731,-203.125000
732,-207.031250
733,-207.031250
734,-207.031250
735,-207.031250
736,-207.031250
737,-207.031250
738,-210.937500
739,-210.937500
740,-210.937500
741,-210.937500
742,-210.937500
743,-210.937500
744,-210.937500
745,-210.937500
746,-210.937500
747,-210.937500
748,-210.937500
749,-210.937500
750,-210.937500
751,-210.937500
752,-210.937500
753,-210.937500
754,-210.937500
755,-210.937500
756,-210.937500
757,-210.937500
758,-210.937500
759,-210.937500
760,-207.031250
761,-207.031250
762,-207.031250
763,-207.031250
764,-207.031250
765,-203.125000
766,-203.125000
767,-203.125000
768,-203.125000
769,-203.125000
770,-203.125000
771,-199.218750
772,-199.218750
773,-199.218750
774,-195.312500
775,-195.312500
776,-191.406250
777,-191.406250
778,-191.406250
779,-191.406250
780,-187.500000
781,-187.500000
782,-187.500000
783,-183.593750
784,-183.593750
785,-179.687500
786,-179.687500
787,-175.781250
788,-175.781250
789,-175.781250
790,-171.875000
791,-171.875000
792,-167.968750
793,-167.968750
794,-164.062500
795,-164.062500
796,-160.156250
797,-160.156250
798,-156.250000
799,-152.343750
800,-152.343750
801,-148.437500
802,-148.437500
803,-144.531250
804,-144.531250
805,-140.625000
806,-136.718750
807,-136.718750
808,-132.812500
809,-128.906250
810,-128.906250
811,-125.000000
812,-121.093750
813,-121.093750
814,-117.187500
815,-117.187500
816,-113.281250
817,-109.375000
818,-105.468750
819,-105.468750
820,-101.562500
821,-97.656250
822,-97.656250
823,-93.750000
824,-89.843750
825,-89.843750
826,-85.937500
827,-82.031250
828,-82.031250
829,-78.125000
830,-74.218750
831,-70.312500
832,-70.312500
833,-66.406250
834,-62.500000
835,-58.593750
836,-54.687500
837,-54.687500
838,-50.781250
839,-46.875000
840,-46.875000
841,-42.968750
842,-39.062500
843,-39.062500
844,-35.156250
845,-31.250000
846,-27.343750
847,-27.343750
848,-23.437500
849,-19.531250
850,-15.625000
851,-11.718750
852,-11.718750
853,-7.812500
854,-3.906250
855,-3.906250
856,0.000000
857,3.906250
858,3.906250
859,7.812500
860,11.718750
861,11.718750
862,15.625000
863,19.531250
864,19.531250
865,23.437500
866,27.343750
867,31.250000
868,31.250000
869,35.156250
870,35.156250
871,39.062500
872,42.968750
873,46.875000
874,46.875000
875,50.781250
876,50.781250
877,54.687500
878,58.593750
879,58.593750
880,58.593750
881,62.500000
882,66.406250
883,66.406250
884,70.312500
885,74.218750
886,74.218750
887,78.125000
888,78.125000
889,82.031250
890,82.031250
891,85.937500
892,85.937500
893,89.843750
894,89.843750
895,93.750000
896,97.656250
897,97.656250
898,97.656250
899,101.562500
900,101.562500
901,101.562500
902,105.468750
903,105.468750
904,109.375000
905,109.375000
906,109.375000
907,109.375000
908,113.281250
909,117.187500
910,117.187500
911,117.187500
912,121.093750
913,121.093750
914,121.093750
915,125.000000
916,125.000000
917,128.906250
918,128.906250
919,128.906250
920,128.906250
921,128.906250
922,132.812500
923,132.812500
924,132.812500
925,136.718750
926,136.718750
927,136.718750
928,136.718750
929,140.625000
930,140.625000
931,140.625000
932,140.625000
933,140.625000
934,144.531250
935,144.531250
936,144.531250
937,144.531250
938,144.531250
939,144.531250
940,148.437500
941,144.531250
942,148.437500
943,148.437500
944,148.437500
945,148.437500
946,148.437500
947,148.437500
948,148.437500
949,148.437500
950,148.437500
951,148.437500
952,152.343750
953,152.343750
954,148.437500
955,148.437500
956,148.437500
957,152.343750
958,152.343750
959,148.437500
960,148.437500
961,148.437500
962,152.343750
963,148.437500
964,148.437500
965,148.437500
966,148.437500
967,148.437500
968,148.437500
969,148.437500
970,148.437500
971,148.437500
972,148.437500
973,148.437500
974,144.531250
975,144.531250
976,144.531250
977,144.531250
978,144.531250
979,144.531250
980,144.531250
981,140.625000
982,140.625000
983,140.625000
984,140.625000
985,140.625000
986,136.718750
987,136.718750
988,136.718750
989,136.718750
990,136.718750
991,132.812500
992,132.812500
993,132.812500
994,132.812500
995,128.906250
996,128.906250
997,125.000000
998,125.000000
999,125.000000
1000,121.093750
1001,121.093750
1002,121.093750
1003,121.093750
1004,117.187500
1005,117.187500
1006,117.187500
1007,113.281250
1008,113.281250
1009,109.375000
1010,109.375000
1011,109.375000
1012,105.468750
1013,105.468750
1014,101.562500
1015,101.562500
1016,97.656250
1017,97.656250
1018,93.750000
1019,93.750000
1020,93.750000
1021,89.843750
1022,89.843750
1023,85.937500
1024,85.937500
1025,82.031250
1026,82.031250
1027,78.125000
1028,74.218750
1029,74.218750
1030,70.312500
1031,66.406250
1032,66.406250
1033,62.500000
1034,62.500000
1035,58.593750
1036,58.593750
1037,54.687500
1038,50.781250
1039,50.781250
1040,46.875000
1041,46.875000
1042,42.968750
1043,39.062500
1044,39.062500
1045,35.156250
1046,31.250000
1047,31.250000
1048,27.343750
1049,23.437500
1050,23.437500
1051,19.531250
1052,15.625000
1053,15.625000
1054,11.718750
1055,7.812500
1056,3.906250
1057,3.906250
1058,0.000000
1059,-3.906250
1060,-3.906250
1061,-7.812500
1062,-11.718750
1063,-11.718750
1064,-15.625000
1065,-19.531250
1066,-23.437500
1067,-23.437500
1068,-27.343750
1069,-31.250000
1070,-35.156250
1071,-35.156250
1072,-39.062500
1073,-42.968750
1074,-42.968750
1075,-46.875000
1076,-50.781250
1077,-54.687500
1078,-54.687500
1079,-58.593750
1080,-66.406250
1081,-66.406250
1082,-66.406250
1083,-70.312500
1084,-74.218750
1085,-78.125000
1086,-78.125000
1087,-82.031250
1088,-85.937500
1089,-85.937500
1090,-89.843750
1091,-93.750000
1092,-97.656250
1093,-97.656250
1094,-101.562500
1095,-105.468750
1096,-105.468750
1097,-109.375000
1098,-113.281250
1099,-117.187500
1100,-117.187500
1101,-121.093750
1102,-121.093750
1103,-125.000000
1104,-128.906250
1105,-128.906250
1106,-132.812500
1107,-136.718750
1108,-136.718750
1109,-140.625000
1110,-140.625000
1111,-144.531250
1112,-148.437500
1113,-148.437500
1114,-152.343750
1115,-152.343750
1116,-156.250000
1117,-160.156250
1118,-160.156250
1119,-160.156250
1120,-164.062500
1121,-167.968750
1122,-167.968750
1123,-171.875000
1124,-171.875000
1125,-175.781250
1126,-175.781250
1127,-175.781250
1128,-179.687500
1129,-179.687500
1130,-183.593750
1131,-183.593750
1132,-187.500000
1133,-187.500000
1134,-187.500000
1135,-191.406250
1136,-191.406250
1137,-191.406250
1138,-195.312500
1139,-195.312500
1140,-195.312500
1141,-199.218750
1142,-199.218750
1143,-199.218750
1144,-203.125000
1145,-203.125000
1146,-203.125000
1147,-203.125000
1148,-207.031250
1149,-203.125000
1150,-207.031250
1151,-207.031250
1152,-207.031250
1153,-207.031250
1154,-210.937500
1155,-210.937500
1156,-210.937500
1157,-210.937500
1158,-210.937500
1159,-210.937500
1160,-210.937500
1161,-210.937500
1162,-210.937500
1163,-210.937500
1164,-210.937500
1165,-210.937500
1166,-214.843750
1167,-210.937500
1168,-210.937500
1169,-210.937500
1170,-210.937500
1171,-210.937500
1172,-210.937500
1173,-210.937500
1174,-210.937500
1175,-210.937500
1176,-210.937500
1177,-207.031250
1178,-207.031250
1179,-207.031250
1180,-207.031250
1181,-207.031250
1182,-207.031250
1183,-203.125000
1184,-203.125000
1185,-203.125000
1186,-203.125000
1187,-199.218750
1188,-199.218750
1189,-199.218750
1190,-199.218750
1191,-199.218750
1192,-195.312500
1193,-195.312500
1194,-195.312500
1195,-191.406250
1196,-191.406250
1197,-187.500000
1198,-187.500000
1199,-183.593750
1200,-183.593750
1201,-183.593750
1202,-179.687500
1203,-179.687500
1204,-175.781250
1205,-175.781250
1206,-175.781250
1207,-171.875000
1208,-167.968750
1209,-167.968750
1210,-164.062500
1211,-164.062500
1212,-160.156250
1213,-160.156250
1214,-156.250000
1215,-156.250000
1216,-152.343750
1217,-148.437500
1218,-148.437500
1219,-144.531250
1220,-144.531250
1221,-140.625000
1222,-140.625000
1223,-136.718750
1224,-132.812500
1225,-132.812500
1226,-128.906250
1227,-125.000000
1228,-125.000000
1229,-121.093750
1230,-117.187500
1231,-117.187500
1232,-113.281250
1233,-109.375000
1234,-109.375000
1235,-105.468750
1236,-105.468750
1237,-101.562500
1238,-97.656250
1239,-93.750000
1240,-93.750000
1241,-89.843750
1242,-85.937500
1243,-82.031250
1244,-82.031250
1245,-78.125000
1246,-74.218750
1247,-74.218750
1248,-70.312500
1249,-66.406250
1250,-62.500000
1251,-62.500000
1252,-58.593750
1253,-54.687500
1254,-50.781250
1255,-50.781250
1256,-46.875000
1257,-42.968750
1258,-39.062500
1259,-39.062500
1260,-39.062500
1261,-31.250000
1262,-31.250000
1263,-27.343750
1264,-23.437500
1265,-23.437500
1266,-19.531250
1267,-15.625000
1268,-11.718750
1269,-11.718750
1270,-7.812500
1271,-3.906250
1272,0.000000
1273,0.000000
1274,3.906250
1275,7.812500
1276,7.812500
1277,11.718750
1278,15.625000
1279,15.625000
1280,19.531250
1281,23.437500
1282,23.437500
1283,27.343750
1284,31.250000
1285,31.250000
1286,35.156250
1287,39.062500
1288,39.062500
1289,42.968750
1290,46.875000
1291,46.875000
1292,50.781250
1293,54.687500
1294,54.687500
1295,58.593750
1296,58.593750
1297,62.500000
1298,62.500000
1299,66.406250
1300,66.406250
1301,70.312500
1302,74.218750
1303,74.218750
1304,78.125000
1305,78.125000
1306,82.031250
1307,82.031250
1308,89.843750
1309,85.937500
1310,89.843750
1311,89.843750
1312,93.750000
1313,93.750000
1314,97.656250
1315,97.656250
1316,97.656250
1317,101.562500
1318,105.468750
1319,105.468750
1320,105.468750
1321,109.375000
1322,109.375000
1323,113.281250
1324,113.281250
1325,113.281250
1326,117.187500
1327,117.187500
1328,117.187500
1329,121.093750
1330,121.093750
1331,121.093750
1332,125.000000
1333,125.000000
1334,125.000000
1335,128.906250
1336,128.906250
1337,128.906250
1338,128.906250
1339,132.812500
1340,132.812500
1341,132.812500
1342,136.718750
1343,136.718750
1344,136.718750
1345,136.718750
1346,140.625000
1347,140.625000
1348,140.625000
1349,140.625000
1350,140.625000
1351,144.531250
1352,144.531250
1353,144.531250
1354,144.531250
1355,144.531250
1356,144.531250
1357,144.531250
1358,148.437500
1359,148.437500
1360,148.437500
1361,148.437500
1362,148.437500
1363,148.437500
1364,148.437500
1365,148.437500
1366,148.437500
1367,148.437500
1368,148.437500
1369,148.437500
1370,152.343750
1371,148.437500
1372,148.437500
1373,148.437500
1374,148.437500
1375,148.437500
1376,148.437500
1377,148.437500
1378,148.437500
1379,148.437500
1380,148.437500
1381,148.437500
1382,148.437500
1383,148.437500
1384,148.437500
1385,148.437500
1386,148.437500
1387,148.437500
1388,148.437500
1389,144.531250
1390,144.531250
1391,144.531250
1392,144.531250
1393,144.531250
1394,144.531250
1395,144.531250
1396,144.531250
1397,144.531250
1398,140.625000
1399,140.625000
1400,140.625000
1401,136.718750
1402,140.625000
1403,136.718750
1404,136.718750
1405,136.718750
1406,136.718750
1407,132.812500
1408,132.812500
1409,132.812500
1410,132.812500
1411,128.906250
1412,128.906250
1413,128.906250
1414,128.906250
1415,125.000000
1416,125.000000
1417,121.093750
1418,121.093750
1419,121.093750
1420,121.093750
1421,117.187500
1422,117.187500
1423,113.281250
1424,113.281250
1425,113.281250
1426,109.375000
1427,109.375000
1428,105.468750
1429,105.468750
1430,101.562500
1431,101.562500
1432,101.562500
1433,97.656250
1434,97.656250
1435,93.750000
1436,93.750000
1437,89.843750
1438,89.843750
1439,85.937500
1440,85.937500
1441,82.031250
1442,82.031250
1443,78.125000
1444,78.125000
1445,74.218750
1446,70.312500
1447,70.312500
1448,66.406250
1449,66.406250
1450,62.500000
1451,62.500000
1452,58.593750
1453,54.687500
1454,54.687500
1455,50.781250
1456,50.781250
1457,46.875000
1458,42.968750
1459,42.968750
1460,39.062500
1461,35.156250
1462,35.156250
1463,31.250000
1464,31.250000
1465,27.343750
1466,23.437500
1467,23.437500
1468,19.531250
1469,15.625000
1470,11.718750
1471,11.718750
1472,7.812500
1473,3.906250
1474,3.906250
1475,0.000000
1476,-3.906250
1477,-7.812500
1478,-7.812500
1479,-11.718750
1480,-15.625000
1481,-19.531250
1482,-19.531250
1483,-23.437500
1484,-27.343750
1485,-27.343750
1486,-31.250000
1487,-35.156250
1488,-35.156250
1489,-42.968750
1490,-42.968750
1491,-46.875000
1492,-50.781250
1493,-50.781250
1494,-54.687500
1495,-58.593750
1496,-62.500000
1497,-62.500000
1498,-66.406250
1499,-70.312500
1500,-70.312500
1501,-74.218750
1502,-78.125000
1503,-82.031250
1504,-82.031250
1505,-85.937500
1506,-89.843750
1507,-89.843750
1508,-93.750000
1509,-97.656250
1510,-101.562500
1511,-101.562500
1512,-105.468750
1513,-109.375000
1514,-109.375000
1515,-113.281250
1516,-117.187500
1517,-121.093750
1518,-121.093750
1519,-125.000000
1520,-125.000000
1521,-128.906250
1522,-132.812500
1523,-132.812500
1524,-136.718750
1525,-140.625000
1526,-140.625000
1527,-144.531250
1528,-144.531250
1529,-148.437500
1530,-148.437500
1531,-152.343750
1532,-156.250000
1533,-156.250000
1534,-156.250000
1535,-160.156250
1536,-164.062500
1537,-164.062500
1538,-167.968750
1539,-167.968750
1540,-171.875000
1541,-171.875000
1542,-175.781250
1543,-175.781250
1544,-175.781250
1545,-179.687500
1546,-179.687500
1547,-183.593750
1548,-183.593750
1549,-187.500000
1550,-187.500000
1551,-187.500000
1552,-191.406250
1553,-191.406250
1554,-191.406250
1555,-195.312500
1556,-195.312500
1557,-195.312500
1558,-199.218750
1559,-199.218750
1560,-199.218750
1561,-203.125000
1562,-203.125000
1563,-203.125000
1564,-203.125000
1565,-203.125000
1566,-207.031250
1567,-207.031250
1568,-207.031250
1569,-207.031250
1570,-207.031250
1571,-210.937500
1572,-210.937500
1573,-210.937500
1574,-210.937500
1575,-210.937500
1576,-210.937500
1577,-210.937500
1578,-210.937500
1579,-210.937500
1580,-210.937500
1581,-210.937500
1582,-210.937500
1583,-210.937500
1584,-210.937500
1585,-210.937500
1586,-210.937500
1587,-210.937500
1588,-210.937500
1589,-210.937500
1590,-210.937500
1591,-210.937500
1592,-207.031250
1593,-207.031250
1594,-207.031250
1595,-207.031250
1596,-207.031250
1597,-207.031250
1598,-203.125000
1599,-203.125000
1600,-203.125000
1601,-203.125000
1602,-203.125000
1603,-199.218750
1604,-199.218750
1605,-199.218750
1606,-199.218750
1607,-195.312500
1608,-195.312500
1609,-195.312500
1610,-195.312500
1611,-191.406250
1612,-191.406250
1613,-187.500000
1614,-187.500000
1615,-183.593750
1616,-183.593750
1617,-183.593750
1618,-179.687500
1619,-179.687500
1620,-175.781250
1621,-175.781250
1622,-175.781250
1623,-171.875000
1624,-167.968750
1625,-167.968750
1626,-167.968750
1627,-164.062500
1628,-160.156250
1629,-160.156250
1630,-160.156250
1631,-156.250000
1632,-152.343750
1633,-152.343750
1634,-148.437500
1635,-148.437500
1636,-144.531250
1637,-144.531250
1638,-140.625000
1639,-136.718750
1640,-136.718750
1641,-132.812500
1642,-132.812500
1643,-128.906250
1644,-125.000000
1645,-125.000000
1646,-121.093750
1647,-117.187500
1648,-117.187500
1649,-113.281250
1650,-109.375000
1651,-109.375000
1652,-105.468750
1653,-101.562500
1654,-101.562500
1655,-97.656250
1656,-93.750000
1657,-89.843750
1658,-89.843750
1659,-85.937500
1660,-82.031250
1661,-82.031250
1662,-78.125000
1663,-74.218750
1664,-70.312500
1665,-70.312500
1666,-66.406250
1667,-62.500000
1668,-58.593750
1669,-58.593750
1670,-54.687500
1671,-50.781250
1672,-50.781250
1673,-46.875000
1674,-42.968750
1675,-39.062500
1676,-39.062500
1677,-35.156250
1678,-31.250000
1679,-31.250000
1680,-27.343750
1681,-23.437500
1682,-19.531250
1683,-19.531250
1684,-15.625000
1685,-11.718750
1686,-7.812500
1687,-7.812500
1688,-3.906250
1689,0.000000
1690,0.000000
1691,3.906250
1692,7.812500
1693,7.812500
1694,11.718750
1695,15.625000
1696,23.437500
1697,19.531250
1698,23.437500
1699,27.343750
1700,27.343750
1701,31.250000
1702,31.250000
1703,35.156250
1704,39.062500
1705,39.062500
1706,42.968750
1707,46.875000
1708,46.875000
1709,50.781250
1710,54.687500
1711,54.687500
1712,54.687500
1713,58.593750
1714,62.500000
1715,66.406250
1716,66.406250
1717,70.312500
1718,70.312500
1719,74.218750
1720,78.125000
1721,78.125000
1722,78.125000
1723,82.031250
1724,85.937500
1725,85.937500
1726,85.937500
1727,89.843750
1728,89.843750
1729,93.750000
1730,93.750000
1731,97.656250
1732,97.656250
1733,101.562500
1734,101.562500
1735,105.468750
1736,105.468750
1737,109.375000
1738,109.375000
1739,109.375000
1740,113.281250
1741,117.187500
1742,113.281250
1743,117.187500
1744,117.187500
1745,121.093750
1746,121.093750
1747,121.093750
1748,121.093750
1749,125.000000
1750,125.000000
1751,125.000000
1752,128.906250
1753,128.906250
1754,128.906250
1755,132.812500
1756,132.812500
1757,132.812500
1758,132.812500
1759,136.718750
1760,136.718750
1761,136.718750
1762,136.718750
1763,140.625000
1764,140.625000
1765,140.625000
1766,140.625000
1767,140.625000
1768,144.531250
1769,144.531250
1770,144.531250
1771,144.531250
1772,144.531250
1773,144.531250
1774,144.531250
1775,148.437500
1776,148.437500
1777,148.437500
1778,148.437500
1779,148.437500
1780,148.437500
1781,148.437500
1782,148.437500
1783,148.437500
1784,148.437500
1785,148.437500
1786,148.437500
1787,152.343750
1788,152.343750
1789,152.343750
1790,152.343750
1791,152.343750
1792,148.437500
1793,152.343750
1794,148.437500
1795,152.343750
1796,148.437500
1797,148.437500
1798,148.437500
1799,148.437500
1800,148.437500
1801,148.437500
1802,148.437500
1803,148.437500
1804,148.437500
1805,144.531250
1806,148.437500
1807,148.437500
1808,144.531250
1809,144.531250
1810,144.531250
1811,144.531250
1812,144.531250
1813,140.625000
1814,144.531250
1815,140.625000
1816,140.625000
1817,140.625000
1818,140.625000
1819,136.718750
1820,136.718750
1821,136.718750
1822,136.718750
1823,136.718750
1824,132.812500
1825,132.812500
1826,132.812500
1827,132.812500
1828,128.906250
1829,128.906250
1830,125.000000
1831,125.000000
1832,125.000000
1833,125.000000
1834,121.093750
1835,121.093750
1836,121.093750
1837,117.187500
1838,117.187500
1839,117.187500
1840,113.281250
1841,113.281250
1842,113.281250
1843,109.375000
1844,109.375000
1845,105.468750
1846,105.468750
1847,101.562500
1848,101.562500
1849,101.562500
1850,97.656250
1851,97.656250
1852,93.750000
1853,93.750000
1854,89.843750
1855,89.843750
1856,85.937500
1857,85.937500
1858,82.031250
1859,82.031250
1860,78.125000
1861,78.125000
1862,74.218750
1863,70.312500
1864,70.312500
1865,66.406250
1866,66.406250
1867,62.500000
1868,58.593750
1869,58.593750
1870,54.687500
1871,54.687500
1872,50.781250
1873,46.875000
1874,46.875000
1875,42.968750
1876,42.968750
1877,39.062500
1878,35.156250
1879,35.156250
1880,27.343750
1881,27.343750
1882,23.437500
1883,23.437500
1884,19.531250
1885,15.625000
1886,15.625000
1887,11.718750
1888,11.718750
1889,3.906250
1890,3.906250
1891,0.000000
1892,-3.906250
1893,-3.906250
1894,-7.812500
1895,-11.718750
1896,-11.718750
1897,-15.625000
1898,-19.531250
1899,-23.437500
1900,-23.437500
1901,-27.343750
1902,-31.250000
1903,-35.156250
1904,-35.156250
1905,-39.062500
1906,-42.968750
1907,-42.968750
1908,-46.875000
1909,-50.781250
1910,-54.687500
1911,-54.687500
1912,-58.593750
1913,-62.500000
1914,-66.406250
1915,-66.406250
1916,-70.312500
1917,-74.218750
1918,-74.218750
1919,-78.125000
1920,-82.031250
1921,-82.031250
1922,-85.937500
1923,-89.843750
1924,-93.750000
1925,-93.750000
1926,-97.656250
1927,-101.562500
1928,-101.562500
1929,-105.468750
1930,-109.375000
1931,-109.375000
1932,-113.281250
1933,-117.187500
1934,-117.187500
1935,-121.093750
1936,-125.000000
1937,-125.000000
1938,-128.906250
1939,-132.812500
1940,-132.812500
1941,-136.718750
1942,-140.625000
1943,-140.625000
1944,-144.531250
1945,-148.437500
1946,-148.437500
1947,-152.343750
1948,-152.343750
1949,-156.250000
1950,-156.250000
1951,-160.156250
1952,-160.156250
1953,-164.062500
1954,-164.062500
1955,-167.968750
1956,-167.968750
1957,-171.875000
1958,-175.781250
1959,-175.781250
1960,-175.781250
1961,-179.687500
1962,-179.687500
1963,-183.593750
1964,-183.593750
1965,-187.500000
1966,-187.500000
1967,-187.500000
1968,-191.406250
1969,-191.406250
1970,-191.406250
1971,-191.406250
1972,-195.312500
1973,-195.312500
1974,-195.312500
1975,-199.218750
1976,-199.218750
1977,-199.218750
1978,-203.125000
1979,-203.125000
1980,-203.125000
1981,-203.125000
1982,-207.031250
1983,-207.031250
1984,-207.031250
1985,-207.031250
1986,-207.031250
1987,-207.031250
1988,-207.031250
1989,-210.937500
1990,-210.937500
1991,-210.937500
1992,-210.937500
1993,-210.937500
1994,-210.937500
1995,-210.937500
1996,-210.937500
1997,-210.937500
1998,-210.937500
1999,-210.937500
2000,-210.937500
2001,-210.937500
2002,-210.937500
2003,-210.937500
2004,-210.937500
2005,-214.843750
2006,-210.937500
2007,-210.937500
2008,-207.031250
2009,-210.937500
2010,-210.937500
2011,-207.031250
2012,-207.031250
2013,-207.031250
2014,-207.031250
2015,-207.031250
2016,-207.031250
2017,-203.125000
2018,-203.125000
2019,-203.125000
2020,-199.218750
2021,-199.218750
2022,-199.218750
2023,-199.218750
2024,-195.312500
2025,-195.312500
2026,-195.312500
2027,-187.500000
2028,-191.406250
2029,-191.406250
2030,-187.500000
2031,-187.500000
2032,-183.593750
2033,-183.593750
2034,-183.593750
2035,-179.687500
2036,-179.687500
2037,-175.781250
2038,-175.781250
2039,-171.875000
2040,-171.875000
2041,-171.875000
2042,-167.968750
2043,-164.062500
2044,-164.062500
2045,-164.062500
2046,-160.156250
2047,-156.250000
2048,-156.250000
2049,-152.343750
2050,-152.343750
2051,-148.437500
2052,-148.437500
2053,-144.531250
2054,-144.531250
2055,-136.718750
2056,-136.718750
2057,-136.718750
2058,-132.812500
2059,-132.812500
2060,-128.906250
2061,-125.000000
2062,-125.000000
2063,-121.093750
2064,-117.187500
2065,-113.281250
2066,-113.281250
2067,-109.375000
2068,-105.468750
2069,-105.468750
2070,-101.562500
2071,-97.656250
2072,-97.656250
2073,-93.750000
2074,-89.843750
2075,-89.843750
2076,-85.937500
2077,-82.031250
2078,-78.125000
2079,-78.125000
2080,-74.218750
2081,-70.312500
2082,-66.406250
2083,-66.406250
2084,-62.500000
2085,-58.593750
2086,-58.593750
2087,-54.687500
2088,-50.781250
2089,-46.875000
2090,-46.875000
2091,-42.968750
2092,-39.062500
2093,-35.156250
2094,-35.156250
2095,-31.250000
2096,-27.343750
2097,-23.437500
2098,-23.437500
2099,-19.531250
2100,-15.625000
2101,-15.625000
2102,-11.718750
2103,-7.812500
2104,-3.906250
2105,-3.906250
2106,0.000000
2107,3.906250
2108,3.906250
2109,7.812500
2110,11.718750
2111,15.625000
2112,15.625000
2113,19.531250
2114,19.531250
2115,27.343750
2116,27.343750
2117,31.250000
2118,31.250000
2119,35.156250
2120,35.156250
2121,39.062500
2122,42.968750
2123,46.875000
2124,46.875000
2125,50.781250
2126,50.781250
2127,54.687500
2128,54.687500
2129,58.593750
2130,62.500000
2131,66.406250
2132,66.406250
2133,66.406250
2134,70.312500
2135,70.312500
2136,74.218750
2137,78.125000
2138,78.125000
2139,82.031250
2140,82.031250
2141,85.937500
2142,85.937500
2143,89.843750
2144,89.843750
2145,93.750000
2146,93.750000
2147,97.656250
2148,97.656250
2149,101.562500
2150,101.562500
2151,101.562500
2152,105.468750
2153,105.468750
2154,109.375000
2155,109.375000
2156,113.281250
2157,113.281250
2158,113.281250
2159,117.187500
2160,117.187500
2161,117.187500
2162,121.093750
2163,121.093750
2164,121.093750
2165,121.093750
2166,125.000000
2167,125.000000
2168,128.906250
2169,128.906250
2170,128.906250
2171,132.812500
2172,132.812500
2173,132.812500
2174,132.812500
2175,136.718750
2176,136.718750
2177,136.718750
2178,140.625000
2179,136.718750
2180,140.625000
2181,140.625000
2182,140.625000
2183,140.625000
2184,140.625000
2185,144.531250
2186,144.531250
2187,144.531250
2188,144.531250
2189,144.531250
2190,148.437500
2191,144.531250
2192,144.531250
2193,148.437500
2194,148.437500
2195,148.437500
2196,148.437500
2197,148.437500
2198,148.437500
2199,148.437500
2200,148.437500
2201,148.437500
2202,148.437500
2203,152.343750
2204,148.437500
2205,148.437500
2206,148.437500
2207,152.343750
2208,148.437500
2209,148.437500
2210,148.437500
2211,148.437500
2212,148.437500
2213,148.437500
2214,148.437500
2215,148.437500
2216,148.437500
2217,148.437500
2218,148.437500
2219,148.437500
2220,148.437500
2221,148.437500
2222,148.437500
2223,144.531250
2224,144.531250
2225,148.437500
2226,144.531250
2227,144.531250
2228,144.531250
2229,140.625000
2230,140.625000
2231,140.625000
2232,140.625000
2233,144.531250
2234,136.718750
2235,136.718750
2236,136.718750
2237,136.718750
2238,136.718750
2239,132.812500
2240,136.718750
2241,132.812500
2242,132.812500
2243,132.812500
2244,128.906250
2245,128.906250
2246,128.906250
2247,128.906250
2248,125.000000
2249,125.000000
2250,121.093750
2251,121.093750
2252,121.093750
2253,121.093750
2254,117.187500
2255,117.187500
2256,113.281250
2257,113.281250
2258,113.281250
2259,109.375000
2260,109.375000
2261,105.468750
2262,105.468750
2263,105.468750
2264,101.562500
2265,101.562500
2266,97.656250
2267,97.656250
2268,93.750000
2269,93.750000
2270,89.843750
2271,89.843750
2272,85.937500
2273,85.937500
2274,82.031250
2275,82.031250
2276,78.125000
2277,78.125000
2278,74.218750
2279,74.218750
2280,70.312500
2281,66.406250
2282,66.406250
2283,62.500000
2284,62.500000
2285,58.593750
2286,54.687500
2287,54.687500
2288,50.781250
2289,50.781250
2290,46.875000
2291,46.875000
2292,42.968750
2293,39.062500
2294,39.062500
2295,35.156250
2296,31.250000
2297,31.250000
2298,27.343750
2299,23.437500
2300,23.437500
2301,19.531250
2302,15.625000
2303,15.625000
2304,11.718750
2305,7.812500
2306,7.812500
2307,3.906250
2308,0.000000
2309,-3.906250
2310,-3.906250
2311,-7.812500
2312,-11.718750
2313,-15.625000
2314,-15.625000
2315,-19.531250
2316,-19.531250
2317,-23.437500
2318,-27.343750
2319,-31.250000
2320,-31.250000
2321,-35.156250
2322,-39.062500
2323,-42.968750
2324,-46.875000
2325,-46.875000
2326,-50.781250
2327,-54.687500
2328,-54.687500
2329,-58.593750
2330,-66.406250
2331,-66.406250
2332,-66.406250
2333,-70.312500
2334,-74.218750
2335,-78.125000
2336,-78.125000
2337,-82.031250
2338,-85.937500
2339,-85.937500
2340,-89.843750
2341,-93.750000
2342,-93.750000
2343,-97.656250
2344,-101.562500
2345,-105.468750
2346,-105.468750
2347,-109.375000
2348,-113.281250
2349,-117.187500
2350,-117.187500
2351,-121.093750
2352,-125.000000
2353,-125.000000
2354,-128.906250
2355,-128.906250
2356,-132.812500
2357,-136.718750
2358,-136.718750
2359,-140.625000
2360,-140.625000
2361,-144.531250
2362,-148.437500
2363,-148.437500
2364,-152.343750
2365,-152.343750
2366,-156.250000
2367,-156.250000
2368,-160.156250
2369,-160.156250
2370,-164.062500
2371,-164.062500
2372,-167.968750
2373,-167.968750
2374,-171.875000
2375,-171.875000
2376,-175.781250
2377,-175.781250
2378,-179.687500
2379,-179.687500
2380,-183.593750
2381,-183.593750
2382,-183.593750
2383,-187.500000
2384,-187.500000
2385,-191.406250
2386,-191.406250
2387,-191.406250
2388,-195.312500
2389,-195.312500
2390,-195.312500
2391,-199.218750
2392,-199.218750
2393,-199.218750
2394,-199.218750
2395,-203.125000
2396,-203.125000
2397,-203.125000
2398,-207.031250
2399,-207.031250
2400,-207.031250
2401,-207.031250
2402,-207.031250
2403,-207.031250
2404,-207.031250
2405,-207.031250
2406,-210.937500
2407,-210.937500
2408,-210.937500
2409,-210.937500
2410,-210.937500
2411,-210.937500
2412,-210.937500
2413,-210.937500
2414,-210.937500
2415,-210.937500
2416,-210.937500
2417,-210.937500
2418,-210.937500
2419,-210.937500
2420,-210.937500
2421,-210.937500
2422,-210.937500
2423,-210.937500
2424,-210.937500
2425,-210.937500
2426,-210.937500
2427,-207.031250
2428,-207.031250
2429,-207.031250
2430,-207.031250
2431,-207.031250
2432,-203.125000
2433,-203.125000
2434,-203.125000
2435,-203.125000
2436,-203.125000
2437,-199.218750
2438,-199.218750
2439,-199.218750
2440,-195.312500
2441,-195.312500
2442,-195.312500
2443,-191.406250
2444,-191.406250
2445,-191.406250
2446,-187.500000
2447,-187.500000
2448,-183.593750
2449,-183.593750
2450,-183.593750
2451,-179.687500
2452,-179.687500
2453,-175.781250
2454,-175.781250
2455,-175.781250
2456,-171.875000
2457,-171.875000
2458,-167.968750
2459,-167.968750
2460,-164.062500
2461,-164.062500
2462,-160.156250
2463,-160.156250
2464,-156.250000
2465,-156.250000
2466,-152.343750
2467,-152.343750
2468,-148.437500
2469,-148.437500
2470,-148.437500
2471,-140.625000
2472,-136.718750
2473,-136.718750
2474,-132.812500
2475,-132.812500
2476,-128.906250
2477,-125.000000
2478,-125.000000
2479,-121.093750
2480,-117.187500
2481,-117.187500
2482,-113.281250
2483,-113.281250
2484,-109.375000
2485,-105.468750
2486,-105.468750
2487,-101.562500
2488,-97.656250
2489,-93.750000
2490,-93.750000
2491,-89.843750
2492,-85.937500
2493,-85.937500
2494,-82.031250
2495,-78.125000
2496,-74.218750
2497,-74.218750
2498,-70.312500
2499,-66.406250
2500,-66.406250
2501,-62.500000
2502,-58.593750
2503,-58.593750
2504,-50.781250
2505,-50.781250
2506,-46.875000
2507,-42.968750
2508,-42.968750
2509,-39.062500
2510,-35.156250
2511,-31.250000
2512,-31.250000
2513,-27.343750
2514,-27.343750
2515,-19.531250
2516,-19.531250
2517,-15.625000
2518,-11.718750
2519,-11.718750
2520,-7.812500
2521,-3.906250
2522,0.000000
2523,0.000000
2524,3.906250
2525,3.906250
2526,7.812500
2527,11.718750
2528,15.625000
2529,15.625000
2530,19.531250
2531,23.437500
2532,23.437500
2533,27.343750
2534,31.250000
2535,31.250000
2536,35.156250
2537,39.062500
2538,39.062500
2539,42.968750
2540,42.968750
2541,46.875000
2542,50.781250
2543,50.781250
2544,54.687500
2545,58.593750
2546,58.593750
2547,62.500000
2548,62.500000
2549,66.406250
2550,66.406250
2551,70.312500
2552,74.218750
2553,74.218750
2554,78.125000
2555,78.125000
2556,82.031250
2557,82.031250
2558,85.937500
2559,85.937500
2560,89.843750
2561,89.843750
2562,93.750000
2563,93.750000
2564,97.656250
2565,97.656250
2566,101.562500
2567,101.562500
2568,105.468750
2569,105.468750
2570,105.468750
2571,109.375000
2572,109.375000
2573,109.375000
2574,113.281250
2575,113.281250
2576,117.187500
2577,117.187500
2578,117.187500
2579,121.093750
2580,121.093750
2581,121.093750
2582,125.000000
2583,125.000000
2584,125.000000
2585,128.906250
2586,128.906250
2587,128.906250
2588,132.812500
2589,132.812500
2590,132.812500
2591,132.812500
2592,136.718750
2593,136.718750
2594,136.718750
2595,136.718750
2596,136.718750
2597,140.625000
2598,140.625000
2599,140.625000
2600,140.625000
2601,140.625000
2602,144.531250
2603,144.531250
2604,144.531250
2605,144.531250
2606,144.531250
2607,144.531250
2608,148.437500
2609,148.437500
2610,144.531250
2611,148.437500
2612,148.437500
2613,148.437500
2614,148.437500
2615,148.437500
2616,148.437500
2617,148.437500
2618,148.437500
2619,148.437500
2620,148.437500
2621,152.343750
2622,148.437500
2623,152.343750
2624,148.437500
2625,148.437500
2626,148.437500
2627,152.343750
2628,148.437500
2629,148.437500
2630,148.437500
2631,148.437500
2632,148.437500
2633,148.437500
2634,148.437500
2635,148.437500
2636,148.437500
2637,148.437500
2638,148.437500
2639,148.437500
2640,148.437500
2641,144.531250
2642,144.531250
2643,144.531250
2644,144.531250
2645,144.531250
2646,144.531250
2647,144.531250
2648,140.625000
2649,140.625000
2650,140.625000
2651,140.625000
2652,140.625000
2653,140.625000
2654,136.718750
2655,136.718750
2656,136.718750
2657,132.812500
2658,132.812500
2659,132.812500
2660,128.906250
2661,128.906250
2662,128.906250
2663,128.906250
2664,125.000000
2665,125.000000
2666,125.000000
2667,121.093750
2668,121.093750
2669,121.093750
2670,117.187500
2671,117.187500
2672,117.187500
2673,113.281250
2674,113.281250
2675,113.281250
2676,109.375000
2677,109.375000
2678,105.468750
2679,105.468750
2680,101.562500
2681,101.562500
2682,97.656250
2683,97.656250
2684,97.656250
2685,93.750000
2686,93.750000
2687,89.843750
2688,89.843750
2689,85.937500
2690,85.937500
2691,82.031250
2692,82.031250
2693,78.125000
2694,78.125000
2695,74.218750
2696,74.218750
2697,70.312500
2698,66.406250
2699,66.406250
2700,62.500000
2701,62.500000
2702,58.593750
2703,58.593750
2704,54.687500
2705,50.781250
2706,50.781250
2707,46.875000
2708,42.968750
2709,42.968750
2710,39.062500
2711,35.156250
2712,35.156250
2713,31.250000
2714,27.343750
2715,27.343750
2716,23.437500
2717,19.531250
2718,19.531250
2719,15.625000
2720,11.718750
2721,7.812500
2722,7.812500
2723,3.906250
2724,3.906250
2725,0.000000
2726,-3.906250
2727,-7.812500
2728,-11.718750
2729,-11.718750
2730,-15.625000
2731,-15.625000
2732,-19.531250
2733,-23.437500
2734,-27.343750
2735,-31.250000
2736,-31.250000
2737,-35.156250
2738,-39.062500
2739,-39.062500
2740,-42.968750
2741,-46.875000
2742,-50.781250
2743,-54.687500
2744,-54.687500
2745,-58.593750
2746,-62.500000
2747,-62.500000
2748,-66.406250
2749,-70.312500
2750,-74.218750
2751,-74.218750
2752,-78.125000
2753,-82.031250
2754,-82.031250
2755,-85.937500
2756,-89.843750
2757,-89.843750
2758,-93.750000
2759,-97.656250
2760,-101.562500
2761,-101.562500
2762,-105.468750
2763,-109.375000
2764,-109.375000
2765,-113.281250
2766,-117.187500
2767,-117.187500
2768,-121.093750
2769,-125.000000
2770,-125.000000
2771,-128.906250
2772,-128.906250
2773,-132.812500
2774,-136.718750
2775,-136.718750
2776,-140.625000
2777,-144.531250
2778,-144.531250
2779,-148.437500
2780,-148.437500
2781,-152.343750
2782,-156.250000
2783,-156.250000
2784,-160.156250
2785,-160.156250
2786,-164.062500
2787,-164.062500
2788,-167.968750
2789,-167.968750
2790,-171.875000
2791,-171.875000
2792,-175.781250
2793,-175.781250
2794,-179.687500
2795,-179.687500
2796,-179.687500
2797,-183.593750
2798,-183.593750
2799,-187.500000
2800,-187.500000
2801,-187.500000
2802,-191.406250
2803,-191.406250
2804,-191.406250
2805,-195.312500
2806,-195.312500
2807,-199.218750
2808,-199.218750
2809,-199.218750
2810,-199.218750
2811,-203.125000
2812,-203.125000
2813,-203.125000
2814,-203.125000
2815,-203.125000
2816,-207.031250
2817,-207.031250
2818,-207.031250
2819,-207.031250
2820,-207.031250
2821,-210.937500
2822,-210.937500
2823,-210.937500
2824,-210.937500
2825,-210.937500
2826,-210.937500
2827,-210.937500
2828,-210.937500
2829,-210.937500
2830,-210.937500
2831,-210.937500
2832,-210.937500
2833,-210.937500
2834,-210.937500
2835,-210.937500
2836,-210.937500
2837,-210.937500
2838,-210.937500
2839,-210.937500
2840,-210.937500
2841,-210.937500
2842,-210.937500
2843,-207.031250
2844,-207.031250
2845,-207.031250
2846,-207.031250
2847,-207.031250
2848,-207.031250
2849,-207.031250
2850,-203.125000
2851,-203.125000
2852,-203.125000
2853,-203.125000
2854,-199.218750
2855,-199.218750
2856,-199.218750
2857,-195.312500
2858,-195.312500
2859,-195.312500
2860,-191.406250
2861,-191.406250
2862,-191.406250
2863,-187.500000
2864,-187.500000
2865,-187.500000
2866,-187.500000
2867,-183.593750
2868,-179.687500
2869,-179.687500
2870,-179.687500
2871,-175.781250
2872,-175.781250
2873,-171.875000
2874,-171.875000
2875,-167.968750
2876,-167.968750
2877,-164.062500
2878,-164.062500
2879,-160.156250
2880,-156.250000
2881,-156.250000
2882,-152.343750
2883,-152.343750
2884,-148.437500
2885,-148.437500
2886,-144.531250
2887,-144.531250
2888,-140.625000
2889,-136.718750
2890,-136.718750
2891,-132.812500
2892,-132.812500
2893,-128.906250
2894,-125.000000
2895,-125.000000
2896,-121.093750
2897,-117.187500
2898,-117.187500
2899,-113.281250
2900,-109.375000
2901,-109.375000
2902,-105.468750
2903,-101.562500
2904,-97.656250
2905,-97.656250
2906,-93.750000
2907,-89.843750
2908,-89.843750
2909,-85.937500
2910,-82.031250
2911,-82.031250
2912,-78.125000
2913,-74.218750
2914,-74.218750
2915,-70.312500
2916,-66.406250
2917,-62.500000
2918,-62.500000
2919,-58.593750
2920,-54.687500
2921,-50.781250
2922,-46.875000
2923,-46.875000
2924,-42.968750
2925,-42.968750
2926,-39.062500
2927,-35.156250
2928,-31.250000
2929,-27.343750
2930,-27.343750
2931,-23.437500
2932,-19.531250
2933,-19.531250
2934,-15.625000
2935,-11.718750
2936,-7.812500
2937,-7.812500
2938,-3.906250
2939,0.000000
2940,0.000000
2941,3.906250
2942,7.812500
2943,11.718750
2944,11.718750
2945,15.625000
2946,19.531250
2947,19.531250
2948,23.437500
2949,27.343750
2950,31.250000
2951,31.250000
2952,35.156250
2953,35.156250
2954,39.062500
2955,42.968750
2956,42.968750
2957,46.875000
2958,50.781250
2959,50.781250
2960,54.687500
2961,54.687500
2962,58.593750
2963,62.500000
2964,62.500000
2965,66.406250
2966,66.406250
2967,70.312500
2968,70.312500
2969,74.218750
2970,74.218750
2971,78.125000
2972,82.031250
2973,82.031250
2974,85.937500
2975,85.937500
2976,89.843750
2977,89.843750
2978,93.750000
2979,93.750000
2980,93.750000
2981,97.656250
2982,101.562500
2983,101.562500
2984,101.562500
2985,105.468750
2986,105.468750
2987,105.468750
2988,109.375000
2989,113.281250
2990,113.281250
2991,113.281250
2992,113.281250
2993,117.187500
2994,117.187500
2995,121.093750
2996,121.093750
2997,121.093750
2998,125.000000
2999,125.000000
3000,125.000000
3001,128.906250
3002,128.906250
3003,128.906250
3004,128.906250
3005,132.812500
3006,132.812500
3007,132.812500
3008,136.718750
3009,136.718750
3010,136.718750
3011,136.718750
3012,136.718750
3013,140.625000
3014,140.625000
3015,136.718750
3016,140.625000
3017,144.531250
3018,140.625000
3019,144.531250
3020,144.531250
3021,144.531250
3022,144.531250
3023,144.531250
3024,144.531250
3025,148.437500
3026,148.437500
3027,148.437500
3028,148.437500
3029,148.437500
3030,148.437500
3031,148.437500
3032,148.437500
3033,148.437500
3034,148.437500
3035,148.437500
3036,152.343750
3037,148.437500
3038,148.437500
3039,152.343750
3040,148.437500
3041,148.437500
3042,148.437500
3043,148.437500
3044,148.437500
3045,152.343750
3046,148.437500
3047,148.437500
3048,144.531250
3049,148.437500
3050,148.437500
3051,148.437500
3052,152.343750
3053,148.437500
3054,148.437500
3055,148.437500
3056,148.437500
3057,144.531250
3058,144.531250
3059,144.531250
3060,144.531250
3061,144.531250
3062,144.531250
3063,144.531250
3064,140.625000
3065,140.625000
3066,140.625000
3067,140.625000
3068,140.625000
3069,136.718750
3070,136.718750
3071,136.718750
3072,136.718750
3073,132.812500
3074,132.812500
3075,132.812500
3076,132.812500
3077,132.812500
3078,128.906250
3079,128.906250
3080,128.906250
3081,125.000000
3082,125.000000
3083,125.000000
3084,121.093750
3085,121.093750
3086,117.187500
3087,117.187500
3088,117.187500
3089,113.281250
3090,113.281250
3091,113.281250
3092,109.375000
3093,109.375000
3094,109.375000
3095,105.468750
3096,105.468750
3097,101.562500
3098,101.562500
3099,97.656250
3100,97.656250
3101,93.750000
3102,93.750000
3103,89.843750
3104,89.843750
3105,85.937500
3106,85.937500
3107,85.937500
3108,82.031250
3109,78.125000
3110,78.125000
3111,74.218750
3112,74.218750
3113,70.312500
3114,70.312500
3115,66.406250
3116,66.406250
3117,62.500000
3118,58.593750
3119,58.593750
3120,54.687500
3121,54.687500
3122,50.781250
3123,46.875000
3124,42.968750
3125,42.968750
3126,39.062500
3127,39.062500
3128,35.156250
3129,35.156250
3130,31.250000
3131,31.250000
3132,23.437500
3133,23.437500
3134,19.531250
3135,19.531250
3136,15.625000
3137,11.718750
3138,7.812500
3139,7.812500
3140,3.906250
3141,0.000000
3142,0.000000
3143,-3.906250
3144,-7.812500
3145,-11.718750
3146,-11.718750
3147,-15.625000
3148,-19.531250
3149,-23.437500
3150,-23.437500
3151,-27.343750
3152,-31.250000
3153,-31.250000
3154,-35.156250
3155,-39.062500
3156,-42.968750
3157,-42.968750
3158,-46.875000
3159,-50.781250
3160,-50.781250
3161,-54.687500
3162,-58.593750
3163,-62.500000
3164,-62.500000
3165,-66.406250
3166,-70.312500
3167,-74.218750
3168,-74.218750
3169,-78.125000
3170,-82.031250
3171,-85.937500
3172,-85.937500
3173,-89.843750
3174,-93.750000
3175,-93.750000
3176,-97.656250
3177,-101.562500
3178,-101.562500
3179,-105.468750
3180,-109.375000
3181,-113.281250
3182,-113.281250
3183,-117.187500
3184,-117.187500
3185,-121.093750
3186,-125.000000
3187,-125.000000
3188,-128.906250
3189,-132.812500
3190,-132.812500
3191,-136.718750
3192,-136.718750
3193,-140.625000
3194,-144.531250
3195,-144.531250
3196,-148.437500
3197,-148.437500
3198,-152.343750
3199,-152.343750
3200,-156.250000
3201,-160.156250
3202,-160.156250
3203,-164.062500
3204,-160.156250
3205,-167.968750
3206,-167.968750
3207,-171.875000
3208,-171.875000
3209,-175.781250
3210,-175.781250
3211,-175.781250
3212,-179.687500
3213,-183.593750
3214,-183.593750
3215,-183.593750
3216,-187.500000
3217,-187.500000
3218,-187.500000
3219,-191.406250
3220,-191.406250
3221,-191.406250
3222,-195.312500
3223,-195.312500
3224,-199.218750
3225,-199.218750
3226,-199.218750
3227,-199.218750
3228,-203.125000
3229,-203.125000
3230,-203.125000
3231,-203.125000
3232,-207.031250
3233,-207.031250
3234,-207.031250
3235,-207.031250
3236,-207.031250
3237,-210.937500
3238,-210.937500
3239,-207.031250
3240,-210.937500
3241,-210.937500
3242,-210.937500
3243,-210.937500
3244,-210.937500
3245,-210.937500
3246,-210.937500
3247,-210.937500
3248,-210.937500
3249,-210.937500
3250,-210.937500
3251,-210.937500
3252,-210.937500
3253,-210.937500
3254,-210.937500
3255,-210.937500
3256,-210.937500
3257,-210.937500
3258,-210.937500
3259,-210.937500
3260,-210.937500
3261,-210.937500
3262,-207.031250
3263,-207.031250
3264,-207.031250
3265,-207.031250
3266,-203.125000
3267,-203.125000
3268,-203.125000
3269,-203.125000
3270,-199.218750
3271,-199.218750
3272,-199.218750
3273,-195.312500
3274,-195.312500
3275,-195.312500
3276,-195.312500
3277,-195.312500
3278,-191.406250
3279,-191.406250
3280,-187.500000
3281,-187.500000
3282,-187.500000
3283,-183.593750
3284,-183.593750
3285,-179.687500
3286,-179.687500
3287,-175.781250
3288,-175.781250
3289,-175.781250
3290,-171.875000
3291,-171.875000
3292,-167.968750
3293,-164.062500
3294,-164.062500
3295,-164.062500
3296,-160.156250
3297,-156.250000
3298,-156.250000
3299,-152.343750
3300,-152.343750
3301,-148.437500
3302,-148.437500
3303,-144.531250
3304,-140.625000
3305,-140.625000
3306,-136.718750
3307,-136.718750
3308,-132.812500
3309,-128.906250
3310,-128.906250
3311,-125.000000
3312,-121.093750
3313,-121.093750
3314,-117.187500
3315,-117.187500
3316,-113.281250
3317,-109.375000
3318,-105.468750
3319,-105.468750
3320,-101.562500
3321,-97.656250
3322,-97.656250
3323,-93.750000
3324,-89.843750
3325,-85.937500
3326,-85.937500
3327,-82.031250
3328,-78.125000
3329,-74.218750
3330,-74.218750
3331,-70.312500
3332,-66.406250
3333,-66.406250
3334,-62.500000
3335,-58.593750
3336,-54.687500
3337,-54.687500
3338,-50.781250
3339,-46.875000
3340,-46.875000
3341,-42.968750
3342,-39.062500
3343,-35.156250
3344,-35.156250
3345,-31.250000
3346,-27.343750
3347,-23.437500
3348,-23.437500
3349,-19.531250
3350,-15.625000
3351,-11.718750
3352,-11.718750
3353,-7.812500
3354,-3.906250
3355,-3.906250
3356,0.000000
3357,3.906250
3358,3.906250
3359,7.812500
3360,11.718750
3361,11.718750
3362,15.625000
3363,19.531250
3364,23.437500
3365,23.437500
3366,27.343750
3367,31.250000
3368,31.250000
3369,35.156250
3370,35.156250
3371,39.062500
3372,42.968750
3373,46.875000
3374,46.875000
3375,46.875000
3376,50.781250
3377,54.687500
3378,54.687500
3379,58.593750
3380,58.593750
3381,62.500000
3382,66.406250
3383,66.406250
3384,70.312500
3385,74.218750
3386,74.218750
3387,78.125000
3388,78.125000
3389,82.031250
3390,78.125000
3391,85.937500
3392,85.937500
3393,89.843750
3394,89.843750
3395,93.750000
3396,93.750000
3397,93.750000
3398,97.656250
3399,97.656250
3400,101.562500
3401,101.562500
3402,105.468750
3403,105.468750
3404,105.468750
3405,109.375000
3406,113.281250
3407,113.281250
3408,113.281250
3409,117.187500
3410,117.187500
3411,117.187500
3412,121.093750
3413,121.093750
3414,121.093750
3415,125.000000
3416,125.000000
3417,125.000000
3418,128.906250
3419,128.906250
3420,128.906250
3421,132.812500
3422,132.812500
3423,132.812500
3424,132.812500
3425,136.718750
3426,136.718750
3427,136.718750
3428,136.718750
3429,136.718750
3430,140.625000
3431,140.625000
3432,140.625000
3433,140.625000
3434,144.531250
3435,140.625000
3436,144.531250
3437,144.531250
3438,140.625000
3439,144.531250
3440,144.531250
3441,144.531250
3442,144.531250
3443,144.531250
3444,148.437500
3445,148.437500
3446,148.437500
3447,148.437500
3448,148.437500
3449,148.437500
3450,148.437500
3451,148.437500
3452,148.437500
3453,148.437500
3454,148.437500
3455,148.437500
3456,148.437500
3457,148.437500
3458,148.437500
3459,152.343750
3460,148.437500
3461,148.437500
3462,148.437500
3463,148.437500
3464,148.437500
3465,148.437500
3466,148.437500
3467,148.437500
3468,148.437500
3469,148.437500
3470,148.437500
3471,148.437500
3472,148.437500
3473,148.437500
3474,144.531250
3475,144.531250
3476,144.531250
3477,144.531250
3478,144.531250
3479,144.531250
3480,140.625000
3481,140.625000
3482,140.625000
3483,140.625000
3484,140.625000
3485,140.625000
3486,140.625000
3487,136.718750
3488,136.718750
3489,136.718750
3490,132.812500
3491,132.812500
3492,132.812500
3493,132.812500
3494,128.906250
3495,128.906250
3496,128.906250
3497,128.906250
3498,125.000000
3499,125.000000
3500,125.000000
3501,121.093750
3502,121.093750
3503,121.093750
3504,117.187500
3505,117.187500
3506,113.281250
3507,113.281250
3508,113.281250
3509,109.375000
3510,109.375000
3511,109.375000
3512,105.468750
3513,105.468750
3514,101.562500
3515,101.562500
3516,97.656250
3517,97.656250
3518,93.750000
3519,93.750000
3520,93.750000
3521,89.843750
3522,89.843750
3523,85.937500
3524,85.937500
3525,82.031250
3526,78.125000
3527,78.125000
3528,74.218750
3529,74.218750
3530,70.312500
3531,70.312500
3532,66.406250
3533,66.406250
3534,62.500000
3535,58.593750
3536,58.593750
3537,54.687500
3538,54.687500
3539,50.781250
3540,46.875000
3541,46.875000
3542,42.968750
3543,39.062500
3544,39.062500
3545,35.156250
3546,31.250000
3547,31.250000
3548,27.343750
3549,27.343750
3550,23.437500
3551,19.531250
3552,15.625000
3553,15.625000
3554,11.718750
3555,7.812500
3556,7.812500
3557,3.906250
3558,0.000000
3559,0.000000
3560,-3.906250
3561,-7.812500
3562,-11.718750
3563,-15.625000
3564,-15.625000
3565,-19.531250
3566,-23.437500
3567,-23.437500
3568,-27.343750
3569,-31.250000
3570,-35.156250
3571,-35.156250
3572,-39.062500
3573,-42.968750
3574,-46.875000
3575,-50.781250
3576,-50.781250
3577,-54.687500
3578,-54.687500
3579,-62.500000
3580,-62.500000
3581,-66.406250
3582,-66.406250
3583,-70.312500
3584,-74.218750
3585,-74.218750
3586,-78.125000
3587,-82.031250
3588,-85.937500
3589,-89.843750
3590,-89.843750
3591,-93.750000
3592,-97.656250
3593,-97.656250
3594,-101.562500
3595,-105.468750
3596,-105.468750
3597,-109.375000
3598,-113.281250
3599,-117.187500
3600,-117.187500
3601,-121.093750
3602,-121.093750
3603,-125.000000
3604,-128.906250
3605,-128.906250
3606,-132.812500
3607,-136.718750
3608,-136.718750
3609,-140.625000
3610,-144.531250
3611,-144.531250
3612,-148.437500
3613,-148.437500
3614,-152.343750
3615,-152.343750
3616,-156.250000
3617,-156.250000
3618,-160.156250
3619,-160.156250
3620,-164.062500
3621,-164.062500
3622,-167.968750
3623,-171.875000
3624,-171.875000
3625,-171.875000
3626,-175.781250
3627,-179.687500
3628,-179.687500
3629,-179.687500
3630,-183.593750
3631,-183.593750
3632,-187.500000
3633,-187.500000
3634,-187.500000
3635,-191.406250
3636,-191.406250
3637,-191.406250
3638,-195.312500
3639,-195.312500
3640,-195.312500
3641,-195.312500
3642,-199.218750
3643,-199.218750
3644,-199.218750
3645,-203.125000
3646,-203.125000
3647,-207.031250
3648,-203.125000
3649,-207.031250
3650,-207.031250
3651,-207.031250
3652,-207.031250
3653,-207.031250
3654,-210.937500
3655,-207.031250
3656,-210.937500
3657,-210.937500
3658,-210.937500
3659,-210.937500
3660,-210.937500
3661,-210.937500
3662,-210.937500
3663,-210.937500
3664,-210.937500
3665,-210.937500
3666,-214.843750
3667,-210.937500
3668,-210.937500
3669,-210.937500
3670,-210.937500
3671,-210.937500
3672,-210.937500
3673,-210.937500
3674,-210.937500
3675,-210.937500
3676,-210.937500
3677,-207.031250
3678,-207.031250
3679,-207.031250
3680,-207.031250
3681,-207.031250
3682,-207.031250
3683,-203.125000
3684,-203.125000
3685,-203.125000
3686,-199.218750
3687,-199.218750
3688,-199.218750
3689,-199.218750
3690,-195.312500
3691,-195.312500
3692,-195.312500
3693,-195.312500
3694,-191.406250
3695,-191.406250
3696,-191.406250
3697,-187.500000
3698,-187.500000
3699,-183.593750
3700,-183.593750
3701,-179.687500
3702,-179.687500
3703,-179.687500
3704,-175.781250
3705,-175.781250
3706,-171.875000
3707,-171.875000
3708,-171.875000
3709,-167.968750
3710,-164.062500
3711,-164.062500
3712,-160.156250
3713,-160.156250
3714,-156.250000
3715,-156.250000
3716,-152.343750
3717,-152.343750
3718,-148.437500
3719,-144.531250
3720,-144.531250
3721,-140.625000
3722,-136.718750
3723,-136.718750
3724,-132.812500
3725,-132.812500
3726,-128.906250
3727,-125.000000
3728,-125.000000
3729,-121.093750
3730,-117.187500
3731,-117.187500
3732,-113.281250
3733,-109.375000
3734,-109.375000
3735,-105.468750
3736,-105.468750
3737,-101.562500
3738,-97.656250
3739,-93.750000
3740,-93.750000
3741,-89.843750
3742,-85.937500
3743,-82.031250
3744,-82.031250
3745,-78.125000
3746,-74.218750
3747,-74.218750
3748,-70.312500
3749,-66.406250
3750,-62.500000
3751,-62.500000
3752,-58.593750
3753,-54.687500
3754,-54.687500
3755,-50.781250
3756,-46.875000
3757,-42.968750
3758,-42.968750
3759,-39.062500
3760,-35.156250
3761,-31.250000
3762,-31.250000
3763,-27.343750
3764,-23.437500
3765,-23.437500
3766,-19.531250
3767,-15.625000
3768,-11.718750
3769,-11.718750
3770,-7.812500
3771,-3.906250
3772,0.000000
3773,0.000000
3774,3.906250
3775,7.812500
3776,7.812500
3777,11.718750
3778,15.625000
3779,15.625000
3780,19.531250
3781,23.437500
3782,23.437500
3783,27.343750
3784,31.250000
3785,35.156250
3786,35.156250
3787,39.062500
3788,39.062500
3789,42.968750
3790,46.875000
3791,46.875000
3792,50.781250
3793,54.687500
3794,50.781250
3795,58.593750
3796,58.593750
3797,62.500000
3798,62.500000
3799,66.406250
3800,66.406250
3801,70.312500
3802,74.218750
3803,74.218750
3804,78.125000
3805,78.125000
3806,82.031250
3807,82.031250
3808,85.937500
3809,89.843750
3810,89.843750
3811,89.843750
3812,93.750000
3813,93.750000
3814,97.656250
3815,93.750000
3816,101.562500
3817,101.562500
3818,101.562500
3819,105.468750
3820,105.468750
3821,109.375000
3822,109.375000
3823,113.281250
3824,113.281250
3825,113.281250
3826,117.187500
3827,117.187500
3828,117.187500
3829,121.093750
3830,121.093750
3831,121.093750
3832,125.000000
3833,125.000000
3834,125.000000
3835,128.906250
3836,128.906250
3837,128.906250
3838,128.906250
3839,132.812500
3840,132.812500
3841,132.812500
3842,136.718750
3843,136.718750
3844,136.718750
3845,136.718750
3846,136.718750
3847,140.625000
3848,140.625000
3849,140.625000
3850,144.531250
3851,144.531250
3852,140.625000
3853,144.531250
3854,144.531250
3855,144.531250
3856,144.531250
3857,144.531250
3858,148.437500
3859,148.437500
3860,148.437500
3861,148.437500
3862,148.437500
3863,148.437500
3864,148.437500
3865,148.437500
3866,148.437500
3867,152.343750
3868,148.437500
3869,148.437500
3870,152.343750
3871,152.343750
3872,152.343750
3873,152.343750
3874,152.343750
3875,148.437500
3876,148.437500
3877,148.437500
3878,148.437500
3879,148.437500
3880,152.343750
3881,148.437500
3882,148.437500
3883,148.437500
3884,148.437500
3885,148.437500
3886,148.437500
3887,148.437500
3888,148.437500
3889,148.437500
3890,148.437500
3891,144.531250
3892,144.531250
3893,144.531250
3894,144.531250
3895,144.531250
3896,144.531250
3897,144.531250
3898,140.625000
3899,140.625000
3900,140.625000
3901,140.625000
3902,140.625000
3903,136.718750
3904,136.718750
3905,136.718750
3906,136.718750
3907,132.812500
3908,132.812500
3909,132.812500
3910,128.906250
3911,128.906250
3912,128.906250
3913,128.906250
3914,128.906250
3915,125.000000
3916,125.000000
3917,125.000000
3918,121.093750
3919,121.093750
3920,121.093750
3921,117.187500
3922,117.187500
3923,113.281250
3924,113.281250
3925,113.281250
3926,109.375000
3927,109.375000
3928,105.468750
3929,105.468750
3930,101.562500
3931,101.562500
3932,101.562500
3933,97.656250
3934,97.656250
3935,93.750000
3936,93.750000
3937,89.843750
3938,85.937500
3939,85.937500
3940,85.937500
3941,82.031250
3942,82.031250
3943,78.125000
3944,74.218750
3945,74.218750
3946,74.218750
3947,70.312500
3948,66.406250
3949,66.406250
3950,62.500000
3951,62.500000
3952,58.593750
3953,54.687500
3954,54.687500
3955,50.781250
3956,46.875000
3957,46.875000
3958,42.968750
3959,42.968750
3960,39.062500
3961,35.156250
3962,35.156250
3963,31.250000
3964,27.343750
3965,27.343750
3966,23.437500
3967,19.531250
3968,19.531250
3969,15.625000
3970,11.718750
3971,11.718750
3972,7.812500
3973,3.906250
3974,3.906250
3975,0.000000
3976,-3.906250
3977,-7.812500
3978,-7.812500
3979,-11.718750
3980,-15.625000
3981,-19.531250
3982,-19.531250
3983,-23.437500
3984,-27.343750
3985,-27.343750
3986,-31.250000
3987,-35.156250
3988,-39.062500
3989,-39.062500
3990,-42.968750
3991,-46.875000
3992,-46.875000
3993,-50.781250
3994,-54.687500
3995,-58.593750
3996,-58.593750
3997,-62.500000
3998,-70.312500
3999,-70.312500
4000,-70.312500
4001,-74.218750
4002,-78.125000
4003,-82.031250
4004,-82.031250
4005,-85.937500
4006,-89.843750
4007,-89.843750
4008,-93.750000
4009,-97.656250
4010,-97.656250
4011,-101.562500
4012,-105.468750
4013,-105.468750
4014,-109.375000
4015,-113.281250
4016,-117.187500
4017,-121.093750
4018,-121.093750
4019,-125.000000
4020,-125.000000
4021,-128.906250
4022,-132.812500
4023,-132.812500
4024,-136.718750
4025,-140.625000
4026,-140.625000
4027,-144.531250
4028,-144.531250
4029,-148.437500
4030,-148.437500
4031,-152.343750
4032,-152.343750
4033,-156.250000
4034,-156.250000
4035,-160.156250
4036,-160.156250
4037,-164.062500
4038,-167.968750
4039,-167.968750
4040,-171.875000
4041,-171.875000
4042,-171.875000
4043,-175.781250
4044,-175.781250
4045,-179.687500
4046,-179.687500
4047,-183.593750
4048,-183.593750
4049,-187.500000
4050,-187.500000
4051,-187.500000
4052,-191.406250
4053,-191.406250
4054,-195.312500
4055,-195.312500
4056,-195.312500
4057,-199.218750
4058,-199.218750
4059,-199.218750
4060,-199.218750
4061,-199.218750
4062,-203.125000
4063,-203.125000
4064,-203.125000
4065,-203.125000
4066,-207.031250
4067,-207.031250
4068,-207.031250
4069,-207.031250
4070,-207.031250
4071,-207.031250
4072,-210.937500
4073,-210.937500
4074,-210.937500
4075,-210.937500
4076,-210.937500
4077,-210.937500
4078,-214.843750
4079,-210.937500
4080,-210.937500
4081,-210.937500
4082,-210.937500
4083,-210.937500
4084,-210.937500
4085,-210.937500
4086,-210.937500
4087,-210.937500
4088,-210.937500
4089,-210.937500
4090,-210.937500
4091,-210.937500
4092,-210.937500
4093,-207.031250
4094,-210.937500
4095,-207.031250
4096,-207.031250
4097,-207.031250
4098,-207.031250
4099,-207.031250
4100,-203.125000
4101,-203.125000
4102,-203.125000
4103,-199.218750
4104,-199.218750
4105,-199.218750
4106,-199.218750
4107,-195.312500
4108,-195.312500
4109,-195.312500
4110,-191.406250
4111,-191.406250
4112,-191.406250
4113,-187.500000
4114,-187.500000
4115,-187.500000
4116,-183.593750
4117,-179.687500
4118,-179.687500
4119,-179.687500
4120,-179.687500
4121,-175.781250
4122,-175.781250
4123,-171.875000
4124,-171.875000
4125,-167.968750
4126,-167.968750
4127,-164.062500
4128,-164.062500
4129,-160.156250
4130,-160.156250
4131,-156.250000
4132,-152.343750
4133,-152.343750
4134,-148.437500
4135,-148.437500
4136,-144.531250
4137,-144.531250
4138,-140.625000
4139,-140.625000
4140,-136.718750
4141,-132.812500
4142,-132.812500
4143,-128.906250
4144,-125.000000
4145,-125.000000
4146,-121.093750
4147,-117.187500
4148,-117.187500
4149,-113.281250
4150,-109.375000
4151,-109.375000
4152,-105.468750
4153,-101.562500
4154,-101.562500
4155,-97.656250
4156,-93.750000
4157,-89.843750
4158,-89.843750
4159,-85.937500
4160,-82.031250
4161,-82.031250
4162,-78.125000
4163,-74.218750
4164,-70.312500
4165,-70.312500
4166,-66.406250
4167,-62.500000
4168,-62.500000
4169,-58.593750
4170,-54.687500
4171,-50.781250
4172,-50.781250
4173,-46.875000
4174,-42.968750
4175,-39.062500
4176,-39.062500
4177,-35.156250
4178,-31.250000
4179,-31.250000
4180,-27.343750
4181,-23.437500
4182,-19.531250
4183,-19.531250
4184,-15.625000
4185,-11.718750
4186,-7.812500
4187,-7.812500
4188,-3.906250
4189,0.000000
4190,3.906250
4191,3.906250
4192,7.812500
4193,11.718750
4194,11.718750
4195,15.625000
4196,19.531250
4197,19.531250
4198,23.437500
4199,27.343750
4200,27.343750
4201,31.250000
4202,31.250000
4203,35.156250
4204,39.062500
4205,42.968750
4206,42.968750
4207,46.875000
4208,46.875000
4209,50.781250
4210,54.687500
4211,54.687500
4212,58.593750
4213,58.593750
4214,62.500000
4215,66.406250
4216,66.406250
4217,70.312500
4218,70.312500
4219,74.218750
4220,78.125000
4221,78.125000
4222,78.125000
4223,82.031250
4224,82.031250
4225,85.937500
4226,85.937500
4227,89.843750
4228,93.750000
4229,93.750000
4230,93.750000
4231,97.656250
4232,97.656250
4233,101.562500
4234,101.562500
4235,105.468750
4236,105.468750
4237,105.468750
4238,109.375000
4239,109.375000
4240,113.281250
4241,113.281250
4242,113.281250
4243,117.187500
4244,117.187500
4245,117.187500
4246,121.093750
4247,121.093750
4248,125.000000
4249,125.000000
4250,125.000000
4251,125.000000
4252,128.906250
4253,128.906250
4254,132.812500
4255,132.812500
4256,132.812500
4257,132.812500
4258,136.718750
4259,136.718750
4260,132.812500
4261,136.718750
4262,136.718750
4263,140.625000
4264,140.625000
4265,140.625000
4266,140.625000
4267,140.625000
4268,144.531250
4269,144.531250
4270,144.531250
4271,144.531250
4272,144.531250
4273,144.531250
4274,144.531250
4275,148.437500
4276,148.437500
4277,148.437500
4278,148.437500
4279,148.437500
4280,148.437500
4281,148.437500
4282,148.437500
4283,148.437500
4284,148.437500
4285,148.437500
4286,148.437500
4287,148.437500
4288,148.437500
4289,148.437500
4290,148.437500
4291,148.437500
4292,148.437500
4293,148.437500
4294,148.437500
4295,148.437500
4296,148.437500
4297,148.437500
4298,148.437500
4299,148.437500
4300,148.437500
4301,148.437500
4302,148.437500
4303,148.437500
4304,152.343750
4305,148.437500
4306,148.437500
4307,148.437500
4308,144.531250
4309,144.531250
4310,144.531250
4311,144.531250
4312,144.531250
4313,144.531250
4314,140.625000
4315,140.625000
4316,140.625000
4317,140.625000
4318,140.625000
4319,140.625000
4320,136.718750
4321,136.718750
4322,136.718750
4323,136.718750
4324,132.812500
4325,132.812500
4326,132.812500
4327,132.812500
4328,128.906250
4329,128.906250
4330,128.906250
4331,125.000000
4332,125.000000
4333,125.000000
4334,121.093750
4335,121.093750
4336,121.093750
4337,117.187500
4338,117.187500
4339,117.187500
4340,113.281250
4341,113.281250
4342,113.281250
4343,109.375000
4344,109.375000
4345,105.468750
4346,105.468750
4347,101.562500
4348,101.562500
4349,101.562500
4350,97.656250
4351,97.656250
4352,93.750000
4353,93.750000
4354,89.843750
4355,89.843750
4356,85.937500
4357,85.937500
4358,82.031250
4359,82.031250
4360,78.125000
4361,78.125000
4362,74.218750
4363,70.312500
4364,70.312500
4365,70.312500
4366,66.406250
4367,66.406250
4368,62.500000
4369,58.593750
4370,54.687500
4371,54.687500
4372,50.781250
4373,50.781250
4374,46.875000
4375,42.968750
4376,42.968750
4377,39.062500
4378,35.156250
4379,35.156250
4380,31.250000
4381,27.343750
4382,27.343750
4383,23.437500
4384,19.531250
4385,19.531250
4386,15.625000
4387,11.718750
4388,11.718750
4389,7.812500
4390,3.906250
4391,3.906250
4392,0.000000
4393,-3.906250
4394,-7.812500
4395,-7.812500
4396,-11.718750
4397,-15.625000
4398,-19.531250
4399,-19.531250
4400,-23.437500
4401,-27.343750
4402,-27.343750
4403,-31.250000
4404,-35.156250
4405,-39.062500
4406,-39.062500
4407,-42.968750
4408,-46.875000
4409,-50.781250
4410,-50.781250
4411,-54.687500
4412,-58.593750
4413,-62.500000
4414,-62.500000
4415,-66.406250
4416,-70.312500
4417,-74.218750
4418,-74.218750
4419,-78.125000
4420,-82.031250
4421,-85.937500
4422,-85.937500
4423,-89.843750
4424,-93.750000
4425,-93.750000
4426,-97.656250
4427,-101.562500
4428,-101.562500
4429,-105.468750
4430,-109.375000
4431,-109.375000
4432,-113.281250
4433,-117.187500
4434,-117.187500
4435,-121.093750
4436,-125.000000
4437,-125.000000
4438,-128.906250
4439,-132.812500
4440,-132.812500
4441,-136.718750
4442,-140.625000
4443,-140.625000
4444,-144.531250
4445,-148.437500
4446,-148.437500
4447,-152.343750
4448,-152.343750
4449,-156.250000
4450,-156.250000
4451,-160.156250
4452,-160.156250
4453,-164.062500
4454,-164.062500
4455,-167.968750
4456,-167.968750
4457,-171.875000
4458,-171.875000
4459,-175.781250
4460,-175.781250
4461,-179.687500
4462,-179.687500
4463,-183.593750
4464,-183.593750
4465,-187.500000
4466,-187.500000
4467,-183.593750
4468,-191.406250
4469,-191.406250
4470,-191.406250
4471,-195.312500
4472,-195.312500
4473,-195.312500
4474,-199.218750
4475,-199.218750
4476,-199.218750
4477,-203.125000
4478,-203.125000
4479,-203.125000
4480,-203.125000
4481,-203.125000
4482,-207.031250
4483,-207.031250
4484,-207.031250
4485,-207.031250
4486,-207.031250
4487,-210.937500
4488,-210.937500
4489,-210.937500
4490,-210.937500
4491,-210.937500
4492,-210.937500
4493,-210.937500
4494,-210.937500
4495,-210.937500
4496,-210.937500
4497,-210.937500
4498,-210.937500
4499,-210.937500
4500,-210.937500
4501,-210.937500
4502,-210.937500
4503,-210.937500
4504,-210.937500
4505,-210.937500
4506,-210.937500
4507,-210.937500
4508,-210.937500
4509,-210.937500
4510,-210.937500
4511,-207.031250
4512,-207.031250
4513,-207.031250
4514,-207.031250
4515,-207.031250
4516,-207.031250
4517,-203.125000
4518,-203.125000
4519,-203.125000
4520,-203.125000
4521,-199.218750
4522,-199.218750
4523,-199.218750
4524,-195.312500
4525,-195.312500
4526,-195.312500
4527,-191.406250
4528,-191.406250
4529,-191.406250
4530,-187.500000
4531,-187.500000
4532,-187.500000
4533,-183.593750
4534,-183.593750
4535,-179.687500
4536,-179.687500
4537,-179.687500
4538,-175.781250
4539,-175.781250
4540,-171.875000
4541,-171.875000
4542,-167.968750
4543,-167.968750
4544,-164.062500
4545,-164.062500
4546,-160.156250
4547,-156.250000
4548,-156.250000
4549,-156.250000
4550,-152.343750
4551,-148.437500
4552,-148.437500
4553,-144.531250
4554,-144.531250
4555,-140.625000
4556,-136.718750
4557,-136.718750
4558,-132.812500
4559,-132.812500
4560,-128.906250
4561,-125.000000
4562,-121.093750
4563,-121.093750
4564,-117.187500
4565,-117.187500
4566,-113.281250
4567,-109.375000
4568,-109.375000
4569,-105.468750
4570,-101.562500
4571,-101.562500
4572,-97.656250
4573,-93.750000
4574,-89.843750
4575,-89.843750
4576,-85.937500
4577,-82.031250
4578,-78.125000
4579,-78.125000
4580,-74.218750
4581,-70.312500
4582,-70.312500
4583,-66.406250
4584,-62.500000
4585,-62.500000
4586,-58.593750
4587,-54.687500
4588,-50.781250
4589,-46.875000
4590,-46.875000
4591,-42.968750
4592,-39.062500
4593,-35.156250
4594,-31.250000
4595,-31.250000
4596,-31.250000
4597,-23.437500
4598,-23.437500
4599,-19.531250
4600,-15.625000
4601,-15.625000
4602,-11.718750
4603,-7.812500
4604,-3.906250
4605,-3.906250
4606,0.000000
4607,3.906250
4608,7.812500
4609,7.812500
4610,11.718750
4611,11.718750
4612,15.625000
4613,19.531250
4614,19.531250
4615,23.437500
4616,27.343750
4617,27.343750
4618,27.343750
4619,35.156250
4620,35.156250
4621,39.062500
4622,42.968750
4623,46.875000
4624,46.875000
4625,50.781250
4626,50.781250
4627,54.687500
4628,54.687500
4629,58.593750
4630,62.500000
4631,62.500000
4632,66.406250
4633,66.406250
4634,70.312500
4635,74.218750
4636,74.218750
4637,78.125000
4638,78.125000
4639,82.031250
4640,82.031250
4641,85.937500
4642,85.937500
4643,89.843750
4644,89.843750
4645,93.750000
4646,93.750000
4647,97.656250
4648,97.656250
4649,97.656250
4650,101.562500
4651,101.562500
4652,105.468750
4653,105.468750
4654,109.375000
4655,109.375000
4656,109.375000
4657,113.281250
4658,113.281250
4659,117.187500
4660,117.187500
4661,117.187500
4662,121.093750
4663,121.093750
4664,121.093750
4665,125.000000
4666,125.000000
4667,125.000000
4668,128.906250
4669,128.906250
4670,128.906250
4671,128.906250
4672,132.812500
4673,132.812500
4674,132.812500
4675,132.812500
4676,136.718750
4677,136.718750
4678,136.718750
4679,136.718750
4680,140.625000
4681,140.625000
4682,140.625000
4683,140.625000
4684,144.531250
4685,144.531250
4686,144.531250
4687,144.531250
4688,144.531250
4689,144.531250
4690,144.531250
4691,148.437500
4692,148.437500
4693,148.437500
4694,148.437500
4695,148.437500
4696,148.437500
4697,148.437500
4698,148.437500
4699,148.437500
4700,148.437500
4701,148.437500
4702,148.437500
4703,152.343750
4704,152.343750
4705,148.437500
4706,152.343750
4707,152.343750
4708,152.343750
4709,152.343750
4710,148.437500
4711,152.343750
4712,152.343750
4713,148.437500
4714,148.437500
4715,148.437500
4716,148.437500
4717,148.437500
4718,148.437500
4719,148.437500
4720,148.437500
4721,148.437500
4722,148.437500
4723,148.437500
4724,148.437500
4725,144.531250
4726,144.531250
4727,144.531250
4728,144.531250
4729,144.531250
4730,140.625000
4731,140.625000
4732,140.625000
4733,140.625000
4734,140.625000
4735,140.625000
4736,136.718750
4737,136.718750
4738,136.718750
4739,136.718750
4740,136.718750
4741,136.718750
4742,132.812500
4743,132.812500
4744,128.906250
4745,128.906250
4746,128.906250
4747,128.906250
4748,125.000000
4749,125.000000
4750,125.000000
4751,121.093750
4752,121.093750
4753,121.093750
4754,121.093750
4755,117.187500
4756,117.187500
4757,113.281250
4758,113.281250
4759,109.375000
4760,109.375000
4761,109.375000
4762,105.468750
4763,105.468750
4764,101.562500
4765,101.562500
4766,97.656250
4767,97.656250
4768,97.656250
4769,93.750000
4770,93.750000
4771,89.843750
4772,89.843750
4773,85.937500
4774,85.937500
4775,82.031250
4776,82.031250
4777,78.125000
4778,78.125000
4779,74.218750
4780,70.312500
4781,70.312500
4782,66.406250
4783,66.406250
4784,62.500000
4785,58.593750
4786,58.593750
4787,54.687500
4788,54.687500
4789,50.781250
4790,46.875000
4791,42.968750
4792,42.968750
4793,39.062500
4794,39.062500
4795,35.156250
4796,31.250000
4797,31.250000
4798,27.343750
4799,23.437500
4800,19.531250
4801,19.531250
4802,15.625000
4803,15.625000
4804,11.718750
4805,7.812500
4806,3.906250
4807,3.906250
4808,0.000000
4809,-3.906250
4810,-3.906250
4811,-7.812500
4812,-11.718750
4813,-15.625000
4814,-15.625000
4815,-19.531250
4816,-23.437500
4817,-27.343750
4818,-27.343750
4819,-31.250000
4820,-35.156250
4821,-35.156250
4822,-39.062500
4823,-42.968750
4824,-46.875000
4825,-46.875000
4826,-50.781250
4827,-54.687500
4828,-58.593750
4829,-58.593750
4830,-62.500000
4831,-66.406250
4832,-66.406250
4833,-70.312500
4834,-74.218750
4835,-78.125000
4836,-78.125000
4837,-82.031250
4838,-85.937500
4839,-85.937500
4840,-89.843750
4841,-93.750000
4842,-97.656250
4843,-97.656250
4844,-101.562500
4845,-105.468750
4846,-109.375000
4847,-109.375000
4848,-113.281250
4849,-117.187500
4850,-117.187500
4851,-121.093750
4852,-121.093750
4853,-125.000000
4854,-128.906250
4855,-128.906250
4856,-132.812500
4857,-136.718750
4858,-136.718750
4859,-140.625000
4860,-144.531250
4861,-144.531250
4862,-148.437500
4863,-148.437500
4864,-152.343750
4865,-156.250000
4866,-156.250000
4867,-156.250000
4868,-160.156250
4869,-164.062500
4870,-164.062500
4871,-164.062500
4872,-167.968750
4873,-171.875000
4874,-171.875000
4875,-171.875000
4876,-175.781250
4877,-179.687500
4878,-179.687500
4879,-179.687500
4880,-183.593750
4881,-183.593750
4882,-187.500000
4883,-187.500000
4884,-187.500000
4885,-191.406250
4886,-191.406250
4887,-191.406250
4888,-195.312500
4889,-195.312500
4890,-195.312500
4891,-199.218750
4892,-199.218750
4893,-199.218750
4894,-203.125000
4895,-203.125000
4896,-203.125000
4897,-203.125000
4898,-203.125000
4899,-207.031250
4900,-207.031250
4901,-207.031250
4902,-207.031250
4903,-207.031250
4904,-207.031250
4905,-210.937500
4906,-210.937500
4907,-210.937500
4908,-210.937500
4909,-210.937500
4910,-210.937500
4911,-210.937500
4912,-214.843750
4913,-210.937500
4914,-210.937500
4915,-214.843750
4916,-210.937500
4917,-214.843750
4918,-210.937500
4919,-210.937500
4920,-210.937500
4921,-210.937500
4922,-210.937500
4923,-210.937500
4924,-210.937500
4925,-210.937500
4926,-210.937500
4927,-207.031250
4928,-207.031250
4929,-207.031250
4930,-207.031250
4931,-207.031250
4932,-207.031250
4933,-207.031250
4934,-203.125000
4935,-203.125000
4936,-203.125000
4937,-203.125000
4938,-199.218750
4939,-199.218750
4940,-199.218750
4941,-199.218750
4942,-195.312500
4943,-195.312500
4944,-191.406250
4945,-191.406250
4946,-191.406250
4947,-187.500000
4948,-187.500000
4949,-183.593750
4950,-183.593750
4951,-183.593750
4952,-179.687500
4953,-179.687500
4954,-175.781250
4955,-175.781250
4956,-171.875000
4957,-171.875000
4958,-167.968750
4959,-167.968750
4960,-164.062500
4961,-164.062500
4962,-160.156250
4963,-160.156250
4964,-156.250000
4965,-156.250000
4966,-152.343750
4967,-152.343750
4968,-148.437500
4969,-144.531250
4970,-144.531250
4971,-140.625000
4972,-140.625000
4973,-136.718750
4974,-132.812500
4975,-132.812500
4976,-128.906250
4977,-128.906250
4978,-125.000000
4979,-121.093750
4980,-121.093750
4981,-117.187500
4982,-113.281250
4983,-113.281250
4984,-109.375000
4985,-105.468750
4986,-105.468750
4987,-101.562500
4988,-97.656250
4989,-97.656250
4990,-93.750000
4991,-89.843750
4992,-89.843750
4993,-85.937500
4994,-82.031250
4995,-78.125000
4996,-78.125000
4997,-74.218750
4998,-70.312500
4999,-70.312500
5000,-66.406250
5001,-62.500000
5002,-58.593750
5003,-58.593750
5004,-54.687500
5005,-50.781250
5006,-46.875000
5007,-46.875000
5008,-42.968750
5009,-39.062500
5010,-39.062500
5011,-35.156250
5012,-31.250000
5013,-27.343750
5014,-27.343750
5015,-23.437500
5016,-19.531250
5017,-15.625000
5018,-15.625000
5019,-11.718750
5020,-7.812500
5021,-7.812500
5022,-3.906250
5023,0.000000
5024,3.906250
5025,3.906250
5026,7.812500
5027,11.718750
5028,15.625000
5029,15.625000
5030,19.531250
5031,23.437500
5032,23.437500
5033,27.343750
5034,27.343750
5035,31.250000
5036,35.156250
5037,35.156250
5038,39.062500
5039,42.968750
5040,42.968750
5041,46.875000
5042,50.781250
5043,50.781250
5044,50.781250
5045,54.687500
5046,58.593750
5047,62.500000
5048,62.500000
5049,66.406250
5050,66.406250
5051,70.312500
5052,70.312500
5053,74.218750
5054,78.125000
5055,78.125000
5056,82.031250
5057,78.125000
5058,85.937500
5059,85.937500
5060,89.843750
5061,89.843750
5062,93.750000
5063,93.750000
5064,97.656250
5065,97.656250
5066,101.562500
5067,101.562500
5068,101.562500
5069,105.468750
5070,109.375000
5071,109.375000
5072,109.375000
5073,113.281250
5074,113.281250
5075,117.187500
5076,117.187500
5077,117.187500
5078,117.187500
5079,121.093750
5080,121.093750
5081,121.093750
5082,125.000000
5083,125.000000
5084,125.000000
5085,128.906250
5086,128.906250
5087,128.906250
5088,132.812500
5089,132.812500
5090,132.812500
5091,132.812500
5092,136.718750
5093,136.718750
5094,136.718750
5095,136.718750
5096,140.625000
5097,140.625000
5098,140.625000
5099,140.625000
5100,140.625000
5101,140.625000
5102,144.531250
5103,144.531250
5104,144.531250
5105,144.531250
5106,144.531250
5107,144.531250
5108,144.531250
5109,148.437500
5110,148.437500
5111,148.437500
5112,148.437500
5113,148.437500
5114,148.437500
5115,148.437500
5116,148.437500
5117,148.437500
5118,148.437500
5119,148.437500
5120,148.437500
5121,148.437500
5122,148.437500
5123,152.343750
5124,148.437500
5125,148.437500
5126,148.437500
5127,148.437500
5128,148.437500
5129,148.437500
5130,148.437500
5131,148.437500
5132,148.437500
5133,148.437500
5134,148.437500
5135,148.437500
5136,148.437500
5137,148.437500
5138,148.437500
5139,148.437500
5140,148.437500
5141,144.531250
5142,144.531250
5143,144.531250
5144,144.531250
5145,144.531250
5146,144.531250
5147,144.531250
5148,140.625000
5149,140.625000
5150,140.625000
5151,140.625000
5152,140.625000
5153,140.625000
5154,136.718750
5155,136.718750
5156,136.718750
5157,136.718750
5158,132.812500
5159,132.812500
5160,132.812500
5161,128.906250
5162,128.906250
5163,128.906250
5164,128.906250
5165,125.000000
5166,125.000000
5167,125.000000
5168,121.093750
5169,121.093750
5170,121.093750
5171,117.187500
5172,117.187500
5173,113.281250
5174,113.281250
5175,113.281250
5176,109.375000
5177,109.375000
5178,105.468750
5179,105.468750
5180,101.562500
5181,101.562500
5182,101.562500
5183,97.656250
5184,97.656250
5185,93.750000
5186,93.750000
5187,93.750000
5188,89.843750
5189,85.937500
5190,85.937500
5191,82.031250
5192,82.031250
5193,78.125000
5194,78.125000
5195,74.218750
5196,74.218750
5197,70.312500
5198,66.406250
5199,66.406250
5200,62.500000
5201,62.500000
5202,58.593750
5203,58.593750
5204,54.687500
5205,54.687500
5206,50.781250
5207,46.875000
5208,42.968750
5209,42.968750
5210,39.062500
5211,39.062500
5212,35.156250
5213,31.250000
5214,31.250000
5215,27.343750
5216,23.437500
5217,23.437500
5218,19.531250
5219,15.625000
5220,15.625000
5221,11.718750
5222,7.812500
5223,7.812500
5224,3.906250
5225,0.000000
5226,-3.906250
5227,-3.906250
5228,-7.812500
5229,-11.718750
5230,-11.718750
5231,-15.625000
5232,-19.531250
5233,-23.437500
5234,-23.437500
5235,-27.343750
5236,-31.250000
5237,-31.250000
5238,-35.156250
5239,-39.062500
5240,-42.968750
5241,-46.875000
5242,-46.875000
5243,-50.781250
5244,-54.687500
5245,-58.593750
5246,-58.593750
5247,-62.500000
5248,-66.406250
5249,-66.406250
5250,-70.312500
5251,-74.218750
5252,-78.125000
5253,-82.031250
5254,-82.031250
5255,-85.937500
5256,-89.843750
5257,-89.843750
5258,-93.750000
5259,-97.656250
5260,-97.656250
5261,-101.562500
5262,-105.468750
5263,-105.468750
5264,-109.375000
5265,-113.281250
5266,-113.281250
5267,-117.187500
5268,-121.093750
5269,-121.093750
5270,-125.000000
5271,-128.906250
5272,-128.906250
5273,-132.812500
5274,-136.718750
5275,-136.718750
5276,-140.625000
5277,-140.625000
5278,-144.531250
5279,-148.437500
5280,-148.437500
5281,-152.343750
5282,-152.343750
5283,-156.250000
5284,-156.250000
5285,-160.156250
5286,-164.062500
5287,-164.062500
5288,-167.968750
5289,-167.968750
5290,-167.968750
5291,-171.875000
5292,-175.781250
5293,-175.781250
5294,-175.781250
5295,-179.687500
5296,-179.687500
5297,-183.593750
5298,-183.593750
5299,-187.500000
5300,-187.500000
5301,-187.500000
5302,-191.406250
5303,-191.406250
5304,-191.406250
5305,-195.312500
5306,-195.312500
5307,-195.312500
5308,-199.218750
5309,-199.218750
5310,-199.218750
5311,-203.125000
5312,-203.125000
5313,-203.125000
5314,-203.125000
5315,-207.031250
5316,-207.031250
5317,-207.031250
5318,-207.031250
5319,-207.031250
5320,-210.937500
5321,-210.937500
5322,-210.937500
5323,-210.937500
5324,-210.937500
5325,-210.937500
5326,-210.937500
5327,-210.937500
5328,-210.937500
5329,-210.937500
5330,-210.937500
5331,-214.843750
5332,-210.937500
5333,-210.937500
5334,-210.937500
5335,-214.843750
5336,-214.843750
5337,-210.937500
5338,-210.937500
5339,-210.937500
5340,-214.843750
5341,-210.937500
5342,-210.937500
5343,-210.937500
5344,-210.937500
5345,-207.031250
5346,-207.031250
5347,-207.031250
5348,-207.031250
5349,-207.031250
5350,-207.031250
5351,-203.125000
5352,-203.125000
5353,-203.125000
5354,-203.125000
5355,-199.218750
5356,-199.218750
5357,-199.218750
5358,-195.312500
5359,-195.312500
5360,-195.312500
5361,-195.312500
5362,-191.406250
5363,-191.406250
5364,-187.500000
5365,-187.500000
5366,-187.500000
5367,-183.593750
5368,-183.593750
5369,-179.687500
5370,-179.687500
5371,-179.687500
5372,-175.781250
5373,-175.781250
5374,-171.875000
5375,-171.875000
5376,-167.968750
5377,-164.062500
5378,-164.062500
5379,-164.062500
5380,-160.156250
5381,-160.156250
5382,-156.250000
5383,-152.343750
5384,-152.343750
5385,-148.437500
5386,-148.437500
5387,-144.531250
5388,-140.625000
5389,-140.625000
5390,-136.718750
5391,-136.718750
5392,-132.812500
5393,-128.906250
5394,-128.906250
5395,-125.000000
5396,-121.093750
5397,-121.093750
5398,-117.187500
5399,-113.281250
5400,-109.375000
5401,-109.375000
5402,-105.468750
5403,-105.468750
5404,-101.562500
5405,-97.656250
5406,-93.750000
5407,-93.750000
5408,-89.843750
5409,-85.937500
5410,-82.031250
5411,-82.031250
5412,-78.125000
5413,-74.218750
5414,-74.218750
5415,-70.312500
5416,-66.406250
5417,-66.406250
5418,-62.500000
5419,-58.593750
5420,-54.687500
5421,-54.687500
5422,-50.781250
5423,-46.875000
5424,-42.968750
5425,-42.968750
5426,-39.062500
5427,-35.156250
5428,-35.156250
5429,-31.250000
5430,-27.343750
5431,-23.437500
5432,-19.531250
5433,-19.531250
5434,-15.625000
5435,-11.718750
5436,-11.718750
5437,-7.812500
5438,-3.906250
5439,0.000000
5440,0.000000
5441,3.906250
5442,7.812500
5443,7.812500
5444,11.718750
5445,15.625000
5446,15.625000
5447,19.531250
5448,23.437500
5449,23.437500
5450,27.343750
5451,31.250000
5452,31.250000
5453,35.156250
5454,39.062500
5455,39.062500
5456,42.968750
5457,46.875000
5458,46.875000
5459,50.781250
5460,54.687500
5461,54.687500
5462,58.593750
5463,58.593750
5464,62.500000
5465,66.406250
5466,66.406250
5467,70.312500
5468,70.312500
5469,74.218750
5470,74.218750
5471,78.125000
5472,78.125000
5473,82.031250
5474,85.937500
5475,85.937500
5476,85.937500
5477,89.843750
5478,93.750000
5479,93.750000
5480,93.750000
5481,97.656250
5482,97.656250
5483,101.562500
5484,101.562500
5485,105.468750
5486,105.468750
5487,109.375000
5488,109.375000
5489,109.375000
5490,113.281250
5491,113.281250
5492,113.281250
5493,117.187500
5494,117.187500
5495,121.093750
5496,121.093750
5497,121.093750
5498,125.000000
5499,125.000000
5500,125.000000
5501,128.906250
5502,128.906250
5503,128.906250
5504,128.906250
5505,132.812500
5506,132.812500
5507,132.812500
5508,132.812500
5509,136.718750
5510,136.718750
5511,140.625000
5512,140.625000
5513,140.625000
5514,140.625000
5515,140.625000
5516,140.625000
5517,140.625000
5518,140.625000
5519,144.531250
5520,148.437500
5521,144.531250
5522,144.531250
5523,144.531250
5524,148.437500
5525,148.437500
5526,148.437500
5527,148.437500
5528,148.437500
5529,148.437500
5530,152.343750
5531,148.437500
5532,148.437500
5533,148.437500
5534,148.437500
5535,152.343750
5536,152.343750
5537,148.437500
5538,152.343750
5539,152.343750
5540,152.343750
5541,152.343750
5542,148.437500
5543,152.343750
5544,148.437500
5545,152.343750
5546,152.343750
5547,148.437500
5548,148.437500
5549,148.437500
5550,148.437500
5551,148.437500
5552,148.437500
5553,148.437500
5554,148.437500
5555,148.437500
5556,144.531250
5557,148.437500
5558,144.531250
5559,144.531250
5560,144.531250
5561,144.531250
5562,144.531250
5563,140.625000
5564,140.625000
5565,140.625000
5566,140.625000
5567,140.625000
5568,140.625000
5569,140.625000
5570,136.718750
5571,136.718750
5572,136.718750
5573,136.718750
5574,132.812500
5575,132.812500
5576,132.812500
5577,132.812500
5578,128.906250
5579,128.906250
5580,128.906250
5581,125.000000
5582,125.000000
5583,125.000000
5584,121.093750
5585,121.093750
5586,121.093750
5587,117.187500
5588,117.187500
5589,117.187500
5590,113.281250
5591,113.281250
5592,109.375000
5593,109.375000
5594,109.375000
5595,105.468750
5596,105.468750
5597,101.562500
5598,101.562500
5599,101.562500
5600,97.656250
5601,97.656250
5602,93.750000
5603,93.750000
5604,89.843750
5605,89.843750
5606,85.937500
5607,85.937500
5608,82.031250
5609,82.031250
5610,78.125000
5611,78.125000
5612,74.218750
5613,74.218750
5614,70.312500
5615,66.406250
5616,66.406250
5617,62.500000
5618,62.500000
5619,58.593750
5620,58.593750
5621,54.687500
5622,50.781250
5623,46.875000
5624,46.875000
5625,42.968750
5626,39.062500
5627,39.062500
5628,35.156250
5629,35.156250
5630,31.250000
5631,27.343750
5632,27.343750
5633,23.437500
5634,19.531250
5635,19.531250
5636,15.625000
5637,11.718750
5638,11.718750
5639,7.812500
5640,3.906250
5641,0.000000
5642,0.000000
5643,-3.906250
5644,-7.812500
5645,-7.812500
5646,-11.718750
5647,-15.625000
5648,-19.531250
5649,-19.531250
5650,-23.437500
5651,-27.343750
5652,-27.343750
5653,-31.250000
5654,-35.156250
5655,-39.062500
5656,-42.968750
5657,-42.968750
5658,-46.875000
5659,-50.781250
5660,-46.875000
5661,-54.687500
5662,-58.593750
5663,-62.500000
5664,-66.406250
5665,-66.406250
5666,-70.312500
5667,-74.218750
5668,-74.218750
5669,-78.125000
5670,-82.031250
5671,-82.031250
5672,-85.937500
5673,-89.843750
5674,-93.750000
5675,-93.750000
5676,-97.656250
5677,-101.562500
5678,-105.468750
5679,-105.468750
5680,-109.375000
5681,-109.375000
5682,-113.281250
5683,-117.187500
5684,-121.093750
5685,-121.093750
5686,-125.000000
5687,-128.906250
5688,-128.906250
5689,-136.718750
5690,-132.812500
5691,-136.718750
5692,-140.625000
5693,-140.625000
5694,-144.531250
5695,-144.531250
5696,-148.437500
5697,-152.343750
5698,-152.343750
5699,-156.250000
5700,-156.250000
5701,-160.156250
5702,-164.062500
5703,-164.062500
5704,-164.062500
5705,-167.968750
5706,-167.968750
5707,-171.875000
5708,-171.875000
5709,-175.781250
5710,-175.781250
5711,-179.687500
5712,-179.687500
5713,-183.593750
5714,-183.593750
5715,-187.500000
5716,-187.500000
5717,-187.500000
5718,-187.500000
5719,-191.406250
5720,-195.312500
5721,-195.312500
5722,-195.312500
5723,-195.312500
5724,-203.125000
5725,-199.218750
5726,-199.218750
5727,-199.218750
5728,-203.125000
5729,-203.125000
5730,-203.125000
5731,-203.125000
5732,-207.031250
5733,-207.031250
5734,-207.031250
5735,-207.031250
5736,-207.031250
5737,-207.031250
5738,-210.937500
5739,-207.031250
5740,-210.937500
5741,-210.937500
5742,-210.937500
5743,-210.937500
5744,-210.937500
5745,-210.937500
5746,-210.937500
5747,-210.937500
5748,-210.937500
5749,-210.937500
5750,-210.937500
5751,-214.843750
5752,-210.937500
5753,-210.937500
5754,-210.937500
5755,-210.937500
5756,-210.937500
5757,-210.937500
5758,-214.843750
5759,-210.937500
5760,-210.937500
5761,-207.031250
5762,-207.031250
5763,-207.031250
5764,-207.031250
5765,-207.031250
5766,-207.031250
5767,-203.125000
5768,-203.125000
5769,-203.125000
5770,-203.125000
5771,-203.125000
5772,-199.218750
5773,-199.218750
5774,-199.218750
5775,-199.218750
5776,-195.312500
5777,-195.312500
5778,-191.406250
5779,-191.406250
5780,-191.406250
5781,-187.500000
5782,-187.500000
5783,-183.593750
5784,-183.593750
5785,-179.687500
5786,-179.687500
5787,-179.687500
5788,-175.781250
5789,-171.875000
5790,-171.875000
5791,-171.875000
5792,-167.968750
5793,-167.968750
5794,-164.062500
5795,-164.062500
5796,-160.156250
5797,-160.156250
5798,-156.250000
5799,-156.250000
5800,-152.343750
5801,-148.437500
5802,-148.437500
5803,-144.531250
5804,-140.625000
5805,-140.625000
5806,-136.718750
5807,-136.718750
5808,-132.812500
5809,-128.906250
5810,-128.906250
5811,-125.000000
5812,-125.000000
5813,-121.093750
5814,-117.187500
5815,-117.187500
5816,-113.281250
5817,-109.375000
5818,-109.375000
5819,-105.468750
5820,-101.562500
5821,-101.562500
5822,-97.656250
5823,-93.750000
5824,-93.750000
5825,-89.843750
5826,-85.937500
5827,-85.937500
5828,-82.031250
5829,-78.125000
5830,-74.218750
5831,-70.312500
5832,-70.312500
5833,-66.406250
5834,-62.500000
5835,-58.593750
5836,-58.593750
5837,-54.687500
5838,-50.781250
5839,-50.781250
5840,-46.875000
5841,-42.968750
5842,-42.968750
5843,-39.062500
5844,-35.156250
5845,-31.250000
5846,-31.250000
5847,-27.343750
5848,-23.437500
5849,-19.531250
5850,-19.531250
5851,-15.625000
5852,-11.718750
5853,-7.812500
5854,-3.906250
5855,-3.906250
5856,0.000000
5857,0.000000
5858,3.906250
5859,7.812500
5860,7.812500
5861,11.718750
5862,15.625000
5863,19.531250
5864,19.531250
5865,23.437500
5866,27.343750
5867,27.343750
5868,31.250000
5869,35.156250
5870,35.156250
5871,39.062500
5872,39.062500
5873,42.968750
5874,46.875000
5875,46.875000
5876,50.781250
5877,50.781250
5878,54.687500
5879,58.593750
5880,58.593750
5881,62.500000
5882,62.500000
5883,66.406250
5884,70.312500
5885,70.312500
5886,74.218750
5887,74.218750
5888,78.125000
5889,78.125000
5890,82.031250
5891,85.937500
5892,85.937500
5893,85.937500
5894,89.843750
5895,89.843750
5896,93.750000
5897,93.750000
5898,97.656250
5899,97.656250
5900,101.562500
5901,101.562500
5902,105.468750
5903,105.468750
5904,105.468750
5905,109.375000
5906,109.375000
5907,113.281250
5908,113.281250
5909,113.281250
5910,117.187500
5911,117.187500
5912,121.093750
5913,121.093750
5914,121.093750
5915,125.000000
5916,125.000000
5917,125.000000
5918,125.000000
5919,128.906250
5920,128.906250
5921,128.906250
5922,132.812500
5923,132.812500
5924,132.812500
5925,136.718750
5926,136.718750
5927,136.718750
5928,136.718750
5929,140.625000
5930,140.625000
5931,140.625000
5932,140.625000
5933,140.625000
5934,144.531250
5935,144.531250
5936,144.531250
5937,144.531250
5938,144.531250
5939,148.437500
5940,144.531250
5941,144.531250
5942,148.437500
5943,148.437500
5944,148.437500
5945,148.437500
5946,148.437500
5947,148.437500
5948,148.437500
5949,148.437500
5950,148.437500
5951,148.437500
5952,148.437500
5953,148.437500
5954,148.437500
5955,152.343750
5956,148.437500
5957,148.437500
5958,148.437500
5959,148.437500
5960,152.343750
5961,148.437500
5962,148.437500
5963,148.437500
5964,148.437500
5965,152.343750
5966,148.437500
5967,148.437500
5968,148.437500
5969,148.437500
5970,148.437500
5971,148.437500
5972,148.437500
5973,148.437500
5974,144.531250
5975,144.531250
5976,144.531250
5977,144.531250
5978,144.531250
5979,144.531250
5980,144.531250
5981,140.625000
5982,140.625000
5983,140.625000
5984,140.625000
5985,140.625000
5986,140.625000
5987,136.718750
5988,136.718750
5989,136.718750
5990,132.812500
5991,136.718750
5992,132.812500
5993,132.812500
5994,128.906250
5995,128.906250
5996,128.906250
5997,128.906250
5998,125.000000
5999,125.000000
6000,125.000000
6001,121.093750
6002,121.093750
6003,121.093750
6004,117.187500
6005,117.187500
6006,113.281250
6007,113.281250
6008,113.281250
6009,109.375000
6010,109.375000
6011,109.375000
6012,105.468750
6013,105.468750
6014,101.562500
6015,101.562500
6016,97.656250
6017,97.656250
6018,97.656250
6019,93.750000
6020,93.750000
6021,89.843750
6022,89.843750
6023,85.937500
6024,85.937500
6025,82.031250
6026,82.031250
6027,78.125000
6028,74.218750
6029,74.218750
6030,74.218750
6031,70.312500
6032,66.406250
6033,66.406250
6034,62.500000
6035,62.500000
6036,58.593750
6037,54.687500
6038,50.781250
6039,50.781250
6040,46.875000
6041,46.875000
6042,42.968750
6043,42.968750
6044,39.062500
6045,35.156250
6046,35.156250
6047,31.250000
6048,27.343750
6049,27.343750
6050,23.437500
6051,19.531250
6052,19.531250
6053,15.625000
6054,11.718750
6055,7.812500
6056,7.812500
6057,3.906250
6058,0.000000
6059,0.000000
6060,-3.906250
6061,-7.812500
6062,-11.718750
6063,-11.718750
6064,-15.625000
6065,-19.531250
6066,-19.531250
6067,-23.437500
6068,-27.343750
6069,-31.250000
6070,-31.250000
6071,-35.156250
6072,-39.062500
6073,-42.968750
6074,-42.968750
6075,-46.875000
6076,-50.781250
6077,-54.687500
6078,-54.687500
6079,-58.593750
6080,-62.500000
6081,-62.500000
6082,-66.406250
6083,-66.406250
6084,-74.218750
6085,-74.218750
6086,-78.125000
6087,-82.031250
6088,-85.937500
6089,-85.937500
6090,-89.843750
6091,-93.750000
6092,-93.750000
6093,-97.656250
6094,-101.562500
6095,-105.468750
6096,-105.468750
6097,-109.375000
6098,-113.281250
6099,-113.281250
6100,-117.187500
6101,-117.187500
6102,-121.093750
6103,-125.000000
6104,-128.906250
6105,-128.906250
6106,-132.812500
6107,-132.812500
6108,-136.718750
6109,-140.625000
6110,-140.625000
6111,-144.531250
6112,-144.531250
6113,-148.437500
6114,-152.343750
6115,-152.343750
6116,-156.250000
6117,-156.250000
6118,-160.156250
6119,-160.156250
6120,-164.062500
6121,-164.062500
6122,-167.968750
6123,-167.968750
6124,-171.875000
6125,-171.875000
6126,-175.781250
6127,-175.781250
6128,-179.687500
6129,-179.687500
6130,-183.593750
6131,-183.593750
6132,-187.500000
6133,-187.500000
6134,-187.500000
6135,-191.406250
6136,-191.406250
6137,-191.406250
6138,-195.312500
6139,-195.312500
6140,-195.312500
6141,-199.218750
6142,-199.218750
6143,-199.218750
6144,-203.125000
6145,-203.125000
6146,-203.125000
6147,-203.125000
6148,-203.125000
6149,-207.031250
6150,-207.031250
6151,-207.031250
6152,-207.031250
6153,-207.031250
6154,-210.937500
6155,-210.937500
6156,-210.937500
6157,-210.937500
6158,-210.937500
6159,-210.937500
6160,-210.937500
6161,-210.937500
6162,-210.937500
6163,-210.937500
6164,-210.937500
6165,-214.843750
6166,-210.937500
6167,-214.843750
6168,-214.843750
6169,-210.937500
6170,-210.937500
6171,-210.937500
6172,-210.937500
6173,-210.937500
6174,-210.937500
6175,-210.937500
6176,-210.937500
6177,-210.937500
6178,-210.937500
6179,-210.937500
6180,-207.031250
6181,-207.031250
6182,-207.031250
6183,-207.031250
6184,-203.125000
6185,-203.125000
6186,-203.125000
6187,-203.125000
6188,-199.218750
6189,-199.218750
6190,-199.218750
6191,-199.218750
6192,-195.312500
6193,-195.312500
6194,-195.312500
6195,-191.406250
6196,-191.406250
6197,-191.406250
6198,-187.500000
6199,-187.500000
6200,-183.593750
6201,-183.593750
6202,-179.687500
6203,-179.687500
6204,-179.687500
6205,-175.781250
6206,-175.781250
6207,-171.875000
6208,-171.875000
6209,-167.968750
6210,-167.968750
6211,-164.062500
6212,-164.062500
6213,-160.156250
6214,-160.156250
6215,-156.250000
6216,-156.250000
6217,-152.343750
6218,-152.343750
6219,-148.437500
6220,-144.531250
6221,-144.531250
6222,-140.625000
6223,-140.625000
6224,-136.718750
6225,-132.812500
6226,-132.812500
6227,-128.906250
6228,-125.000000
6229,-125.000000
6230,-121.093750
6231,-117.187500
6232,-117.187500
6233,-113.281250
6234,-109.375000
6235,-109.375000
6236,-105.468750
6237,-101.562500
6238,-101.562500
6239,-97.656250
6240,-93.750000
6241,-93.750000
6242,-89.843750
6243,-85.937500
6244,-82.031250
6245,-82.031250
6246,-78.125000
6247,-74.218750
6248,-70.312500
6249,-70.312500
6250,-66.406250
6251,-62.500000
6252,-58.593750
6253,-58.593750
6254,-54.687500
6255,-50.781250
6256,-46.875000
6257,-46.875000
6258,-42.968750
6259,-39.062500
6260,-39.062500
6261,-35.156250
6262,-31.250000
6263,-27.343750
6264,-27.343750
6265,-23.437500
6266,-19.531250
6267,-15.625000
6268,-15.625000
6269,-11.718750
6270,-7.812500
6271,-7.812500
6272,-3.906250
6273,0.000000
6274,3.906250
6275,3.906250
6276,7.812500
6277,11.718750
6278,11.718750
6279,15.625000
6280,19.531250
6281,19.531250
6282,23.437500
6283,27.343750
6284,27.343750
6285,31.250000
6286,35.156250
6287,39.062500
6288,39.062500
6289,42.968750
6290,46.875000
6291,46.875000
6292,50.781250
6293,50.781250
6294,54.687500
6295,54.687500
6296,58.593750
6297,62.500000
6298,62.500000
6299,66.406250
6300,66.406250
6301,70.312500
6302,70.312500
6303,74.218750
6304,78.125000
6305,78.125000
6306,82.031250
6307,82.031250
6308,85.937500
6309,85.937500
6310,89.843750
6311,89.843750
6312,93.750000
6313,93.750000
6314,97.656250
6315,97.656250
6316,97.656250
6317,101.562500
6318,101.562500
6319,105.468750
6320,105.468750
6321,109.375000
6322,109.375000
6323,113.281250
6324,113.281250
6325,117.187500
6326,117.187500
6327,117.187500
6328,117.187500
6329,121.093750
6330,121.093750
6331,121.093750
6332,125.000000
6333,125.000000
6334,125.000000
6335,128.906250
6336,128.906250
6337,128.906250
6338,128.906250
6339,132.812500
6340,132.812500
6341,136.718750
6342,136.718750
6343,136.718750
6344,132.812500
6345,136.718750
6346,136.718750
6347,140.625000
6348,140.625000
6349,140.625000
6350,140.625000
6351,140.625000
6352,144.531250
6353,144.531250
6354,144.531250
6355,144.531250
6356,144.531250
6357,144.531250
6358,148.437500
6359,148.437500
6360,148.437500
6361,148.437500
6362,148.437500
6363,148.437500
6364,148.437500
6365,148.437500
6366,148.437500
6367,148.437500
6368,148.437500
6369,148.437500
6370,148.437500
6371,148.437500
6372,152.343750
6373,148.437500
6374,152.343750
6375,152.343750
6376,152.343750
6377,148.437500
6378,148.437500
6379,148.437500
6380,148.437500
6381,148.437500
6382,148.437500
6383,148.437500
6384,148.437500
6385,148.437500
6386,148.437500
6387,148.437500
6388,148.437500
6389,148.437500
6390,144.531250
6391,148.437500
6392,144.531250
6393,144.531250
6394,144.531250
6395,144.531250
6396,144.531250
6397,144.531250
6398,140.625000
6399,140.625000
6400,140.625000
6401,140.625000
6402,140.625000
6403,136.718750
6404,136.718750
6405,136.718750
6406,136.718750
6407,132.812500
6408,132.812500
6409,132.812500
6410,132.812500
6411,128.906250
6412,128.906250
6413,128.906250
6414,125.000000
6415,125.000000
6416,125.000000
6417,125.000000
6418,121.093750
6419,121.093750
6420,117.187500
6421,117.187500
6422,117.187500
6423,113.281250
6424,113.281250
6425,109.375000
6426,109.375000
6427,109.375000
6428,105.468750
6429,105.468750
6430,105.468750
6431,101.562500
6432,101.562500
6433,97.656250
6434,97.656250
6435,93.750000
6436,93.750000
6437,89.843750
6438,89.843750
6439,85.937500
6440,85.937500
6441,82.031250
6442,82.031250
6443,78.125000
6444,78.125000
6445,74.218750
6446,74.218750
6447,70.312500
6448,70.312500
6449,66.406250
6450,62.500000
6451,62.500000
6452,58.593750
6453,58.593750
6454,54.687500
6455,50.781250
6456,50.781250
6457,46.875000
6458,42.968750
6459,42.968750
6460,39.062500
6461,39.062500
6462,35.156250
6463,31.250000
6464,27.343750
6465,27.343750
6466,23.437500
6467,19.531250
6468,19.531250
6469,15.625000
6470,11.718750
6471,11.718750
6472,3.906250
6473,3.906250
6474,3.906250
6475,0.000000
6476,-3.906250
6477,-7.812500
6478,-7.812500
6479,-11.718750
6480,-15.625000
6481,-15.625000
6482,-19.531250
6483,-19.531250
6484,-27.343750
6485,-27.343750
6486,-31.250000
6487,-35.156250
6488,-39.062500
6489,-39.062500
6490,-42.968750
6491,-46.875000
6492,-46.875000
6493,-50.781250
6494,-54.687500
6495,-58.593750
6496,-58.593750
6497,-62.500000
6498,-66.406250
6499,-70.312500
6500,-70.312500
6501,-74.218750
6502,-78.125000
6503,-78.125000
6504,-82.031250
6505,-85.937500
6506,-89.843750
6507,-89.843750
6508,-93.750000
6509,-97.656250
6510,-97.656250
6511,-101.562500
6512,-105.468750
6513,-109.375000
6514,-109.375000
6515,-113.281250
6516,-117.187500
6517,-117.187500
6518,-121.093750
6519,-125.000000
6520,-125.000000
6521,-128.906250
6522,-132.812500
6523,-132.812500
6524,-136.718750
6525,-136.718750
6526,-140.625000
6527,-144.531250
6528,-144.531250
6529,-148.437500
6530,-148.437500
6531,-152.343750
6532,-156.250000
6533,-156.250000
6534,-160.156250
6535,-160.156250
6536,-164.062500
6537,-164.062500
6538,-167.968750
6539,-167.968750
6540,-171.875000
6541,-171.875000
6542,-175.781250
6543,-175.781250
6544,-179.687500
6545,-179.687500
6546,-183.593750
6547,-183.593750
6548,-183.593750
6549,-187.500000
6550,-187.500000
6551,-187.500000
6552,-191.406250
6553,-191.406250
6554,-195.312500
6555,-195.312500
6556,-195.312500
6557,-199.218750
6558,-199.218750
6559,-199.218750
6560,-199.218750
6561,-203.125000
6562,-203.125000
6563,-207.031250
6564,-203.125000
6565,-207.031250
6566,-207.031250
6567,-207.031250
6568,-207.031250
6569,-207.031250
6570,-210.937500
6571,-210.937500
6572,-210.937500
6573,-210.937500
6574,-210.937500
6575,-210.937500
6576,-210.937500
6577,-210.937500
6578,-210.937500
6579,-210.937500
6580,-214.843750
6581,-210.937500
6582,-210.937500
6583,-210.937500
6584,-214.843750
6585,-214.843750
6586,-214.843750
6587,-210.937500
6588,-210.937500
6589,-210.937500
6590,-210.937500
6591,-210.937500
6592,-210.937500
6593,-210.937500
6594,-210.937500
6595,-210.937500
6596,-207.031250
6597,-207.031250
6598,-207.031250
6599,-207.031250
6600,-207.031250
6601,-203.125000
6602,-203.125000
6603,-203.125000
6604,-199.218750
6605,-199.218750
6606,-199.218750
6607,-199.218750
6608,-195.312500
6609,-195.312500
6610,-195.312500
6611,-191.406250
6612,-191.406250
6613,-191.406250
6614,-187.500000
6615,-187.500000
6616,-187.500000
6617,-183.593750
6618,-183.593750
6619,-179.687500
6620,-179.687500
6621,-175.781250
6622,-175.781250
6623,-171.875000
6624,-171.875000
6625,-171.875000
6626,-167.968750
6627,-164.062500
6628,-164.062500
6629,-160.156250
6630,-160.156250
6631,-156.250000
6632,-156.250000
6633,-152.343750
6634,-152.343750
6635,-148.437500
6636,-144.531250
6637,-144.531250
6638,-140.625000
6639,-140.625000
6640,-136.718750
6641,-132.812500
6642,-132.812500
6643,-128.906250
6644,-128.906250
6645,-125.000000
6646,-121.093750
6647,-117.187500
6648,-117.187500
6649,-113.281250
6650,-113.281250
6651,-109.375000
6652,-105.468750
6653,-105.468750
6654,-101.562500
6655,-97.656250
6656,-93.750000
6657,-93.750000
6658,-89.843750
6659,-85.937500
6660,-85.937500
6661,-82.031250
6662,-78.125000
6663,-74.218750
6664,-74.218750
6665,-70.312500
6666,-66.406250
6667,-66.406250
6668,-62.500000
6669,-58.593750
6670,-54.687500
6671,-50.781250
6672,-50.781250
6673,-46.875000
6674,-46.875000
6675,-42.968750
6676,-39.062500
6677,-35.156250
6678,-35.156250
6679,-31.250000
6680,-27.343750
6681,-23.437500
6682,-19.531250
6683,-19.531250
6684,-15.625000
6685,-11.718750
6686,-11.718750
6687,-7.812500
6688,-3.906250
6689,0.000000
6690,0.000000
6691,3.906250
6692,7.812500
6693,7.812500
6694,11.718750
6695,15.625000
6696,19.531250
6697,19.531250
6698,23.437500
6699,27.343750
6700,27.343750
6701,31.250000
6702,31.250000
6703,35.156250
6704,39.062500
6705,39.062500
6706,42.968750
6707,46.875000
6708,46.875000
6709,50.781250
6710,54.687500
6711,54.687500
6712,58.593750
6713,58.593750
6714,62.500000
6715,66.406250
6716,66.406250
6717,66.406250
6718,70.312500
6719,74.218750
6720,74.218750
6721,78.125000
6722,78.125000
6723,82.031250
6724,82.031250
6725,85.937500
6726,85.937500
6727,89.843750
6728,89.843750
6729,93.750000
6730,93.750000
6731,97.656250
6732,97.656250
6733,101.562500
6734,101.562500
6735,101.562500
6736,105.468750
6737,105.468750
6738,109.375000
6739,109.375000
6740,113.281250
6741,113.281250
6742,113.281250
6743,117.187500
6744,117.187500
6745,117.187500
6746,121.093750
6747,121.093750
6748,121.093750
6749,125.000000
6750,125.000000
6751,125.000000
6752,128.906250
6753,128.906250
6754,128.906250
6755,132.812500
6756,132.812500
6757,132.812500
6758,132.812500
6759,136.718750
6760,136.718750
6761,136.718750
6762,136.718750
6763,140.625000
6764,140.625000
6765,140.625000
6766,140.625000
6767,140.625000
6768,140.625000
6769,144.531250
6770,144.531250
6771,144.531250
6772,144.531250
6773,144.531250
6774,144.531250
6775,144.531250
6776,144.531250
6777,148.437500
6778,148.437500
6779,148.437500
6780,148.437500
6781,148.437500
6782,148.437500
6783,148.437500
6784,148.437500
6785,148.437500
6786,148.437500
6787,148.437500
6788,148.437500
6789,148.437500
6790,152.343750
6791,148.437500
6792,148.437500
6793,148.437500
6794,148.437500
6795,148.437500
6796,148.437500
6797,148.437500
6798,148.437500
6799,148.437500
6800,148.437500
6801,148.437500
6802,148.437500
6803,148.437500
6804,148.437500
6805,148.437500
6806,148.437500
6807,144.531250
6808,144.531250
6809,144.531250
6810,144.531250
6811,144.531250
6812,144.531250
6813,144.531250
6814,144.531250
6815,140.625000
6816,140.625000
6817,140.625000
6818,140.625000
6819,140.625000
6820,136.718750
6821,136.718750
6822,136.718750
6823,136.718750
6824,132.812500
6825,132.812500
6826,132.812500
6827,132.812500
6828,132.812500
6829,128.906250
6830,128.906250
6831,125.000000
6832,125.000000
6833,125.000000
6834,125.000000
6835,121.093750
6836,121.093750
6837,121.093750
6838,117.187500
6839,117.187500
6840,113.281250
6841,113.281250
6842,113.281250
6843,109.375000
6844,109.375000
6845,109.375000
6846,105.468750
6847,105.468750
6848,101.562500
6849,101.562500
6850,97.656250
6851,97.656250
6852,93.750000
6853,93.750000
6854,89.843750
6855,85.937500
6856,85.937500
6857,85.937500
6858,82.031250
6859,82.031250
6860,78.125000
6861,78.125000
6862,74.218750
6863,70.312500
6864,70.312500
6865,66.406250
6866,62.500000
6867,62.500000
6868,62.500000
6869,58.593750
6870,54.687500
6871,54.687500
6872,50.781250
6873,46.875000
6874,46.875000
6875,42.968750
6876,42.968750
6877,39.062500
6878,35.156250
6879,35.156250
6880,31.250000
6881,27.343750
6882,27.343750
6883,23.437500
6884,19.531250
6885,19.531250
6886,15.625000
6887,11.718750
6888,7.812500
6889,7.812500
6890,3.906250
6891,0.000000
6892,0.000000
6893,-3.906250
6894,-7.812500
6895,-7.812500
6896,-11.718750
6897,-15.625000
6898,-19.531250
6899,-19.531250
6900,-23.437500
6901,-27.343750
6902,-31.250000
6903,-31.250000
6904,-35.156250
6905,-39.062500
6906,-39.062500
6907,-42.968750
6908,-46.875000
6909,-50.781250
6910,-50.781250
6911,-54.687500
6912,-58.593750
6913,-62.500000
6914,-62.500000
6915,-66.406250
6916,-70.312500
6917,-70.312500
6918,-74.218750
6919,-78.125000
6920,-82.031250
6921,-82.031250
6922,-85.937500
6923,-89.843750
6924,-93.750000
6925,-93.750000
6926,-97.656250
6927,-101.562500
6928,-101.562500
6929,-105.468750
6930,-109.375000
6931,-109.375000
6932,-113.281250
6933,-117.187500
6934,-117.187500
6935,-121.093750
6936,-121.093750
6937,-125.000000
6938,-128.906250
6939,-132.812500
6940,-132.812500
6941,-136.718750
6942,-140.625000
6943,-140.625000
6944,-144.531250
6945,-148.437500
6946,-148.437500
6947,-148.437500
6948,-152.343750
6949,-156.250000
6950,-156.250000
6951,-160.156250
6952,-160.156250
6953,-164.062500
6954,-164.062500
6955,-167.968750
6956,-167.968750
6957,-171.875000
6958,-171.875000
6959,-175.781250
6960,-175.781250
6961,-179.687500
6962,-179.687500
6963,-183.593750
6964,-183.593750
6965,-183.593750
6966,-187.500000
6967,-187.500000
6968,-187.500000
6969,-191.406250
6970,-191.406250
6971,-191.406250
6972,-195.312500
6973,-195.312500
6974,-199.218750
6975,-195.312500
6976,-199.218750
6977,-199.218750
6978,-203.125000
6979,-203.125000
6980,-203.125000
6981,-203.125000
6982,-203.125000
6983,-207.031250
6984,-207.031250
6985,-207.031250
6986,-207.031250
6987,-207.031250
6988,-210.937500
6989,-210.937500
6990,-210.937500
6991,-210.937500
6992,-210.937500
6993,-210.937500
6994,-210.937500
6995,-210.937500
6996,-210.937500
6997,-210.937500
6998,-214.843750
6999,-210.937500
7000,-210.937500
7001,-210.937500
7002,-210.937500
7003,-210.937500
7004,-210.937500
7005,-210.937500
7006,-210.937500
7007,-210.937500
7008,-210.937500
7009,-210.937500
7010,-210.937500
7011,-207.031250
7012,-207.031250
7013,-207.031250
7014,-207.031250
7015,-207.031250
7016,-203.125000
7017,-203.125000
7018,-203.125000
7019,-203.125000
7020,-203.125000
7021,-199.218750
7022,-199.218750
7023,-199.218750
7024,-199.218750
7025,-195.312500
7026,-195.312500
7027,-191.406250
7028,-191.406250
7029,-191.406250
7030,-187.500000
7031,-187.500000
7032,-187.500000
7033,-183.593750
7034,-183.593750
7035,-179.687500
7036,-179.687500
7037,-175.781250
7038,-175.781250
7039,-175.781250
7040,-171.875000
7041,-171.875000
7042,-167.968750
7043,-167.968750
7044,-164.062500
7045,-164.062500
7046,-160.156250
7047,-160.156250
7048,-156.250000
7049,-152.343750
7050,-152.343750
7051,-148.437500
7052,-148.437500
7053,-144.531250
7054,-144.531250
7055,-140.625000
7056,-136.718750
7057,-136.718750
7058,-132.812500
7059,-132.812500
7060,-128.906250
7061,-125.000000
7062,-125.000000
7063,-121.093750
7064,-121.093750
7065,-117.187500
7066,-113.281250
7067,-109.375000
7068,-109.375000
7069,-105.468750
7070,-101.562500
7071,-101.562500
7072,-97.656250
7073,-93.750000
7074,-93.750000
7075,-89.843750
7076,-85.937500
7077,-82.031250
7078,-82.031250
7079,-78.125000
7080,-74.218750
7081,-74.218750
7082,-70.312500
7083,-66.406250
7084,-62.500000
7085,-62.500000
7086,-58.593750
7087,-54.687500
7088,-50.781250
7089,-50.781250
7090,-46.875000
7091,-42.968750
7092,-39.062500
7093,-39.062500
7094,-35.156250
7095,-31.250000
7096,-31.250000
7097,-27.343750
7098,-23.437500
7099,-19.531250
7100,-19.531250
7101,-15.625000
7102,-11.718750
7103,-7.812500
7104,-3.906250
7105,-3.906250
7106,0.000000
7107,0.000000
7108,3.906250
7109,7.812500
7110,11.718750
7111,11.718750
7112,15.625000
7113,15.625000
7114,19.531250
7115,23.437500
7116,23.437500
7117,27.343750
7118,31.250000
7119,35.156250
7120,35.156250
7121,39.062500
7122,39.062500
7123,42.968750
7124,46.875000
7125,46.875000
7126,50.781250
7127,50.781250
7128,54.687500
7129,58.593750
7130,58.593750
7131,62.500000
7132,62.500000
7133,66.406250
7134,70.312500
7135,70.312500
7136,74.218750
7137,74.218750
7138,78.125000
7139,78.125000
7140,82.031250
7141,82.031250
7142,85.937500
7143,89.843750
7144,89.843750
7145,89.843750
7146,93.750000
7147,93.750000
7148,97.656250
7149,97.656250
7150,101.562500
7151,101.562500
7152,105.468750
7153,105.468750
7154,105.468750
7155,109.375000
7156,109.375000
7157,113.281250
7158,113.281250
7159,117.187500
7160,117.187500
7161,117.187500
7162,121.093750
7163,121.093750
7164,121.093750
7165,125.000000
7166,125.000000
7167,125.000000
7168,125.000000
7169,128.906250
7170,128.906250
7171,128.906250
7172,132.812500
7173,132.812500
7174,132.812500
7175,132.812500
7176,136.718750
7177,136.718750
7178,136.718750
7179,136.718750
7180,136.718750
7181,140.625000
7182,140.625000
7183,140.625000
7184,140.625000
7185,140.625000
7186,144.531250
7187,144.531250
7188,144.531250
7189,148.437500
7190,144.531250
7191,144.531250
7192,148.437500
7193,144.531250
7194,148.437500
7195,148.437500
7196,148.437500
7197,148.437500
7198,148.437500
7199,148.437500
7200,148.437500
7201,148.437500
7202,148.437500
7203,148.437500
7204,148.437500
7205,148.437500
7206,148.437500
7207,148.437500
7208,152.343750
7209,148.437500
7210,148.437500
7211,148.437500
7212,152.343750
7213,148.437500
7214,148.437500
7215,148.437500
7216,148.437500
7217,148.437500
7218,148.437500
7219,148.437500
7220,148.437500
7221,148.437500
7222,148.437500
7223,148.437500
7224,144.531250
7225,144.531250
7226,144.531250
7227,144.531250
7228,144.531250
7229,144.531250
7230,144.531250
7231,140.625000
7232,140.625000
7233,140.625000
7234,140.625000
7235,140.625000
7236,136.718750
7237,136.718750
7238,136.718750
7239,136.718750
7240,132.812500
7241,132.812500
7242,132.812500
7243,128.906250
7244,128.906250
7245,128.906250
7246,128.906250
7247,125.000000
7248,125.000000
7249,125.000000
7250,121.093750
7251,121.093750
7252,121.093750
7253,121.093750
7254,117.187500
7255,117.187500
7256,113.281250
7257,113.281250
7258,113.281250
7259,109.375000
7260,109.375000
7261,105.468750
7262,105.468750
7263,105.468750
7264,101.562500
7265,101.562500
7266,97.656250
7267,97.656250
7268,93.750000
7269,93.750000
7270,89.843750
7271,89.843750
7272,89.843750
7273,85.937500
7274,85.937500
7275,82.031250
7276,78.125000
7277,78.125000
7278,74.218750
7279,74.218750
7280,70.312500
7281,70.312500
7282,66.406250
7283,66.406250
7284,62.500000
7285,58.593750
7286,58.593750
7287,54.687500
7288,54.687500
7289,50.781250
7290,46.875000
7291,46.875000
7292,42.968750
7293,39.062500
7294,39.062500
7295,35.156250
7296,31.250000
7297,31.250000
7298,27.343750
7299,23.437500
7300,23.437500
7301,19.531250
7302,15.625000
7303,15.625000
7304,11.718750
7305,7.812500
7306,3.906250
7307,3.906250
7308,0.000000
7309,-3.906250
7310,-3.906250
7311,-7.812500
7312,-11.718750
7313,-15.625000
7314,-15.625000
7315,-19.531250
7316,-23.437500
7317,-23.437500
7318,-27.343750
7319,-31.250000
7320,-35.156250
7321,-35.156250
7322,-39.062500
7323,-42.968750
7324,-46.875000
7325,-46.875000
7326,-50.781250
7327,-54.687500
7328,-54.687500
7329,-58.593750
7330,-62.500000
7331,-66.406250
7332,-66.406250
7333,-70.312500
7334,-74.218750
7335,-78.125000
7336,-78.125000
7337,-82.031250
7338,-85.937500
7339,-89.843750
7340,-89.843750
7341,-93.750000
7342,-93.750000
7343,-97.656250
7344,-101.562500
7345,-105.468750
7346,-105.468750
7347,-109.375000
7348,-113.281250
7349,-113.281250
7350,-117.187500
7351,-121.093750
7352,-121.093750
7353,-125.000000
7354,-128.906250
7355,-128.906250
7356,-132.812500
7357,-136.718750
7358,-136.718750
7359,-140.625000
7360,-140.625000
7361,-144.531250
7362,-148.437500
7363,-148.437500
7364,-152.343750
7365,-152.343750
7366,-156.250000
7367,-156.250000
7368,-160.156250
7369,-164.062500
7370,-164.062500
7371,-164.062500
7372,-167.968750
7373,-167.968750
7374,-171.875000
7375,-171.875000
7376,-175.781250
7377,-175.781250
7378,-179.687500
7379,-179.687500
7380,-183.593750
7381,-183.593750
7382,-183.593750
7383,-187.500000
7384,-187.500000
7385,-191.406250
7386,-191.406250
7387,-191.406250
7388,-195.312500
7389,-195.312500
7390,-195.312500
7391,-195.312500
7392,-199.218750
7393,-199.218750
7394,-199.218750
7395,-203.125000
7396,-203.125000
7397,-203.125000
7398,-203.125000
7399,-207.031250
7400,-207.031250
7401,-207.031250
7402,-207.031250
7403,-207.031250
7404,-207.031250
7405,-210.937500
7406,-210.937500
7407,-210.937500
7408,-210.937500
7409,-210.937500
7410,-210.937500
7411,-210.937500
7412,-210.937500
7413,-210.937500
7414,-210.937500
7415,-210.937500
7416,-210.937500
7417,-210.937500
7418,-210.937500
7419,-210.937500
7420,-210.937500
7421,-210.937500
7422,-210.937500
7423,-210.937500
7424,-210.937500
7425,-210.937500
7426,-210.937500
7427,-210.937500
7428,-210.937500
7429,-207.031250
7430,-207.031250
7431,-207.031250
7432,-207.031250
7433,-207.031250
7434,-203.125000
7435,-203.125000
7436,-203.125000
7437,-199.218750
7438,-199.218750
7439,-199.218750
7440,-199.218750
7441,-195.312500
7442,-195.312500
7443,-195.312500
7444,-195.312500
7445,-191.406250
7446,-191.406250
7447,-187.500000
7448,-187.500000
7449,-183.593750
7450,-183.593750
7451,-183.593750
7452,-179.687500
7453,-179.687500
7454,-179.687500
7455,-171.875000
7456,-175.781250
7457,-171.875000
7458,-171.875000
7459,-167.968750
7460,-171.875000
7461,-164.062500
7462,-160.156250
7463,-164.062500
7464,-156.250000
7465,-156.250000
7466,-152.343750
7467,-152.343750
7468,-148.437500
7469,-144.531250
7470,-144.531250
7471,-144.531250
7472,-140.625000
7473,-136.718750
7474,-132.812500
7475,-132.812500
7476,-128.906250
7477,-128.906250
7478,-125.000000
7479,-125.000000
7480,-121.093750
7481,-117.187500
7482,-113.281250
7483,-113.281250
7484,-109.375000
7485,-105.468750
7486,-101.562500
7487,-101.562500
7488,-97.656250
7489,-93.750000
7490,-93.750000
7491,-89.843750
7492,-89.843750
7493,-85.937500
7494,-78.125000
7495,-78.125000
7496,-78.125000
7497,-74.218750
7498,-70.312500
7499,-66.406250
7500,-66.406250
7501,-62.500000
7502,-58.593750
7503,-58.593750
7504,-54.687500
7505,-50.781250
7506,-46.875000
7507,-46.875000
7508,-42.968750
7509,-39.062500
7510,-39.062500
7511,-35.156250
7512,-31.250000
7513,-27.343750
7514,-23.437500
7515,-23.437500
7516,-19.531250
7517,-15.625000
7518,-15.625000
7519,-11.718750
7520,-7.812500
7521,-7.812500
7522,-3.906250
7523,0.000000
7524,3.906250
7525,3.906250
7526,7.812500
7527,11.718750
7528,15.625000
7529,15.625000
7530,19.531250
7531,23.437500
7532,23.437500
7533,27.343750
7534,27.343750
7535,31.250000
7536,35.156250
7537,35.156250
7538,39.062500
7539,42.968750
7540,46.875000
7541,46.875000
7542,50.781250
7543,50.781250
7544,54.687500
7545,58.593750
7546,58.593750
7547,62.500000
7548,62.500000
7549,66.406250
7550,66.406250
7551,70.312500
7552,74.218750
7553,74.218750
7554,78.125000
7555,78.125000
7556,82.031250
7557,82.031250
7558,85.937500
7559,85.937500
7560,89.843750
7561,89.843750
7562,89.843750
7563,93.750000
7564,97.656250
7565,97.656250
7566,101.562500
7567,101.562500
7568,101.562500
7569,105.468750
7570,105.468750
7571,109.375000
7572,109.375000
7573,109.375000
7574,113.281250
7575,113.281250
7576,113.281250
7577,117.187500
7578,117.187500
7579,121.093750
7580,121.093750
7581,121.093750
7582,125.000000
7583,125.000000
7584,125.000000
7585,125.000000
7586,128.906250
7587,128.906250
7588,128.906250
7589,132.812500
7590,132.812500
7591,132.812500
7592,132.812500
7593,136.718750
7594,136.718750
7595,136.718750
7596,136.718750
7597,140.625000
7598,140.625000
7599,140.625000
7600,140.625000
7601,144.531250
7602,140.625000
7603,144.531250
7604,144.531250
7605,144.531250
7606,144.531250
7607,144.531250
7608,144.531250
7609,144.531250
7610,148.437500
7611,148.437500
7612,148.437500
7613,148.437500
7614,148.437500
7615,148.437500
7616,148.437500
7617,148.437500
7618,148.437500
7619,148.437500
7620,148.437500
7621,148.437500
7622,148.437500
7623,148.437500
7624,148.437500
7625,148.437500
7626,148.437500
7627,148.437500
7628,148.437500
7629,148.437500
7630,148.437500
7631,148.437500
7632,148.437500
7633,148.437500
7634,148.437500
7635,148.437500
7636,148.437500
7637,148.437500
7638,148.437500
7639,144.531250
7640,144.531250
7641,144.531250
7642,144.531250
7643,144.531250
7644,144.531250
7645,144.531250
7646,140.625000
7647,140.625000
7648,140.625000
7649,140.625000
7650,140.625000
7651,140.625000
7652,140.625000
7653,136.718750
7654,136.718750
7655,136.718750
7656,136.718750
7657,132.812500
7658,132.812500
7659,132.812500
7660,132.812500
7661,128.906250
7662,128.906250
7663,128.906250
7664,125.000000
7665,125.000000
7666,125.000000
7667,121.093750
7668,121.093750
7669,121.093750
7670,121.093750
7671,117.187500
7672,113.281250
7673,113.281250
7674,113.281250
7675,113.281250
7676,109.375000
7677,109.375000
7678,105.468750
7679,105.468750
7680,105.468750
7681,101.562500
7682,101.562500
7683,97.656250
7684,97.656250
7685,93.750000
7686,93.750000
7687,89.843750
7688,89.843750
7689,85.937500
7690,85.937500
7691,85.937500
7692,82.031250
7693,78.125000
7694,78.125000
7695,74.218750
7696,74.218750
7697,70.312500
7698,66.406250
7699,66.406250
7700,62.500000
7701,62.500000
7702,58.593750
7703,54.687500
7704,54.687500
7705,54.687500
7706,50.781250
7707,46.875000
7708,42.968750
7709,42.968750
7710,39.062500
7711,35.156250
7712,35.156250
7713,31.250000
7714,31.250000
7715,27.343750
7716,23.437500
7717,23.437500
7718,19.531250
7719,15.625000
7720,11.718750
7721,11.718750
7722,7.812500
7723,7.812500
7724,3.906250
7725,0.000000
7726,-3.906250
7727,-3.906250
7728,-7.812500
7729,-11.718750
7730,-15.625000
7731,-19.531250
7732,-19.531250
7733,-23.437500
7734,-27.343750
7735,-27.343750
7736,-31.250000
7737,-35.156250
7738,-39.062500
7739,-39.062500
7740,-42.968750
7741,-46.875000
7742,-46.875000
7743,-50.781250
7744,-54.687500
7745,-54.687500
7746,-62.500000
7747,-62.500000
7748,-66.406250
7749,-70.312500
7750,-70.312500
7751,-74.218750
7752,-78.125000
7753,-82.031250
7754,-82.031250
7755,-85.937500
7756,-89.843750
7757,-89.843750
7758,-93.750000
7759,-97.656250
7760,-101.562500
7761,-101.562500
7762,-105.468750
7763,-109.375000
7764,-109.375000
7765,-113.281250
7766,-117.187500
7767,-117.187500
7768,-121.093750
7769,-121.093750
7770,-125.000000
7771,-128.906250
7772,-132.812500
7773,-132.812500
7774,-136.718750
7775,-136.718750
7776,-140.625000
7777,-144.531250
7778,-144.531250
7779,-148.437500
7780,-148.437500
7781,-152.343750
7782,-152.343750
7783,-156.250000
7784,-160.156250
7785,-160.156250
7786,-164.062500
7787,-164.062500
7788,-167.968750
7789,-167.968750
7790,-171.875000
7791,-171.875000
7792,-175.781250
7793,-175.781250
7794,-179.687500
7795,-179.687500
7796,-179.687500
7797,-183.593750
7798,-183.593750
7799,-187.500000
7800,-187.500000
7801,-187.500000
7802,-191.406250
7803,-191.406250
7804,-191.406250
7805,-195.312500
7806,-195.312500
7807,-195.312500
7808,-199.218750
7809,-199.218750
7810,-203.125000
7811,-199.218750
7812,-203.125000
7813,-203.125000
7814,-203.125000
7815,-203.125000
7816,-207.031250
7817,-207.031250
7818,-207.031250
7819,-207.031250
7820,-207.031250
7821,-210.937500
7822,-210.937500
7823,-210.937500
7824,-210.937500
7825,-210.937500
7826,-210.937500
7827,-210.937500
7828,-210.937500
7829,-210.937500
7830,-210.937500
7831,-210.937500
7832,-210.937500
7833,-210.937500
7834,-210.937500
7835,-210.937500
7836,-210.937500
7837,-210.937500
7838,-210.937500
7839,-210.937500
7840,-210.937500
7841,-210.937500
7842,-210.937500
7843,-207.031250
7844,-207.031250
7845,-207.031250
7846,-207.031250
7847,-207.031250
7848,-207.031250
7849,-207.031250
7850,-203.125000
7851,-203.125000
7852,-203.125000
7853,-203.125000
7854,-199.218750
7855,-199.218750
7856,-199.218750
7857,-195.312500
7858,-195.312500
7859,-195.312500
7860,-191.406250
7861,-191.406250
7862,-191.406250
7863,-191.406250
7864,-187.500000
7865,-187.500000
7866,-183.593750
7867,-183.593750
7868,-183.593750
7869,-179.687500
7870,-179.687500
7871,-175.781250
7872,-175.781250
7873,-171.875000
7874,-171.875000
7875,-167.968750
7876,-167.968750
7877,-164.062500
7878,-164.062500
7879,-160.156250
7880,-160.156250
7881,-156.250000
7882,-156.250000
7883,-152.343750
7884,-152.343750
7885,-148.437500
7886,-144.531250
7887,-144.531250
7888,-140.625000
7889,-140.625000
7890,-136.718750
7891,-132.812500
7892,-132.812500
7893,-128.906250
7894,-128.906250
7895,-125.000000
7896,-125.000000
7897,-121.093750
7898,-117.187500
7899,-113.281250
7900,-113.281250
7901,-109.375000
7902,-105.468750
7903,-105.468750
7904,-101.562500
7905,-97.656250
7906,-97.656250
7907,-93.750000
7908,-89.843750
7909,-85.937500
7910,-85.937500
7911,-82.031250
7912,-78.125000
7913,-74.218750
7914,-74.218750
7915,-70.312500
7916,-66.406250
7917,-66.406250
7918,-62.500000
7919,-58.593750
7920,-58.593750
7921,-54.687500
7922,-50.781250
7923,-46.875000
7924,-42.968750
7925,-42.968750
7926,-39.062500
7927,-35.156250
7928,-35.156250
7929,-31.250000
7930,-27.343750
7931,-23.437500
7932,-19.531250
7933,-19.531250
7934,-15.625000
7935,-11.718750
7936,-11.718750
7937,-7.812500
7938,-3.906250
7939,-3.906250
7940,0.000000
7941,3.906250
7942,3.906250
7943,7.812500
7944,11.718750
7945,15.625000
7946,15.625000
7947,19.531250
7948,23.437500
7949,23.437500
7950,27.343750
7951,31.250000
7952,31.250000
7953,35.156250
7954,35.156250
7955,39.062500
7956,42.968750
7957,42.968750
7958,46.875000
7959,50.781250
7960,50.781250
7961,54.687500
7962,58.593750
7963,58.593750
7964,62.500000
7965,62.500000
7966,66.406250
7967,66.406250
7968,70.312500
7969,70.312500
7970,74.218750
7971,78.125000
7972,78.125000
7973,82.031250
7974,82.031250
7975,85.937500
7976,85.937500
7977,89.843750
7978,89.843750
7979,93.750000
7980,93.750000
7981,97.656250
7982,97.656250
7983,101.562500
7984,101.562500
7985,101.562500
7986,105.468750
7987,105.468750
7988,109.375000
7989,109.375000
7990,113.281250
7991,113.281250
7992,117.187500
7993,117.187500
7994,117.187500
7995,117.187500
7996,121.093750
7997,121.093750
7998,121.093750
7999,125.000000
8000,125.000000
8001,125.000000
8002,128.906250
8003,128.906250
8004,128.906250
8005,132.812500
8006,132.812500
8007,132.812500
8008,132.812500
8009,136.718750
8010,136.718750
8011,136.718750
8012,136.718750
8013,136.718750
8014,140.625000
8015,140.625000
8016,140.625000
8017,140.625000
8018,140.625000
8019,144.531250
8020,144.531250
8021,144.531250
8022,144.531250
8023,144.531250
8024,144.531250
8025,144.531250
8026,148.437500
8027,148.437500
8028,148.437500
8029,148.437500
8030,148.437500
8031,148.437500
8032,148.437500
8033,148.437500
8034,148.437500
8035,148.437500
8036,148.437500
8037,148.437500
8038,148.437500
8039,148.437500
8040,152.343750
8041,148.437500
8042,152.343750
8043,148.437500
8044,148.437500
8045,148.437500
8046,148.437500
8047,152.343750
8048,148.437500
8049,148.437500
8050,148.437500
8051,148.437500
8052,148.437500
8053,148.437500
8054,148.437500
8055,148.437500
8056,148.437500
8057,148.437500
8058,144.531250
8059,144.531250
8060,144.531250
8061,144.531250
8062,144.531250
8063,140.625000
8064,144.531250
8065,140.625000
8066,140.625000
8067,140.625000
8068,140.625000
8069,136.718750
8070,136.718750
8071,136.718750
8072,136.718750
8073,136.718750
8074,132.812500
8075,132.812500
8076,132.812500
8077,128.906250
8078,128.906250
8079,128.906250
8080,128.906250
8081,125.000000
8082,125.000000
8083,125.000000
8084,121.093750
8085,121.093750
8086,121.093750
8087,117.187500
8088,117.187500
8089,117.187500
8090,113.281250
8091,113.281250
8092,109.375000
8093,109.375000
8094,105.468750
8095,105.468750
8096,105.468750
8097,101.562500
8098,101.562500
8099,101.562500
8100,97.656250
8101,93.750000
8102,93.750000
8103,89.843750
8104,89.843750
8105,89.843750
8106,85.937500
8107,85.937500
8108,82.031250
8109,82.031250
8110,78.125000
8111,74.218750
8112,74.218750
8113,74.218750
8114,70.312500
8115,66.406250
8116,66.406250
8117,62.500000
8118,62.500000
8119,58.593750
8120,54.687500
8121,54.687500
8122,50.781250
8123,50.781250
8124,46.875000
8125,42.968750
8126,42.968750
8127,39.062500
8128,35.156250
8129,35.156250
8130,31.250000
8131,27.343750
8132,27.343750
8133,23.437500
8134,19.531250
8135,19.531250
8136,15.625000
8137,11.718750
8138,7.812500
8139,7.812500
8140,3.906250
8141,0.000000
8142,0.000000
8143,-3.906250
8144,-7.812500
8145,-11.718750
8146,-11.718750
8147,-15.625000
8148,-19.531250
8149,-19.531250
8150,-23.437500
8151,-27.343750
8152,-31.250000
8153,-31.250000
8154,-35.156250
8155,-39.062500
8156,-42.968750
8157,-46.875000
8158,-46.875000
8159,-50.781250
8160,-50.781250
8161,-54.687500
8162,-58.593750
8163,-62.500000
8164,-62.500000
8165,-66.406250
8166,-70.312500
8167,-70.312500
8168,-74.218750
8169,-78.125000
8170,-82.031250
8171,-85.937500
8172,-85.937500
8173,-89.843750
8174,-93.750000
8175,-93.750000
8176,-97.656250
8177,-101.562500
8178,-101.562500
8179,-105.468750
8180,-109.375000
8181,-109.375000
8182,-113.281250
8183,-117.187500
8184,-117.187500
8185,-121.093750
8186,-125.000000
8187,-125.000000
8188,-128.906250
8189,-132.812500
8190,-132.812500
8191,-136.718750
8192,-136.718750
8193,-140.625000
8194,-144.531250
8195,-144.531250
8196,-148.437500
8197,-148.437500
8198,-152.343750
8199,-156.250000
8200,-156.250000
8201,-160.156250
8202,-160.156250
8203,-160.156250
8204,-164.062500
8205,-167.968750
8206,-167.968750
8207,-171.875000
8208,-171.875000
8209,-175.781250
8210,-175.781250
8211,-179.687500
8212,-179.687500
8213,-179.687500
8214,-183.593750
8215,-183.593750
8216,-187.500000
8217,-187.500000
8218,-191.406250
8219,-191.406250
8220,-191.406250
8221,-191.406250
8222,-195.312500
8223,-195.312500
8224,-199.218750
8225,-199.218750
8226,-199.218750
8227,-199.218750
8228,-203.125000
8229,-203.125000
8230,-203.125000
8231,-203.125000
8232,-207.031250
8233,-207.031250
8234,-207.031250
8235,-207.031250
8236,-207.031250
8237,-210.937500
8238,-210.937500
8239,-210.937500
8240,-210.937500
8241,-210.937500
8242,-210.937500
8243,-210.937500
8244,-210.937500
8245,-210.937500
8246,-210.937500
8247,-210.937500
8248,-210.937500
8249,-210.937500
8250,-210.937500
8251,-210.937500
8252,-210.937500
8253,-210.937500
8254,-210.937500
8255,-210.937500
8256,-210.937500
8257,-210.937500
8258,-210.937500
8259,-210.937500
8260,-207.031250
8261,-207.031250
8262,-207.031250
8263,-207.031250
8264,-207.031250
8265,-207.031250
8266,-203.125000
8267,-203.125000
8268,-203.125000
8269,-203.125000
8270,-203.125000
8271,-199.218750
8272,-199.218750
8273,-199.218750
8274,-195.312500
8275,-195.312500
8276,-195.312500
8277,-195.312500
8278,-191.406250
8279,-191.406250
8280,-191.406250
8281,-187.500000
8282,-187.500000
8283,-183.593750
8284,-183.593750
8285,-183.593750
8286,-179.687500
8287,-175.781250
8288,-175.781250
8289,-175.781250
8290,-171.875000
8291,-171.875000
8292,-167.968750
8293,-167.968750
8294,-164.062500
8295,-164.062500
8296,-160.156250
8297,-160.156250
8298,-156.250000
8299,-156.250000
8300,-152.343750
8301,-148.437500
8302,-148.437500
8303,-144.531250
8304,-144.531250
8305,-140.625000
8306,-136.718750
8307,-136.718750
8308,-132.812500
8309,-128.906250
8310,-128.906250
8311,-125.000000
8312,-125.000000
8313,-121.093750
8314,-117.187500
8315,-117.187500
8316,-113.281250
8317,-109.375000
8318,-109.375000
8319,-105.468750
8320,-101.562500
8321,-101.562500
8322,-97.656250
8323,-93.750000
8324,-89.843750
8325,-89.843750
8326,-85.937500
8327,-82.031250
8328,-82.031250
8329,-78.125000
8330,-74.218750
8331,-74.218750
8332,-70.312500
8333,-66.406250
8334,-62.500000
8335,-62.500000
8336,-58.593750
8337,-54.687500
8338,-50.781250
8339,-50.781250
8340,-46.875000
8341,-42.968750
8342,-42.968750
8343,-39.062500
8344,-35.156250
8345,-31.250000
8346,-27.343750
8347,-27.343750
8348,-23.437500
8349,-19.531250
8350,-15.625000
8351,-15.625000
8352,-11.718750
8353,-7.812500
8354,-7.812500
8355,-3.906250
8356,0.000000
8357,3.906250
8358,3.906250
8359,7.812500
8360,11.718750
8361,11.718750
8362,15.625000
8363,19.531250
8364,19.531250
8365,23.437500
8366,27.343750
8367,31.250000
8368,31.250000
8369,35.156250
8370,35.156250
8371,39.062500
8372,42.968750
8373,42.968750
8374,46.875000
8375,46.875000
8376,50.781250
8377,54.687500
8378,54.687500
8379,58.593750
8380,62.500000
8381,62.500000
8382,66.406250
8383,70.312500
8384,70.312500
8385,70.312500
8386,74.218750
8387,78.125000
8388,78.125000
8389,78.125000
8390,82.031250
8391,82.031250
8392,85.937500
8393,89.843750
8394,89.843750
8395,93.750000
8396,93.750000
8397,93.750000
8398,97.656250
8399,97.656250
8400,101.562500
8401,101.562500
8402,105.468750
8403,105.468750
8404,105.468750
8405,109.375000
8406,109.375000
8407,113.281250
8408,113.281250
8409,117.187500
8410,117.187500
8411,117.187500
8412,121.093750
8413,121.093750
8414,121.093750
8415,121.093750
8416,125.000000
8417,125.000000
8418,128.906250
8419,128.906250
8420,128.906250
8421,128.906250
8422,132.812500
8423,132.812500
8424,132.812500
8425,132.812500
8426,136.718750
8427,136.718750
8428,136.718750
8429,136.718750
8430,140.625000
8431,140.625000
8432,140.625000
8433,140.625000
8434,140.625000
8435,144.531250
8436,144.531250
8437,144.531250
8438,144.531250
8439,148.437500
8440,144.531250
8441,148.437500
8442,148.437500
8443,148.437500
8444,148.437500
8445,148.437500
8446,148.437500
8447,148.437500
8448,148.437500
8449,148.437500
8450,148.437500
8451,148.437500
8452,148.437500
8453,148.437500
8454,148.437500
8455,152.343750
8456,148.437500
8457,152.343750
8458,148.437500
8459,148.437500
8460,148.437500
8461,148.437500
8462,148.437500
8463,148.437500
8464,148.437500
8465,148.437500
8466,148.437500
8467,148.437500
8468,148.437500
8469,148.437500
8470,148.437500
8471,148.437500
8472,144.531250
8473,144.531250
8474,144.531250
8475,144.531250
8476,144.531250
8477,144.531250
8478,144.531250
8479,144.531250
8480,140.625000
8481,140.625000
8482,140.625000
8483,140.625000
8484,140.625000
8485,140.625000
8486,136.718750
8487,136.718750
8488,136.718750
8489,136.718750
8490,136.718750
8491,132.812500
8492,132.812500
8493,132.812500
8494,128.906250
8495,128.906250
8496,128.906250
8497,128.906250
8498,125.000000
8499,125.000000
8500,121.093750
8501,121.093750
8502,121.093750
8503,117.187500
8504,117.187500
8505,117.187500
8506,117.187500
8507,113.281250
8508,113.281250
8509,109.375000
8510,109.375000
8511,105.468750
8512,105.468750
8513,101.562500
8514,101.562500
8515,101.562500
8516,97.656250
8517,97.656250
8518,93.750000
8519,93.750000
8520,89.843750
8521,89.843750
8522,85.937500
8523,85.937500
8524,82.031250
8525,82.031250
8526,78.125000
8527,78.125000
8528,74.218750
8529,74.218750
8530,70.312500
8531,70.312500
8532,66.406250
8533,66.406250
8534,62.500000
8535,58.593750
8536,58.593750
8537,54.687500
8538,50.781250
8539,50.781250
8540,46.875000
8541,42.968750
8542,42.968750
8543,39.062500
8544,39.062500
8545,35.156250
8546,31.250000
8547,31.250000
8548,27.343750
8549,23.437500
8550,23.437500
8551,19.531250
8552,15.625000
8553,15.625000
8554,11.718750
8555,7.812500
8556,7.812500
8557,0.000000
8558,0.000000
8559,-3.906250
8560,-3.906250
8561,-7.812500
8562,-11.718750
8563,-7.812500
8564,-15.625000
8565,-19.531250
8566,-23.437500
8567,-23.437500
8568,-27.343750
8569,-31.250000
8570,-31.250000
8571,-35.156250
8572,-39.062500
8573,-39.062500
8574,-42.968750
8575,-46.875000
8576,-50.781250
8577,-54.687500
8578,-54.687500
8579,-58.593750
8580,-62.500000
8581,-62.500000
8582,-66.406250
8583,-70.312500
8584,-74.218750
8585,-78.125000
8586,-78.125000
8587,-82.031250
8588,-85.937500
8589,-85.937500
8590,-89.843750
8591,-93.750000
8592,-93.750000
8593,-97.656250
8594,-101.562500
8595,-105.468750
8596,-105.468750
8597,-109.375000
8598,-113.281250
8599,-113.281250
8600,-117.187500
8601,-121.093750
8602,-121.093750
8603,-125.000000
8604,-128.906250
8605,-128.906250
8606,-132.812500
8607,-132.812500
8608,-136.718750
8609,-140.625000
8610,-140.625000
8611,-144.531250
8612,-148.437500
8613,-148.437500
8614,-152.343750
8615,-152.343750
8616,-156.250000
8617,-156.250000
8618,-160.156250
8619,-164.062500
8620,-164.062500
8621,-167.968750
8622,-167.968750
8623,-167.968750
8624,-171.875000
8625,-171.875000
8626,-175.781250
8627,-175.781250
8628,-179.687500
8629,-179.687500
8630,-183.593750
8631,-183.593750
8632,-187.500000
8633,-187.500000
8634,-187.500000
8635,-187.500000
8636,-191.406250
8637,-191.406250
8638,-195.312500
8639,-195.312500
8640,-195.312500
8641,-199.218750
8642,-199.218750
8643,-199.218750
8644,-199.218750
8645,-203.125000
8646,-203.125000
8647,-203.125000
8648,-207.031250
8649,-207.031250
8650,-207.031250
8651,-207.031250
8652,-207.031250
8653,-210.937500
8654,-210.937500
8655,-210.937500
8656,-210.937500
8657,-210.937500
8658,-210.937500
8659,-210.937500
8660,-210.937500
8661,-210.937500
8662,-210.937500
8663,-210.937500
8664,-210.937500
8665,-210.937500
8666,-210.937500
8667,-210.937500
8668,-210.937500
8669,-210.937500
8670,-210.937500
8671,-210.937500
8672,-210.937500
8673,-210.937500
8674,-210.937500
8675,-210.937500
8676,-210.937500
8677,-210.937500
8678,-207.031250
8679,-207.031250
8680,-207.031250
8681,-207.031250
8682,-207.031250
8683,-207.031250
8684,-203.125000
8685,-203.125000
8686,-203.125000
8687,-199.218750
8688,-199.218750
8689,-199.218750
8690,-195.312500
8691,-195.312500
8692,-195.312500
8693,-195.312500
8694,-191.406250
8695,-191.406250
8696,-191.406250
8697,-187.500000
8698,-187.500000
8699,-187.500000
8700,-183.593750
8701,-183.593750
8702,-179.687500
8703,-179.687500
8704,-175.781250
8705,-175.781250
8706,-171.875000
8707,-171.875000
8708,-167.968750
8709,-167.968750
8710,-167.968750
8711,-164.062500
8712,-164.062500
8713,-160.156250
8714,-156.250000
8715,-156.250000
8716,-152.343750
8717,-152.343750
8718,-148.437500
8719,-144.531250
8720,-144.531250
8721,-140.625000
8722,-140.625000
8723,-136.718750
8724,-136.718750
8725,-132.812500
8726,-132.812500
8727,-128.906250
8728,-125.000000
8729,-121.093750
8730,-121.093750
8731,-117.187500
8732,-113.281250
8733,-113.281250
8734,-109.375000
8735,-105.468750
8736,-105.468750
8737,-101.562500
8738,-101.562500
8739,-93.750000
8740,-93.750000
8741,-89.843750
8742,-89.843750
8743,-85.937500
8744,-82.031250
8745,-78.125000
8746,-78.125000
8747,-74.218750
8748,-70.312500
8749,-66.406250
8750,-66.406250
8751,-62.500000
8752,-58.593750
8753,-54.687500
8754,-54.687500
8755,-50.781250
8756,-46.875000
8757,-42.968750
8758,-42.968750
8759,-39.062500
8760,-35.156250
8761,-35.156250
8762,-31.250000
8763,-27.343750
8764,-23.437500
8765,-23.437500
8766,-19.531250
8767,-15.625000
8768,-11.718750
8769,-11.718750
8770,-7.812500
8771,-3.906250
8772,-3.906250
8773,0.000000
8774,3.906250
8775,7.812500
8776,7.812500
8777,11.718750
8778,11.718750
8779,15.625000
8780,19.531250
8781,23.437500
8782,23.437500
8783,27.343750
8784,31.250000
8785,31.250000
8786,35.156250
8787,39.062500
8788,39.062500
8789,42.968750
8790,42.968750
8791,46.875000
8792,50.781250
8793,50.781250
8794,54.687500
8795,54.687500
8796,58.593750
8797,62.500000
8798,62.500000
8799,66.406250
8800,66.406250
8801,70.312500
8802,74.218750
8803,74.218750
8804,78.125000
8805,78.125000
8806,82.031250
8807,82.031250
8808,85.937500
8809,85.937500
8810,89.843750
8811,89.843750
8812,93.750000
8813,93.750000
8814,97.656250
8815,97.656250
8816,101.562500
8817,101.562500
8818,105.468750
8819,105.468750
8820,105.468750
8821,109.375000
8822,109.375000
8823,109.375000
8824,113.281250
8825,113.281250
8826,117.187500
8827,117.187500
8828,117.187500
8829,121.093750
8830,121.093750
8831,121.093750
8832,125.000000
8833,125.000000
8834,125.000000
8835,128.906250
8836,128.906250
8837,128.906250
8838,128.906250
8839,132.812500
8840,132.812500
8841,132.812500
8842,136.718750
8843,136.718750
8844,136.718750
8845,136.718750
8846,140.625000
8847,140.625000
8848,140.625000
8849,140.625000
8850,140.625000
8851,144.531250
8852,144.531250
8853,144.531250
8854,144.531250
8855,144.531250
8856,144.531250
8857,144.531250
8858,144.531250
8859,148.437500
8860,148.437500
8861,148.437500
8862,148.437500
8863,148.437500
8864,148.437500
8865,148.437500
8866,148.437500
8867,148.437500
8868,148.437500
8869,148.437500
8870,148.437500
8871,148.437500
8872,148.437500
8873,148.437500
8874,148.437500
8875,148.437500
8876,148.437500
8877,148.437500
8878,148.437500
8879,148.437500
8880,148.437500
8881,148.437500
8882,148.437500
8883,148.437500
8884,148.437500
8885,148.437500
8886,148.437500
8887,148.437500
8888,148.437500
8889,148.437500
8890,148.437500
8891,144.531250
8892,144.531250
8893,144.531250
8894,144.531250
8895,144.531250
8896,144.531250
8897,140.625000
8898,140.625000
8899,140.625000
8900,140.625000
8901,140.625000
8902,140.625000
8903,136.718750
8904,136.718750
8905,136.718750
8906,136.718750
8907,136.718750
8908,132.812500
8909,132.812500
8910,132.812500
8911,132.812500
8912,128.906250
8913,128.906250
8914,125.000000
8915,125.000000
8916,125.000000
8917,125.000000
8918,121.093750
8919,121.093750
8920,121.093750
8921,117.187500
8922,117.187500
8923,113.281250
8924,113.281250
8925,113.281250
8926,109.375000
8927,109.375000
8928,105.468750
8929,105.468750
8930,105.468750
8931,101.562500
8932,101.562500
8933,97.656250
8934,97.656250
8935,93.750000
8936,93.750000
8937,89.843750
8938,89.843750
8939,85.937500
8940,85.937500
8941,82.031250
8942,82.031250
8943,78.125000
8944,78.125000
8945,74.218750
8946,74.218750
8947,70.312500
8948,66.406250
8949,66.406250
8950,62.500000
8951,62.500000
8952,58.593750
8953,58.593750
8954,54.687500
8955,50.781250
8956,50.781250
8957,46.875000
8958,46.875000
8959,42.968750
8960,39.062500
8961,39.062500
8962,35.156250
8963,31.250000
8964,31.250000
8965,27.343750
8966,23.437500
8967,23.437500
8968,19.531250
8969,15.625000
8970,15.625000
8971,11.718750
8972,7.812500
8973,3.906250
8974,3.906250
8975,0.000000
8976,-3.906250
8977,-3.906250
8978,-7.812500
8979,-11.718750
8980,-15.625000
8981,-15.625000
8982,-19.531250
8983,-23.437500
8984,-27.343750
8985,-27.343750
8986,-31.250000
8987,-35.156250
8988,-35.156250
8989,-39.062500
8990,-42.968750
8991,-46.875000
8992,-46.875000
8993,-50.781250
8994,-54.687500
8995,-58.593750
8996,-58.593750
8997,-62.500000
8998,-66.406250
8999,-70.312500
9000,-70.312500
9001,-74.218750
9002,-78.125000
9003,-78.125000
9004,-82.031250
9005,-85.937500
9006,-89.843750
9007,-89.843750
9008,-93.750000
9009,-97.656250
9010,-97.656250
9011,-101.562500
9012,-105.468750
9013,-105.468750
9014,-109.375000
9015,-113.281250
9016,-113.281250
9017,-117.187500
9018,-121.093750
9019,-121.093750
9020,-125.000000
9021,-128.906250
9022,-128.906250
9023,-132.812500
9024,-136.718750
9025,-136.718750
9026,-140.625000
9027,-140.625000
9028,-144.531250
9029,-148.437500
9030,-148.437500
9031,-152.343750
9032,-152.343750
9033,-156.250000
9034,-156.250000
9035,-160.156250
9036,-164.062500
9037,-164.062500
9038,-167.968750
9039,-171.875000
9040,-171.875000
9041,-171.875000
9042,-175.781250
9043,-175.781250
9044,-175.781250
9045,-179.687500
9046,-179.687500
9047,-183.593750
9048,-183.593750
9049,-187.500000
9050,-187.500000
9051,-187.500000
9052,-191.406250
9053,-191.406250
9054,-191.406250
9055,-195.312500
9056,-195.312500
9057,-195.312500
9058,-199.218750
9059,-199.218750
9060,-199.218750
9061,-203.125000
9062,-203.125000
9063,-203.125000
9064,-203.125000
9065,-207.031250
9066,-207.031250
9067,-207.031250
9068,-207.031250
9069,-207.031250
9070,-207.031250
9071,-210.937500
9072,-210.937500
9073,-210.937500
9074,-210.937500
9075,-210.937500
9076,-210.937500
9077,-210.937500
9078,-210.937500
9079,-210.937500
9080,-210.937500
9081,-210.937500
9082,-210.937500
9083,-210.937500
9084,-210.937500
9085,-210.937500
9086,-210.937500
9087,-210.937500
9088,-210.937500
9089,-210.937500
9090,-210.937500
9091,-210.937500
9092,-210.937500
9093,-210.937500
9094,-207.031250
9095,-207.031250
9096,-207.031250
9097,-207.031250
9098,-207.031250
9099,-207.031250
9100,-203.125000
9101,-203.125000
9102,-203.125000
9103,-203.125000
9104,-203.125000
9105,-203.125000
9106,-199.218750
9107,-199.218750
9108,-195.312500
9109,-195.312500
9110,-195.312500
9111,-191.406250
9112,-191.406250
9113,-191.406250
9114,-187.500000
9115,-187.500000
9116,-183.593750
9117,-183.593750
9118,-183.593750
9119,-179.687500
9120,-179.687500
9121,-175.781250
9122,-175.781250
9123,-171.875000
9124,-171.875000
9125,-167.968750
9126,-167.968750
9127,-164.062500
9128,-164.062500
9129,-160.156250
9130,-160.156250
9131,-156.250000
9132,-156.250000
9133,-152.343750
9134,-148.437500
9135,-148.437500
9136,-148.437500
9137,-144.531250
9138,-140.625000
9139,-136.718750
9140,-136.718750
9141,-132.812500
9142,-128.906250
9143,-128.906250
9144,-125.000000
9145,-125.000000
9146,-121.093750
9147,-117.187500
9148,-117.187500
9149,-113.281250
9150,-109.375000
9151,-109.375000
9152,-105.468750
9153,-101.562500
9154,-101.562500
9155,-97.656250
9156,-93.750000
9157,-93.750000
9158,-89.843750
9159,-85.937500
9160,-82.031250
9161,-82.031250
9162,-78.125000
9163,-74.218750
9164,-74.218750
9165,-70.312500
9166,-66.406250
9167,-62.500000
9168,-62.500000
9169,-58.593750
9170,-54.687500
9171,-50.781250
9172,-50.781250
9173,-46.875000
9174,-42.968750
9175,-39.062500
9176,-39.062500
9177,-35.156250
9178,-31.250000
9179,-31.250000
9180,-27.343750
9181,-23.437500
9182,-19.531250
9183,-19.531250
9184,-15.625000
9185,-11.718750
9186,-11.718750
9187,-7.812500
9188,-3.906250
9189,-3.906250
9190,0.000000
9191,3.906250
9192,7.812500
9193,7.812500
9194,11.718750
9195,11.718750
9196,15.625000
9197,19.531250
9198,23.437500
9199,23.437500
9200,27.343750
9201,31.250000
9202,31.250000
9203,35.156250
9204,39.062500
9205,39.062500
9206,42.968750
9207,42.968750
9208,46.875000
9209,50.781250
9210,50.781250
9211,54.687500
9212,58.593750
9213,58.593750
9214,62.500000
9215,66.406250
9216,66.406250
9217,70.312500
9218,70.312500
9219,74.218750
9220,74.218750
9221,78.125000
9222,78.125000
9223,82.031250
9224,82.031250
9225,85.937500
9226,85.937500
9227,89.843750
9228,89.843750
9229,93.750000
9230,93.750000
9231,97.656250
9232,101.562500
9233,101.562500
9234,101.562500
9235,105.468750
9236,105.468750
9237,109.375000
9238,109.375000
9239,109.375000
9240,113.281250
9241,113.281250
9242,113.281250
9243,117.187500
9244,117.187500
9245,117.187500
9246,121.093750
9247,121.093750
9248,121.093750
9249,125.000000
9250,125.000000
9251,128.906250
9252,128.906250
9253,128.906250
9254,128.906250
9255,132.812500
9256,132.812500
9257,132.812500
9258,132.812500
9259,136.718750
9260,136.718750
9261,136.718750
9262,136.718750
9263,136.718750
9264,140.625000
9265,140.625000
9266,140.625000
9267,140.625000
9268,144.531250
9269,144.531250
9270,144.531250
9271,144.531250
9272,144.531250
9273,144.531250
9274,148.437500
9275,144.531250
9276,148.437500
9277,148.437500
9278,148.437500
9279,148.437500
9280,148.437500
9281,148.437500
9282,148.437500
9283,148.437500
9284,148.437500
9285,148.437500
9286,152.343750
9287,152.343750
9288,148.437500
9289,152.343750
9290,148.437500
9291,152.343750
9292,148.437500
9293,152.343750
9294,148.437500
9295,148.437500
9296,148.437500
9297,152.343750
9298,148.437500
9299,148.437500
9300,148.437500
9301,148.437500
9302,148.437500
9303,148.437500
9304,148.437500
9305,148.437500
9306,148.437500
9307,144.531250
9308,144.531250
9309,144.531250
9310,144.531250
9311,144.531250
9312,144.531250
9313,144.531250
9314,140.625000
9315,140.625000
9316,140.625000
9317,140.625000
9318,140.625000
9319,136.718750
9320,136.718750
9321,136.718750
9322,136.718750
9323,136.718750
9324,132.812500
9325,132.812500
9326,132.812500
9327,128.906250
9328,128.906250
9329,128.906250
9330,128.906250
9331,125.000000
9332,125.000000
9333,125.000000
9334,121.093750
9335,121.093750
9336,117.187500
9337,117.187500
9338,117.187500
9339,117.187500
9340,113.281250
9341,113.281250
9342,109.375000
9343,109.375000
9344,109.375000
9345,105.468750
9346,105.468750
9347,105.468750
9348,101.562500
9349,101.562500
9350,97.656250
9351,97.656250
9352,93.750000
9353,93.750000
9354,89.843750
9355,89.843750
9356,85.937500
9357,85.937500
9358,82.031250
9359,82.031250
9360,78.125000
9361,78.125000
9362,74.218750
9363,70.312500
9364,70.312500
9365,66.406250
9366,66.406250
9367,62.500000
9368,62.500000
9369,58.593750
9370,54.687500
9371,54.687500
9372,50.781250
9373,50.781250
9374,46.875000
9375,42.968750
9376,42.968750
9377,39.062500
9378,35.156250
9379,35.156250
9380,31.250000
9381,27.343750
9382,27.343750
9383,23.437500
9384,19.531250
9385,19.531250
9386,15.625000
9387,11.718750
9388,11.718750
9389,7.812500
9390,3.906250
9391,0.000000
9392,0.000000
9393,-3.906250
9394,-7.812500
9395,-7.812500
9396,-11.718750
9397,-15.625000
9398,-15.625000
9399,-19.531250
9400,-23.437500
9401,-27.343750
9402,-31.250000
9403,-31.250000
9404,-35.156250
9405,-39.062500
9406,-39.062500
9407,-42.968750
9408,-46.875000
9409,-46.875000
9410,-50.781250
9411,-54.687500
9412,-58.593750
9413,-62.500000
9414,-62.500000
9415,-66.406250
9416,-70.312500
9417,-70.312500
9418,-74.218750
9419,-78.125000
9420,-82.031250
9421,-82.031250
9422,-85.937500
9423,-89.843750
9424,-93.750000
9425,-93.750000
9426,-97.656250
9427,-101.562500
9428,-101.562500
9429,-105.468750
9430,-109.375000
9431,-109.375000
9432,-113.281250
9433,-117.187500
9434,-117.187500
9435,-121.093750
9436,-125.000000
9437,-125.000000
9438,-128.906250
9439,-132.812500
9440,-132.812500
9441,-136.718750
9442,-140.625000
9443,-140.625000
9444,-144.531250
9445,-144.531250
9446,-148.437500
9447,-152.343750
9448,-152.343750
9449,-156.250000
9450,-156.250000
9451,-160.156250
9452,-160.156250
9453,-164.062500
9454,-164.062500
9455,-167.968750
9456,-167.968750
9457,-171.875000
9458,-171.875000
9459,-175.781250
9460,-175.781250
9461,-175.781250
9462,-179.687500
9463,-179.687500
9464,-183.593750
9465,-183.593750
9466,-187.500000
9467,-187.500000
9468,-187.500000
9469,-191.406250
9470,-191.406250
9471,-191.406250
9472,-195.312500
9473,-195.312500
9474,-199.218750
9475,-199.218750
9476,-199.218750
9477,-199.218750
9478,-203.125000
9479,-203.125000
9480,-203.125000
9481,-203.125000
9482,-207.031250
9483,-207.031250
9484,-207.031250
9485,-207.031250
9486,-207.031250
9487,-207.031250
9488,-210.937500
9489,-210.937500
9490,-210.937500
9491,-210.937500
9492,-210.937500
9493,-210.937500
9494,-210.937500
9495,-210.937500
9496,-210.937500
9497,-210.937500
9498,-210.937500
9499,-210.937500
9500,-210.937500
9501,-210.937500
9502,-210.937500
9503,-214.843750
9504,-210.937500
9505,-210.937500
9506,-210.937500
9507,-210.937500
9508,-210.937500
9509,-210.937500
9510,-210.937500
9511,-207.031250
9512,-207.031250
9513,-207.031250
9514,-207.031250
9515,-207.031250
9516,-207.031250
9517,-203.125000
9518,-203.125000
9519,-203.125000
9520,-203.125000
9521,-199.218750
9522,-199.218750
9523,-199.218750
9524,-199.218750
9525,-195.312500
9526,-195.312500
9527,-195.312500
9528,-191.406250
9529,-191.406250
9530,-187.500000
9531,-187.500000
9532,-187.500000
9533,-183.593750
9534,-183.593750
9535,-179.687500
9536,-179.687500
9537,-179.687500
9538,-175.781250
9539,-175.781250
9540,-171.875000
9541,-171.875000
9542,-167.968750
9543,-167.968750
9544,-164.062500
9545,-164.062500
9546,-160.156250
9547,-160.156250
9548,-156.250000
9549,-152.343750
9550,-152.343750
9551,-148.437500
9552,-148.437500
9553,-144.531250
9554,-144.531250
9555,-140.625000
9556,-136.718750
9557,-136.718750
9558,-132.812500
9559,-128.906250
9560,-128.906250
9561,-125.000000
9562,-121.093750
9563,-121.093750
9564,-117.187500
9565,-117.187500
9566,-113.281250
9567,-109.375000
9568,-109.375000
9569,-105.468750
9570,-101.562500
9571,-97.656250
9572,-97.656250
9573,-93.750000
9574,-93.750000
9575,-89.843750
9576,-85.937500
9577,-82.031250
9578,-82.031250
9579,-78.125000
9580,-74.218750
9581,-70.312500
9582,-70.312500
9583,-66.406250
9584,-62.500000
9585,-58.593750
9586,-58.593750
9587,-54.687500
9588,-50.781250
9589,-50.781250
9590,-46.875000
9591,-42.968750
9592,-39.062500
9593,-35.156250
9594,-35.156250
9595,-31.250000
9596,-27.343750
9597,-27.343750
9598,-23.437500
9599,-19.531250
9600,-15.625000
9601,-15.625000
9602,-11.718750
9603,-7.812500
9604,-3.906250
9605,-3.906250
9606,0.000000
9607,0.000000
9608,3.906250
9609,7.812500
9610,7.812500
9611,11.718750
9612,15.625000
9613,19.531250
9614,19.531250
9615,23.437500
9616,27.343750
9617,31.250000
9618,31.250000
9619,35.156250
9620,35.156250
9621,39.062500
9622,42.968750
9623,42.968750
9624,46.875000
9625,50.781250
9626,50.781250
9627,54.687500
9628,54.687500
9629,58.593750
9630,62.500000
9631,62.500000
9632,66.406250
9633,66.406250
9634,70.312500
9635,70.312500
9636,74.218750
9637,74.218750
9638,78.125000
9639,82.031250
9640,82.031250
9641,85.937500
9642,85.937500
9643,89.843750
9644,89.843750
9645,89.843750
9646,93.750000
9647,93.750000
9648,97.656250
9649,97.656250
9650,101.562500
9651,101.562500
9652,105.468750
9653,105.468750
9654,105.468750
9655,109.375000
9656,109.375000
9657,113.281250
9658,113.281250
9659,117.187500
9660,117.187500
9661,117.187500
9662,117.187500
9663,121.093750
9664,121.093750
9665,125.000000
9666,125.000000
9667,125.000000
9668,128.906250
9669,128.906250
9670,128.906250
9671,128.906250
9672,132.812500
9673,132.812500
9674,132.812500
9675,132.812500
9676,136.718750
9677,136.718750
9678,136.718750
9679,140.625000
9680,140.625000
9681,140.625000
9682,140.625000
9683,140.625000
9684,140.625000
9685,140.625000
9686,144.531250
9687,144.531250
9688,144.531250
9689,144.531250
9690,148.437500
9691,144.531250
9692,148.437500
9693,148.437500
9694,148.437500
9695,148.437500
9696,148.437500
9697,148.437500
9698,148.437500
9699,148.437500
9700,148.437500
9701,148.437500
9702,152.343750
9703,148.437500
9704,152.343750
9705,148.437500
9706,148.437500
9707,148.437500
9708,148.437500
9709,148.437500
9710,152.343750
9711,148.437500
9712,148.437500
9713,152.343750
9714,148.437500
9715,148.437500
9716,148.437500
9717,148.437500
9718,148.437500
9719,148.437500
9720,148.437500
9721,148.437500
9722,148.437500
9723,148.437500
9724,148.437500
9725,144.531250
9726,144.531250
9727,144.531250
9728,144.531250
9729,144.531250
9730,144.531250
9731,140.625000
9732,140.625000
9733,140.625000
9734,140.625000
9735,140.625000
9736,140.625000
9737,136.718750
9738,136.718750
9739,136.718750
9740,132.812500
9741,132.812500
9742,132.812500
9743,132.812500
9744,128.906250
9745,128.906250
9746,128.906250
9747,125.000000
9748,125.000000
9749,125.000000
9750,125.000000
9751,121.093750
9752,121.093750
9753,121.093750
9754,117.187500
9755,117.187500
9756,117.187500
9757,113.281250
9758,113.281250
9759,109.375000
9760,109.375000
9761,109.375000
9762,105.468750
9763,105.468750
9764,101.562500
9765,101.562500
9766,97.656250
9767,97.656250
9768,97.656250
9769,93.750000
9770,89.843750
9771,89.843750
9772,89.843750
9773,85.937500
9774,85.937500
9775,82.031250
9776,82.031250
9777,78.125000
9778,74.218750
9779,74.218750
9780,70.312500
9781,70.312500
9782,70.312500
9783,66.406250
9784,62.500000
9785,58.593750
9786,58.593750
9787,54.687500
9788,54.687500
9789,50.781250
9790,46.875000
9791,46.875000
9792,42.968750
9793,39.062500
9794,39.062500
9795,35.156250
9796,35.156250
9797,31.250000
9798,31.250000
9799,27.343750
9800,23.437500
9801,19.531250
9802,19.531250
9803,15.625000
9804,11.718750
9805,11.718750
9806,7.812500
9807,3.906250
9808,0.000000
9809,0.000000
9810,-3.906250
9811,-7.812500
9812,-7.812500
9813,-11.718750
9814,-15.625000
9815,-19.531250
9816,-19.531250
9817,-23.437500
9818,-27.343750
9819,-27.343750
9820,-31.250000
9821,-35.156250
9822,-42.968750
9823,-39.062500
9824,-42.968750
9825,-46.875000
9826,-50.781250
9827,-50.781250
9828,-54.687500
9829,-58.593750
9830,-62.500000
9831,-62.500000
9832,-66.406250
9833,-70.312500
9834,-74.218750
9835,-78.125000
9836,-78.125000
9837,-82.031250
9838,-85.937500
9839,-85.937500
9840,-89.843750
9841,-93.750000
9842,-93.750000
9843,-97.656250
9844,-101.562500
9845,-101.562500
9846,-105.468750
9847,-109.375000
9848,-113.281250
9849,-113.281250
9850,-113.281250
9851,-121.093750
9852,-121.093750
9853,-125.000000
9854,-128.906250
9855,-128.906250
9856,-132.812500
9857,-132.812500
9858,-136.718750
9859,-140.625000
9860,-140.625000
9861,-144.531250
9862,-144.531250
9863,-148.437500
9864,-148.437500
9865,-152.343750
9866,-156.250000
9867,-156.250000
9868,-160.156250
9869,-160.156250
9870,-164.062500
9871,-164.062500
9872,-167.968750
9873,-167.968750
9874,-171.875000
9875,-171.875000
9876,-175.781250
9877,-175.781250
9878,-179.687500
9879,-179.687500
9880,-183.593750
9881,-183.593750
9882,-183.593750
9883,-187.500000
9884,-187.500000
9885,-191.406250
9886,-191.406250
9887,-191.406250
9888,-191.406250
9889,-195.312500
9890,-195.312500
9891,-199.218750
9892,-199.218750
9893,-199.218750
9894,-199.218750
9895,-203.125000
9896,-203.125000
9897,-203.125000
9898,-207.031250
9899,-203.125000
9900,-207.031250
9901,-207.031250
9902,-207.031250
9903,-207.031250
9904,-207.031250
9905,-210.937500
9906,-210.937500
9907,-210.937500
9908,-210.937500
9909,-210.937500
9910,-210.937500
9911,-210.937500
9912,-210.937500
9913,-210.937500
9914,-210.937500
9915,-210.937500
9916,-210.937500
9917,-214.843750
9918,-210.937500
9919,-210.937500
9920,-210.937500
9921,-210.937500
9922,-210.937500
9923,-210.937500
9924,-210.937500
9925,-210.937500
9926,-210.937500
9927,-207.031250
9928,-207.031250
9929,-207.031250
9930,-207.031250
9931,-207.031250
9932,-207.031250
9933,-203.125000
9934,-203.125000
9935,-203.125000
9936,-203.125000
9937,-199.218750
9938,-199.218750
9939,-199.218750
9940,-195.312500
9941,-195.312500
9942,-195.312500
9943,-195.312500
9944,-191.406250
9945,-191.406250
9946,-187.500000
9947,-187.500000
9948,-187.500000
9949,-183.593750
9950,-183.593750
9951,-183.593750
9952,-179.687500
9953,-179.687500
9954,-175.781250
9955,-175.781250
9956,-175.781250
9957,-171.875000
9958,-171.875000
9959,-167.968750
9960,-167.968750
9961,-164.062500
9962,-164.062500
9963,-160.156250
9964,-156.250000
9965,-156.250000
9966,-152.343750
9967,-152.343750
9968,-148.437500
9969,-144.531250
9970,-144.531250
9971,-140.625000
9972,-140.625000
9973,-136.718750
9974,-136.718750
9975,-132.812500
9976,-128.906250
9977,-128.906250
9978,-125.000000
9979,-121.093750
9980,-121.093750
9981,-117.187500
9982,-117.187500
9983,-113.281250
9984,-109.375000
9985,-109.375000
9986,-105.468750
9987,-101.562500
9988,-97.656250
9989,-97.656250
9990,-93.750000
9991,-89.843750
9992,-85.937500
9993,-85.937500
9994,-82.031250
9995,-78.125000
9996,-78.125000
9997,-74.218750
9998,-70.312500
9999,-66.406250
10000,-66.406250
