Channel              :,CH1
Frequency            :,1.200kHz
Period               :,0.833ms
PK-PK                :,164.1mV
Probe attenuation    :,1X
Voltage per ADC value:,0.244141mV
Time interval        :,2.00000us

index,CH1_Voltage(mV)
1,-50.781250
2,-50.781250
3,-54.687500
4,-46.875000
5,-46.875000
6,-46.875000
7,-46.875000
8,-46.875000
9,-42.968750
10,-42.968750
11,-42.968750
12,-39.062500
13,-39.062500
14,-39.062500
15,-35.156250
16,-35.156250
17,-35.156250
18,-35.156250
19,-31.250000
20,-31.250000
21,-31.250000
22,-27.343750
23,-27.343750
24,-27.343750
25,-27.343750
26,-23.437500
27,-23.437500
28,-23.437500
29,-19.531250
30,-19.531250
31,-19.531250
32,-15.625000
33,-15.625000
34,-15.625000
35,-15.625000
36,-11.718750
37,-11.718750
38,-11.718750
39,-11.718750
40,-7.812500
41,-7.812500
42,-3.906250
43,-3.906250
44,-3.906250
45,-3.906250
46,-3.906250
47,0.000000
48,0.000000
49,0.000000
50,3.906250
51,3.906250
52,3.906250
53,3.906250
54,7.812500
55,7.812500
56,7.812500
57,7.812500
58,11.718750
59,11.718750
60,11.718750
61,11.718750
62,15.625000
63,15.625000
64,15.625000
65,19.531250
66,19.531250
67,19.531250
68,19.531250
69,19.531250
70,23.437500
71,23.437500
72,23.437500
73,23.437500
74,23.437500
75,27.343750
76,27.343750
77,31.250000
78,31.250000
79,27.343750
80,31.250000
81,31.250000
82,31.250000
83,31.250000
84,35.156250
85,35.156250
86,35.156250
87,35.156250
88,35.156250
89,39.062500
90,39.062500
91,39.062500
92,39.062500
93,39.062500
94,39.062500
95,42.968750
96,42.968750
97,42.968750
98,42.968750
99,42.968750
100,42.968750
101,46.875000
102,46.875000
103,46.875000
104,46.875000
105,46.875000
106,46.875000
107,46.875000
108,50.781250
109,50.781250
110,50.781250
111,50.781250
112,50.781250
113,50.781250
114,50.781250
115,50.781250
116,50.781250
117,54.687500
118,50.781250
119,54.687500
120,54.687500
121,54.687500
122,54.687500
123,54.687500
124,54.687500
125,54.687500
126,54.687500
127,54.687500
128,54.687500
129,54.687500
130,54.687500
131,54.687500
132,54.687500
133,54.687500
134,54.687500
135,54.687500
136,54.687500
137,54.687500
138,54.687500
139,54.687500
140,54.687500
141,54.687500
142,54.687500
143,54.687500
144,54.687500
145,54.687500
146,54.687500
147,54.687500
148,54.687500
149,54.687500
150,54.687500
151,54.687500
152,54.687500
153,54.687500
154,54.687500
155,54.687500
156,54.687500
157,54.687500
158,54.687500
159,54.687500
160,50.781250
161,54.687500
162,50.781250
163,50.781250
164,50.781250
165,50.781250
166,50.781250
167,50.781250
168,50.781250
169,50.781250
170,46.875000
171,46.875000
172,46.875000
173,46.875000
174,46.875000
175,46.875000
176,46.875000
177,42.968750
178,42.968750
179,42.968750
180,42.968750
181,42.968750
182,42.968750
183,42.968750
184,39.062500
185,39.062500
186,39.062500
187,39.062500
188,39.062500
189,39.062500
190,35.156250
191,35.156250
192,35.156250
193,35.156250
194,35.156250
195,31.250000
196,31.250000
197,31.250000
198,31.250000
199,27.343750
200,27.343750
201,27.343750
202,27.343750
203,27.343750
204,23.437500
205,19.531250
206,23.437500
207,19.531250
208,19.531250
209,19.531250
210,19.531250
211,15.625000
212,15.625000
213,15.625000
214,15.625000
215,11.718750
216,11.718750
217,11.718750
218,7.812500
219,7.812500
220,7.812500
221,7.812500
222,3.906250
223,3.906250
224,3.906250
225,3.906250
226,0.000000
227,0.000000
228,0.000000
229,-3.906250
230,-3.906250
231,-3.906250
232,-7.812500
233,-7.812500
234,-7.812500
235,-11.718750
236,-11.718750
237,-11.718750
238,-15.625000
239,-15.625000
240,-15.625000
241,-15.625000
242,-15.625000
243,-19.531250
244,-19.531250
245,-23.437500
246,-23.437500
247,-23.437500
248,-23.437500
249,-27.343750
250,-27.343750
251,-27.343750
252,-31.250000
253,-31.250000
254,-31.250000
255,-35.156250
256,-35.156250
257,-35.156250
258,-35.156250
259,-39.062500
260,-39.062500
261,-42.968750
262,-42.968750
263,-42.968750
264,-42.968750
265,-46.875000
266,-46.875000
267,-46.875000
268,-50.781250
269,-50.781250
270,-50.781250
271,-50.781250
272,-54.687500
273,-54.687500
274,-54.687500
275,-58.593750
276,-58.593750
277,-58.593750
278,-58.593750
279,-62.500000
280,-62.500000
281,-62.500000
282,-62.500000
283,-66.406250
284,-66.406250
285,-66.406250
286,-70.312500
287,-70.312500
288,-70.312500
289,-70.312500
290,-74.218750
291,-74.218750
292,-74.218750
293,-74.218750
294,-78.125000
295,-78.125000
296,-78.125000
297,-78.125000
298,-78.125000
299,-82.031250
300,-82.031250
301,-82.031250
302,-82.031250
303,-82.031250
304,-85.937500
305,-85.937500
306,-85.937500
307,-85.937500
308,-85.937500
309,-85.937500
310,-85.937500
311,-89.843750
312,-89.843750
313,-89.843750
314,-89.843750
315,-89.843750
316,-93.750000
317,-89.843750
318,-93.750000
319,-93.750000
320,-93.750000
321,-93.750000
322,-93.750000
323,-93.750000
324,-93.750000
325,-93.750000
326,-93.750000
327,-97.656250
328,-97.656250
329,-97.656250
330,-97.656250
331,-97.656250
332,-93.750000
333,-97.656250
334,-97.656250
335,-97.656250
336,-97.656250
337,-97.656250
338,-97.656250
339,-97.656250
340,-97.656250
341,-97.656250
342,-97.656250
343,-97.656250
344,-97.656250
345,-97.656250
346,-97.656250
347,-97.656250
348,-97.656250
349,-97.656250
350,-97.656250
351,-97.656250
352,-97.656250
353,-97.656250
354,-97.656250
355,-97.656250
356,-97.656250
357,-97.656250
358,-97.656250
359,-97.656250
360,-97.656250
361,-97.656250
362,-93.750000
363,-93.750000
364,-93.750000
365,-93.750000
366,-93.750000
367,-93.750000
368,-93.750000
369,-93.750000
370,-89.843750
371,-93.750000
372,-89.843750
373,-89.843750
374,-89.843750
375,-89.843750
376,-89.843750
377,-89.843750
378,-85.937500
379,-85.937500
380,-85.937500
381,-85.937500
382,-85.937500
383,-82.031250
384,-82.031250
385,-82.031250
386,-82.031250
387,-82.031250
388,-82.031250
389,-78.125000
390,-78.125000
391,-78.125000
392,-78.125000
393,-78.125000
394,-74.218750
395,-74.218750
396,-74.218750
397,-78.125000
398,-74.218750
399,-70.312500
400,-70.312500
401,-70.312500
402,-70.312500
403,-66.406250
404,-66.406250
405,-66.406250
406,-66.406250
407,-62.500000
408,-62.500000
409,-62.500000
410,-62.500000
411,-62.500000
412,-58.593750
413,-58.593750
414,-58.593750
415,-54.687500
416,-54.687500
417,-54.687500
418,-50.781250
419,-50.781250
420,-50.781250
421,-50.781250
422,-46.875000
423,-46.875000
424,-46.875000
425,-42.968750
426,-42.968750
427,-42.968750
428,-42.968750
429,-39.062500
430,-39.062500
431,-35.156250
432,-39.062500
433,-35.156250
434,-35.156250
435,-35.156250
436,-31.250000
437,-31.250000
438,-31.250000
439,-27.343750
440,-27.343750
441,-27.343750
442,-27.343750
443,-23.437500
444,-23.437500
445,-23.437500
446,-19.531250
447,-19.531250
448,-19.531250
449,-19.531250
450,-15.625000
451,-15.625000
452,-15.625000
453,-11.718750
454,-11.718750
455,-11.718750
456,-7.812500
457,-7.812500
458,-7.812500
459,-7.812500
460,-3.906250
461,-3.906250
462,-3.906250
463,0.000000
464,0.000000
465,0.000000
466,0.000000
467,3.906250
468,3.906250
469,3.906250
470,3.906250
471,7.812500
472,7.812500
473,7.812500
474,7.812500
475,11.718750
476,11.718750
477,11.718750
478,11.718750
479,15.625000
480,15.625000
481,15.625000
482,15.625000
483,19.531250
484,19.531250
485,19.531250
486,23.437500
487,19.531250
488,23.437500
489,23.437500
490,23.437500
491,27.343750
492,27.343750
493,27.343750
494,27.343750
495,27.343750
496,31.250000
497,31.250000
498,31.250000
499,31.250000
500,31.250000
501,35.156250
502,35.156250
503,35.156250
504,35.156250
505,35.156250
506,39.062500
507,39.062500
508,39.062500
509,39.062500
510,42.968750
511,42.968750
512,42.968750
513,42.968750
514,42.968750
515,42.968750
516,42.968750
517,46.875000
518,46.875000
519,46.875000
520,46.875000
521,46.875000
522,46.875000
523,46.875000
524,46.875000
525,46.875000
526,50.781250
527,50.781250
528,50.781250
529,50.781250
530,50.781250
531,50.781250
532,50.781250
533,50.781250
534,50.781250
535,50.781250
536,54.687500
537,54.687500
538,54.687500
539,54.687500
540,54.687500
541,54.687500
542,54.687500
543,54.687500
544,54.687500
545,54.687500
546,54.687500
547,54.687500
548,54.687500
549,54.687500
550,54.687500
551,54.687500
552,54.687500
553,54.687500
554,58.593750
555,54.687500
556,54.687500
557,54.687500
558,54.687500
559,54.687500
560,54.687500
561,54.687500
562,54.687500
563,54.687500
564,54.687500
565,54.687500
566,54.687500
567,54.687500
568,54.687500
569,54.687500
570,54.687500
571,54.687500
572,54.687500
573,54.687500
574,54.687500
575,54.687500
576,54.687500
577,54.687500
578,50.781250
579,50.781250
580,50.781250
581,50.781250
582,50.781250
583,50.781250
584,50.781250
585,50.781250
586,50.781250
587,46.875000
588,46.875000
589,46.875000
590,46.875000
591,46.875000
592,46.875000
593,46.875000
594,42.968750
595,42.968750
596,42.968750
597,42.968750
598,42.968750
599,42.968750
600,39.062500
601,39.062500
602,39.062500
603,39.062500
604,39.062500
605,35.156250
606,35.156250
607,35.156250
608,35.156250
609,35.156250
610,31.250000
611,31.250000
612,31.250000
613,31.250000
614,31.250000
615,27.343750
616,27.343750
617,27.343750
618,27.343750
619,27.343750
620,23.437500
621,23.437500
622,23.437500
623,19.531250
624,19.531250
625,19.531250
626,19.531250
627,19.531250
628,15.625000
629,15.625000
630,15.625000
631,15.625000
632,11.718750
633,11.718750
634,11.718750
635,11.718750
636,7.812500
637,7.812500
638,7.812500
639,7.812500
640,3.906250
641,3.906250
642,3.906250
643,0.000000
644,0.000000
645,0.000000
646,0.000000
647,-3.906250
648,-3.906250
649,-3.906250
650,-7.812500
651,-7.812500
652,-7.812500
653,-11.718750
654,-11.718750
655,-11.718750
656,-15.625000
657,-15.625000
658,-15.625000
659,-15.625000
660,-19.531250
661,-19.531250
662,-19.531250
663,-23.437500
664,-23.437500
665,-23.437500
666,-27.343750
667,-27.343750
668,-27.343750
669,-31.250000
670,-31.250000
671,-31.250000
672,-35.156250
673,-35.156250
674,-35.156250
675,-35.156250
676,-39.062500
677,-39.062500
678,-42.968750
679,-42.968750
680,-42.968750
681,-42.968750
682,-46.875000
683,-46.875000
684,-46.875000
685,-50.781250
686,-50.781250
687,-50.781250
688,-50.781250
689,-54.687500
690,-54.687500
691,-54.687500
692,-58.593750
693,-58.593750
694,-58.593750
695,-58.593750
696,-62.500000
697,-62.500000
698,-62.500000
699,-66.406250
700,-66.406250
701,-66.406250
702,-66.406250
703,-66.406250
704,-70.312500
705,-70.312500
706,-70.312500
707,-74.218750
708,-74.218750
709,-74.218750
710,-74.218750
711,-74.218750
712,-78.125000
713,-78.125000
714,-78.125000
715,-78.125000
716,-78.125000
717,-82.031250
718,-82.031250
719,-82.031250
720,-82.031250
721,-82.031250
722,-85.937500
723,-85.937500
724,-85.937500
725,-85.937500
726,-89.843750
727,-85.937500
728,-89.843750
729,-89.843750
730,-89.843750
731,-89.843750
732,-89.843750
733,-93.750000
734,-93.750000
735,-93.750000
736,-93.750000
737,-93.750000
738,-93.750000
739,-93.750000
740,-93.750000
741,-93.750000
742,-97.656250
743,-97.656250
744,-93.750000
745,-97.656250
746,-97.656250
747,-97.656250
748,-97.656250
749,-97.656250
750,-97.656250
751,-97.656250
752,-97.656250
753,-97.656250
754,-97.656250
755,-97.656250
756,-97.656250
757,-97.656250
758,-97.656250
759,-97.656250
760,-97.656250
761,-97.656250
762,-97.656250
763,-97.656250
764,-97.656250
765,-97.656250
766,-97.656250
767,-97.656250
768,-97.656250
769,-97.656250
770,-97.656250
771,-97.656250
772,-97.656250
773,-97.656250
774,-93.750000
775,-97.656250
776,-97.656250
777,-97.656250
778,-93.750000
779,-93.750000
780,-93.750000
781,-93.750000
782,-93.750000
783,-93.750000
784,-93.750000
785,-93.750000
786,-93.750000
787,-93.750000
788,-89.843750
789,-89.843750
790,-89.843750
791,-89.843750
792,-89.843750
793,-89.843750
794,-89.843750
795,-85.937500
796,-85.937500
797,-85.937500
798,-82.031250
799,-85.937500
800,-85.937500
801,-82.031250
802,-82.031250
803,-82.031250
804,-82.031250
805,-82.031250
806,-78.125000
807,-78.125000
808,-78.125000
809,-78.125000
810,-74.218750
811,-74.218750
812,-74.218750
813,-74.218750
814,-74.218750
815,-70.312500
816,-70.312500
817,-70.312500
818,-70.312500
819,-70.312500
820,-66.406250
821,-66.406250
822,-66.406250
823,-62.500000
824,-62.500000
825,-62.500000
826,-62.500000
827,-62.500000
828,-58.593750
829,-58.593750
830,-54.687500
831,-54.687500
832,-54.687500
833,-54.687500
834,-50.781250
835,-50.781250
836,-50.781250
837,-50.781250
838,-46.875000
839,-46.875000
840,-46.875000
841,-42.968750
842,-42.968750
843,-42.968750
844,-42.968750
845,-39.062500
846,-39.062500
847,-39.062500
848,-35.156250
849,-35.156250
850,-35.156250
851,-35.156250
852,-35.156250
853,-31.250000
854,-31.250000
855,-31.250000
856,-27.343750
857,-27.343750
858,-27.343750
859,-23.437500
860,-23.437500
861,-23.437500
862,-23.437500
863,-19.531250
864,-19.531250
865,-15.625000
866,-15.625000
867,-15.625000
868,-15.625000
869,-11.718750
870,-11.718750
871,-11.718750
872,-11.718750
873,-7.812500
874,-7.812500
875,-7.812500
876,-3.906250
877,-3.906250
878,-3.906250
879,-3.906250
880,0.000000
881,0.000000
882,0.000000
883,3.906250
884,3.906250
885,3.906250
886,3.906250
887,7.812500
888,7.812500
889,7.812500
890,7.812500
891,11.718750
892,11.718750
893,7.812500
894,11.718750
895,15.625000
896,15.625000
897,15.625000
898,19.531250
899,19.531250
900,19.531250
901,19.531250
902,19.531250
903,23.437500
904,23.437500
905,23.437500
906,23.437500
907,27.343750
908,27.343750
909,27.343750
910,27.343750
911,27.343750
912,31.250000
913,31.250000
914,31.250000
915,31.250000
916,31.250000
917,35.156250
918,35.156250
919,35.156250
920,35.156250
921,35.156250
922,35.156250
923,39.062500
924,39.062500
925,39.062500
926,42.968750
927,39.062500
928,39.062500
929,42.968750
930,42.968750
931,42.968750
932,42.968750
933,42.968750
934,42.968750
935,46.875000
936,46.875000
937,42.968750
938,46.875000
939,46.875000
940,46.875000
941,46.875000
942,50.781250
943,50.781250
944,50.781250
945,50.781250
946,50.781250
947,50.781250
948,50.781250
949,50.781250
950,50.781250
951,50.781250
952,50.781250
953,50.781250
954,54.687500
955,54.687500
956,54.687500
957,54.687500
958,54.687500
959,54.687500
960,54.687500
961,54.687500
962,54.687500
963,54.687500
964,54.687500
965,54.687500
966,54.687500
967,54.687500
968,54.687500
969,54.687500
970,54.687500
971,54.687500
972,54.687500
973,54.687500
974,50.781250
975,54.687500
976,54.687500
977,54.687500
978,54.687500
979,54.687500
980,54.687500
981,54.687500
982,54.687500
983,54.687500
984,54.687500
985,54.687500
986,54.687500
987,54.687500
988,54.687500
989,50.781250
990,50.781250
991,54.687500
992,50.781250
993,50.781250
994,50.781250
995,50.781250
996,50.781250
997,50.781250
998,50.781250
999,50.781250
1000,50.781250
1001,50.781250
1002,50.781250
1003,50.781250
1004,46.875000
1005,46.875000
1006,46.875000
1007,46.875000
1008,46.875000
1009,46.875000
1010,42.968750
1011,42.968750
1012,42.968750
1013,42.968750
1014,42.968750
1015,42.968750
1016,42.968750
1017,39.062500
1018,39.062500
1019,39.062500
1020,39.062500
1021,39.062500
1022,39.062500
1023,35.156250
1024,35.156250
1025,35.156250
1026,35.156250
1027,35.156250
1028,31.250000
1029,31.250000
1030,31.250000
1031,27.343750
1032,31.250000
1033,27.343750
1034,27.343750
1035,27.343750
1036,27.343750
1037,23.437500
1038,23.437500
1039,23.437500
1040,23.437500
1041,19.531250
1042,19.531250
1043,19.531250
1044,19.531250
1045,15.625000
1046,15.625000
1047,15.625000
1048,11.718750
1049,11.718750
1050,11.718750
1051,11.718750
1052,7.812500
1053,7.812500
1054,7.812500
1055,3.906250
1056,3.906250
1057,3.906250
1058,3.906250
1059,0.000000
1060,0.000000
1061,0.000000
1062,0.000000
1063,-3.906250
1064,-3.906250
1065,-3.906250
1066,-7.812500
1067,-7.812500
1068,-7.812500
1069,-11.718750
1070,-11.718750
1071,-11.718750
1072,-11.718750
1073,-15.625000
1074,-15.625000
1075,-15.625000
1076,-19.531250
1077,-19.531250
1078,-19.531250
1079,-23.437500
1080,-23.437500
1081,-23.437500
1082,-27.343750
1083,-27.343750
1084,-27.343750
1085,-27.343750
1086,-31.250000
1087,-31.250000
1088,-31.250000
1089,-35.156250
1090,-35.156250
1091,-35.156250
1092,-39.062500
1093,-39.062500
1094,-39.062500
1095,-42.968750
1096,-42.968750
1097,-42.968750
1098,-46.875000
1099,-46.875000
1100,-46.875000
1101,-46.875000
1102,-50.781250
1103,-50.781250
1104,-50.781250
1105,-54.687500
1106,-54.687500
1107,-54.687500
1108,-58.593750
1109,-58.593750
1110,-58.593750
1111,-58.593750
1112,-62.500000
1113,-62.500000
1114,-62.500000
1115,-62.500000
1116,-66.406250
1117,-66.406250
1118,-66.406250
1119,-66.406250
1120,-70.312500
1121,-70.312500
1122,-70.312500
1123,-70.312500
1124,-74.218750
1125,-74.218750
1126,-74.218750
1127,-74.218750
1128,-78.125000
1129,-78.125000
1130,-78.125000
1131,-78.125000
1132,-82.031250
1133,-82.031250
1134,-82.031250
1135,-82.031250
1136,-82.031250
1137,-82.031250
1138,-85.937500
1139,-85.937500
1140,-85.937500
1141,-85.937500
1142,-85.937500
1143,-89.843750
1144,-89.843750
1145,-89.843750
1146,-89.843750
1147,-89.843750
1148,-89.843750
1149,-89.843750
1150,-93.750000
1151,-93.750000
1152,-93.750000
1153,-93.750000
1154,-93.750000
1155,-93.750000
1156,-93.750000
1157,-93.750000
1158,-93.750000
1159,-93.750000
1160,-97.656250
1161,-97.656250
1162,-97.656250
1163,-97.656250
1164,-97.656250
1165,-97.656250
1166,-97.656250
1167,-97.656250
1168,-97.656250
1169,-97.656250
1170,-97.656250
1171,-97.656250
1172,-97.656250
1173,-97.656250
1174,-97.656250
1175,-97.656250
1176,-97.656250
1177,-97.656250
1178,-97.656250
1179,-101.562500
1180,-101.562500
1181,-97.656250
1182,-97.656250
1183,-97.656250
1184,-97.656250
1185,-97.656250
1186,-97.656250
1187,-97.656250
1188,-97.656250
1189,-97.656250
1190,-97.656250
1191,-97.656250
1192,-97.656250
1193,-97.656250
1194,-97.656250
1195,-93.750000
1196,-93.750000
1197,-93.750000
1198,-93.750000
1199,-93.750000
1200,-93.750000
1201,-93.750000
1202,-93.750000
1203,-93.750000
1204,-93.750000
1205,-89.843750
1206,-89.843750
1207,-89.843750
1208,-89.843750
1209,-85.937500
1210,-85.937500
1211,-85.937500
1212,-85.937500
1213,-85.937500
1214,-85.937500
1215,-85.937500
1216,-85.937500
1217,-82.031250
1218,-82.031250
1219,-82.031250
1220,-82.031250
1221,-82.031250
1222,-82.031250
1223,-78.125000
1224,-78.125000
1225,-78.125000
1226,-78.125000
1227,-74.218750
1228,-74.218750
1229,-70.312500
1230,-74.218750
1231,-70.312500
1232,-70.312500
1233,-70.312500
1234,-70.312500
1235,-66.406250
1236,-66.406250
1237,-66.406250
1238,-66.406250
1239,-62.500000
1240,-62.500000
1241,-62.500000
1242,-62.500000
1243,-58.593750
1244,-58.593750
1245,-58.593750
1246,-58.593750
1247,-54.687500
1248,-54.687500
1249,-54.687500
1250,-54.687500
1251,-54.687500
1252,-50.781250
1253,-50.781250
1254,-50.781250
1255,-46.875000
1256,-46.875000
1257,-46.875000
1258,-46.875000
1259,-42.968750
1260,-42.968750
1261,-42.968750
1262,-39.062500
1263,-39.062500
1264,-39.062500
1265,-35.156250
1266,-35.156250
1267,-35.156250
1268,-35.156250
1269,-31.250000
1270,-31.250000
1271,-31.250000
1272,-27.343750
1273,-27.343750
1274,-27.343750
1275,-27.343750
1276,-23.437500
1277,-23.437500
1278,-23.437500
1279,-19.531250
1280,-19.531250
1281,-19.531250
1282,-15.625000
1283,-15.625000
1284,-15.625000
1285,-15.625000
1286,-11.718750
1287,-11.718750
1288,-11.718750
1289,-7.812500
1290,-7.812500
1291,-7.812500
1292,-7.812500
1293,-3.906250
1294,-3.906250
1295,-3.906250
1296,0.000000
1297,0.000000
1298,0.000000
1299,0.000000
1300,3.906250
1301,3.906250
1302,3.906250
1303,7.812500
1304,7.812500
1305,7.812500
1306,7.812500
1307,11.718750
1308,11.718750
1309,11.718750
1310,11.718750
1311,15.625000
1312,15.625000
1313,15.625000
1314,15.625000
1315,19.531250
1316,19.531250
1317,19.531250
1318,19.531250
1319,23.437500
1320,23.437500
1321,23.437500
1322,23.437500
1323,23.437500
1324,23.437500
1325,27.343750
1326,27.343750
1327,27.343750
1328,27.343750
1329,31.250000
1330,31.250000
1331,31.250000
1332,31.250000
1333,35.156250
1334,35.156250
1335,35.156250
1336,35.156250
1337,35.156250
1338,35.156250
1339,39.062500
1340,39.062500
1341,35.156250
1342,39.062500
1343,39.062500
1344,42.968750
1345,42.968750
1346,42.968750
1347,42.968750
1348,42.968750
1349,42.968750
1350,42.968750
1351,46.875000
1352,46.875000
1353,46.875000
1354,46.875000
1355,46.875000
1356,46.875000
1357,46.875000
1358,46.875000
1359,50.781250
1360,50.781250
1361,50.781250
1362,50.781250
1363,50.781250
1364,50.781250
1365,50.781250
1366,50.781250
1367,50.781250
1368,50.781250
1369,54.687500
1370,54.687500
1371,54.687500
1372,54.687500
1373,54.687500
1374,54.687500
1375,54.687500
1376,54.687500
1377,54.687500
1378,54.687500
1379,54.687500
1380,54.687500
1381,54.687500
1382,54.687500
1383,54.687500
1384,54.687500
1385,54.687500
1386,54.687500
1387,54.687500
1388,54.687500
1389,54.687500
1390,54.687500
1391,54.687500
1392,54.687500
1393,54.687500
1394,54.687500
1395,54.687500
1396,54.687500
1397,54.687500
1398,54.687500
1399,54.687500
1400,54.687500
1401,54.687500
1402,54.687500
1403,54.687500
1404,54.687500
1405,54.687500
1406,54.687500
1407,54.687500
1408,54.687500
1409,54.687500
1410,54.687500
1411,50.781250
1412,54.687500
1413,54.687500
1414,50.781250
1415,50.781250
1416,50.781250
1417,50.781250
1418,50.781250
1419,50.781250
1420,50.781250
1421,50.781250
1422,46.875000
1423,46.875000
1424,46.875000
1425,46.875000
1426,46.875000
1427,46.875000
1428,42.968750
1429,42.968750
1430,42.968750
1431,42.968750
1432,42.968750
1433,42.968750
1434,39.062500
1435,39.062500
1436,39.062500
1437,39.062500
1438,39.062500
1439,35.156250
1440,35.156250
1441,35.156250
1442,35.156250
1443,35.156250
1444,31.250000
1445,31.250000
1446,31.250000
1447,31.250000
1448,31.250000
1449,27.343750
1450,27.343750
1451,27.343750
1452,27.343750
1453,23.437500
1454,23.437500
1455,23.437500
1456,23.437500
1457,19.531250
1458,19.531250
1459,19.531250
1460,19.531250
1461,15.625000
1462,15.625000
1463,15.625000
1464,15.625000
1465,15.625000
1466,11.718750
1467,11.718750
1468,11.718750
1469,7.812500
1470,7.812500
1471,7.812500
1472,7.812500
1473,3.906250
1474,3.906250
1475,3.906250
1476,0.000000
1477,0.000000
1478,0.000000
1479,0.000000
1480,-3.906250
1481,-3.906250
1482,-3.906250
1483,-7.812500
1484,-7.812500
1485,-7.812500
1486,-11.718750
1487,-11.718750
1488,-11.718750
1489,-11.718750
1490,-15.625000
1491,-15.625000
1492,-15.625000
1493,-19.531250
1494,-19.531250
1495,-19.531250
1496,-23.437500
1497,-23.437500
1498,-23.437500
1499,-27.343750
1500,-27.343750
1501,-27.343750
1502,-31.250000
1503,-31.250000
1504,-31.250000
1505,-31.250000
1506,-35.156250
1507,-35.156250
1508,-35.156250
1509,-39.062500
1510,-39.062500
1511,-39.062500
1512,-42.968750
1513,-42.968750
1514,-42.968750
1515,-42.968750
1516,-46.875000
1517,-46.875000
1518,-46.875000
1519,-50.781250
1520,-50.781250
1521,-50.781250
1522,-54.687500
1523,-54.687500
1524,-54.687500
1525,-54.687500
1526,-58.593750
1527,-58.593750
1528,-58.593750
1529,-62.500000
1530,-58.593750
1531,-62.500000
1532,-62.500000
1533,-66.406250
1534,-66.406250
1535,-66.406250
1536,-66.406250
1537,-70.312500
1538,-70.312500
1539,-70.312500
1540,-70.312500
1541,-70.312500
1542,-74.218750
1543,-74.218750
1544,-74.218750
1545,-74.218750
1546,-74.218750
1547,-78.125000
1548,-78.125000
1549,-78.125000
1550,-82.031250
1551,-82.031250
1552,-82.031250
1553,-82.031250
1554,-85.937500
1555,-85.937500
1556,-85.937500
1557,-85.937500
1558,-85.937500
1559,-85.937500
1560,-85.937500
1561,-89.843750
1562,-89.843750
1563,-89.843750
1564,-89.843750
1565,-89.843750
1566,-93.750000
1567,-93.750000
1568,-93.750000
1569,-93.750000
1570,-93.750000
1571,-93.750000
1572,-93.750000
1573,-93.750000
1574,-93.750000
1575,-97.656250
1576,-97.656250
1577,-97.656250
1578,-97.656250
1579,-93.750000
1580,-97.656250
1581,-97.656250
1582,-97.656250
1583,-97.656250
1584,-97.656250
1585,-97.656250
1586,-97.656250
1587,-97.656250
1588,-101.562500
1589,-97.656250
1590,-97.656250
1591,-97.656250
1592,-97.656250
1593,-97.656250
1594,-97.656250
1595,-97.656250
1596,-97.656250
1597,-97.656250
1598,-97.656250
1599,-97.656250
1600,-97.656250
1601,-97.656250
1602,-97.656250
1603,-97.656250
1604,-97.656250
1605,-97.656250
1606,-97.656250
1607,-97.656250
1608,-97.656250
1609,-97.656250
1610,-97.656250
1611,-97.656250
1612,-93.750000
1613,-93.750000
1614,-93.750000
1615,-93.750000
1616,-93.750000
1617,-93.750000
1618,-93.750000
1619,-93.750000
1620,-89.843750
1621,-89.843750
1622,-89.843750
1623,-89.843750
1624,-89.843750
1625,-89.843750
1626,-89.843750
1627,-89.843750
1628,-85.937500
1629,-85.937500
1630,-85.937500
1631,-85.937500
1632,-85.937500
1633,-85.937500
1634,-82.031250
1635,-82.031250
1636,-82.031250
1637,-82.031250
1638,-82.031250
1639,-78.125000
1640,-78.125000
1641,-78.125000
1642,-78.125000
1643,-78.125000
1644,-74.218750
1645,-74.218750
1646,-74.218750
1647,-74.218750
1648,-74.218750
1649,-70.312500
1650,-70.312500
1651,-70.312500
1652,-70.312500
1653,-66.406250
1654,-70.312500
1655,-66.406250
1656,-66.406250
1657,-62.500000
1658,-62.500000
1659,-62.500000
1660,-58.593750
1661,-58.593750
1662,-58.593750
1663,-58.593750
1664,-58.593750
1665,-54.687500
1666,-54.687500
1667,-54.687500
1668,-50.781250
1669,-50.781250
1670,-50.781250
1671,-50.781250
1672,-46.875000
1673,-46.875000
1674,-46.875000
1675,-46.875000
1676,-42.968750
1677,-42.968750
1678,-39.062500
1679,-39.062500
1680,-39.062500
1681,-39.062500
1682,-35.156250
1683,-35.156250
1684,-35.156250
1685,-35.156250
1686,-31.250000
1687,-31.250000
1688,-31.250000
1689,-27.343750
1690,-27.343750
1691,-27.343750
1692,-27.343750
1693,-23.437500
1694,-23.437500
1695,-23.437500
1696,-23.437500
1697,-19.531250
1698,-19.531250
1699,-15.625000
1700,-15.625000
1701,-15.625000
1702,-15.625000
1703,-11.718750
1704,-11.718750
1705,-11.718750
1706,-11.718750
1707,-7.812500
1708,-7.812500
1709,-7.812500
1710,-3.906250
1711,-3.906250
1712,-3.906250
1713,0.000000
1714,0.000000
1715,0.000000
1716,0.000000
1717,3.906250
1718,3.906250
1719,3.906250
1720,3.906250
1721,7.812500
1722,7.812500
1723,7.812500
1724,7.812500
1725,11.718750
1726,11.718750
1727,11.718750
1728,11.718750
1729,15.625000
1730,15.625000
1731,15.625000
1732,19.531250
1733,19.531250
1734,19.531250
1735,19.531250
1736,23.437500
1737,23.437500
1738,23.437500
1739,23.437500
1740,23.437500
1741,27.343750
1742,27.343750
1743,27.343750
1744,27.343750
1745,31.250000
1746,31.250000
1747,31.250000
1748,31.250000
1749,31.250000
1750,31.250000
1751,35.156250
1752,35.156250
1753,35.156250
1754,35.156250
1755,35.156250
1756,39.062500
1757,39.062500
1758,39.062500
1759,39.062500
1760,39.062500
1761,39.062500
1762,39.062500
1763,42.968750
1764,42.968750
1765,42.968750
1766,42.968750
1767,42.968750
1768,42.968750
1769,46.875000
1770,46.875000
1771,46.875000
1772,46.875000
1773,46.875000
1774,46.875000
1775,46.875000
1776,46.875000
1777,50.781250
1778,50.781250
1779,50.781250
1780,50.781250
1781,50.781250
1782,50.781250
1783,50.781250
1784,50.781250
1785,50.781250
1786,54.687500
1787,54.687500
1788,54.687500
1789,54.687500
1790,54.687500
1791,54.687500
1792,54.687500
1793,54.687500
1794,54.687500
1795,54.687500
1796,54.687500
1797,54.687500
1798,54.687500
1799,54.687500
1800,54.687500
1801,54.687500
1802,54.687500
1803,54.687500
1804,54.687500
1805,54.687500
1806,58.593750
1807,54.687500
1808,54.687500
1809,54.687500
1810,54.687500
1811,54.687500
1812,54.687500
1813,54.687500
1814,54.687500
1815,54.687500
1816,54.687500
1817,54.687500
1818,54.687500
1819,54.687500
1820,54.687500
1821,54.687500
1822,54.687500
1823,54.687500
1824,54.687500
1825,54.687500
1826,50.781250
1827,54.687500
1828,50.781250
1829,50.781250
1830,50.781250
1831,50.781250
1832,50.781250
1833,50.781250
1834,50.781250
1835,46.875000
1836,46.875000
1837,46.875000
1838,46.875000
1839,46.875000
1840,46.875000
1841,46.875000
1842,46.875000
1843,42.968750
1844,42.968750
1845,42.968750
1846,42.968750
1847,42.968750
1848,42.968750
1849,42.968750
1850,39.062500
1851,39.062500
1852,39.062500
1853,39.062500
1854,39.062500
1855,39.062500
1856,39.062500
1857,35.156250
1858,35.156250
1859,35.156250
1860,35.156250
1861,31.250000
1862,31.250000
1863,31.250000
1864,31.250000
1865,31.250000
1866,27.343750
1867,27.343750
1868,27.343750
1869,27.343750
1870,23.437500
1871,23.437500
1872,23.437500
1873,23.437500
1874,19.531250
1875,19.531250
1876,19.531250
1877,19.531250
1878,15.625000
1879,15.625000
1880,15.625000
1881,15.625000
1882,11.718750
1883,11.718750
1884,11.718750
1885,7.812500
1886,7.812500
1887,7.812500
1888,7.812500
1889,3.906250
1890,7.812500
1891,3.906250
1892,3.906250
1893,0.000000
1894,0.000000
1895,0.000000
1896,0.000000
1897,-3.906250
1898,-3.906250
1899,-3.906250
1900,-7.812500
1901,-7.812500
1902,-7.812500
1903,-11.718750
1904,-11.718750
1905,-11.718750
1906,-15.625000
1907,-15.625000
1908,-15.625000
1909,-19.531250
1910,-19.531250
1911,-19.531250
1912,-19.531250
1913,-23.437500
1914,-23.437500
1915,-23.437500
1916,-23.437500
1917,-27.343750
1918,-27.343750
1919,-31.250000
1920,-31.250000
1921,-31.250000
1922,-31.250000
1923,-35.156250
1924,-39.062500
1925,-35.156250
1926,-39.062500
1927,-39.062500
1928,-39.062500
1929,-42.968750
1930,-42.968750
1931,-42.968750
1932,-46.875000
1933,-46.875000
1934,-46.875000
1935,-46.875000
1936,-50.781250
1937,-50.781250
1938,-50.781250
1939,-54.687500
1940,-54.687500
1941,-54.687500
1942,-58.593750
1943,-58.593750
1944,-58.593750
1945,-62.500000
1946,-62.500000
1947,-62.500000
1948,-62.500000
1949,-62.500000
1950,-66.406250
1951,-66.406250
1952,-66.406250
1953,-66.406250
1954,-70.312500
1955,-70.312500
1956,-70.312500
1957,-74.218750
1958,-74.218750
1959,-74.218750
1960,-74.218750
1961,-78.125000
1962,-78.125000
1963,-78.125000
1964,-78.125000
1965,-78.125000
1966,-78.125000
1967,-82.031250
1968,-82.031250
1969,-82.031250
1970,-82.031250
1971,-85.937500
1972,-85.937500
1973,-85.937500
1974,-85.937500
1975,-85.937500
1976,-85.937500
1977,-85.937500
1978,-89.843750
1979,-89.843750
1980,-89.843750
1981,-89.843750
1982,-89.843750
1983,-89.843750
1984,-93.750000
1985,-93.750000
1986,-93.750000
1987,-93.750000
1988,-93.750000
1989,-93.750000
1990,-93.750000
1991,-93.750000
1992,-93.750000
1993,-97.656250
1994,-97.656250
1995,-97.656250
1996,-97.656250
1997,-97.656250
1998,-97.656250
1999,-97.656250
2000,-97.656250
2001,-97.656250
2002,-93.750000
2003,-97.656250
2004,-97.656250
2005,-97.656250
2006,-97.656250
2007,-97.656250
2008,-97.656250
2009,-97.656250
2010,-97.656250
2011,-97.656250
2012,-97.656250
2013,-97.656250
2014,-97.656250
2015,-97.656250
2016,-97.656250
2017,-97.656250
2018,-101.562500
2019,-97.656250
2020,-97.656250
2021,-97.656250
2022,-97.656250
2023,-97.656250
2024,-97.656250
2025,-97.656250
2026,-93.750000
2027,-97.656250
2028,-97.656250
2029,-93.750000
2030,-93.750000
2031,-93.750000
2032,-93.750000
2033,-93.750000
2034,-93.750000
2035,-93.750000
2036,-93.750000
2037,-93.750000
2038,-89.843750
2039,-89.843750
2040,-89.843750
2041,-89.843750
2042,-89.843750
2043,-89.843750
2044,-89.843750
2045,-85.937500
2046,-85.937500
2047,-85.937500
2048,-85.937500
2049,-85.937500
2050,-82.031250
2051,-82.031250
2052,-82.031250
2053,-82.031250
2054,-82.031250
2055,-82.031250
2056,-78.125000
2057,-78.125000
2058,-78.125000
2059,-78.125000
2060,-74.218750
2061,-74.218750
2062,-74.218750
2063,-74.218750
2064,-74.218750
2065,-70.312500
2066,-70.312500
2067,-70.312500
2068,-70.312500
2069,-70.312500
2070,-66.406250
2071,-66.406250
2072,-62.500000
2073,-62.500000
2074,-62.500000
2075,-62.500000
2076,-62.500000
2077,-58.593750
2078,-58.593750
2079,-58.593750
2080,-58.593750
2081,-54.687500
2082,-54.687500
2083,-54.687500
2084,-50.781250
2085,-54.687500
2086,-50.781250
2087,-50.781250
2088,-46.875000
2089,-46.875000
2090,-46.875000
2091,-46.875000
2092,-42.968750
2093,-42.968750
2094,-42.968750
2095,-39.062500
2096,-39.062500
2097,-39.062500
2098,-39.062500
2099,-35.156250
2100,-35.156250
2101,-35.156250
2102,-31.250000
2103,-35.156250
2104,-31.250000
2105,-31.250000
2106,-27.343750
2107,-27.343750
2108,-27.343750
2109,-23.437500
2110,-23.437500
2111,-23.437500
2112,-23.437500
2113,-19.531250
2114,-19.531250
2115,-19.531250
2116,-15.625000
2117,-15.625000
2118,-15.625000
2119,-11.718750
2120,-11.718750
2121,-11.718750
2122,-11.718750
2123,-7.812500
2124,-7.812500
2125,-7.812500
2126,-3.906250
2127,-3.906250
2128,-3.906250
2129,-3.906250
2130,-3.906250
2131,0.000000
2132,0.000000
2133,3.906250
2134,3.906250
2135,3.906250
2136,3.906250
2137,7.812500
2138,7.812500
2139,7.812500
2140,7.812500
2141,7.812500
2142,11.718750
2143,11.718750
2144,11.718750
2145,15.625000
2146,15.625000
2147,15.625000
2148,15.625000
2149,19.531250
2150,19.531250
2151,19.531250
2152,19.531250
2153,19.531250
2154,23.437500
2155,23.437500
2156,23.437500
2157,23.437500
2158,27.343750
2159,27.343750
2160,31.250000
2161,27.343750
2162,27.343750
2163,31.250000
2164,31.250000
2165,31.250000
2166,31.250000
2167,35.156250
2168,35.156250
2169,35.156250
2170,35.156250
2171,35.156250
2172,39.062500
2173,39.062500
2174,39.062500
2175,39.062500
2176,39.062500
2177,39.062500
2178,42.968750
2179,42.968750
2180,42.968750
2181,42.968750
2182,42.968750
2183,42.968750
2184,42.968750
2185,46.875000
2186,46.875000
2187,46.875000
2188,46.875000
2189,46.875000
2190,46.875000
2191,46.875000
2192,50.781250
2193,50.781250
2194,46.875000
2195,50.781250
2196,50.781250
2197,50.781250
2198,50.781250
2199,50.781250
2200,50.781250
2201,50.781250
2202,54.687500
2203,54.687500
2204,54.687500
2205,54.687500
2206,54.687500
2207,54.687500
2208,54.687500
2209,54.687500
2210,54.687500
2211,54.687500
2212,54.687500
2213,54.687500
2214,54.687500
2215,54.687500
2216,54.687500
2217,54.687500
2218,54.687500
2219,54.687500
2220,54.687500
2221,54.687500
2222,54.687500
2223,54.687500
2224,54.687500
2225,54.687500
2226,54.687500
2227,54.687500
2228,58.593750
2229,54.687500
2230,54.687500
2231,54.687500
2232,54.687500
2233,54.687500
2234,54.687500
2235,54.687500
2236,54.687500
2237,54.687500
2238,54.687500
2239,54.687500
2240,54.687500
2241,54.687500
2242,54.687500
2243,54.687500
2244,50.781250
2245,50.781250
2246,50.781250
2247,50.781250
2248,50.781250
2249,50.781250
2250,50.781250
2251,50.781250
2252,50.781250
2253,46.875000
2254,46.875000
2255,46.875000
2256,46.875000
2257,46.875000
2258,46.875000
2259,46.875000
2260,42.968750
2261,42.968750
2262,42.968750
2263,42.968750
2264,42.968750
2265,42.968750
2266,42.968750
2267,42.968750
2268,39.062500
2269,39.062500
2270,39.062500
2271,39.062500
2272,39.062500
2273,35.156250
2274,35.156250
2275,35.156250
2276,35.156250
2277,35.156250
2278,31.250000
2279,31.250000
2280,31.250000
2281,31.250000
2282,31.250000
2283,27.343750
2284,27.343750
2285,27.343750
2286,23.437500
2287,23.437500
2288,23.437500
2289,23.437500
2290,23.437500
2291,19.531250
2292,19.531250
2293,19.531250
2294,19.531250
2295,15.625000
2296,15.625000
2297,15.625000
2298,11.718750
2299,11.718750
2300,11.718750
2301,11.718750
2302,11.718750
2303,7.812500
2304,7.812500
2305,3.906250
2306,3.906250
2307,3.906250
2308,3.906250
2309,0.000000
2310,0.000000
2311,0.000000
2312,0.000000
2313,-3.906250
2314,-3.906250
2315,-3.906250
2316,-7.812500
2317,-3.906250
2318,-7.812500
2319,-7.812500
2320,-11.718750
2321,-11.718750
2322,-11.718750
2323,-15.625000
2324,-15.625000
2325,-15.625000
2326,-19.531250
2327,-19.531250
2328,-19.531250
2329,-19.531250
2330,-23.437500
2331,-23.437500
2332,-27.343750
2333,-27.343750
2334,-27.343750
2335,-27.343750
2336,-31.250000
2337,-31.250000
2338,-31.250000
2339,-31.250000
2340,-35.156250
2341,-35.156250
2342,-39.062500
2343,-39.062500
2344,-39.062500
2345,-39.062500
2346,-39.062500
2347,-42.968750
2348,-42.968750
2349,-46.875000
2350,-46.875000
2351,-46.875000
2352,-50.781250
2353,-50.781250
2354,-50.781250
2355,-54.687500
2356,-54.687500
2357,-54.687500
2358,-54.687500
2359,-58.593750
2360,-58.593750
2361,-58.593750
2362,-58.593750
2363,-62.500000
2364,-62.500000
2365,-62.500000
2366,-62.500000
2367,-66.406250
2368,-66.406250
2369,-66.406250
2370,-66.406250
2371,-70.312500
2372,-70.312500
2373,-70.312500
2374,-70.312500
2375,-74.218750
2376,-74.218750
2377,-74.218750
2378,-74.218750
2379,-78.125000
2380,-82.031250
2381,-78.125000
2382,-78.125000
2383,-78.125000
2384,-82.031250
2385,-82.031250
2386,-82.031250
2387,-82.031250
2388,-82.031250
2389,-85.937500
2390,-85.937500
2391,-85.937500
2392,-85.937500
2393,-85.937500
2394,-85.937500
2395,-89.843750
2396,-89.843750
2397,-89.843750
2398,-89.843750
2399,-89.843750
2400,-89.843750
2401,-93.750000
2402,-93.750000
2403,-93.750000
2404,-93.750000
2405,-93.750000
2406,-93.750000
2407,-93.750000
2408,-93.750000
2409,-93.750000
2410,-97.656250
2411,-93.750000
2412,-97.656250
2413,-97.656250
2414,-97.656250
2415,-97.656250
2416,-97.656250
2417,-97.656250
2418,-97.656250
2419,-97.656250
2420,-97.656250
2421,-97.656250
2422,-97.656250
2423,-97.656250
2424,-97.656250
2425,-97.656250
2426,-97.656250
2427,-97.656250
2428,-97.656250
2429,-97.656250
2430,-97.656250
2431,-97.656250
2432,-97.656250
2433,-97.656250
2434,-97.656250
2435,-97.656250
2436,-97.656250
2437,-97.656250
2438,-101.562500
2439,-97.656250
2440,-97.656250
2441,-97.656250
2442,-97.656250
2443,-97.656250
2444,-93.750000
2445,-93.750000
2446,-93.750000
2447,-93.750000
2448,-93.750000
2449,-93.750000
2450,-93.750000
2451,-93.750000
2452,-93.750000
2453,-89.843750
2454,-93.750000
2455,-89.843750
2456,-89.843750
2457,-89.843750
2458,-89.843750
2459,-85.937500
2460,-85.937500
2461,-85.937500
2462,-85.937500
2463,-85.937500
2464,-85.937500
2465,-85.937500
2466,-85.937500
2467,-82.031250
2468,-82.031250
2469,-82.031250
2470,-82.031250
2471,-82.031250
2472,-78.125000
2473,-78.125000
2474,-78.125000
2475,-78.125000
2476,-78.125000
2477,-74.218750
2478,-74.218750
2479,-74.218750
2480,-74.218750
2481,-74.218750
2482,-70.312500
2483,-70.312500
2484,-70.312500
2485,-70.312500
2486,-70.312500
2487,-66.406250
2488,-66.406250
2489,-66.406250
2490,-62.500000
2491,-62.500000
2492,-62.500000
2493,-62.500000
2494,-58.593750
2495,-58.593750
2496,-58.593750
2497,-58.593750
2498,-54.687500
2499,-54.687500
2500,-54.687500
2501,-50.781250
2502,-50.781250
2503,-50.781250
2504,-50.781250
2505,-46.875000
2506,-46.875000
2507,-46.875000
2508,-46.875000
2509,-42.968750
2510,-42.968750
2511,-42.968750
2512,-39.062500
2513,-39.062500
2514,-39.062500
2515,-39.062500
2516,-35.156250
2517,-35.156250
2518,-35.156250
2519,-31.250000
2520,-31.250000
2521,-31.250000
2522,-31.250000
2523,-27.343750
2524,-27.343750
2525,-27.343750
2526,-23.437500
2527,-23.437500
2528,-23.437500
2529,-23.437500
2530,-19.531250
2531,-19.531250
2532,-19.531250
2533,-15.625000
2534,-15.625000
2535,-15.625000
2536,-15.625000
2537,-15.625000
2538,-11.718750
2539,-11.718750
2540,-11.718750
2541,-7.812500
2542,-7.812500
2543,-7.812500
2544,-3.906250
2545,-3.906250
2546,-3.906250
2547,-3.906250
2548,0.000000
2549,0.000000
2550,0.000000
2551,3.906250
2552,3.906250
2553,3.906250
2554,3.906250
2555,7.812500
2556,7.812500
2557,7.812500
2558,11.718750
2559,11.718750
2560,11.718750
2561,11.718750
2562,11.718750
2563,15.625000
2564,15.625000
2565,15.625000
2566,15.625000
2567,19.531250
2568,19.531250
2569,19.531250
2570,23.437500
2571,23.437500
2572,23.437500
2573,23.437500
2574,27.343750
2575,27.343750
2576,27.343750
2577,27.343750
2578,27.343750
2579,31.250000
2580,31.250000
2581,31.250000
2582,31.250000
2583,31.250000
2584,35.156250
2585,35.156250
2586,35.156250
2587,35.156250
2588,39.062500
2589,35.156250
2590,39.062500
2591,39.062500
2592,35.156250
2593,39.062500
2594,39.062500
2595,39.062500
2596,42.968750
2597,42.968750
2598,42.968750
2599,42.968750
2600,42.968750
2601,42.968750
2602,46.875000
2603,46.875000
2604,46.875000
2605,46.875000
2606,46.875000
2607,46.875000
2608,46.875000
2609,50.781250
2610,50.781250
2611,50.781250
2612,50.781250
2613,50.781250
2614,50.781250
2615,50.781250
2616,50.781250
2617,50.781250
2618,50.781250
2619,50.781250
2620,50.781250
2621,54.687500
2622,54.687500
2623,54.687500
2624,50.781250
2625,54.687500
2626,54.687500
2627,54.687500
2628,54.687500
2629,54.687500
2630,54.687500
2631,54.687500
2632,54.687500
2633,54.687500
2634,54.687500
2635,54.687500
2636,54.687500
2637,58.593750
2638,54.687500
2639,54.687500
2640,54.687500
2641,54.687500
2642,54.687500
2643,54.687500
2644,54.687500
2645,54.687500
2646,54.687500
2647,54.687500
2648,54.687500
2649,54.687500
2650,54.687500
2651,54.687500
2652,54.687500
2653,54.687500
2654,54.687500
2655,54.687500
2656,54.687500
2657,50.781250
2658,50.781250
2659,50.781250
2660,50.781250
2661,50.781250
2662,50.781250
2663,50.781250
2664,50.781250
2665,50.781250
2666,50.781250
2667,50.781250
2668,50.781250
2669,50.781250
2670,46.875000
2671,46.875000
2672,46.875000
2673,46.875000
2674,46.875000
2675,46.875000
2676,46.875000
2677,42.968750
2678,42.968750
2679,42.968750
2680,42.968750
2681,42.968750
2682,42.968750
2683,39.062500
2684,39.062500
2685,39.062500
2686,39.062500
2687,39.062500
2688,39.062500
2689,39.062500
2690,35.156250
2691,35.156250
2692,39.062500
2693,35.156250
2694,31.250000
2695,31.250000
2696,31.250000
2697,35.156250
2698,31.250000
2699,31.250000
2700,27.343750
2701,27.343750
2702,27.343750
2703,23.437500
2704,23.437500
2705,23.437500
2706,23.437500
2707,23.437500
2708,19.531250
2709,19.531250
2710,19.531250
2711,19.531250
2712,15.625000
2713,15.625000
2714,15.625000
2715,15.625000
2716,11.718750
2717,11.718750
2718,11.718750
2719,7.812500
2720,7.812500
2721,7.812500
2722,7.812500
2723,3.906250
2724,3.906250
2725,3.906250
2726,3.906250
2727,0.000000
2728,0.000000
2729,-3.906250
2730,-3.906250
2731,-3.906250
2732,-3.906250
2733,-7.812500
2734,-7.812500
2735,-7.812500
2736,-7.812500
2737,-11.718750
2738,-11.718750
2739,-11.718750
2740,-15.625000
2741,-15.625000
2742,-15.625000
2743,-19.531250
2744,-19.531250
2745,-19.531250
2746,-23.437500
2747,-23.437500
2748,-23.437500
2749,-23.437500
2750,-27.343750
2751,-27.343750
2752,-31.250000
2753,-31.250000
2754,-31.250000
2755,-31.250000
2756,-31.250000
2757,-35.156250
2758,-35.156250
2759,-39.062500
2760,-39.062500
2761,-39.062500
2762,-39.062500
2763,-42.968750
2764,-42.968750
2765,-42.968750
2766,-46.875000
2767,-46.875000
2768,-46.875000
2769,-50.781250
2770,-50.781250
2771,-50.781250
2772,-50.781250
2773,-54.687500
2774,-54.687500
2775,-54.687500
2776,-54.687500
2777,-58.593750
2778,-58.593750
2779,-58.593750
2780,-62.500000
2781,-62.500000
2782,-62.500000
2783,-62.500000
2784,-66.406250
2785,-66.406250
2786,-66.406250
2787,-66.406250
2788,-70.312500
2789,-70.312500
2790,-70.312500
2791,-70.312500
2792,-70.312500
2793,-74.218750
2794,-74.218750
2795,-74.218750
2796,-78.125000
2797,-78.125000
2798,-78.125000
2799,-78.125000
2800,-82.031250
2801,-82.031250
2802,-82.031250
2803,-82.031250
2804,-82.031250
2805,-82.031250
2806,-85.937500
2807,-85.937500
2808,-85.937500
2809,-85.937500
2810,-85.937500
2811,-89.843750
2812,-89.843750
2813,-89.843750
2814,-89.843750
2815,-89.843750
2816,-89.843750
2817,-89.843750
2818,-93.750000
2819,-93.750000
2820,-93.750000
2821,-93.750000
2822,-93.750000
2823,-93.750000
2824,-93.750000
2825,-93.750000
2826,-93.750000
2827,-93.750000
2828,-93.750000
2829,-97.656250
2830,-97.656250
2831,-97.656250
2832,-97.656250
2833,-97.656250
2834,-97.656250
2835,-97.656250
2836,-97.656250
2837,-97.656250
2838,-97.656250
2839,-97.656250
2840,-97.656250
2841,-97.656250
2842,-97.656250
2843,-97.656250
2844,-97.656250
2845,-97.656250
2846,-97.656250
2847,-97.656250
2848,-97.656250
2849,-97.656250
2850,-97.656250
2851,-97.656250
2852,-97.656250
2853,-97.656250
2854,-97.656250
2855,-97.656250
2856,-97.656250
2857,-97.656250
2858,-97.656250
2859,-97.656250
2860,-97.656250
2861,-97.656250
2862,-93.750000
2863,-93.750000
2864,-93.750000
2865,-93.750000
2866,-93.750000
2867,-93.750000
2868,-93.750000
2869,-93.750000
2870,-93.750000
2871,-89.843750
2872,-89.843750
2873,-89.843750
2874,-89.843750
2875,-89.843750
2876,-89.843750
2877,-85.937500
2878,-89.843750
2879,-85.937500
2880,-85.937500
2881,-85.937500
2882,-85.937500
2883,-85.937500
2884,-82.031250
2885,-82.031250
2886,-82.031250
2887,-82.031250
2888,-82.031250
2889,-78.125000
2890,-78.125000
2891,-78.125000
2892,-78.125000
2893,-78.125000
2894,-78.125000
2895,-74.218750
2896,-74.218750
2897,-74.218750
2898,-74.218750
2899,-70.312500
2900,-70.312500
2901,-70.312500
2902,-70.312500
2903,-66.406250
2904,-66.406250
2905,-66.406250
2906,-62.500000
2907,-62.500000
2908,-62.500000
2909,-62.500000
2910,-62.500000
2911,-58.593750
2912,-58.593750
2913,-58.593750
2914,-54.687500
2915,-54.687500
2916,-54.687500
2917,-54.687500
2918,-54.687500
2919,-50.781250
2920,-50.781250
2921,-50.781250
2922,-46.875000
2923,-46.875000
2924,-46.875000
2925,-46.875000
2926,-42.968750
2927,-42.968750
2928,-42.968750
2929,-39.062500
2930,-39.062500
2931,-39.062500
2932,-39.062500
2933,-35.156250
2934,-35.156250
2935,-35.156250
2936,-31.250000
2937,-31.250000
2938,-31.250000
2939,-31.250000
2940,-27.343750
2941,-27.343750
2942,-27.343750
2943,-23.437500
2944,-23.437500
2945,-23.437500
2946,-19.531250
2947,-19.531250
2948,-19.531250
2949,-19.531250
2950,-15.625000
2951,-15.625000
2952,-15.625000
2953,-15.625000
2954,-11.718750
2955,-11.718750
2956,-11.718750
2957,-7.812500
2958,-7.812500
2959,-7.812500
2960,-3.906250
2961,-3.906250
2962,-3.906250
2963,-3.906250
2964,0.000000
2965,0.000000
2966,0.000000
2967,3.906250
2968,3.906250
2969,3.906250
2970,7.812500
2971,7.812500
2972,7.812500
2973,7.812500
2974,7.812500
2975,11.718750
2976,11.718750
2977,11.718750
2978,11.718750
2979,15.625000
2980,15.625000
2981,15.625000
2982,15.625000
2983,19.531250
2984,19.531250
2985,19.531250
2986,19.531250
2987,23.437500
2988,23.437500
2989,23.437500
2990,23.437500
2991,23.437500
2992,27.343750
2993,27.343750
2994,27.343750
2995,27.343750
2996,27.343750
2997,31.250000
2998,31.250000
2999,31.250000
3000,31.250000
3001,35.156250
3002,31.250000
3003,35.156250
3004,35.156250
3005,35.156250
3006,39.062500
3007,39.062500
3008,39.062500
3009,39.062500
3010,39.062500
3011,39.062500
3012,39.062500
3013,46.875000
3014,42.968750
3015,42.968750
3016,42.968750
3017,42.968750
3018,42.968750
3019,46.875000
3020,46.875000
3021,46.875000
3022,46.875000
3023,46.875000
3024,46.875000
3025,46.875000
3026,50.781250
3027,50.781250
3028,50.781250
3029,50.781250
3030,50.781250
3031,50.781250
3032,50.781250
3033,50.781250
3034,50.781250
3035,50.781250
3036,54.687500
3037,54.687500
3038,54.687500
3039,54.687500
3040,54.687500
3041,54.687500
3042,54.687500
3043,54.687500
3044,54.687500
3045,54.687500
3046,54.687500
3047,54.687500
3048,54.687500
3049,54.687500
3050,54.687500
3051,54.687500
3052,54.687500
3053,54.687500
3054,54.687500
3055,54.687500
3056,54.687500
3057,54.687500
3058,54.687500
3059,54.687500
3060,54.687500
3061,54.687500
3062,54.687500
3063,54.687500
3064,54.687500
3065,54.687500
3066,54.687500
3067,54.687500
3068,54.687500
3069,54.687500
3070,54.687500
3071,54.687500
3072,54.687500
3073,54.687500
3074,54.687500
3075,50.781250
3076,54.687500
3077,50.781250
3078,50.781250
3079,50.781250
3080,50.781250
3081,50.781250
3082,50.781250
3083,50.781250
3084,50.781250
3085,50.781250
3086,50.781250
3087,50.781250
3088,46.875000
3089,46.875000
3090,46.875000
3091,46.875000
3092,46.875000
3093,46.875000
3094,42.968750
3095,46.875000
3096,42.968750
3097,42.968750
3098,42.968750
3099,42.968750
3100,42.968750
3101,39.062500
3102,39.062500
3103,39.062500
3104,39.062500
3105,39.062500
3106,35.156250
3107,35.156250
3108,35.156250
3109,35.156250
3110,35.156250
3111,31.250000
3112,31.250000
3113,31.250000
3114,31.250000
3115,31.250000
3116,27.343750
3117,27.343750
3118,27.343750
3119,27.343750
3120,23.437500
3121,23.437500
3122,19.531250
3123,23.437500
3124,19.531250
3125,19.531250
3126,19.531250
3127,19.531250
3128,19.531250
3129,15.625000
3130,15.625000
3131,15.625000
3132,11.718750
3133,11.718750
3134,11.718750
3135,11.718750
3136,7.812500
3137,7.812500
3138,7.812500
3139,3.906250
3140,3.906250
3141,3.906250
3142,3.906250
3143,0.000000
3144,0.000000
3145,0.000000
3146,0.000000
3147,-3.906250
3148,-3.906250
3149,-3.906250
3150,-7.812500
3151,-7.812500
3152,-7.812500
3153,-11.718750
3154,-11.718750
3155,-11.718750
3156,-11.718750
3157,-15.625000
3158,-15.625000
3159,-15.625000
3160,-19.531250
3161,-19.531250
3162,-19.531250
3163,-23.437500
3164,-23.437500
3165,-23.437500
3166,-23.437500
3167,-27.343750
3168,-27.343750
3169,-27.343750
3170,-31.250000
3171,-31.250000
3172,-31.250000
3173,-35.156250
3174,-35.156250
3175,-35.156250
3176,-39.062500
3177,-39.062500
3178,-39.062500
3179,-42.968750
3180,-42.968750
3181,-42.968750
3182,-46.875000
3183,-46.875000
3184,-46.875000
3185,-46.875000
3186,-50.781250
3187,-50.781250
3188,-50.781250
3189,-50.781250
3190,-54.687500
3191,-54.687500
3192,-54.687500
3193,-58.593750
3194,-58.593750
3195,-58.593750
3196,-58.593750
3197,-62.500000
3198,-62.500000
3199,-66.406250
3200,-66.406250
3201,-66.406250
3202,-66.406250
3203,-70.312500
3204,-70.312500
3205,-70.312500
3206,-70.312500
3207,-70.312500
3208,-74.218750
3209,-74.218750
3210,-74.218750
3211,-74.218750
3212,-78.125000
3213,-78.125000
3214,-78.125000
3215,-78.125000
3216,-78.125000
3217,-78.125000
3218,-82.031250
3219,-82.031250
3220,-82.031250
3221,-82.031250
3222,-85.937500
3223,-85.937500
3224,-85.937500
3225,-85.937500
3226,-85.937500
3227,-85.937500
3228,-89.843750
3229,-89.843750
3230,-89.843750
3231,-89.843750
3232,-89.843750
3233,-89.843750
3234,-89.843750
3235,-93.750000
3236,-93.750000
3237,-93.750000
3238,-93.750000
3239,-93.750000
3240,-93.750000
3241,-93.750000
3242,-93.750000
3243,-93.750000
3244,-93.750000
3245,-93.750000
3246,-97.656250
3247,-97.656250
3248,-97.656250
3249,-97.656250
3250,-97.656250
3251,-97.656250
3252,-97.656250
3253,-97.656250
3254,-97.656250
3255,-97.656250
3256,-97.656250
3257,-97.656250
3258,-97.656250
3259,-97.656250
3260,-97.656250
3261,-97.656250
3262,-97.656250
3263,-97.656250
3264,-97.656250
3265,-97.656250
3266,-97.656250
3267,-97.656250
3268,-97.656250
3269,-97.656250
3270,-97.656250
3271,-97.656250
3272,-97.656250
3273,-97.656250
3274,-97.656250
3275,-97.656250
3276,-97.656250
3277,-93.750000
3278,-97.656250
3279,-93.750000
3280,-93.750000
3281,-93.750000
3282,-93.750000
3283,-93.750000
3284,-93.750000
3285,-93.750000
3286,-93.750000
3287,-93.750000
3288,-89.843750
3289,-89.843750
3290,-89.843750
3291,-89.843750
3292,-89.843750
3293,-89.843750
3294,-89.843750
3295,-85.937500
3296,-85.937500
3297,-85.937500
3298,-85.937500
3299,-85.937500
3300,-82.031250
3301,-82.031250
3302,-82.031250
3303,-82.031250
3304,-82.031250
3305,-82.031250
3306,-82.031250
3307,-78.125000
3308,-78.125000
3309,-78.125000
3310,-78.125000
3311,-78.125000
3312,-74.218750
3313,-74.218750
3314,-74.218750
3315,-74.218750
3316,-70.312500
3317,-70.312500
3318,-70.312500
3319,-70.312500
3320,-66.406250
3321,-66.406250
3322,-66.406250
3323,-66.406250
3324,-62.500000
3325,-62.500000
3326,-62.500000
3327,-62.500000
3328,-58.593750
3329,-58.593750
3330,-58.593750
3331,-58.593750
3332,-58.593750
3333,-54.687500
3334,-54.687500
3335,-50.781250
3336,-50.781250
3337,-50.781250
3338,-50.781250
3339,-50.781250
3340,-46.875000
3341,-46.875000
3342,-46.875000
3343,-42.968750
3344,-42.968750
3345,-42.968750
3346,-42.968750
3347,-39.062500
3348,-39.062500
3349,-39.062500
3350,-35.156250
3351,-35.156250
3352,-35.156250
3353,-31.250000
3354,-31.250000
3355,-31.250000
3356,-27.343750
3357,-27.343750
3358,-27.343750
3359,-27.343750
3360,-23.437500
3361,-23.437500
3362,-23.437500
3363,-23.437500
3364,-19.531250
3365,-19.531250
3366,-19.531250
3367,-15.625000
3368,-15.625000
3369,-15.625000
3370,-11.718750
3371,-11.718750
3372,-11.718750
3373,-11.718750
3374,-7.812500
3375,-7.812500
3376,-7.812500
3377,-3.906250
3378,-3.906250
3379,-3.906250
3380,-3.906250
3381,0.000000
3382,0.000000
3383,0.000000
3384,0.000000
3385,3.906250
3386,3.906250
3387,3.906250
3388,7.812500
3389,7.812500
3390,7.812500
3391,7.812500
3392,11.718750
3393,11.718750
3394,11.718750
3395,11.718750
3396,15.625000
3397,15.625000
3398,15.625000
3399,15.625000
3400,19.531250
3401,19.531250
3402,19.531250
3403,19.531250
3404,23.437500
3405,23.437500
3406,23.437500
3407,23.437500
3408,27.343750
3409,27.343750
3410,27.343750
3411,27.343750
3412,27.343750
3413,31.250000
3414,31.250000
3415,31.250000
3416,31.250000
3417,31.250000
3418,35.156250
3419,35.156250
3420,35.156250
3421,35.156250
3422,35.156250
3423,35.156250
3424,39.062500
3425,39.062500
3426,39.062500
3427,39.062500
3428,42.968750
3429,42.968750
3430,42.968750
3431,42.968750
3432,42.968750
3433,42.968750
3434,42.968750
3435,46.875000
3436,46.875000
3437,46.875000
3438,46.875000
3439,46.875000
3440,46.875000
3441,46.875000
3442,46.875000
3443,46.875000
3444,50.781250
3445,50.781250
3446,50.781250
3447,50.781250
3448,50.781250
3449,50.781250
3450,50.781250
3451,50.781250
3452,50.781250
3453,50.781250
3454,54.687500
3455,54.687500
3456,50.781250
3457,54.687500
3458,54.687500
3459,54.687500
3460,54.687500
3461,54.687500
3462,54.687500
3463,54.687500
3464,54.687500
3465,54.687500
3466,54.687500
3467,54.687500
3468,54.687500
3469,54.687500
3470,54.687500
3471,54.687500
3472,54.687500
3473,54.687500
3474,54.687500
3475,54.687500
3476,54.687500
3477,54.687500
3478,54.687500
3479,54.687500
3480,54.687500
3481,54.687500
3482,54.687500
3483,54.687500
3484,54.687500
3485,54.687500
3486,54.687500
3487,54.687500
3488,54.687500
3489,54.687500
3490,54.687500
3491,54.687500
3492,54.687500
3493,54.687500
3494,54.687500
3495,50.781250
3496,50.781250
3497,50.781250
3498,50.781250
3499,50.781250
3500,50.781250
3501,50.781250
3502,46.875000
3503,46.875000
3504,46.875000
3505,46.875000
3506,46.875000
3507,46.875000
3508,46.875000
3509,46.875000
3510,42.968750
3511,42.968750
3512,42.968750
3513,42.968750
3514,42.968750
3515,42.968750
3516,42.968750
3517,39.062500
3518,39.062500
3519,42.968750
3520,39.062500
3521,39.062500
3522,39.062500
3523,35.156250
3524,35.156250
3525,35.156250
3526,35.156250
3527,35.156250
3528,31.250000
3529,31.250000
3530,31.250000
3531,31.250000
3532,31.250000
3533,27.343750
3534,27.343750
3535,27.343750
3536,27.343750
3537,23.437500
3538,23.437500
3539,23.437500
3540,23.437500
3541,19.531250
3542,19.531250
3543,19.531250
3544,19.531250
3545,19.531250
3546,15.625000
3547,15.625000
3548,15.625000
3549,11.718750
3550,11.718750
3551,11.718750
3552,11.718750
3553,7.812500
3554,7.812500
3555,7.812500
3556,7.812500
3557,3.906250
3558,3.906250
3559,3.906250
3560,0.000000
3561,0.000000
3562,0.000000
3563,-3.906250
3564,-3.906250
3565,-3.906250
3566,-3.906250
3567,-7.812500
3568,-7.812500
3569,-7.812500
3570,-11.718750
3571,-11.718750
3572,-11.718750
3573,-15.625000
3574,-15.625000
3575,-15.625000
3576,-15.625000
3577,-19.531250
3578,-19.531250
3579,-19.531250
3580,-23.437500
3581,-23.437500
3582,-23.437500
3583,-27.343750
3584,-27.343750
3585,-27.343750
3586,-27.343750
3587,-31.250000
3588,-31.250000
3589,-31.250000
3590,-35.156250
3591,-35.156250
3592,-35.156250
3593,-39.062500
3594,-39.062500
3595,-39.062500
3596,-42.968750
3597,-42.968750
3598,-42.968750
3599,-42.968750
3600,-46.875000
3601,-46.875000
3602,-46.875000
3603,-50.781250
3604,-50.781250
3605,-50.781250
3606,-50.781250
3607,-54.687500
3608,-54.687500
3609,-54.687500
3610,-58.593750
3611,-58.593750
3612,-58.593750
3613,-58.593750
3614,-62.500000
3615,-62.500000
3616,-62.500000
3617,-66.406250
3618,-66.406250
3619,-66.406250
3620,-66.406250
3621,-70.312500
3622,-70.312500
3623,-70.312500
3624,-70.312500
3625,-74.218750
3626,-74.218750
3627,-74.218750
3628,-74.218750
3629,-74.218750
3630,-78.125000
3631,-78.125000
3632,-78.125000
3633,-78.125000
3634,-82.031250
3635,-82.031250
3636,-82.031250
3637,-82.031250
3638,-82.031250
3639,-82.031250
3640,-85.937500
3641,-85.937500
3642,-85.937500
3643,-85.937500
3644,-85.937500
3645,-85.937500
3646,-89.843750
3647,-89.843750
3648,-89.843750
3649,-89.843750
3650,-89.843750
3651,-93.750000
3652,-89.843750
3653,-93.750000
3654,-93.750000
3655,-93.750000
3656,-93.750000
3657,-93.750000
3658,-93.750000
3659,-93.750000
3660,-97.656250
3661,-97.656250
3662,-97.656250
3663,-93.750000
3664,-97.656250
3665,-97.656250
3666,-97.656250
3667,-97.656250
3668,-97.656250
3669,-97.656250
3670,-97.656250
3671,-97.656250
3672,-97.656250
3673,-97.656250
3674,-97.656250
3675,-97.656250
3676,-97.656250
3677,-97.656250
3678,-97.656250
3679,-97.656250
3680,-97.656250
3681,-97.656250
3682,-97.656250
3683,-97.656250
3684,-97.656250
3685,-97.656250
3686,-97.656250
3687,-97.656250
3688,-97.656250
3689,-97.656250
3690,-97.656250
3691,-97.656250
3692,-97.656250
3693,-93.750000
3694,-93.750000
3695,-97.656250
3696,-93.750000
3697,-93.750000
3698,-93.750000
3699,-93.750000
3700,-93.750000
3701,-93.750000
3702,-93.750000
3703,-93.750000
3704,-89.843750
3705,-93.750000
3706,-93.750000
3707,-89.843750
3708,-89.843750
3709,-89.843750
3710,-89.843750
3711,-85.937500
3712,-85.937500
3713,-89.843750
3714,-85.937500
3715,-85.937500
3716,-85.937500
3717,-85.937500
3718,-82.031250
3719,-82.031250
3720,-82.031250
3721,-82.031250
3722,-82.031250
3723,-82.031250
3724,-78.125000
3725,-78.125000
3726,-78.125000
3727,-78.125000
3728,-74.218750
3729,-74.218750
3730,-74.218750
3731,-74.218750
3732,-74.218750
3733,-70.312500
3734,-70.312500
3735,-70.312500
3736,-66.406250
3737,-66.406250
3738,-66.406250
3739,-66.406250
3740,-66.406250
3741,-62.500000
3742,-62.500000
3743,-62.500000
3744,-62.500000
3745,-58.593750
3746,-58.593750
3747,-58.593750
3748,-54.687500
3749,-54.687500
3750,-54.687500
3751,-54.687500
3752,-50.781250
3753,-50.781250
3754,-50.781250
3755,-50.781250
3756,-46.875000
3757,-46.875000
3758,-46.875000
3759,-46.875000
3760,-42.968750
3761,-42.968750
3762,-42.968750
3763,-39.062500
3764,-39.062500
3765,-39.062500
3766,-35.156250
3767,-35.156250
3768,-35.156250
3769,-35.156250
3770,-31.250000
3771,-31.250000
3772,-31.250000
3773,-31.250000
3774,-27.343750
3775,-27.343750
3776,-27.343750
3777,-23.437500
3778,-23.437500
3779,-23.437500
3780,-19.531250
3781,-19.531250
3782,-19.531250
3783,-19.531250
3784,-15.625000
3785,-15.625000
3786,-15.625000
3787,-15.625000
3788,-11.718750
3789,-11.718750
3790,-7.812500
3791,-7.812500
3792,-7.812500
3793,-7.812500
3794,-3.906250
3795,-3.906250
3796,-3.906250
3797,-3.906250
3798,0.000000
3799,0.000000
3800,0.000000
3801,3.906250
3802,3.906250
3803,3.906250
3804,3.906250
3805,7.812500
3806,7.812500
3807,7.812500
3808,7.812500
3809,11.718750
3810,11.718750
3811,11.718750
3812,11.718750
3813,15.625000
3814,15.625000
3815,15.625000
3816,19.531250
3817,19.531250
3818,19.531250
3819,19.531250
3820,23.437500
3821,23.437500
3822,23.437500
3823,23.437500
3824,23.437500
3825,27.343750
3826,27.343750
3827,27.343750
3828,27.343750
3829,31.250000
3830,27.343750
3831,35.156250
3832,31.250000
3833,31.250000
3834,31.250000
3835,35.156250
3836,35.156250
3837,35.156250
3838,35.156250
3839,35.156250
3840,35.156250
3841,39.062500
3842,39.062500
3843,39.062500
3844,39.062500
3845,39.062500
3846,42.968750
3847,42.968750
3848,42.968750
3849,42.968750
3850,42.968750
3851,42.968750
3852,42.968750
3853,46.875000
3854,46.875000
3855,46.875000
3856,46.875000
3857,46.875000
3858,46.875000
3859,46.875000
3860,50.781250
3861,50.781250
3862,46.875000
3863,50.781250
3864,50.781250
3865,50.781250
3866,50.781250
3867,50.781250
3868,50.781250
3869,50.781250
3870,54.687500
3871,50.781250
3872,54.687500
3873,54.687500
3874,54.687500
3875,54.687500
3876,54.687500
3877,54.687500
3878,54.687500
3879,54.687500
3880,54.687500
3881,54.687500
3882,54.687500
3883,54.687500
3884,54.687500
3885,54.687500
3886,54.687500
3887,54.687500
3888,54.687500
3889,54.687500
3890,54.687500
3891,54.687500
3892,54.687500
3893,54.687500
3894,54.687500
3895,54.687500
3896,54.687500
3897,54.687500
3898,54.687500
3899,54.687500
3900,54.687500
3901,54.687500
3902,54.687500
3903,54.687500
3904,54.687500
3905,54.687500
3906,54.687500
3907,54.687500
3908,54.687500
3909,50.781250
3910,50.781250
3911,50.781250
3912,50.781250
3913,50.781250
3914,50.781250
3915,50.781250
3916,50.781250
3917,50.781250
3918,50.781250
3919,46.875000
3920,46.875000
3921,46.875000
3922,46.875000
3923,46.875000
3924,46.875000
3925,46.875000
3926,46.875000
3927,46.875000
3928,42.968750
3929,42.968750
3930,42.968750
3931,42.968750
3932,42.968750
3933,39.062500
3934,39.062500
3935,39.062500
3936,39.062500
3937,39.062500
3938,39.062500
3939,39.062500
3940,35.156250
3941,35.156250
3942,35.156250
3943,35.156250
3944,35.156250
3945,35.156250
3946,31.250000
3947,31.250000
3948,31.250000
3949,31.250000
3950,27.343750
3951,27.343750
3952,27.343750
3953,27.343750
3954,23.437500
3955,23.437500
3956,23.437500
3957,23.437500
3958,19.531250
3959,19.531250
3960,19.531250
3961,19.531250
3962,15.625000
3963,15.625000
3964,15.625000
3965,15.625000
3966,11.718750
3967,11.718750
3968,11.718750
3969,7.812500
3970,7.812500
3971,7.812500
3972,7.812500
3973,3.906250
3974,3.906250
3975,3.906250
3976,0.000000
3977,0.000000
3978,0.000000
3979,0.000000
3980,-3.906250
3981,-3.906250
3982,-3.906250
3983,-3.906250
3984,-7.812500
3985,-7.812500
3986,-7.812500
3987,-11.718750
3988,-11.718750
3989,-11.718750
3990,-15.625000
3991,-15.625000
3992,-15.625000
3993,-15.625000
3994,-19.531250
3995,-19.531250
3996,-19.531250
3997,-23.437500
3998,-23.437500
3999,-23.437500
4000,-27.343750
4001,-27.343750
4002,-27.343750
4003,-27.343750
4004,-31.250000
4005,-35.156250
4006,-31.250000
4007,-35.156250
4008,-35.156250
4009,-35.156250
4010,-39.062500
4011,-39.062500
4012,-39.062500
4013,-42.968750
4014,-42.968750
4015,-42.968750
4016,-46.875000
4017,-46.875000
4018,-46.875000
4019,-50.781250
4020,-50.781250
4021,-50.781250
4022,-50.781250
4023,-54.687500
4024,-54.687500
4025,-54.687500
4026,-58.593750
4027,-54.687500
4028,-58.593750
4029,-58.593750
4030,-62.500000
4031,-62.500000
4032,-62.500000
4033,-62.500000
4034,-66.406250
4035,-66.406250
4036,-66.406250
4037,-70.312500
4038,-70.312500
4039,-70.312500
4040,-70.312500
4041,-70.312500
4042,-74.218750
4043,-74.218750
4044,-74.218750
4045,-74.218750
4046,-78.125000
4047,-78.125000
4048,-78.125000
4049,-78.125000
4050,-78.125000
4051,-82.031250
4052,-82.031250
4053,-82.031250
4054,-82.031250
4055,-82.031250
4056,-85.937500
4057,-85.937500
4058,-85.937500
4059,-85.937500
4060,-85.937500
4061,-85.937500
4062,-89.843750
4063,-89.843750
4064,-89.843750
4065,-89.843750
4066,-89.843750
4067,-89.843750
4068,-93.750000
4069,-89.843750
4070,-93.750000
4071,-93.750000
4072,-93.750000
4073,-93.750000
4074,-93.750000
4075,-93.750000
4076,-93.750000
4077,-93.750000
4078,-93.750000
4079,-97.656250
4080,-97.656250
4081,-97.656250
4082,-97.656250
4083,-97.656250
4084,-97.656250
4085,-97.656250
4086,-97.656250
4087,-97.656250
4088,-97.656250
4089,-97.656250
4090,-97.656250
4091,-97.656250
4092,-97.656250
4093,-97.656250
4094,-97.656250
4095,-97.656250
4096,-101.562500
4097,-97.656250
4098,-97.656250
4099,-97.656250
4100,-97.656250
4101,-97.656250
4102,-97.656250
4103,-97.656250
4104,-97.656250
4105,-97.656250
4106,-97.656250
4107,-97.656250
4108,-97.656250
4109,-97.656250
4110,-97.656250
4111,-93.750000
4112,-93.750000
4113,-97.656250
4114,-93.750000
4115,-93.750000
4116,-93.750000
4117,-93.750000
4118,-93.750000
4119,-93.750000
4120,-93.750000
4121,-93.750000
4122,-89.843750
4123,-89.843750
4124,-89.843750
4125,-89.843750
4126,-89.843750
4127,-89.843750
4128,-85.937500
4129,-85.937500
4130,-85.937500
4131,-85.937500
4132,-85.937500
4133,-82.031250
4134,-82.031250
4135,-82.031250
4136,-82.031250
4137,-82.031250
4138,-82.031250
4139,-82.031250
4140,-78.125000
4141,-78.125000
4142,-78.125000
4143,-78.125000
4144,-78.125000
4145,-74.218750
4146,-74.218750
4147,-74.218750
4148,-74.218750
4149,-70.312500
4150,-70.312500
4151,-70.312500
4152,-70.312500
4153,-70.312500
4154,-66.406250
4155,-66.406250
4156,-66.406250
4157,-66.406250
4158,-62.500000
4159,-62.500000
4160,-62.500000
4161,-62.500000
4162,-58.593750
4163,-58.593750
4164,-58.593750
4165,-58.593750
4166,-54.687500
4167,-54.687500
4168,-54.687500
4169,-50.781250
4170,-50.781250
4171,-50.781250
4172,-50.781250
4173,-46.875000
4174,-46.875000
4175,-46.875000
4176,-42.968750
4177,-42.968750
4178,-42.968750
4179,-42.968750
4180,-39.062500
4181,-39.062500
4182,-39.062500
4183,-39.062500
4184,-35.156250
4185,-35.156250
4186,-35.156250
4187,-31.250000
4188,-31.250000
4189,-31.250000
4190,-27.343750
4191,-27.343750
4192,-27.343750
4193,-27.343750
4194,-23.437500
4195,-23.437500
4196,-23.437500
4197,-19.531250
4198,-19.531250
4199,-19.531250
4200,-15.625000
4201,-15.625000
4202,-15.625000
4203,-11.718750
4204,-11.718750
4205,-15.625000
4206,-11.718750
4207,-11.718750
4208,-7.812500
4209,-7.812500
4210,-7.812500
4211,-3.906250
4212,-3.906250
4213,-3.906250
4214,0.000000
4215,0.000000
4216,0.000000
4217,0.000000
4218,3.906250
4219,3.906250
4220,3.906250
4221,3.906250
4222,7.812500
4223,7.812500
4224,7.812500
4225,7.812500
4226,11.718750
4227,11.718750
4228,11.718750
4229,11.718750
4230,15.625000
4231,15.625000
4232,15.625000
4233,19.531250
4234,19.531250
4235,19.531250
4236,19.531250
4237,19.531250
4238,23.437500
4239,23.437500
4240,23.437500
4241,23.437500
4242,27.343750
4243,27.343750
4244,27.343750
4245,27.343750
4246,27.343750
4247,31.250000
4248,31.250000
4249,31.250000
4250,31.250000
4251,31.250000
4252,35.156250
4253,35.156250
4254,35.156250
4255,35.156250
4256,35.156250
4257,39.062500
4258,39.062500
4259,39.062500
4260,39.062500
4261,39.062500
4262,42.968750
4263,42.968750
4264,42.968750
4265,42.968750
4266,42.968750
4267,42.968750
4268,42.968750
4269,46.875000
4270,46.875000
4271,42.968750
4272,46.875000
4273,46.875000
4274,46.875000
4275,46.875000
4276,50.781250
4277,46.875000
4278,50.781250
4279,50.781250
4280,50.781250
4281,50.781250
4282,50.781250
4283,50.781250
4284,50.781250
4285,50.781250
4286,50.781250
4287,50.781250
4288,54.687500
4289,50.781250
4290,54.687500
4291,54.687500
4292,54.687500
4293,54.687500
4294,54.687500
4295,54.687500
4296,54.687500
4297,54.687500
4298,54.687500
4299,54.687500
4300,54.687500
4301,54.687500
4302,54.687500
4303,54.687500
4304,54.687500
4305,54.687500
4306,54.687500
4307,54.687500
4308,54.687500
4309,54.687500
4310,54.687500
4311,54.687500
4312,54.687500
4313,58.593750
4314,54.687500
4315,54.687500
4316,54.687500
4317,54.687500
4318,54.687500
4319,54.687500
4320,54.687500
4321,54.687500
4322,54.687500
4323,54.687500
4324,54.687500
4325,54.687500
4326,50.781250
4327,50.781250
4328,54.687500
4329,50.781250
4330,50.781250
4331,50.781250
4332,50.781250
4333,50.781250
4334,50.781250
4335,50.781250
4336,46.875000
4337,50.781250
4338,46.875000
4339,46.875000
4340,46.875000
4341,46.875000
4342,50.781250
4343,46.875000
4344,46.875000
4345,42.968750
4346,42.968750
4347,42.968750
4348,42.968750
4349,42.968750
4350,42.968750
4351,39.062500
4352,39.062500
4353,39.062500
4354,39.062500
4355,39.062500
4356,35.156250
4357,35.156250
4358,35.156250
4359,35.156250
4360,35.156250
4361,35.156250
4362,35.156250
4363,31.250000
4364,31.250000
4365,31.250000
4366,27.343750
4367,27.343750
4368,27.343750
4369,27.343750
4370,27.343750
4371,23.437500
4372,23.437500
4373,23.437500
4374,23.437500
4375,19.531250
4376,19.531250
4377,19.531250
4378,19.531250
4379,15.625000
4380,15.625000
4381,15.625000
4382,15.625000
4383,11.718750
4384,11.718750
4385,11.718750
4386,11.718750
4387,7.812500
4388,7.812500
4389,7.812500
4390,7.812500
4391,3.906250
4392,3.906250
4393,3.906250
4394,0.000000
4395,0.000000
4396,0.000000
4397,-3.906250
4398,-3.906250
4399,-3.906250
4400,-7.812500
4401,-7.812500
4402,-7.812500
4403,-7.812500
4404,-11.718750
4405,-11.718750
4406,-11.718750
4407,-15.625000
4408,-15.625000
4409,-15.625000
4410,-19.531250
4411,-19.531250
4412,-19.531250
4413,-23.437500
4414,-23.437500
4415,-23.437500
4416,-23.437500
4417,-27.343750
4418,-27.343750
4419,-27.343750
4420,-31.250000
4421,-31.250000
4422,-31.250000
4423,-31.250000
4424,-35.156250
4425,-35.156250
4426,-35.156250
4427,-39.062500
4428,-39.062500
4429,-39.062500
4430,-42.968750
4431,-42.968750
4432,-42.968750
4433,-46.875000
4434,-46.875000
4435,-46.875000
4436,-46.875000
4437,-50.781250
4438,-50.781250
4439,-50.781250
4440,-50.781250
4441,-54.687500
4442,-54.687500
4443,-58.593750
4444,-58.593750
4445,-58.593750
4446,-58.593750
4447,-62.500000
4448,-62.500000
4449,-62.500000
4450,-62.500000
4451,-66.406250
4452,-66.406250
4453,-66.406250
4454,-66.406250
4455,-70.312500
4456,-70.312500
4457,-70.312500
4458,-74.218750
4459,-74.218750
4460,-74.218750
4461,-74.218750
4462,-78.125000
4463,-78.125000
4464,-78.125000
4465,-78.125000
4466,-78.125000
4467,-78.125000
4468,-82.031250
4469,-82.031250
4470,-82.031250
4471,-82.031250
4472,-82.031250
4473,-85.937500
4474,-85.937500
4475,-85.937500
4476,-85.937500
4477,-85.937500
4478,-89.843750
4479,-89.843750
4480,-89.843750
4481,-89.843750
4482,-89.843750
4483,-89.843750
4484,-93.750000
4485,-93.750000
4486,-93.750000
4487,-93.750000
4488,-93.750000
4489,-93.750000
4490,-93.750000
4491,-93.750000
4492,-93.750000
4493,-93.750000
4494,-97.656250
4495,-97.656250
4496,-97.656250
4497,-101.562500
4498,-97.656250
4499,-97.656250
4500,-97.656250
4501,-97.656250
4502,-97.656250
4503,-97.656250
4504,-97.656250
4505,-97.656250
4506,-97.656250
4507,-97.656250
4508,-97.656250
4509,-97.656250
4510,-97.656250
4511,-97.656250
4512,-97.656250
4513,-97.656250
4514,-97.656250
4515,-97.656250
4516,-97.656250
4517,-97.656250
4518,-97.656250
4519,-97.656250
4520,-97.656250
4521,-97.656250
4522,-97.656250
4523,-97.656250
4524,-97.656250
4525,-97.656250
4526,-97.656250
4527,-97.656250
4528,-93.750000
4529,-97.656250
4530,-93.750000
4531,-93.750000
4532,-93.750000
4533,-93.750000
4534,-93.750000
4535,-93.750000
4536,-93.750000
4537,-89.843750
4538,-89.843750
4539,-89.843750
4540,-89.843750
4541,-89.843750
4542,-89.843750
4543,-89.843750
4544,-89.843750
4545,-89.843750
4546,-85.937500
4547,-85.937500
4548,-85.937500
4549,-85.937500
4550,-85.937500
4551,-82.031250
4552,-82.031250
4553,-82.031250
4554,-82.031250
4555,-82.031250
4556,-78.125000
4557,-78.125000
4558,-78.125000
4559,-78.125000
4560,-78.125000
4561,-74.218750
4562,-74.218750
4563,-74.218750
4564,-74.218750
4565,-74.218750
4566,-74.218750
4567,-70.312500
4568,-70.312500
4569,-70.312500
4570,-70.312500
4571,-66.406250
4572,-66.406250
4573,-66.406250
4574,-66.406250
4575,-62.500000
4576,-62.500000
4577,-62.500000
4578,-58.593750
4579,-58.593750
4580,-58.593750
4581,-58.593750
4582,-54.687500
4583,-54.687500
4584,-54.687500
4585,-54.687500
4586,-50.781250
4587,-50.781250
4588,-50.781250
4589,-46.875000
4590,-46.875000
4591,-46.875000
4592,-46.875000
4593,-42.968750
4594,-42.968750
4595,-42.968750
4596,-42.968750
4597,-39.062500
4598,-39.062500
4599,-39.062500
4600,-39.062500
4601,-35.156250
4602,-35.156250
4603,-35.156250
4604,-31.250000
4605,-31.250000
4606,-31.250000
4607,-27.343750
4608,-27.343750
4609,-27.343750
4610,-23.437500
4611,-23.437500
4612,-23.437500
4613,-19.531250
4614,-19.531250
4615,-19.531250
4616,-19.531250
4617,-15.625000
4618,-15.625000
4619,-15.625000
4620,-15.625000
4621,-11.718750
4622,-11.718750
4623,-11.718750
4624,-7.812500
4625,-7.812500
4626,-7.812500
4627,-7.812500
4628,-3.906250
4629,-3.906250
4630,-3.906250
4631,0.000000
4632,-3.906250
4633,0.000000
4634,3.906250
4635,3.906250
4636,3.906250
4637,3.906250
4638,7.812500
4639,7.812500
4640,7.812500
4641,7.812500
4642,7.812500
4643,11.718750
4644,11.718750
4645,15.625000
4646,15.625000
4647,15.625000
4648,15.625000
4649,15.625000
4650,19.531250
4651,19.531250
4652,19.531250
4653,23.437500
4654,19.531250
4655,23.437500
4656,23.437500
4657,23.437500
4658,27.343750
4659,27.343750
4660,27.343750
4661,27.343750
4662,27.343750
4663,31.250000
4664,31.250000
4665,31.250000
4666,31.250000
4667,31.250000
4668,35.156250
4669,35.156250
4670,35.156250
4671,35.156250
4672,35.156250
4673,35.156250
4674,39.062500
4675,39.062500
4676,39.062500
4677,39.062500
4678,39.062500
4679,39.062500
4680,42.968750
4681,42.968750
4682,42.968750
4683,42.968750
4684,42.968750
4685,42.968750
4686,42.968750
4687,42.968750
4688,46.875000
4689,46.875000
4690,46.875000
4691,46.875000
4692,46.875000
4693,46.875000
4694,50.781250
4695,50.781250
4696,50.781250
4697,50.781250
4698,50.781250
4699,50.781250
4700,50.781250
4701,50.781250
4702,50.781250
4703,50.781250
4704,54.687500
4705,54.687500
4706,54.687500
4707,54.687500
4708,54.687500
4709,54.687500
4710,54.687500
4711,54.687500
4712,54.687500
4713,54.687500
4714,54.687500
4715,54.687500
4716,54.687500
4717,54.687500
4718,54.687500
4719,54.687500
4720,54.687500
4721,54.687500
4722,54.687500
4723,54.687500
4724,54.687500
4725,54.687500
4726,54.687500
4727,54.687500
4728,54.687500
4729,54.687500
4730,54.687500
4731,54.687500
4732,54.687500
4733,54.687500
4734,54.687500
4735,54.687500
4736,54.687500
4737,54.687500
4738,54.687500
4739,54.687500
4740,54.687500
4741,54.687500
4742,54.687500
4743,50.781250
4744,50.781250
4745,50.781250
4746,50.781250
4747,50.781250
4748,50.781250
4749,50.781250
4750,50.781250
4751,50.781250
4752,50.781250
4753,50.781250
4754,50.781250
4755,46.875000
4756,46.875000
4757,46.875000
4758,46.875000
4759,46.875000
4760,46.875000
4761,42.968750
4762,46.875000
4763,42.968750
4764,42.968750
4765,42.968750
4766,42.968750
4767,42.968750
4768,39.062500
4769,39.062500
4770,39.062500
4771,39.062500
4772,39.062500
4773,39.062500
4774,35.156250
4775,35.156250
4776,35.156250
4777,35.156250
4778,31.250000
4779,31.250000
4780,31.250000
4781,31.250000
4782,31.250000
4783,27.343750
4784,27.343750
4785,27.343750
4786,27.343750
4787,23.437500
4788,23.437500
4789,23.437500
4790,23.437500
4791,23.437500
4792,19.531250
4793,19.531250
4794,19.531250
4795,19.531250
4796,15.625000
4797,15.625000
4798,15.625000
4799,15.625000
4800,11.718750
4801,11.718750
4802,11.718750
4803,7.812500
4804,7.812500
4805,7.812500
4806,3.906250
4807,3.906250
4808,3.906250
4809,3.906250
4810,0.000000
4811,0.000000
4812,0.000000
4813,-3.906250
4814,-3.906250
4815,-3.906250
4816,-3.906250
4817,-7.812500
4818,-11.718750
4819,-7.812500
4820,-11.718750
4821,-11.718750
4822,-11.718750
4823,-11.718750
4824,-15.625000
4825,-19.531250
4826,-19.531250
4827,-15.625000
4828,-19.531250
4829,-19.531250
4830,-23.437500
4831,-23.437500
4832,-23.437500
4833,-23.437500
4834,-27.343750
4835,-27.343750
4836,-31.250000
4837,-31.250000
4838,-31.250000
4839,-31.250000
4840,-35.156250
4841,-35.156250
4842,-35.156250
4843,-39.062500
4844,-39.062500
4845,-39.062500
4846,-39.062500
4847,-42.968750
4848,-42.968750
4849,-46.875000
4850,-46.875000
4851,-46.875000
4852,-46.875000
4853,-50.781250
4854,-50.781250
4855,-50.781250
4856,-54.687500
4857,-54.687500
4858,-54.687500
4859,-54.687500
4860,-58.593750
4861,-58.593750
4862,-58.593750
4863,-58.593750
4864,-62.500000
4865,-62.500000
4866,-62.500000
4867,-66.406250
4868,-66.406250
4869,-66.406250
4870,-70.312500
4871,-70.312500
4872,-70.312500
4873,-70.312500
4874,-70.312500
4875,-74.218750
4876,-74.218750
4877,-74.218750
4878,-74.218750
4879,-74.218750
4880,-78.125000
4881,-78.125000
4882,-78.125000
4883,-78.125000
4884,-82.031250
4885,-82.031250
4886,-82.031250
4887,-82.031250
4888,-85.937500
4889,-85.937500
4890,-85.937500
4891,-85.937500
4892,-85.937500
4893,-85.937500
4894,-85.937500
4895,-89.843750
4896,-89.843750
4897,-89.843750
4898,-89.843750
4899,-89.843750
4900,-89.843750
4901,-89.843750
4902,-93.750000
4903,-93.750000
4904,-93.750000
4905,-93.750000
4906,-93.750000
4907,-93.750000
4908,-93.750000
4909,-93.750000
4910,-93.750000
4911,-97.656250
4912,-97.656250
4913,-97.656250
4914,-97.656250
4915,-97.656250
4916,-97.656250
4917,-97.656250
4918,-97.656250
4919,-97.656250
4920,-97.656250
4921,-97.656250
4922,-97.656250
4923,-97.656250
4924,-97.656250
4925,-97.656250
4926,-97.656250
4927,-97.656250
4928,-97.656250
4929,-97.656250
4930,-97.656250
4931,-97.656250
4932,-97.656250
4933,-97.656250
4934,-97.656250
4935,-97.656250
4936,-97.656250
4937,-97.656250
4938,-97.656250
4939,-97.656250
4940,-97.656250
4941,-97.656250
4942,-97.656250
4943,-97.656250
4944,-97.656250
4945,-97.656250
4946,-93.750000
4947,-93.750000
4948,-93.750000
4949,-93.750000
4950,-93.750000
4951,-93.750000
4952,-93.750000
4953,-93.750000
4954,-89.843750
4955,-89.843750
4956,-89.843750
4957,-89.843750
4958,-89.843750
4959,-89.843750
4960,-89.843750
4961,-89.843750
4962,-85.937500
4963,-85.937500
4964,-85.937500
4965,-85.937500
4966,-85.937500
4967,-82.031250
4968,-82.031250
4969,-82.031250
4970,-82.031250
4971,-82.031250
4972,-78.125000
4973,-78.125000
4974,-78.125000
4975,-78.125000
4976,-78.125000
4977,-78.125000
4978,-74.218750
4979,-74.218750
4980,-74.218750
4981,-74.218750
4982,-74.218750
4983,-70.312500
4984,-70.312500
4985,-70.312500
4986,-70.312500
4987,-66.406250
4988,-66.406250
4989,-66.406250
4990,-66.406250
4991,-62.500000
4992,-62.500000
4993,-62.500000
4994,-62.500000
4995,-58.593750
4996,-58.593750
4997,-58.593750
4998,-54.687500
4999,-54.687500
5000,-54.687500
5001,-54.687500
5002,-50.781250
5003,-50.781250
5004,-50.781250
5005,-50.781250
5006,-46.875000
5007,-46.875000
5008,-46.875000
5009,-46.875000
5010,-42.968750
5011,-42.968750
5012,-39.062500
5013,-39.062500
5014,-39.062500
5015,-39.062500
5016,-35.156250
5017,-35.156250
5018,-35.156250
5019,-35.156250
5020,-31.250000
5021,-31.250000
5022,-31.250000
5023,-27.343750
5024,-27.343750
5025,-27.343750
5026,-27.343750
5027,-23.437500
5028,-23.437500
5029,-23.437500
5030,-19.531250
5031,-19.531250
5032,-19.531250
5033,-15.625000
5034,-15.625000
5035,-15.625000
5036,-15.625000
5037,-11.718750
5038,-11.718750
5039,-11.718750
5040,-11.718750
5041,-7.812500
5042,-7.812500
5043,-7.812500
5044,-3.906250
5045,-3.906250
5046,-3.906250
5047,0.000000
5048,0.000000
5049,0.000000
5050,0.000000
5051,0.000000
5052,3.906250
5053,3.906250
5054,3.906250
5055,7.812500
5056,7.812500
5057,7.812500
5058,7.812500
5059,11.718750
5060,11.718750
5061,11.718750
5062,11.718750
5063,15.625000
5064,15.625000
5065,15.625000
5066,15.625000
5067,19.531250
5068,19.531250
5069,19.531250
5070,19.531250
5071,19.531250
5072,23.437500
5073,23.437500
5074,23.437500
5075,23.437500
5076,27.343750
5077,27.343750
5078,27.343750
5079,27.343750
5080,27.343750
5081,31.250000
5082,31.250000
5083,31.250000
5084,31.250000
5085,35.156250
5086,35.156250
5087,35.156250
5088,35.156250
5089,35.156250
5090,39.062500
5091,39.062500
5092,39.062500
5093,39.062500
5094,39.062500
5095,39.062500
5096,42.968750
5097,42.968750
5098,42.968750
5099,42.968750
5100,42.968750
5101,42.968750
5102,46.875000
5103,46.875000
5104,46.875000
5105,46.875000
5106,46.875000
5107,46.875000
5108,46.875000
5109,50.781250
5110,50.781250
5111,50.781250
5112,50.781250
5113,50.781250
5114,50.781250
5115,50.781250
5116,50.781250
5117,50.781250
5118,50.781250
5119,50.781250
5120,50.781250
5121,54.687500
5122,54.687500
5123,54.687500
5124,54.687500
5125,54.687500
5126,54.687500
5127,54.687500
5128,54.687500
5129,54.687500
5130,54.687500
5131,54.687500
5132,54.687500
5133,54.687500
5134,54.687500
5135,54.687500
5136,54.687500
5137,54.687500
5138,54.687500
5139,54.687500
5140,54.687500
5141,54.687500
5142,54.687500
5143,54.687500
5144,54.687500
5145,58.593750
5146,54.687500
5147,54.687500
5148,54.687500
5149,54.687500
5150,54.687500
5151,54.687500
5152,54.687500
5153,54.687500
5154,54.687500
5155,54.687500
5156,54.687500
5157,54.687500
5158,54.687500
5159,54.687500
5160,54.687500
5161,50.781250
5162,54.687500
5163,50.781250
5164,50.781250
5165,50.781250
5166,50.781250
5167,50.781250
5168,50.781250
5169,50.781250
5170,50.781250
5171,46.875000
5172,46.875000
5173,46.875000
5174,46.875000
5175,46.875000
5176,46.875000
5177,46.875000
5178,42.968750
5179,42.968750
5180,42.968750
5181,42.968750
5182,42.968750
5183,42.968750
5184,42.968750
5185,39.062500
5186,39.062500
5187,39.062500
5188,39.062500
5189,39.062500
5190,35.156250
5191,35.156250
5192,35.156250
5193,35.156250
5194,35.156250
5195,35.156250
5196,31.250000
5197,31.250000
5198,31.250000
5199,31.250000
5200,27.343750
5201,27.343750
5202,27.343750
5203,27.343750
5204,23.437500
5205,23.437500
5206,23.437500
5207,23.437500
5208,19.531250
5209,19.531250
5210,19.531250
5211,19.531250
5212,19.531250
5213,15.625000
5214,15.625000
5215,15.625000
5216,11.718750
5217,11.718750
5218,11.718750
5219,11.718750
5220,7.812500
5221,7.812500
5222,7.812500
5223,7.812500
5224,3.906250
5225,3.906250
5226,3.906250
5227,0.000000
5228,0.000000
5229,0.000000
5230,0.000000
5231,-3.906250
5232,-3.906250
5233,-3.906250
5234,-7.812500
5235,-7.812500
5236,-7.812500
5237,-11.718750
5238,-11.718750
5239,-11.718750
5240,-15.625000
5241,-15.625000
5242,-15.625000
5243,-15.625000
5244,-19.531250
5245,-19.531250
5246,-23.437500
5247,-23.437500
5248,-23.437500
5249,-23.437500
5250,-27.343750
5251,-27.343750
5252,-27.343750
5253,-31.250000
5254,-31.250000
5255,-31.250000
5256,-35.156250
5257,-35.156250
5258,-35.156250
5259,-35.156250
5260,-39.062500
5261,-39.062500
5262,-39.062500
5263,-42.968750
5264,-42.968750
5265,-42.968750
5266,-42.968750
5267,-46.875000
5268,-46.875000
5269,-50.781250
5270,-50.781250
5271,-50.781250
5272,-50.781250
5273,-54.687500
5274,-54.687500
5275,-54.687500
5276,-58.593750
5277,-58.593750
5278,-58.593750
5279,-58.593750
5280,-62.500000
5281,-62.500000
5282,-62.500000
5283,-62.500000
5284,-66.406250
5285,-66.406250
5286,-66.406250
5287,-70.312500
5288,-70.312500
5289,-70.312500
5290,-70.312500
5291,-70.312500
5292,-74.218750
5293,-74.218750
5294,-74.218750
5295,-74.218750
5296,-78.125000
5297,-78.125000
5298,-78.125000
5299,-78.125000
5300,-78.125000
5301,-82.031250
5302,-82.031250
5303,-82.031250
5304,-82.031250
5305,-82.031250
5306,-85.937500
5307,-85.937500
5308,-85.937500
5309,-85.937500
5310,-89.843750
5311,-89.843750
5312,-89.843750
5313,-89.843750
5314,-89.843750
5315,-89.843750
5316,-89.843750
5317,-89.843750
5318,-93.750000
5319,-93.750000
5320,-93.750000
5321,-93.750000
5322,-93.750000
5323,-93.750000
5324,-93.750000
5325,-97.656250
5326,-93.750000
5327,-97.656250
5328,-97.656250
5329,-97.656250
5330,-97.656250
5331,-97.656250
5332,-97.656250
5333,-97.656250
5334,-97.656250
5335,-97.656250
5336,-97.656250
5337,-97.656250
5338,-97.656250
5339,-97.656250
5340,-97.656250
5341,-97.656250
5342,-97.656250
5343,-97.656250
5344,-97.656250
5345,-97.656250
5346,-97.656250
5347,-97.656250
5348,-97.656250
5349,-97.656250
5350,-97.656250
5351,-97.656250
5352,-97.656250
5353,-97.656250
5354,-97.656250
5355,-97.656250
5356,-97.656250
5357,-97.656250
5358,-97.656250
5359,-97.656250
5360,-93.750000
5361,-93.750000
5362,-93.750000
5363,-93.750000
5364,-97.656250
5365,-93.750000
5366,-93.750000
5367,-93.750000
5368,-93.750000
5369,-93.750000
5370,-93.750000
5371,-93.750000
5372,-93.750000
5373,-93.750000
5374,-89.843750
5375,-89.843750
5376,-89.843750
5377,-89.843750
5378,-89.843750
5379,-85.937500
5380,-85.937500
5381,-85.937500
5382,-85.937500
5383,-85.937500
5384,-82.031250
5385,-82.031250
5386,-82.031250
5387,-82.031250
5388,-82.031250
5389,-82.031250
5390,-82.031250
5391,-78.125000
5392,-78.125000
5393,-78.125000
5394,-78.125000
5395,-74.218750
5396,-74.218750
5397,-74.218750
5398,-74.218750
5399,-74.218750
5400,-70.312500
5401,-70.312500
5402,-70.312500
5403,-70.312500
5404,-66.406250
5405,-66.406250
5406,-66.406250
5407,-62.500000
5408,-62.500000
5409,-62.500000
5410,-62.500000
5411,-62.500000
5412,-58.593750
5413,-58.593750
5414,-58.593750
5415,-54.687500
5416,-54.687500
5417,-54.687500
5418,-54.687500
5419,-50.781250
5420,-50.781250
5421,-50.781250
5422,-50.781250
5423,-46.875000
5424,-46.875000
5425,-46.875000
5426,-46.875000
5427,-42.968750
5428,-42.968750
5429,-42.968750
5430,-42.968750
5431,-39.062500
5432,-39.062500
5433,-39.062500
5434,-35.156250
5435,-35.156250
5436,-35.156250
5437,-35.156250
5438,-31.250000
5439,-31.250000
5440,-31.250000
5441,-27.343750
5442,-27.343750
5443,-27.343750
5444,-23.437500
5445,-23.437500
5446,-23.437500
5447,-23.437500
5448,-19.531250
5449,-19.531250
5450,-19.531250
5451,-19.531250
5452,-15.625000
5453,-15.625000
5454,-11.718750
5455,-11.718750
5456,-11.718750
5457,-11.718750
5458,-7.812500
5459,-7.812500
5460,-7.812500
5461,-7.812500
5462,-3.906250
5463,-3.906250
5464,-3.906250
5465,-3.906250
5466,0.000000
5467,0.000000
5468,3.906250
5469,3.906250
5470,3.906250
5471,3.906250
5472,7.812500
5473,7.812500
5474,7.812500
5475,7.812500
5476,11.718750
5477,11.718750
5478,11.718750
5479,11.718750
5480,15.625000
5481,15.625000
5482,15.625000
5483,15.625000
5484,19.531250
5485,19.531250
5486,19.531250
5487,19.531250
5488,23.437500
5489,23.437500
5490,23.437500
5491,23.437500
5492,27.343750
5493,27.343750
5494,27.343750
5495,27.343750
5496,31.250000
5497,31.250000
5498,31.250000
5499,31.250000
5500,31.250000
5501,31.250000
5502,35.156250
5503,35.156250
5504,35.156250
5505,35.156250
5506,39.062500
5507,35.156250
5508,39.062500
5509,39.062500
5510,39.062500
5511,39.062500
5512,39.062500
5513,42.968750
5514,42.968750
5515,42.968750
5516,42.968750
5517,42.968750
5518,42.968750
5519,46.875000
5520,46.875000
5521,46.875000
5522,46.875000
5523,46.875000
5524,46.875000
5525,46.875000
5526,46.875000
5527,46.875000
5528,50.781250
5529,50.781250
5530,50.781250
5531,50.781250
5532,50.781250
5533,50.781250
5534,50.781250
5535,50.781250
5536,50.781250
5537,54.687500
5538,54.687500
5539,54.687500
5540,54.687500
5541,54.687500
5542,54.687500
5543,54.687500
5544,54.687500
5545,58.593750
5546,54.687500
5547,54.687500
5548,54.687500
5549,54.687500
5550,54.687500
5551,54.687500
5552,54.687500
5553,54.687500
5554,54.687500
5555,54.687500
5556,54.687500
5557,54.687500
5558,54.687500
5559,54.687500
5560,58.593750
5561,54.687500
5562,54.687500
5563,54.687500
5564,54.687500
5565,54.687500
5566,54.687500
5567,54.687500
5568,54.687500
5569,54.687500
5570,54.687500
5571,54.687500
5572,54.687500
5573,54.687500
5574,54.687500
5575,54.687500
5576,50.781250
5577,50.781250
5578,54.687500
5579,50.781250
5580,50.781250
5581,50.781250
5582,50.781250
5583,50.781250
5584,50.781250
5585,50.781250
5586,50.781250
5587,50.781250
5588,46.875000
5589,46.875000
5590,46.875000
5591,46.875000
5592,46.875000
5593,42.968750
5594,46.875000
5595,42.968750
5596,42.968750
5597,39.062500
5598,39.062500
5599,42.968750
5600,42.968750
5601,39.062500
5602,39.062500
5603,39.062500
5604,39.062500
5605,39.062500
5606,39.062500
5607,35.156250
5608,35.156250
5609,35.156250
5610,35.156250
5611,35.156250
5612,31.250000
5613,31.250000
5614,31.250000
5615,31.250000
5616,31.250000
5617,27.343750
5618,27.343750
5619,27.343750
5620,27.343750
5621,27.343750
5622,23.437500
5623,23.437500
5624,23.437500
5625,19.531250
5626,19.531250
5627,19.531250
5628,19.531250
5629,15.625000
5630,15.625000
5631,15.625000
5632,15.625000
5633,11.718750
5634,11.718750
5635,11.718750
5636,11.718750
5637,7.812500
5638,7.812500
5639,7.812500
5640,3.906250
5641,3.906250
5642,3.906250
5643,0.000000
5644,0.000000
5645,0.000000
5646,-3.906250
5647,-3.906250
5648,-3.906250
5649,-3.906250
5650,-7.812500
5651,-7.812500
5652,-7.812500
5653,-11.718750
5654,-11.718750
5655,-11.718750
5656,-11.718750
5657,-15.625000
5658,-15.625000
5659,-15.625000
5660,-19.531250
5661,-19.531250
5662,-19.531250
5663,-19.531250
5664,-23.437500
5665,-23.437500
5666,-27.343750
5667,-27.343750
5668,-27.343750
5669,-27.343750
5670,-31.250000
5671,-31.250000
5672,-31.250000
5673,-35.156250
5674,-35.156250
5675,-35.156250
5676,-39.062500
5677,-39.062500
5678,-39.062500
5679,-42.968750
5680,-42.968750
5681,-42.968750
5682,-42.968750
5683,-46.875000
5684,-46.875000
5685,-46.875000
5686,-50.781250
5687,-50.781250
5688,-50.781250
5689,-50.781250
5690,-54.687500
5691,-54.687500
5692,-54.687500
5693,-58.593750
5694,-58.593750
5695,-58.593750
5696,-58.593750
5697,-62.500000
5698,-62.500000
5699,-62.500000
5700,-66.406250
5701,-66.406250
5702,-66.406250
5703,-66.406250
5704,-70.312500
5705,-70.312500
5706,-70.312500
5707,-70.312500
5708,-70.312500
5709,-74.218750
5710,-74.218750
5711,-74.218750
5712,-74.218750
5713,-78.125000
5714,-78.125000
5715,-78.125000
5716,-78.125000
5717,-78.125000
5718,-82.031250
5719,-82.031250
5720,-82.031250
5721,-82.031250
5722,-85.937500
5723,-85.937500
5724,-85.937500
5725,-85.937500
5726,-85.937500
5727,-85.937500
5728,-85.937500
5729,-89.843750
5730,-89.843750
5731,-89.843750
5732,-89.843750
5733,-89.843750
5734,-89.843750
5735,-93.750000
5736,-93.750000
5737,-93.750000
5738,-93.750000
5739,-93.750000
5740,-93.750000
5741,-93.750000
5742,-97.656250
5743,-93.750000
5744,-93.750000
5745,-93.750000
5746,-97.656250
5747,-97.656250
5748,-97.656250
5749,-97.656250
5750,-97.656250
5751,-97.656250
5752,-97.656250
5753,-97.656250
5754,-97.656250
5755,-97.656250
5756,-97.656250
5757,-97.656250
5758,-97.656250
5759,-97.656250
5760,-97.656250
5761,-97.656250
5762,-97.656250
5763,-97.656250
5764,-97.656250
5765,-97.656250
5766,-97.656250
5767,-97.656250
5768,-97.656250
5769,-97.656250
5770,-97.656250
5771,-97.656250
5772,-97.656250
5773,-97.656250
5774,-97.656250
5775,-97.656250
5776,-93.750000
5777,-97.656250
5778,-93.750000
5779,-93.750000
5780,-97.656250
5781,-93.750000
5782,-93.750000
5783,-93.750000
5784,-93.750000
5785,-93.750000
5786,-89.843750
5787,-93.750000
5788,-93.750000
5789,-89.843750
5790,-89.843750
5791,-93.750000
5792,-89.843750
5793,-82.031250
5794,-89.843750
5795,-89.843750
5796,-85.937500
5797,-85.937500
5798,-85.937500
5799,-85.937500
5800,-85.937500
5801,-85.937500
5802,-82.031250
5803,-82.031250
5804,-82.031250
5805,-82.031250
5806,-82.031250
5807,-78.125000
5808,-78.125000
5809,-78.125000
5810,-78.125000
5811,-74.218750
5812,-74.218750
5813,-74.218750
5814,-74.218750
5815,-74.218750
5816,-70.312500
5817,-70.312500
5818,-70.312500
5819,-70.312500
5820,-66.406250
5821,-66.406250
5822,-66.406250
5823,-66.406250
5824,-66.406250
5825,-62.500000
5826,-66.406250
5827,-62.500000
5828,-62.500000
5829,-58.593750
5830,-58.593750
5831,-58.593750
5832,-54.687500
5833,-54.687500
5834,-54.687500
5835,-54.687500
5836,-50.781250
5837,-50.781250
5838,-50.781250
5839,-50.781250
5840,-46.875000
5841,-42.968750
5842,-46.875000
5843,-42.968750
5844,-42.968750
5845,-46.875000
5846,-42.968750
5847,-39.062500
5848,-39.062500
5849,-39.062500
5850,-39.062500
5851,-35.156250
5852,-35.156250
5853,-35.156250
5854,-31.250000
5855,-31.250000
5856,-31.250000
5857,-27.343750
5858,-27.343750
5859,-27.343750
5860,-27.343750
5861,-23.437500
5862,-23.437500
5863,-23.437500
5864,-19.531250
5865,-19.531250
5866,-19.531250
5867,-15.625000
5868,-15.625000
5869,-15.625000
5870,-15.625000
5871,-11.718750
5872,-11.718750
5873,-11.718750
5874,-11.718750
5875,-7.812500
5876,-7.812500
5877,-3.906250
5878,-3.906250
5879,-3.906250
5880,-3.906250
5881,0.000000
5882,0.000000
5883,0.000000
5884,0.000000
5885,3.906250
5886,3.906250
5887,3.906250
5888,3.906250
5889,7.812500
5890,7.812500
5891,7.812500
5892,11.718750
5893,11.718750
5894,11.718750
5895,11.718750
5896,11.718750
5897,15.625000
5898,15.625000
5899,15.625000
5900,15.625000
5901,19.531250
5902,19.531250
5903,19.531250
5904,19.531250
5905,23.437500
5906,23.437500
5907,23.437500
5908,23.437500
5909,27.343750
5910,27.343750
5911,27.343750
5912,27.343750
5913,27.343750
5914,27.343750
5915,31.250000
5916,31.250000
5917,31.250000
5918,35.156250
5919,35.156250
5920,35.156250
5921,35.156250
5922,35.156250
5923,35.156250
5924,39.062500
5925,39.062500
5926,39.062500
5927,39.062500
5928,42.968750
5929,39.062500
5930,42.968750
5931,42.968750
5932,42.968750
5933,42.968750
5934,42.968750
5935,46.875000
5936,46.875000
5937,46.875000
5938,46.875000
5939,46.875000
5940,46.875000
5941,46.875000
5942,46.875000
5943,46.875000
5944,50.781250
5945,50.781250
5946,50.781250
5947,50.781250
5948,50.781250
5949,50.781250
5950,50.781250
5951,50.781250
5952,50.781250
5953,50.781250
5954,50.781250
5955,54.687500
5956,54.687500
5957,54.687500
5958,54.687500
5959,54.687500
5960,54.687500
5961,54.687500
5962,54.687500
5963,54.687500
5964,54.687500
5965,54.687500
5966,54.687500
5967,54.687500
5968,54.687500
5969,54.687500
5970,54.687500
5971,54.687500
5972,54.687500
5973,54.687500
5974,54.687500
5975,54.687500
5976,54.687500
5977,54.687500
5978,54.687500
5979,54.687500
5980,54.687500
5981,54.687500
5982,54.687500
5983,54.687500
5984,54.687500
5985,54.687500
5986,54.687500
5987,54.687500
5988,54.687500
5989,54.687500
5990,54.687500
5991,54.687500
5992,50.781250
5993,54.687500
5994,54.687500
5995,50.781250
5996,50.781250
5997,50.781250
5998,50.781250
5999,50.781250
6000,50.781250
6001,50.781250
6002,50.781250
6003,50.781250
6004,50.781250
6005,46.875000
6006,46.875000
6007,46.875000
6008,46.875000
6009,46.875000
6010,46.875000
6011,46.875000
6012,46.875000
6013,42.968750
6014,42.968750
6015,42.968750
6016,42.968750
6017,42.968750
6018,42.968750
6019,39.062500
6020,39.062500
6021,39.062500
6022,39.062500
6023,35.156250
6024,35.156250
6025,35.156250
6026,35.156250
6027,35.156250
6028,35.156250
6029,31.250000
6030,31.250000
6031,31.250000
6032,31.250000
6033,27.343750
6034,27.343750
6035,27.343750
6036,27.343750
6037,27.343750
6038,23.437500
6039,23.437500
6040,23.437500
6041,19.531250
6042,19.531250
6043,19.531250
6044,19.531250
6045,15.625000
6046,15.625000
6047,15.625000
6048,15.625000
6049,15.625000
6050,11.718750
6051,11.718750
6052,11.718750
6053,11.718750
6054,7.812500
6055,7.812500
6056,7.812500
6057,3.906250
6058,3.906250
6059,3.906250
6060,0.000000
6061,0.000000
6062,0.000000
6063,0.000000
6064,-3.906250
6065,-3.906250
6066,-3.906250
6067,-7.812500
6068,-7.812500
6069,-7.812500
6070,-11.718750
6071,-11.718750
6072,-11.718750
6073,-11.718750
6074,-15.625000
6075,-15.625000
6076,-15.625000
6077,-19.531250
6078,-19.531250
6079,-19.531250
6080,-19.531250
6081,-23.437500
6082,-23.437500
6083,-27.343750
6084,-27.343750
6085,-27.343750
6086,-27.343750
6087,-31.250000
6088,-31.250000
6089,-31.250000
6090,-35.156250
6091,-35.156250
6092,-35.156250
6093,-39.062500
6094,-39.062500
6095,-39.062500
6096,-42.968750
6097,-42.968750
6098,-42.968750
6099,-42.968750
6100,-46.875000
6101,-46.875000
6102,-46.875000
6103,-50.781250
6104,-50.781250
6105,-50.781250
6106,-54.687500
6107,-54.687500
6108,-54.687500
6109,-54.687500
6110,-58.593750
6111,-58.593750
6112,-58.593750
6113,-62.500000
6114,-62.500000
6115,-62.500000
6116,-62.500000
6117,-66.406250
6118,-66.406250
6119,-66.406250
6120,-66.406250
6121,-70.312500
6122,-70.312500
6123,-70.312500
6124,-70.312500
6125,-70.312500
6126,-74.218750
6127,-74.218750
6128,-74.218750
6129,-78.125000
6130,-78.125000
6131,-78.125000
6132,-78.125000
6133,-78.125000
6134,-82.031250
6135,-82.031250
6136,-82.031250
6137,-82.031250
6138,-85.937500
6139,-82.031250
6140,-85.937500
6141,-85.937500
6142,-85.937500
6143,-85.937500
6144,-85.937500
6145,-89.843750
6146,-89.843750
6147,-89.843750
6148,-89.843750
6149,-89.843750
6150,-89.843750
6151,-93.750000
6152,-93.750000
6153,-93.750000
6154,-93.750000
6155,-93.750000
6156,-93.750000
6157,-93.750000
6158,-93.750000
6159,-93.750000
6160,-97.656250
6161,-97.656250
6162,-97.656250
6163,-97.656250
6164,-97.656250
6165,-97.656250
6166,-97.656250
6167,-97.656250
6168,-101.562500
6169,-97.656250
6170,-97.656250
6171,-97.656250
6172,-97.656250
6173,-97.656250
6174,-97.656250
6175,-97.656250
6176,-97.656250
6177,-97.656250
6178,-97.656250
6179,-97.656250
6180,-97.656250
6181,-97.656250
6182,-97.656250
6183,-97.656250
6184,-97.656250
6185,-97.656250
6186,-97.656250
6187,-97.656250
6188,-97.656250
6189,-97.656250
6190,-97.656250
6191,-97.656250
6192,-97.656250
6193,-97.656250
6194,-97.656250
6195,-93.750000
6196,-93.750000
6197,-93.750000
6198,-93.750000
6199,-93.750000
6200,-93.750000
6201,-93.750000
6202,-93.750000
6203,-93.750000
6204,-93.750000
6205,-89.843750
6206,-89.843750
6207,-89.843750
6208,-89.843750
6209,-89.843750
6210,-89.843750
6211,-89.843750
6212,-89.843750
6213,-85.937500
6214,-85.937500
6215,-85.937500
6216,-85.937500
6217,-85.937500
6218,-85.937500
6219,-82.031250
6220,-82.031250
6221,-82.031250
6222,-82.031250
6223,-82.031250
6224,-78.125000
6225,-78.125000
6226,-78.125000
6227,-78.125000
6228,-74.218750
6229,-74.218750
6230,-74.218750
6231,-74.218750
6232,-74.218750
6233,-70.312500
6234,-70.312500
6235,-70.312500
6236,-70.312500
6237,-70.312500
6238,-66.406250
6239,-66.406250
6240,-66.406250
6241,-66.406250
6242,-62.500000
6243,-62.500000
6244,-62.500000
6245,-62.500000
6246,-58.593750
6247,-58.593750
6248,-58.593750
6249,-58.593750
6250,-54.687500
6251,-54.687500
6252,-54.687500
6253,-50.781250
6254,-50.781250
6255,-50.781250
6256,-46.875000
6257,-46.875000
6258,-46.875000
6259,-46.875000
6260,-42.968750
6261,-42.968750
6262,-42.968750
6263,-39.062500
6264,-39.062500
6265,-39.062500
6266,-39.062500
6267,-35.156250
6268,-35.156250
6269,-35.156250
6270,-31.250000
6271,-31.250000
6272,-31.250000
6273,-31.250000
6274,-27.343750
6275,-27.343750
6276,-27.343750
6277,-23.437500
6278,-23.437500
6279,-23.437500
6280,-23.437500
6281,-19.531250
6282,-19.531250
6283,-19.531250
6284,-19.531250
6285,-15.625000
6286,-15.625000
6287,-15.625000
6288,-11.718750
6289,-11.718750
6290,-11.718750
6291,-7.812500
6292,-7.812500
6293,-7.812500
6294,-7.812500
6295,-3.906250
6296,-3.906250
6297,-3.906250
6298,0.000000
6299,0.000000
6300,0.000000
6301,0.000000
6302,3.906250
6303,3.906250
6304,3.906250
6305,7.812500
6306,3.906250
6307,7.812500
6308,7.812500
6309,11.718750
6310,11.718750
6311,11.718750
6312,15.625000
6313,15.625000
6314,15.625000
6315,15.625000
6316,15.625000
6317,19.531250
6318,19.531250
6319,19.531250
6320,19.531250
6321,23.437500
6322,23.437500
6323,23.437500
6324,23.437500
6325,23.437500
6326,27.343750
6327,27.343750
6328,27.343750
6329,27.343750
6330,31.250000
6331,31.250000
6332,31.250000
6333,31.250000
6334,31.250000
6335,35.156250
6336,35.156250
6337,35.156250
6338,35.156250
6339,35.156250
6340,35.156250
6341,39.062500
6342,39.062500
6343,39.062500
6344,39.062500
6345,39.062500
6346,42.968750
6347,42.968750
6348,42.968750
6349,42.968750
6350,42.968750
6351,42.968750
6352,42.968750
6353,46.875000
6354,46.875000
6355,46.875000
6356,46.875000
6357,46.875000
6358,46.875000
6359,46.875000
6360,50.781250
6361,46.875000
6362,50.781250
6363,50.781250
6364,50.781250
6365,50.781250
6366,50.781250
6367,50.781250
6368,50.781250
6369,50.781250
6370,50.781250
6371,54.687500
6372,54.687500
6373,54.687500
6374,54.687500
6375,54.687500
6376,54.687500
6377,54.687500
6378,54.687500
6379,54.687500
6380,54.687500
6381,54.687500
6382,54.687500
6383,54.687500
6384,54.687500
6385,54.687500
6386,54.687500
6387,54.687500
6388,54.687500
6389,54.687500
6390,54.687500
6391,54.687500
6392,54.687500
6393,58.593750
6394,54.687500
6395,54.687500
6396,54.687500
6397,54.687500
6398,54.687500
6399,54.687500
6400,54.687500
6401,54.687500
6402,54.687500
6403,54.687500
6404,54.687500
6405,54.687500
6406,54.687500
6407,54.687500
6408,54.687500
6409,54.687500
6410,54.687500
6411,54.687500
6412,50.781250
6413,54.687500
6414,50.781250
6415,50.781250
6416,50.781250
6417,50.781250
6418,50.781250
6419,50.781250
6420,46.875000
6421,50.781250
6422,46.875000
6423,46.875000
6424,46.875000
6425,46.875000
6426,46.875000
6427,42.968750
6428,46.875000
6429,42.968750
6430,42.968750
6431,42.968750
6432,42.968750
6433,42.968750
6434,39.062500
6435,39.062500
6436,42.968750
6437,39.062500
6438,39.062500
6439,39.062500
6440,39.062500
6441,35.156250
6442,35.156250
6443,35.156250
6444,35.156250
6445,35.156250
6446,31.250000
6447,31.250000
6448,31.250000
6449,31.250000
6450,27.343750
6451,27.343750
6452,27.343750
6453,27.343750
6454,23.437500
6455,23.437500
6456,23.437500
6457,23.437500
6458,19.531250
6459,19.531250
6460,19.531250
6461,19.531250
6462,19.531250
6463,15.625000
6464,15.625000
6465,11.718750
6466,11.718750
6467,11.718750
6468,11.718750
6469,11.718750
6470,7.812500
6471,7.812500
6472,7.812500
6473,7.812500
6474,3.906250
6475,3.906250
6476,3.906250
6477,0.000000
6478,0.000000
6479,0.000000
6480,0.000000
6481,-3.906250
6482,-3.906250
6483,-3.906250
6484,-7.812500
6485,-7.812500
6486,-7.812500
6487,-11.718750
6488,-11.718750
6489,-11.718750
6490,-15.625000
6491,-15.625000
6492,-15.625000
6493,-15.625000
6494,-19.531250
6495,-19.531250
6496,-19.531250
6497,-23.437500
6498,-23.437500
6499,-23.437500
6500,-27.343750
6501,-27.343750
6502,-27.343750
6503,-27.343750
6504,-31.250000
6505,-31.250000
6506,-27.343750
6507,-35.156250
6508,-35.156250
6509,-35.156250
6510,-39.062500
6511,-39.062500
6512,-39.062500
6513,-39.062500
6514,-42.968750
6515,-42.968750
6516,-42.968750
6517,-46.875000
6518,-46.875000
6519,-46.875000
6520,-50.781250
6521,-50.781250
6522,-50.781250
6523,-54.687500
6524,-54.687500
6525,-54.687500
6526,-54.687500
6527,-58.593750
6528,-58.593750
6529,-58.593750
6530,-58.593750
6531,-62.500000
6532,-62.500000
6533,-62.500000
6534,-66.406250
6535,-66.406250
6536,-66.406250
6537,-66.406250
6538,-70.312500
6539,-70.312500
6540,-70.312500
6541,-70.312500
6542,-74.218750
6543,-74.218750
6544,-74.218750
6545,-74.218750
6546,-78.125000
6547,-78.125000
6548,-78.125000
6549,-78.125000
6550,-78.125000
6551,-82.031250
6552,-82.031250
6553,-82.031250
6554,-82.031250
6555,-82.031250
6556,-85.937500
6557,-85.937500
6558,-85.937500
6559,-85.937500
6560,-85.937500
6561,-85.937500
6562,-89.843750
6563,-89.843750
6564,-89.843750
6565,-89.843750
6566,-89.843750
6567,-89.843750
6568,-93.750000
6569,-93.750000
6570,-93.750000
6571,-93.750000
6572,-93.750000
6573,-93.750000
6574,-93.750000
6575,-93.750000
6576,-93.750000
6577,-93.750000
6578,-97.656250
6579,-93.750000
6580,-93.750000
6581,-93.750000
6582,-97.656250
6583,-97.656250
6584,-97.656250
6585,-97.656250
6586,-97.656250
6587,-97.656250
6588,-97.656250
6589,-97.656250
6590,-97.656250
6591,-97.656250
6592,-97.656250
6593,-97.656250
6594,-97.656250
6595,-97.656250
6596,-97.656250
6597,-97.656250
6598,-97.656250
6599,-97.656250
6600,-97.656250
6601,-97.656250
6602,-97.656250
6603,-97.656250
6604,-97.656250
6605,-97.656250
6606,-97.656250
6607,-97.656250
6608,-97.656250
6609,-97.656250
6610,-97.656250
6611,-97.656250
6612,-93.750000
6613,-93.750000
6614,-93.750000
6615,-93.750000
6616,-93.750000
6617,-93.750000
6618,-93.750000
6619,-93.750000
6620,-93.750000
6621,-93.750000
6622,-89.843750
6623,-89.843750
6624,-89.843750
6625,-89.843750
6626,-89.843750
6627,-89.843750
6628,-89.843750
6629,-89.843750
6630,-85.937500
6631,-85.937500
6632,-85.937500
6633,-85.937500
6634,-85.937500
6635,-82.031250
6636,-82.031250
6637,-82.031250
6638,-82.031250
6639,-82.031250
6640,-78.125000
6641,-78.125000
6642,-78.125000
6643,-78.125000
6644,-78.125000
6645,-74.218750
6646,-74.218750
6647,-74.218750
6648,-74.218750
6649,-74.218750
6650,-70.312500
6651,-70.312500
6652,-70.312500
6653,-66.406250
6654,-66.406250
6655,-66.406250
6656,-66.406250
6657,-66.406250
6658,-62.500000
6659,-62.500000
6660,-62.500000
6661,-62.500000
6662,-58.593750
6663,-58.593750
6664,-58.593750
6665,-58.593750
6666,-54.687500
6667,-54.687500
6668,-54.687500
6669,-50.781250
6670,-50.781250
6671,-50.781250
6672,-50.781250
6673,-46.875000
6674,-46.875000
6675,-46.875000
6676,-46.875000
6677,-42.968750
6678,-42.968750
6679,-42.968750
6680,-42.968750
6681,-39.062500
6682,-39.062500
6683,-39.062500
6684,-35.156250
6685,-35.156250
6686,-35.156250
6687,-31.250000
6688,-31.250000
6689,-31.250000
6690,-27.343750
6691,-27.343750
6692,-27.343750
6693,-27.343750
6694,-23.437500
6695,-23.437500
6696,-23.437500
6697,-19.531250
6698,-19.531250
6699,-19.531250
6700,-19.531250
6701,-15.625000
6702,-15.625000
6703,-15.625000
6704,-11.718750
6705,-11.718750
6706,-11.718750
6707,-11.718750
6708,-7.812500
6709,-7.812500
6710,-7.812500
6711,-7.812500
6712,-3.906250
6713,-3.906250
6714,0.000000
6715,0.000000
6716,0.000000
6717,0.000000
6718,0.000000
6719,3.906250
6720,3.906250
6721,3.906250
6722,7.812500
6723,7.812500
6724,7.812500
6725,7.812500
6726,11.718750
6727,11.718750
6728,11.718750
6729,11.718750
6730,15.625000
6731,15.625000
6732,15.625000
6733,19.531250
6734,19.531250
6735,19.531250
6736,19.531250
6737,19.531250
6738,23.437500
6739,23.437500
6740,23.437500
6741,27.343750
6742,23.437500
6743,27.343750
6744,27.343750
6745,27.343750
6746,27.343750
6747,31.250000
6748,31.250000
6749,31.250000
6750,31.250000
6751,31.250000
6752,35.156250
6753,35.156250
6754,35.156250
6755,35.156250
6756,35.156250
6757,35.156250
6758,39.062500
6759,39.062500
6760,39.062500
6761,39.062500
6762,39.062500
6763,42.968750
6764,42.968750
6765,42.968750
6766,42.968750
6767,42.968750
6768,42.968750
6769,46.875000
6770,46.875000
6771,42.968750
6772,46.875000
6773,46.875000
6774,46.875000
6775,46.875000
6776,50.781250
6777,50.781250
6778,50.781250
6779,50.781250
6780,50.781250
6781,50.781250
6782,50.781250
6783,50.781250
6784,50.781250
6785,50.781250
6786,54.687500
6787,50.781250
6788,54.687500
6789,54.687500
6790,54.687500
6791,54.687500
6792,54.687500
6793,54.687500
6794,54.687500
6795,54.687500
6796,54.687500
6797,54.687500
6798,54.687500
6799,54.687500
6800,54.687500
6801,54.687500
6802,54.687500
6803,54.687500
6804,54.687500
6805,54.687500
6806,54.687500
6807,54.687500
6808,54.687500
6809,54.687500
6810,54.687500
6811,54.687500
6812,54.687500
6813,54.687500
6814,54.687500
6815,54.687500
6816,54.687500
6817,54.687500
6818,54.687500
6819,54.687500
6820,54.687500
6821,54.687500
6822,54.687500
6823,54.687500
6824,54.687500
6825,54.687500
6826,54.687500
6827,54.687500
6828,50.781250
6829,54.687500
6830,50.781250
6831,50.781250
6832,50.781250
6833,50.781250
6834,50.781250
6835,50.781250
6836,46.875000
6837,50.781250
6838,46.875000
6839,46.875000
6840,46.875000
6841,46.875000
6842,46.875000
6843,46.875000
6844,46.875000
6845,46.875000
6846,42.968750
6847,42.968750
6848,42.968750
6849,42.968750
6850,42.968750
6851,42.968750
6852,39.062500
6853,42.968750
6854,39.062500
6855,39.062500
6856,35.156250
6857,35.156250
6858,39.062500
6859,35.156250
6860,35.156250
6861,35.156250
6862,31.250000
6863,31.250000
6864,31.250000
6865,31.250000
6866,31.250000
6867,27.343750
6868,27.343750
6869,27.343750
6870,23.437500
6871,23.437500
6872,23.437500
6873,23.437500
6874,23.437500
6875,19.531250
6876,19.531250
6877,19.531250
6878,19.531250
6879,15.625000
6880,15.625000
6881,15.625000
6882,15.625000
6883,15.625000
6884,11.718750
6885,11.718750
6886,11.718750
6887,7.812500
6888,7.812500
6889,7.812500
6890,3.906250
6891,3.906250
6892,3.906250
6893,3.906250
6894,0.000000
6895,0.000000
6896,0.000000
6897,-3.906250
6898,-3.906250
6899,-3.906250
6900,-3.906250
6901,-7.812500
6902,-7.812500
6903,-7.812500
6904,-11.718750
6905,-11.718750
6906,-11.718750
6907,-15.625000
6908,-15.625000
6909,-15.625000
6910,-19.531250
6911,-19.531250
6912,-19.531250
6913,-19.531250
6914,-19.531250
6915,-23.437500
6916,-23.437500
6917,-27.343750
6918,-27.343750
6919,-27.343750
6920,-31.250000
6921,-31.250000
6922,-31.250000
6923,-35.156250
6924,-35.156250
6925,-35.156250
6926,-35.156250
6927,-39.062500
6928,-39.062500
6929,-39.062500
6930,-42.968750
6931,-42.968750
6932,-42.968750
6933,-46.875000
6934,-46.875000
6935,-46.875000
6936,-46.875000
6937,-50.781250
6938,-50.781250
6939,-50.781250
6940,-50.781250
6941,-54.687500
6942,-54.687500
6943,-54.687500
6944,-58.593750
6945,-58.593750
6946,-58.593750
6947,-62.500000
6948,-62.500000
6949,-62.500000
6950,-62.500000
6951,-66.406250
6952,-66.406250
6953,-66.406250
6954,-66.406250
6955,-70.312500
6956,-70.312500
6957,-70.312500
6958,-70.312500
6959,-74.218750
6960,-74.218750
6961,-74.218750
6962,-74.218750
6963,-74.218750
6964,-78.125000
6965,-78.125000
6966,-78.125000
6967,-78.125000
6968,-82.031250
6969,-82.031250
6970,-82.031250
6971,-82.031250
6972,-82.031250
6973,-85.937500
6974,-85.937500
6975,-85.937500
6976,-85.937500
6977,-85.937500
6978,-89.843750
6979,-89.843750
6980,-89.843750
6981,-89.843750
6982,-89.843750
6983,-89.843750
6984,-89.843750
6985,-93.750000
6986,-93.750000
6987,-93.750000
6988,-93.750000
6989,-93.750000
6990,-93.750000
6991,-93.750000
6992,-97.656250
6993,-97.656250
6994,-93.750000
6995,-97.656250
6996,-97.656250
6997,-97.656250
6998,-97.656250
6999,-97.656250
7000,-97.656250
7001,-97.656250
7002,-97.656250
7003,-97.656250
7004,-97.656250
7005,-97.656250
7006,-97.656250
7007,-97.656250
7008,-97.656250
7009,-97.656250
7010,-97.656250
7011,-97.656250
7012,-97.656250
7013,-97.656250
7014,-97.656250
7015,-97.656250
7016,-97.656250
7017,-97.656250
7018,-97.656250
7019,-97.656250
7020,-97.656250
7021,-97.656250
7022,-97.656250
7023,-97.656250
7024,-97.656250
7025,-97.656250
7026,-97.656250
7027,-97.656250
7028,-93.750000
7029,-97.656250
7030,-93.750000
7031,-93.750000
7032,-93.750000
7033,-93.750000
7034,-93.750000
7035,-93.750000
7036,-93.750000
7037,-93.750000
7038,-93.750000
7039,-89.843750
7040,-89.843750
7041,-89.843750
7042,-89.843750
7043,-89.843750
7044,-89.843750
7045,-85.937500
7046,-85.937500
7047,-85.937500
7048,-85.937500
7049,-85.937500
7050,-85.937500
7051,-85.937500
7052,-85.937500
7053,-82.031250
7054,-82.031250
7055,-82.031250
7056,-82.031250
7057,-78.125000
7058,-78.125000
7059,-78.125000
7060,-78.125000
7061,-78.125000
7062,-74.218750
7063,-74.218750
7064,-74.218750
7065,-74.218750
7066,-74.218750
7067,-70.312500
7068,-70.312500
7069,-70.312500
7070,-70.312500
7071,-66.406250
7072,-66.406250
7073,-66.406250
7074,-66.406250
7075,-62.500000
7076,-62.500000
7077,-62.500000
7078,-62.500000
7079,-58.593750
7080,-58.593750
7081,-58.593750
7082,-54.687500
7083,-54.687500
7084,-54.687500
7085,-54.687500
7086,-50.781250
7087,-50.781250
7088,-50.781250
7089,-50.781250
7090,-46.875000
7091,-46.875000
7092,-46.875000
7093,-46.875000
7094,-42.968750
7095,-42.968750
7096,-39.062500
7097,-39.062500
7098,-39.062500
7099,-39.062500
7100,-35.156250
7101,-35.156250
7102,-35.156250
7103,-35.156250
7104,-31.250000
7105,-31.250000
7106,-31.250000
7107,-27.343750
7108,-27.343750
7109,-27.343750
7110,-27.343750
7111,-23.437500
7112,-23.437500
7113,-23.437500
7114,-23.437500
7115,-19.531250
7116,-19.531250
7117,-15.625000
7118,-15.625000
7119,-15.625000
7120,-15.625000
7121,-11.718750
7122,-11.718750
7123,-11.718750
7124,-11.718750
7125,-7.812500
7126,-7.812500
7127,-7.812500
7128,-3.906250
7129,-3.906250
7130,-3.906250
7131,-3.906250
7132,0.000000
7133,0.000000
7134,0.000000
7135,0.000000
7136,3.906250
7137,3.906250
7138,3.906250
7139,3.906250
7140,7.812500
7141,7.812500
7142,7.812500
7143,7.812500
7144,11.718750
7145,11.718750
7146,15.625000
7147,15.625000
7148,15.625000
7149,15.625000
7150,15.625000
7151,19.531250
7152,19.531250
7153,19.531250
7154,19.531250
7155,23.437500
7156,23.437500
7157,23.437500
7158,23.437500
7159,27.343750
7160,27.343750
7161,27.343750
7162,27.343750
7163,31.250000
7164,31.250000
7165,31.250000
7166,31.250000
7167,31.250000
7168,35.156250
7169,35.156250
7170,35.156250
7171,35.156250
7172,35.156250
7173,39.062500
7174,39.062500
7175,39.062500
7176,39.062500
7177,39.062500
7178,39.062500
7179,39.062500
7180,42.968750
7181,42.968750
7182,42.968750
7183,42.968750
7184,42.968750
7185,42.968750
7186,42.968750
7187,46.875000
7188,46.875000
7189,46.875000
7190,46.875000
7191,46.875000
7192,46.875000
7193,46.875000
7194,50.781250
7195,50.781250
7196,50.781250
7197,50.781250
7198,50.781250
7199,50.781250
7200,50.781250
7201,50.781250
7202,50.781250
7203,54.687500
7204,50.781250
7205,50.781250
7206,54.687500
7207,54.687500
7208,54.687500
7209,54.687500
7210,54.687500
7211,54.687500
7212,54.687500
7213,54.687500
7214,54.687500
7215,54.687500
7216,54.687500
7217,54.687500
7218,54.687500
7219,54.687500
7220,54.687500
7221,54.687500
7222,54.687500
7223,54.687500
7224,54.687500
7225,54.687500
7226,54.687500
7227,54.687500
7228,54.687500
7229,54.687500
7230,54.687500
7231,54.687500
7232,54.687500
7233,54.687500
7234,54.687500
7235,54.687500
7236,54.687500
7237,54.687500
7238,54.687500
7239,54.687500
7240,54.687500
7241,54.687500
7242,54.687500
7243,54.687500
7244,54.687500
7245,50.781250
7246,54.687500
7247,50.781250
7248,50.781250
7249,50.781250
7250,50.781250
7251,50.781250
7252,50.781250
7253,50.781250
7254,50.781250
7255,50.781250
7256,46.875000
7257,46.875000
7258,46.875000
7259,46.875000
7260,46.875000
7261,46.875000
7262,42.968750
7263,42.968750
7264,46.875000
7265,42.968750
7266,42.968750
7267,42.968750
7268,42.968750
7269,39.062500
7270,39.062500
7271,39.062500
7272,39.062500
7273,39.062500
7274,39.062500
7275,35.156250
7276,35.156250
7277,35.156250
7278,35.156250
7279,31.250000
7280,31.250000
7281,31.250000
7282,31.250000
7283,31.250000
7284,31.250000
7285,27.343750
7286,27.343750
7287,27.343750
7288,23.437500
7289,23.437500
7290,23.437500
7291,23.437500
7292,23.437500
7293,19.531250
7294,19.531250
7295,19.531250
7296,15.625000
7297,15.625000
7298,15.625000
7299,15.625000
7300,11.718750
7301,11.718750
7302,11.718750
7303,11.718750
7304,7.812500
7305,7.812500
7306,7.812500
7307,7.812500
7308,3.906250
7309,3.906250
7310,3.906250
7311,0.000000
7312,0.000000
7313,-3.906250
7314,-3.906250
7315,-3.906250
7316,-3.906250
7317,-3.906250
7318,-7.812500
7319,-7.812500
7320,-7.812500
7321,-11.718750
7322,-11.718750
7323,-11.718750
7324,-15.625000
7325,-15.625000
7326,-15.625000
7327,-15.625000
7328,-19.531250
7329,-19.531250
7330,-23.437500
7331,-23.437500
7332,-23.437500
7333,-23.437500
7334,-23.437500
7335,-27.343750
7336,-27.343750
7337,-31.250000
7338,-31.250000
7339,-31.250000
7340,-35.156250
7341,-35.156250
7342,-35.156250
7343,-39.062500
7344,-39.062500
7345,-39.062500
7346,-39.062500
7347,-42.968750
7348,-42.968750
7349,-42.968750
7350,-46.875000
7351,-46.875000
7352,-46.875000
7353,-50.781250
7354,-50.781250
7355,-50.781250
7356,-50.781250
7357,-54.687500
7358,-54.687500
7359,-54.687500
7360,-58.593750
7361,-58.593750
7362,-58.593750
7363,-58.593750
7364,-62.500000
7365,-62.500000
7366,-58.593750
7367,-62.500000
7368,-66.406250
7369,-66.406250
7370,-66.406250
7371,-70.312500
7372,-70.312500
7373,-70.312500
7374,-70.312500
7375,-74.218750
7376,-74.218750
7377,-74.218750
7378,-74.218750
7379,-78.125000
7380,-78.125000
7381,-78.125000
7382,-78.125000
7383,-78.125000
7384,-78.125000
7385,-82.031250
7386,-82.031250
7387,-82.031250
7388,-82.031250
7389,-85.937500
7390,-85.937500
7391,-85.937500
7392,-85.937500
7393,-85.937500
7394,-85.937500
7395,-85.937500
7396,-89.843750
7397,-89.843750
7398,-89.843750
7399,-89.843750
7400,-89.843750
7401,-93.750000
7402,-93.750000
7403,-93.750000
7404,-93.750000
7405,-93.750000
7406,-93.750000
7407,-93.750000
7408,-93.750000
7409,-93.750000
7410,-93.750000
7411,-97.656250
7412,-97.656250
7413,-97.656250
7414,-97.656250
7415,-97.656250
7416,-97.656250
7417,-97.656250
7418,-97.656250
7419,-97.656250
7420,-97.656250
7421,-97.656250
7422,-101.562500
7423,-97.656250
7424,-97.656250
7425,-97.656250
7426,-97.656250
7427,-97.656250
7428,-97.656250
7429,-97.656250
7430,-97.656250
7431,-97.656250
7432,-97.656250
7433,-97.656250
7434,-97.656250
7435,-97.656250
7436,-97.656250
7437,-97.656250
7438,-97.656250
7439,-97.656250
7440,-97.656250
7441,-97.656250
7442,-97.656250
7443,-97.656250
7444,-97.656250
7445,-93.750000
7446,-97.656250
7447,-93.750000
7448,-93.750000
7449,-93.750000
7450,-93.750000
7451,-93.750000
7452,-93.750000
7453,-93.750000
7454,-93.750000
7455,-89.843750
7456,-89.843750
7457,-89.843750
7458,-89.843750
7459,-89.843750
7460,-89.843750
7461,-85.937500
7462,-85.937500
7463,-85.937500
7464,-85.937500
7465,-85.937500
7466,-85.937500
7467,-82.031250
7468,-82.031250
7469,-82.031250
7470,-82.031250
7471,-82.031250
7472,-82.031250
7473,-82.031250
7474,-78.125000
7475,-78.125000
7476,-74.218750
7477,-78.125000
7478,-74.218750
7479,-74.218750
7480,-74.218750
7481,-74.218750
7482,-70.312500
7483,-70.312500
7484,-70.312500
7485,-70.312500
7486,-70.312500
7487,-70.312500
7488,-66.406250
7489,-66.406250
7490,-66.406250
7491,-62.500000
7492,-62.500000
7493,-62.500000
7494,-62.500000
7495,-58.593750
7496,-58.593750
7497,-58.593750
7498,-58.593750
7499,-54.687500
7500,-54.687500
7501,-54.687500
7502,-50.781250
7503,-50.781250
7504,-50.781250
7505,-50.781250
7506,-50.781250
7507,-46.875000
7508,-46.875000
7509,-46.875000
7510,-42.968750
7511,-42.968750
7512,-42.968750
7513,-39.062500
7514,-39.062500
7515,-39.062500
7516,-39.062500
7517,-35.156250
7518,-35.156250
7519,-35.156250
7520,-35.156250
7521,-31.250000
7522,-31.250000
7523,-31.250000
7524,-31.250000
7525,-27.343750
7526,-27.343750
7527,-27.343750
7528,-23.437500
7529,-23.437500
7530,-23.437500
7531,-23.437500
7532,-19.531250
7533,-19.531250
7534,-19.531250
7535,-15.625000
7536,-15.625000
7537,-15.625000
7538,-11.718750
7539,-11.718750
7540,-11.718750
7541,-11.718750
7542,-7.812500
7543,-7.812500
7544,-7.812500
7545,-3.906250
7546,-3.906250
7547,-3.906250
7548,0.000000
7549,0.000000
7550,0.000000
7551,0.000000
7552,3.906250
7553,3.906250
7554,3.906250
7555,3.906250
7556,7.812500
7557,7.812500
7558,7.812500
7559,11.718750
7560,11.718750
7561,11.718750
7562,11.718750
7563,11.718750
7564,15.625000
7565,15.625000
7566,15.625000
7567,15.625000
7568,19.531250
7569,19.531250
7570,19.531250
7571,23.437500
7572,23.437500
7573,23.437500
7574,23.437500
7575,23.437500
7576,27.343750
7577,27.343750
7578,27.343750
7579,27.343750
7580,27.343750
7581,35.156250
7582,31.250000
7583,35.156250
7584,31.250000
7585,31.250000
7586,35.156250
7587,35.156250
7588,31.250000
7589,35.156250
7590,39.062500
7591,39.062500
7592,39.062500
7593,39.062500
7594,39.062500
7595,39.062500
7596,39.062500
7597,42.968750
7598,42.968750
7599,42.968750
7600,42.968750
7601,42.968750
7602,42.968750
7603,46.875000
7604,46.875000
7605,46.875000
7606,46.875000
7607,46.875000
7608,46.875000
7609,46.875000
7610,50.781250
7611,50.781250
7612,46.875000
7613,50.781250
7614,50.781250
7615,50.781250
7616,50.781250
7617,50.781250
7618,50.781250
7619,54.687500
7620,50.781250
7621,54.687500
7622,54.687500
7623,54.687500
7624,54.687500
7625,54.687500
7626,54.687500
7627,54.687500
7628,54.687500
7629,54.687500
7630,54.687500
7631,54.687500
7632,54.687500
7633,54.687500
7634,54.687500
7635,54.687500
7636,54.687500
7637,54.687500
7638,54.687500
7639,54.687500
7640,54.687500
7641,54.687500
7642,54.687500
7643,54.687500
7644,54.687500
7645,54.687500
7646,54.687500
7647,54.687500
7648,54.687500
7649,54.687500
7650,54.687500
7651,54.687500
7652,54.687500
7653,54.687500
7654,54.687500
7655,54.687500
7656,54.687500
7657,54.687500
7658,54.687500
7659,54.687500
7660,54.687500
7661,54.687500
7662,54.687500
7663,50.781250
7664,50.781250
7665,50.781250
7666,50.781250
7667,50.781250
7668,50.781250
7669,50.781250
7670,50.781250
7671,46.875000
7672,46.875000
7673,46.875000
7674,46.875000
7675,46.875000
7676,46.875000
7677,46.875000
7678,46.875000
7679,46.875000
7680,42.968750
7681,42.968750
7682,42.968750
7683,42.968750
7684,42.968750
7685,39.062500
7686,39.062500
7687,39.062500
7688,39.062500
7689,39.062500
7690,39.062500
7691,35.156250
7692,35.156250
7693,35.156250
7694,35.156250
7695,31.250000
7696,31.250000
7697,35.156250
7698,31.250000
7699,31.250000
7700,27.343750
7701,27.343750
7702,27.343750
7703,27.343750
7704,23.437500
7705,23.437500
7706,23.437500
7707,23.437500
7708,19.531250
7709,19.531250
7710,19.531250
7711,19.531250
7712,15.625000
7713,15.625000
7714,15.625000
7715,15.625000
7716,11.718750
7717,11.718750
7718,11.718750
7719,11.718750
7720,7.812500
7721,7.812500
7722,7.812500
7723,3.906250
7724,3.906250
7725,3.906250
7726,3.906250
7727,0.000000
7728,3.906250
7729,0.000000
7730,-3.906250
7731,-3.906250
7732,-3.906250
7733,-3.906250
7734,-7.812500
7735,-7.812500
7736,-7.812500
7737,-11.718750
7738,-11.718750
7739,-11.718750
7740,-11.718750
7741,-15.625000
7742,-15.625000
7743,-15.625000
7744,-19.531250
7745,-19.531250
7746,-19.531250
7747,-23.437500
7748,-23.437500
7749,-23.437500
7750,-27.343750
7751,-27.343750
7752,-27.343750
7753,-27.343750
7754,-31.250000
7755,-31.250000
7756,-31.250000
7757,-35.156250
7758,-35.156250
7759,-35.156250
7760,-35.156250
7761,-39.062500
7762,-39.062500
7763,-42.968750
7764,-42.968750
7765,-42.968750
7766,-46.875000
7767,-46.875000
7768,-46.875000
7769,-46.875000
7770,-50.781250
7771,-50.781250
7772,-50.781250
7773,-50.781250
7774,-54.687500
7775,-58.593750
7776,-54.687500
7777,-58.593750
7778,-58.593750
7779,-58.593750
7780,-62.500000
7781,-62.500000
7782,-62.500000
7783,-62.500000
7784,-66.406250
7785,-66.406250
7786,-66.406250
7787,-66.406250
7788,-70.312500
7789,-70.312500
7790,-70.312500
7791,-70.312500
7792,-70.312500
7793,-74.218750
7794,-74.218750
7795,-74.218750
7796,-78.125000
7797,-78.125000
7798,-78.125000
7799,-78.125000
7800,-78.125000
7801,-82.031250
7802,-82.031250
7803,-82.031250
7804,-82.031250
7805,-82.031250
7806,-85.937500
7807,-85.937500
7808,-85.937500
7809,-85.937500
7810,-85.937500
7811,-85.937500
7812,-85.937500
7813,-89.843750
7814,-89.843750
7815,-89.843750
7816,-89.843750
7817,-89.843750
7818,-89.843750
7819,-89.843750
7820,-93.750000
7821,-93.750000
7822,-89.843750
7823,-93.750000
7824,-93.750000
7825,-97.656250
7826,-93.750000
7827,-93.750000
7828,-93.750000
7829,-97.656250
7830,-97.656250
7831,-97.656250
7832,-97.656250
7833,-97.656250
7834,-97.656250
7835,-97.656250
7836,-97.656250
7837,-101.562500
7838,-97.656250
7839,-97.656250
7840,-97.656250
7841,-97.656250
7842,-97.656250
7843,-97.656250
7844,-97.656250
7845,-97.656250
7846,-97.656250
7847,-97.656250
7848,-97.656250
7849,-97.656250
7850,-97.656250
7851,-97.656250
7852,-97.656250
7853,-97.656250
7854,-97.656250
7855,-97.656250
7856,-97.656250
7857,-97.656250
7858,-97.656250
7859,-97.656250
7860,-97.656250
7861,-93.750000
7862,-93.750000
7863,-93.750000
7864,-97.656250
7865,-93.750000
7866,-93.750000
7867,-93.750000
7868,-93.750000
7869,-93.750000
7870,-93.750000
7871,-89.843750
7872,-93.750000
7873,-89.843750
7874,-89.843750
7875,-89.843750
7876,-82.031250
7877,-89.843750
7878,-85.937500
7879,-85.937500
7880,-85.937500
7881,-85.937500
7882,-85.937500
7883,-85.937500
7884,-82.031250
7885,-82.031250
7886,-82.031250
7887,-82.031250
7888,-82.031250
7889,-78.125000
7890,-82.031250
7891,-78.125000
7892,-78.125000
7893,-78.125000
7894,-78.125000
7895,-74.218750
7896,-74.218750
7897,-74.218750
7898,-74.218750
7899,-74.218750
7900,-70.312500
7901,-70.312500
7902,-70.312500
7903,-70.312500
7904,-66.406250
7905,-66.406250
7906,-66.406250
7907,-66.406250
7908,-62.500000
7909,-62.500000
7910,-62.500000
7911,-62.500000
7912,-62.500000
7913,-58.593750
7914,-58.593750
7915,-54.687500
7916,-54.687500
7917,-54.687500
7918,-54.687500
7919,-50.781250
7920,-50.781250
7921,-50.781250
7922,-46.875000
7923,-46.875000
7924,-46.875000
7925,-46.875000
7926,-42.968750
7927,-42.968750
7928,-42.968750
7929,-42.968750
7930,-39.062500
7931,-39.062500
7932,-39.062500
7933,-39.062500
7934,-35.156250
7935,-35.156250
7936,-35.156250
7937,-31.250000
7938,-31.250000
7939,-31.250000
7940,-27.343750
7941,-27.343750
7942,-27.343750
7943,-27.343750
7944,-23.437500
7945,-23.437500
7946,-23.437500
7947,-19.531250
7948,-19.531250
7949,-19.531250
7950,-15.625000
7951,-15.625000
7952,-15.625000
7953,-15.625000
7954,-11.718750
7955,-11.718750
7956,-11.718750
7957,-11.718750
7958,-7.812500
7959,-7.812500
7960,-7.812500
7961,-3.906250
7962,-3.906250
7963,-3.906250
7964,0.000000
7965,0.000000
7966,0.000000
7967,0.000000
7968,3.906250
7969,3.906250
7970,3.906250
7971,3.906250
7972,3.906250
7973,7.812500
7974,7.812500
7975,7.812500
7976,11.718750
7977,11.718750
7978,11.718750
7979,15.625000
7980,15.625000
7981,15.625000
7982,15.625000
7983,15.625000
7984,15.625000
7985,19.531250
7986,19.531250
7987,19.531250
7988,19.531250
7989,23.437500
7990,23.437500
7991,23.437500
7992,27.343750
7993,27.343750
7994,27.343750
7995,27.343750
7996,27.343750
7997,31.250000
7998,31.250000
7999,31.250000
8000,31.250000
8001,31.250000
8002,35.156250
8003,35.156250
8004,35.156250
8005,35.156250
8006,35.156250
8007,35.156250
8008,39.062500
8009,39.062500
8010,39.062500
8011,39.062500
8012,39.062500
8013,39.062500
8014,42.968750
8015,42.968750
8016,42.968750
8017,42.968750
8018,42.968750
8019,42.968750
8020,46.875000
8021,46.875000
8022,46.875000
8023,46.875000
8024,46.875000
8025,46.875000
8026,46.875000
8027,50.781250
8028,50.781250
8029,50.781250
8030,50.781250
8031,50.781250
8032,50.781250
8033,50.781250
8034,50.781250
8035,50.781250
8036,50.781250
8037,50.781250
8038,54.687500
8039,54.687500
8040,54.687500
8041,54.687500
8042,54.687500
8043,54.687500
8044,54.687500
8045,54.687500
8046,54.687500
8047,54.687500
8048,54.687500
8049,54.687500
8050,54.687500
8051,58.593750
8052,54.687500
8053,54.687500
8054,54.687500
8055,54.687500
8056,54.687500
8057,54.687500
8058,62.500000
8059,54.687500
8060,54.687500
8061,54.687500
8062,54.687500
8063,54.687500
8064,54.687500
8065,54.687500
8066,54.687500
8067,54.687500
8068,54.687500
8069,54.687500
8070,54.687500
8071,54.687500
8072,54.687500
8073,54.687500
8074,54.687500
8075,54.687500
8076,54.687500
8077,54.687500
8078,50.781250
8079,50.781250
8080,50.781250
8081,50.781250
8082,50.781250
8083,50.781250
8084,50.781250
8085,50.781250
8086,50.781250
8087,50.781250
8088,46.875000
8089,46.875000
8090,46.875000
8091,46.875000
8092,46.875000
8093,46.875000
8094,46.875000
8095,46.875000
8096,42.968750
8097,42.968750
8098,42.968750
8099,42.968750
8100,42.968750
8101,42.968750
8102,39.062500
8103,39.062500
8104,39.062500
8105,39.062500
8106,39.062500
8107,39.062500
8108,35.156250
8109,35.156250
8110,35.156250
8111,35.156250
8112,31.250000
8113,35.156250
8114,31.250000
8115,31.250000
8116,31.250000
8117,27.343750
8118,27.343750
8119,27.343750
8120,23.437500
8121,27.343750
8122,27.343750
8123,23.437500
8124,23.437500
8125,23.437500
8126,19.531250
8127,19.531250
8128,19.531250
8129,15.625000
8130,15.625000
8131,15.625000
8132,15.625000
8133,15.625000
8134,11.718750
8135,11.718750
8136,11.718750
8137,7.812500
8138,7.812500
8139,7.812500
8140,7.812500
8141,3.906250
8142,3.906250
8143,3.906250
8144,3.906250
8145,0.000000
8146,0.000000
8147,0.000000
8148,-3.906250
8149,-3.906250
8150,-3.906250
8151,-7.812500
8152,-7.812500
8153,-7.812500
8154,-11.718750
8155,-11.718750
8156,-11.718750
8157,-15.625000
8158,-15.625000
8159,-15.625000
8160,-15.625000
8161,-19.531250
8162,-19.531250
8163,-19.531250
8164,-23.437500
8165,-23.437500
8166,-23.437500
8167,-27.343750
8168,-27.343750
8169,-27.343750
8170,-31.250000
8171,-31.250000
8172,-31.250000
8173,-31.250000
8174,-35.156250
8175,-35.156250
8176,-35.156250
8177,-39.062500
8178,-39.062500
8179,-39.062500
8180,-42.968750
8181,-42.968750
8182,-42.968750
8183,-46.875000
8184,-46.875000
8185,-46.875000
8186,-50.781250
8187,-50.781250
8188,-50.781250
8189,-54.687500
8190,-54.687500
8191,-54.687500
8192,-54.687500
8193,-58.593750
8194,-58.593750
8195,-58.593750
8196,-58.593750
8197,-62.500000
8198,-62.500000
8199,-62.500000
8200,-66.406250
8201,-66.406250
8202,-66.406250
8203,-66.406250
8204,-70.312500
8205,-70.312500
8206,-70.312500
8207,-70.312500
8208,-70.312500
8209,-74.218750
8210,-74.218750
8211,-74.218750
8212,-74.218750
8213,-78.125000
8214,-78.125000
8215,-78.125000
8216,-78.125000
8217,-82.031250
8218,-82.031250
8219,-82.031250
8220,-82.031250
8221,-82.031250
8222,-82.031250
8223,-85.937500
8224,-85.937500
8225,-85.937500
8226,-85.937500
8227,-89.843750
8228,-89.843750
8229,-89.843750
8230,-89.843750
8231,-89.843750
8232,-89.843750
8233,-89.843750
8234,-89.843750
8235,-89.843750
8236,-93.750000
8237,-93.750000
8238,-93.750000
8239,-93.750000
8240,-93.750000
8241,-93.750000
8242,-93.750000
8243,-93.750000
8244,-93.750000
8245,-97.656250
8246,-93.750000
8247,-97.656250
8248,-97.656250
8249,-97.656250
8250,-97.656250
8251,-97.656250
8252,-97.656250
8253,-97.656250
8254,-97.656250
8255,-97.656250
8256,-97.656250
8257,-97.656250
8258,-97.656250
8259,-97.656250
8260,-97.656250
8261,-97.656250
8262,-97.656250
8263,-97.656250
8264,-97.656250
8265,-97.656250
8266,-97.656250
8267,-97.656250
8268,-97.656250
8269,-97.656250
8270,-97.656250
8271,-97.656250
8272,-97.656250
8273,-97.656250
8274,-97.656250
8275,-97.656250
8276,-97.656250
8277,-97.656250
8278,-97.656250
8279,-97.656250
8280,-93.750000
8281,-93.750000
8282,-93.750000
8283,-93.750000
8284,-93.750000
8285,-93.750000
8286,-93.750000
8287,-93.750000
8288,-93.750000
8289,-89.843750
8290,-89.843750
8291,-89.843750
8292,-89.843750
8293,-89.843750
8294,-89.843750
8295,-89.843750
8296,-89.843750
8297,-85.937500
8298,-85.937500
8299,-85.937500
8300,-85.937500
8301,-85.937500
8302,-82.031250
8303,-82.031250
8304,-82.031250
8305,-82.031250
8306,-82.031250
8307,-78.125000
8308,-78.125000
8309,-78.125000
8310,-78.125000
8311,-78.125000
8312,-74.218750
8313,-74.218750
8314,-74.218750
8315,-74.218750
8316,-70.312500
8317,-70.312500
8318,-70.312500
8319,-70.312500
8320,-70.312500
8321,-66.406250
8322,-66.406250
8323,-66.406250
8324,-62.500000
8325,-62.500000
8326,-62.500000
8327,-62.500000
8328,-58.593750
8329,-58.593750
8330,-58.593750
8331,-58.593750
8332,-54.687500
8333,-54.687500
8334,-54.687500
8335,-54.687500
8336,-50.781250
8337,-50.781250
8338,-50.781250
8339,-50.781250
8340,-46.875000
8341,-46.875000
8342,-46.875000
8343,-42.968750
8344,-42.968750
8345,-42.968750
8346,-42.968750
8347,-39.062500
8348,-39.062500
8349,-39.062500
8350,-39.062500
8351,-35.156250
8352,-35.156250
8353,-31.250000
8354,-31.250000
8355,-31.250000
8356,-31.250000
8357,-31.250000
8358,-27.343750
8359,-27.343750
8360,-23.437500
8361,-23.437500
8362,-23.437500
8363,-23.437500
8364,-23.437500
8365,-19.531250
8366,-19.531250
8367,-19.531250
8368,-15.625000
8369,-15.625000
8370,-15.625000
8371,-15.625000
8372,-11.718750
8373,-11.718750
8374,-11.718750
8375,-7.812500
8376,-7.812500
8377,-7.812500
8378,-3.906250
8379,-3.906250
8380,-3.906250
8381,-3.906250
8382,0.000000
8383,0.000000
8384,0.000000
8385,0.000000
8386,3.906250
8387,3.906250
8388,3.906250
8389,3.906250
8390,7.812500
8391,7.812500
8392,7.812500
8393,11.718750
8394,11.718750
8395,11.718750
8396,11.718750
8397,11.718750
8398,15.625000
8399,15.625000
8400,15.625000
8401,15.625000
8402,19.531250
8403,19.531250
8404,19.531250
8405,23.437500
8406,23.437500
8407,23.437500
8408,23.437500
8409,23.437500
8410,27.343750
8411,27.343750
8412,27.343750
8413,27.343750
8414,31.250000
8415,31.250000
8416,31.250000
8417,31.250000
8418,31.250000
8419,35.156250
8420,35.156250
8421,35.156250
8422,35.156250
8423,35.156250
8424,35.156250
8425,39.062500
8426,39.062500
8427,39.062500
8428,39.062500
8429,39.062500
8430,42.968750
8431,42.968750
8432,42.968750
8433,42.968750
8434,42.968750
8435,42.968750
8436,46.875000
8437,46.875000
8438,46.875000
8439,46.875000
8440,46.875000
8441,46.875000
8442,46.875000
8443,46.875000
8444,50.781250
8445,50.781250
8446,50.781250
8447,50.781250
8448,50.781250
8449,50.781250
8450,50.781250
8451,50.781250
8452,50.781250
8453,50.781250
8454,50.781250
8455,54.687500
8456,54.687500
8457,54.687500
8458,54.687500
8459,54.687500
8460,54.687500
8461,54.687500
8462,54.687500
8463,54.687500
8464,54.687500
8465,54.687500
8466,54.687500
8467,54.687500
8468,54.687500
8469,54.687500
8470,54.687500
8471,54.687500
8472,54.687500
8473,54.687500
8474,54.687500
8475,54.687500
8476,54.687500
8477,54.687500
8478,54.687500
8479,54.687500
8480,54.687500
8481,54.687500
8482,54.687500
8483,54.687500
8484,54.687500
8485,54.687500
8486,54.687500
8487,54.687500
8488,54.687500
8489,54.687500
8490,54.687500
8491,54.687500
8492,54.687500
8493,50.781250
8494,54.687500
8495,50.781250
8496,50.781250
8497,50.781250
8498,50.781250
8499,50.781250
8500,50.781250
8501,50.781250
8502,50.781250
8503,50.781250
8504,50.781250
8505,46.875000
8506,46.875000
8507,46.875000
8508,46.875000
8509,46.875000
8510,46.875000
8511,46.875000
8512,42.968750
8513,42.968750
8514,42.968750
8515,42.968750
8516,42.968750
8517,42.968750
8518,46.875000
8519,39.062500
8520,39.062500
8521,39.062500
8522,39.062500
8523,39.062500
8524,35.156250
8525,35.156250
8526,35.156250
8527,35.156250
8528,35.156250
8529,31.250000
8530,31.250000
8531,31.250000
8532,31.250000
8533,27.343750
8534,27.343750
8535,27.343750
8536,27.343750
8537,27.343750
8538,23.437500
8539,23.437500
8540,23.437500
8541,23.437500
8542,23.437500
8543,19.531250
8544,19.531250
8545,15.625000
8546,15.625000
8547,15.625000
8548,15.625000
8549,15.625000
8550,11.718750
8551,11.718750
8552,11.718750
8553,7.812500
8554,7.812500
8555,7.812500
8556,7.812500
8557,3.906250
8558,3.906250
8559,3.906250
8560,0.000000
8561,3.906250
8562,0.000000
8563,0.000000
8564,-3.906250
8565,-3.906250
8566,-3.906250
8567,-7.812500
8568,-7.812500
8569,-7.812500
8570,-7.812500
8571,-11.718750
8572,-11.718750
8573,-11.718750
8574,-11.718750
8575,-15.625000
8576,-15.625000
8577,-19.531250
8578,-19.531250
8579,-19.531250
8580,-19.531250
8581,-23.437500
8582,-23.437500
8583,-23.437500
8584,-27.343750
8585,-27.343750
8586,-27.343750
8587,-31.250000
8588,-31.250000
8589,-31.250000
8590,-31.250000
8591,-35.156250
8592,-35.156250
8593,-39.062500
8594,-39.062500
8595,-39.062500
8596,-39.062500
8597,-42.968750
8598,-42.968750
8599,-42.968750
8600,-46.875000
8601,-46.875000
8602,-46.875000
8603,-46.875000
8604,-50.781250
8605,-50.781250
8606,-54.687500
8607,-54.687500
8608,-54.687500
8609,-54.687500
8610,-54.687500
8611,-58.593750
8612,-58.593750
8613,-58.593750
8614,-62.500000
8615,-62.500000
8616,-66.406250
8617,-66.406250
8618,-66.406250
8619,-66.406250
8620,-66.406250
8621,-66.406250
8622,-70.312500
8623,-70.312500
8624,-70.312500
8625,-74.218750
8626,-74.218750
8627,-74.218750
8628,-74.218750
8629,-74.218750
8630,-78.125000
8631,-78.125000
8632,-78.125000
8633,-78.125000
8634,-82.031250
8635,-82.031250
8636,-82.031250
8637,-82.031250
8638,-82.031250
8639,-82.031250
8640,-85.937500
8641,-85.937500
8642,-85.937500
8643,-85.937500
8644,-85.937500
8645,-85.937500
8646,-89.843750
8647,-89.843750
8648,-89.843750
8649,-89.843750
8650,-89.843750
8651,-89.843750
8652,-89.843750
8653,-93.750000
8654,-93.750000
8655,-93.750000
8656,-93.750000
8657,-93.750000
8658,-93.750000
8659,-93.750000
8660,-93.750000
8661,-97.656250
8662,-93.750000
8663,-97.656250
8664,-97.656250
8665,-97.656250
8666,-97.656250
8667,-97.656250
8668,-97.656250
8669,-97.656250
8670,-97.656250
8671,-97.656250
8672,-97.656250
8673,-97.656250
8674,-97.656250
8675,-97.656250
8676,-97.656250
8677,-97.656250
8678,-97.656250
8679,-97.656250
8680,-97.656250
8681,-97.656250
8682,-97.656250
8683,-97.656250
8684,-97.656250
8685,-97.656250
8686,-97.656250
8687,-97.656250
8688,-97.656250
8689,-97.656250
8690,-97.656250
8691,-97.656250
8692,-97.656250
8693,-97.656250
8694,-93.750000
8695,-93.750000
8696,-93.750000
8697,-93.750000
8698,-93.750000
8699,-97.656250
8700,-93.750000
8701,-93.750000
8702,-93.750000
8703,-93.750000
8704,-93.750000
8705,-89.843750
8706,-89.843750
8707,-89.843750
8708,-89.843750
8709,-89.843750
8710,-89.843750
8711,-85.937500
8712,-85.937500
8713,-85.937500
8714,-85.937500
8715,-85.937500
8716,-85.937500
8717,-85.937500
8718,-82.031250
8719,-82.031250
8720,-82.031250
8721,-82.031250
8722,-82.031250
8723,-82.031250
8724,-78.125000
8725,-78.125000
8726,-78.125000
8727,-78.125000
8728,-74.218750
8729,-74.218750
8730,-74.218750
8731,-74.218750
8732,-70.312500
8733,-70.312500
8734,-70.312500
8735,-70.312500
8736,-70.312500
8737,-66.406250
8738,-66.406250
8739,-66.406250
8740,-66.406250
8741,-62.500000
8742,-62.500000
8743,-62.500000
8744,-62.500000
8745,-62.500000
8746,-58.593750
8747,-58.593750
8748,-58.593750
8749,-54.687500
8750,-54.687500
8751,-54.687500
8752,-54.687500
8753,-50.781250
8754,-50.781250
8755,-50.781250
8756,-50.781250
8757,-46.875000
8758,-46.875000
8759,-46.875000
8760,-42.968750
8761,-42.968750
8762,-39.062500
8763,-42.968750
8764,-39.062500
8765,-39.062500
8766,-39.062500
8767,-39.062500
8768,-35.156250
8769,-35.156250
8770,-35.156250
8771,-31.250000
8772,-31.250000
8773,-31.250000
8774,-27.343750
8775,-27.343750
8776,-27.343750
8777,-23.437500
8778,-23.437500
8779,-23.437500
8780,-23.437500
8781,-19.531250
8782,-19.531250
8783,-19.531250
8784,-15.625000
8785,-15.625000
8786,-15.625000
8787,-15.625000
8788,-11.718750
8789,-11.718750
8790,-11.718750
8791,-7.812500
8792,-7.812500
8793,-7.812500
8794,-7.812500
8795,-7.812500
8796,-3.906250
8797,-3.906250
8798,0.000000
8799,0.000000
8800,0.000000
8801,0.000000
8802,3.906250
8803,3.906250
8804,3.906250
8805,3.906250
8806,3.906250
8807,7.812500
8808,7.812500
8809,7.812500
8810,11.718750
8811,11.718750
8812,11.718750
8813,11.718750
8814,15.625000
8815,15.625000
8816,15.625000
8817,15.625000
8818,19.531250
8819,19.531250
8820,19.531250
8821,19.531250
8822,23.437500
8823,23.437500
8824,23.437500
8825,23.437500
8826,27.343750
8827,27.343750
8828,27.343750
8829,27.343750
8830,31.250000
8831,31.250000
8832,31.250000
8833,31.250000
8834,31.250000
8835,31.250000
8836,35.156250
8837,35.156250
8838,35.156250
8839,35.156250
8840,35.156250
8841,39.062500
8842,39.062500
8843,39.062500
8844,39.062500
8845,39.062500
8846,42.968750
8847,42.968750
8848,42.968750
8849,42.968750
8850,42.968750
8851,42.968750
8852,42.968750
8853,46.875000
8854,46.875000
8855,46.875000
8856,46.875000
8857,46.875000
8858,46.875000
8859,46.875000
8860,46.875000
8861,46.875000
8862,50.781250
8863,50.781250
8864,50.781250
8865,50.781250
8866,50.781250
8867,50.781250
8868,50.781250
8869,50.781250
8870,50.781250
8871,50.781250
8872,54.687500
8873,54.687500
8874,54.687500
8875,54.687500
8876,54.687500
8877,54.687500
8878,54.687500
8879,54.687500
8880,54.687500
8881,54.687500
8882,54.687500
8883,54.687500
8884,54.687500
8885,54.687500
8886,54.687500
8887,54.687500
8888,54.687500
8889,54.687500
8890,54.687500
8891,54.687500
8892,54.687500
8893,54.687500
8894,54.687500
8895,54.687500
8896,54.687500
8897,54.687500
8898,54.687500
8899,54.687500
8900,54.687500
8901,58.593750
8902,54.687500
8903,54.687500
8904,54.687500
8905,54.687500
8906,54.687500
8907,54.687500
8908,54.687500
8909,50.781250
8910,54.687500
8911,54.687500
8912,50.781250
8913,50.781250
8914,50.781250
8915,50.781250
8916,50.781250
8917,50.781250
8918,50.781250
8919,50.781250
8920,50.781250
8921,50.781250
8922,46.875000
8923,46.875000
8924,46.875000
8925,46.875000
8926,46.875000
8927,46.875000
8928,46.875000
8929,42.968750
8930,42.968750
8931,42.968750
8932,42.968750
8933,42.968750
8934,39.062500
8935,39.062500
8936,39.062500
8937,39.062500
8938,39.062500
8939,39.062500
8940,39.062500
8941,35.156250
8942,35.156250
8943,35.156250
8944,35.156250
8945,35.156250
8946,31.250000
8947,31.250000
8948,31.250000
8949,31.250000
8950,27.343750
8951,27.343750
8952,27.343750
8953,27.343750
8954,23.437500
8955,23.437500
8956,23.437500
8957,23.437500
8958,23.437500
8959,19.531250
8960,19.531250
8961,19.531250
8962,19.531250
8963,15.625000
8964,15.625000
8965,15.625000
8966,11.718750
8967,11.718750
8968,11.718750
8969,11.718750
8970,7.812500
8971,7.812500
8972,7.812500
8973,3.906250
8974,3.906250
8975,3.906250
8976,3.906250
8977,0.000000
8978,0.000000
8979,0.000000
8980,0.000000
8981,-3.906250
8982,-3.906250
8983,-3.906250
8984,-7.812500
8985,-7.812500
8986,-7.812500
8987,-7.812500
8988,-11.718750
8989,-11.718750
8990,-15.625000
8991,-15.625000
8992,-15.625000
8993,-15.625000
8994,-19.531250
8995,-19.531250
8996,-19.531250
8997,-23.437500
8998,-23.437500
8999,-23.437500
9000,-23.437500
9001,-27.343750
9002,-27.343750
9003,-27.343750
9004,-31.250000
9005,-31.250000
9006,-31.250000
9007,-35.156250
9008,-35.156250
9009,-35.156250
9010,-39.062500
9011,-39.062500
9012,-39.062500
9013,-39.062500
9014,-42.968750
9015,-42.968750
9016,-46.875000
9017,-46.875000
9018,-46.875000
9019,-46.875000
9020,-50.781250
9021,-50.781250
9022,-50.781250
9023,-50.781250
9024,-54.687500
9025,-54.687500
9026,-54.687500
9027,-58.593750
9028,-58.593750
9029,-58.593750
9030,-58.593750
9031,-62.500000
9032,-62.500000
9033,-62.500000
9034,-66.406250
9035,-66.406250
9036,-66.406250
9037,-66.406250
9038,-66.406250
9039,-70.312500
9040,-70.312500
9041,-74.218750
9042,-74.218750
9043,-74.218750
9044,-74.218750
9045,-74.218750
9046,-78.125000
9047,-78.125000
9048,-78.125000
9049,-78.125000
9050,-78.125000
9051,-82.031250
9052,-82.031250
9053,-82.031250
9054,-82.031250
9055,-82.031250
9056,-82.031250
9057,-85.937500
9058,-85.937500
9059,-85.937500
9060,-85.937500
9061,-85.937500
9062,-89.843750
9063,-89.843750
9064,-89.843750
9065,-89.843750
9066,-89.843750
9067,-89.843750
9068,-93.750000
9069,-93.750000
9070,-93.750000
9071,-93.750000
9072,-93.750000
9073,-93.750000
9074,-93.750000
9075,-97.656250
9076,-93.750000
9077,-97.656250
9078,-97.656250
9079,-97.656250
9080,-97.656250
9081,-97.656250
9082,-97.656250
9083,-97.656250
9084,-97.656250
9085,-97.656250
9086,-97.656250
9087,-97.656250
9088,-101.562500
9089,-97.656250
9090,-97.656250
9091,-97.656250
9092,-97.656250
9093,-97.656250
9094,-97.656250
9095,-97.656250
9096,-97.656250
9097,-97.656250
9098,-97.656250
9099,-97.656250
9100,-97.656250
9101,-97.656250
9102,-101.562500
9103,-97.656250
9104,-97.656250
9105,-97.656250
9106,-97.656250
9107,-97.656250
9108,-97.656250
9109,-97.656250
9110,-93.750000
9111,-93.750000
9112,-97.656250
9113,-97.656250
9114,-93.750000
9115,-93.750000
9116,-93.750000
9117,-93.750000
9118,-93.750000
9119,-93.750000
9120,-93.750000
9121,-93.750000
9122,-93.750000
9123,-89.843750
9124,-89.843750
9125,-89.843750
9126,-89.843750
9127,-89.843750
9128,-89.843750
9129,-85.937500
9130,-85.937500
9131,-85.937500
9132,-85.937500
9133,-85.937500
9134,-85.937500
9135,-82.031250
9136,-82.031250
9137,-82.031250
9138,-82.031250
9139,-82.031250
9140,-78.125000
9141,-78.125000
9142,-78.125000
9143,-78.125000
9144,-78.125000
9145,-78.125000
9146,-74.218750
9147,-74.218750
9148,-74.218750
9149,-74.218750
9150,-70.312500
9151,-70.312500
9152,-70.312500
9153,-70.312500
9154,-66.406250
9155,-66.406250
9156,-66.406250
9157,-66.406250
9158,-62.500000
9159,-62.500000
9160,-62.500000
9161,-62.500000
9162,-58.593750
9163,-58.593750
9164,-58.593750
9165,-58.593750
9166,-54.687500
9167,-54.687500
9168,-54.687500
9169,-54.687500
9170,-50.781250
9171,-50.781250
9172,-50.781250
9173,-46.875000
9174,-46.875000
9175,-46.875000
9176,-46.875000
9177,-46.875000
9178,-42.968750
9179,-42.968750
9180,-42.968750
9181,-39.062500
9182,-39.062500
9183,-39.062500
9184,-35.156250
9185,-35.156250
9186,-35.156250
9187,-35.156250
9188,-31.250000
9189,-31.250000
9190,-31.250000
9191,-27.343750
9192,-27.343750
9193,-27.343750
9194,-23.437500
9195,-23.437500
9196,-23.437500
9197,-23.437500
9198,-19.531250
9199,-19.531250
9200,-19.531250
9201,-15.625000
9202,-15.625000
9203,-15.625000
9204,-15.625000
9205,-11.718750
9206,-11.718750
9207,-11.718750
9208,-7.812500
9209,-7.812500
9210,-7.812500
9211,-7.812500
9212,-3.906250
9213,-3.906250
9214,-3.906250
9215,0.000000
9216,0.000000
9217,0.000000
9218,0.000000
9219,3.906250
9220,3.906250
9221,3.906250
9222,7.812500
9223,7.812500
9224,7.812500
9225,7.812500
9226,11.718750
9227,11.718750
9228,11.718750
9229,11.718750
9230,15.625000
9231,15.625000
9232,15.625000
9233,15.625000
9234,15.625000
9235,19.531250
9236,19.531250
9237,19.531250
9238,23.437500
9239,23.437500
9240,23.437500
9241,23.437500
9242,23.437500
9243,27.343750
9244,27.343750
9245,27.343750
9246,27.343750
9247,27.343750
9248,31.250000
9249,31.250000
9250,31.250000
9251,35.156250
9252,31.250000
9253,31.250000
9254,35.156250
9255,35.156250
9256,35.156250
9257,35.156250
9258,35.156250
9259,39.062500
9260,39.062500
9261,39.062500
9262,39.062500
9263,39.062500
9264,39.062500
9265,42.968750
9266,42.968750
9267,42.968750
9268,42.968750
9269,42.968750
9270,42.968750
9271,46.875000
9272,46.875000
9273,46.875000
9274,46.875000
9275,46.875000
9276,46.875000
9277,46.875000
9278,50.781250
9279,50.781250
9280,46.875000
9281,50.781250
9282,46.875000
9283,50.781250
9284,50.781250
9285,50.781250
9286,50.781250
9287,50.781250
9288,50.781250
9289,50.781250
9290,54.687500
9291,54.687500
9292,54.687500
9293,54.687500
9294,54.687500
9295,54.687500
9296,54.687500
9297,54.687500
9298,54.687500
9299,54.687500
9300,54.687500
9301,54.687500
9302,54.687500
9303,54.687500
9304,54.687500
9305,54.687500
9306,54.687500
9307,54.687500
9308,54.687500
9309,54.687500
9310,54.687500
9311,54.687500
9312,54.687500
9313,54.687500
9314,54.687500
9315,54.687500
9316,54.687500
9317,54.687500
9318,54.687500
9319,54.687500
9320,54.687500
9321,54.687500
9322,54.687500
9323,54.687500
9324,54.687500
9325,54.687500
9326,50.781250
9327,50.781250
9328,50.781250
9329,50.781250
9330,50.781250
9331,50.781250
9332,50.781250
9333,50.781250
9334,50.781250
9335,50.781250
9336,50.781250
9337,50.781250
9338,46.875000
9339,46.875000
9340,46.875000
9341,46.875000
9342,46.875000
9343,46.875000
9344,46.875000
9345,46.875000
9346,46.875000
9347,42.968750
9348,42.968750
9349,42.968750
9350,42.968750
9351,42.968750
9352,42.968750
9353,39.062500
9354,39.062500
9355,39.062500
9356,39.062500
9357,39.062500
9358,35.156250
9359,35.156250
9360,35.156250
9361,35.156250
9362,31.250000
9363,31.250000
9364,31.250000
9365,31.250000
9366,31.250000
9367,27.343750
9368,27.343750
9369,27.343750
9370,27.343750
9371,23.437500
9372,23.437500
9373,23.437500
9374,23.437500
9375,19.531250
9376,19.531250
9377,19.531250
9378,19.531250
9379,19.531250
9380,15.625000
9381,15.625000
9382,15.625000
9383,15.625000
9384,11.718750
9385,11.718750
9386,11.718750
9387,7.812500
9388,7.812500
9389,7.812500
9390,7.812500
9391,3.906250
9392,3.906250
9393,3.906250
9394,0.000000
9395,0.000000
9396,0.000000
9397,-3.906250
9398,-3.906250
9399,-3.906250
9400,-3.906250
9401,-7.812500
9402,-7.812500
9403,-7.812500
9404,-11.718750
9405,-11.718750
9406,-11.718750
9407,-11.718750
9408,-15.625000
9409,-15.625000
9410,-15.625000
9411,-19.531250
9412,-19.531250
9413,-19.531250
9414,-23.437500
9415,-23.437500
9416,-23.437500
9417,-23.437500
9418,-27.343750
9419,-27.343750
9420,-27.343750
9421,-31.250000
9422,-31.250000
9423,-31.250000
9424,-35.156250
9425,-35.156250
9426,-35.156250
9427,-39.062500
9428,-39.062500
9429,-39.062500
9430,-42.968750
9431,-42.968750
9432,-42.968750
9433,-46.875000
9434,-46.875000
9435,-46.875000
9436,-46.875000
9437,-50.781250
9438,-50.781250
9439,-50.781250
9440,-54.687500
9441,-54.687500
9442,-54.687500
9443,-54.687500
9444,-58.593750
9445,-54.687500
9446,-58.593750
9447,-58.593750
9448,-62.500000
9449,-62.500000
9450,-62.500000
9451,-66.406250
9452,-66.406250
9453,-66.406250
9454,-66.406250
9455,-70.312500
9456,-70.312500
9457,-70.312500
9458,-70.312500
9459,-74.218750
9460,-74.218750
9461,-74.218750
9462,-74.218750
9463,-78.125000
9464,-78.125000
9465,-78.125000
9466,-78.125000
9467,-82.031250
9468,-78.125000
9469,-82.031250
9470,-82.031250
9471,-82.031250
9472,-82.031250
9473,-82.031250
9474,-85.937500
9475,-85.937500
9476,-85.937500
9477,-89.843750
9478,-89.843750
9479,-89.843750
9480,-89.843750
9481,-89.843750
9482,-89.843750
9483,-89.843750
9484,-89.843750
9485,-93.750000
9486,-89.843750
9487,-93.750000
9488,-93.750000
9489,-93.750000
9490,-93.750000
9491,-93.750000
9492,-93.750000
9493,-93.750000
9494,-93.750000
9495,-97.656250
9496,-97.656250
9497,-97.656250
9498,-97.656250
9499,-97.656250
9500,-97.656250
9501,-97.656250
9502,-97.656250
9503,-97.656250
9504,-97.656250
9505,-97.656250
9506,-97.656250
9507,-97.656250
9508,-97.656250
9509,-97.656250
9510,-97.656250
9511,-97.656250
9512,-97.656250
9513,-97.656250
9514,-97.656250
9515,-97.656250
9516,-97.656250
9517,-97.656250
9518,-97.656250
9519,-97.656250
9520,-97.656250
9521,-97.656250
9522,-97.656250
9523,-97.656250
9524,-97.656250
9525,-97.656250
9526,-97.656250
9527,-97.656250
9528,-97.656250
9529,-97.656250
9530,-97.656250
9531,-93.750000
9532,-93.750000
9533,-93.750000
9534,-93.750000
9535,-93.750000
9536,-93.750000
9537,-93.750000
9538,-93.750000
9539,-93.750000
9540,-93.750000
9541,-89.843750
9542,-89.843750
9543,-89.843750
9544,-89.843750
9545,-89.843750
9546,-89.843750
9547,-85.937500
9548,-85.937500
9549,-85.937500
9550,-85.937500
9551,-85.937500
9552,-85.937500
9553,-82.031250
9554,-82.031250
9555,-82.031250
9556,-82.031250
9557,-82.031250
9558,-78.125000
9559,-78.125000
9560,-78.125000
9561,-78.125000
9562,-74.218750
9563,-74.218750
9564,-74.218750
9565,-74.218750
9566,-74.218750
9567,-70.312500
9568,-70.312500
9569,-70.312500
9570,-70.312500
9571,-70.312500
9572,-66.406250
9573,-66.406250
9574,-66.406250
9575,-62.500000
9576,-62.500000
9577,-62.500000
9578,-62.500000
9579,-62.500000
9580,-58.593750
9581,-58.593750
9582,-58.593750
9583,-54.687500
9584,-54.687500
9585,-54.687500
9586,-54.687500
9587,-50.781250
9588,-50.781250
9589,-50.781250
9590,-50.781250
9591,-50.781250
9592,-46.875000
9593,-42.968750
9594,-42.968750
9595,-42.968750
9596,-42.968750
9597,-39.062500
9598,-39.062500
9599,-39.062500
9600,-35.156250
9601,-35.156250
9602,-35.156250
9603,-35.156250
9604,-31.250000
9605,-31.250000
9606,-31.250000
9607,-31.250000
9608,-27.343750
9609,-27.343750
9610,-27.343750
9611,-23.437500
9612,-23.437500
9613,-23.437500
9614,-23.437500
9615,-19.531250
9616,-19.531250
9617,-15.625000
9618,-23.437500
9619,-15.625000
9620,-15.625000
9621,-11.718750
9622,-11.718750
9623,-11.718750
9624,-7.812500
9625,-7.812500
9626,-7.812500
9627,-7.812500
9628,-7.812500
9629,-3.906250
9630,-3.906250
9631,-3.906250
9632,0.000000
9633,0.000000
9634,0.000000
9635,0.000000
9636,3.906250
9637,3.906250
9638,3.906250
9639,7.812500
9640,7.812500
9641,7.812500
9642,7.812500
9643,7.812500
9644,11.718750
9645,11.718750
9646,11.718750
9647,15.625000
9648,15.625000
9649,15.625000
9650,15.625000
9651,19.531250
9652,19.531250
9653,19.531250
9654,19.531250
9655,19.531250
9656,23.437500
9657,23.437500
9658,23.437500
9659,23.437500
9660,27.343750
9661,27.343750
9662,27.343750
9663,27.343750
9664,27.343750
9665,31.250000
9666,31.250000
9667,31.250000
9668,31.250000
9669,31.250000
9670,35.156250
9671,35.156250
9672,35.156250
9673,35.156250
9674,39.062500
9675,39.062500
9676,39.062500
9677,39.062500
9678,39.062500
9679,39.062500
9680,42.968750
9681,42.968750
9682,42.968750
9683,42.968750
9684,42.968750
9685,42.968750
9686,46.875000
9687,46.875000
9688,46.875000
9689,46.875000
9690,46.875000
9691,46.875000
9692,46.875000
9693,46.875000
9694,50.781250
9695,50.781250
9696,50.781250
9697,50.781250
9698,50.781250
9699,50.781250
9700,50.781250
9701,50.781250
9702,50.781250
9703,54.687500
9704,54.687500
9705,50.781250
9706,54.687500
9707,54.687500
9708,54.687500
9709,54.687500
9710,54.687500
9711,54.687500
9712,54.687500
9713,54.687500
9714,54.687500
9715,54.687500
9716,54.687500
9717,54.687500
9718,54.687500
9719,54.687500
9720,54.687500
9721,54.687500
9722,54.687500
9723,54.687500
9724,54.687500
9725,54.687500
9726,54.687500
9727,54.687500
9728,54.687500
9729,54.687500
9730,54.687500
9731,54.687500
9732,54.687500
9733,54.687500
9734,54.687500
9735,54.687500
9736,54.687500
9737,54.687500
9738,54.687500
9739,54.687500
9740,54.687500
9741,54.687500
9742,54.687500
9743,54.687500
9744,50.781250
9745,50.781250
9746,50.781250
9747,50.781250
9748,50.781250
9749,50.781250
9750,50.781250
9751,50.781250
9752,50.781250
9753,50.781250
9754,50.781250
9755,46.875000
9756,46.875000
9757,46.875000
9758,46.875000
9759,46.875000
9760,46.875000
9761,46.875000
9762,42.968750
9763,42.968750
9764,42.968750
9765,42.968750
9766,42.968750
9767,42.968750
9768,39.062500
9769,39.062500
9770,39.062500
9771,39.062500
9772,39.062500
9773,39.062500
9774,35.156250
9775,35.156250
9776,35.156250
9777,35.156250
9778,35.156250
9779,31.250000
9780,31.250000
9781,31.250000
9782,31.250000
9783,31.250000
9784,27.343750
9785,27.343750
9786,27.343750
9787,27.343750
9788,27.343750
9789,23.437500
9790,23.437500
9791,19.531250
9792,23.437500
9793,19.531250
9794,19.531250
9795,19.531250
9796,15.625000
9797,15.625000
9798,15.625000
9799,15.625000
9800,15.625000
9801,11.718750
9802,11.718750
9803,11.718750
9804,7.812500
9805,7.812500
9806,7.812500
9807,3.906250
9808,3.906250
9809,3.906250
9810,3.906250
9811,0.000000
9812,0.000000
9813,0.000000
9814,0.000000
9815,-3.906250
9816,-3.906250
9817,-3.906250
9818,-7.812500
9819,-7.812500
9820,-7.812500
9821,-11.718750
9822,-11.718750
9823,-11.718750
9824,-15.625000
9825,-15.625000
9826,-15.625000
9827,-15.625000
9828,-19.531250
9829,-19.531250
9830,-19.531250
9831,-23.437500
9832,-23.437500
9833,-23.437500
9834,-27.343750
9835,-27.343750
9836,-27.343750
9837,-27.343750
9838,-31.250000
9839,-31.250000
9840,-31.250000
9841,-35.156250
9842,-35.156250
9843,-35.156250
9844,-39.062500
9845,-39.062500
9846,-39.062500
9847,-42.968750
9848,-42.968750
9849,-42.968750
9850,-46.875000
9851,-46.875000
9852,-46.875000
9853,-50.781250
9854,-50.781250
9855,-50.781250
9856,-50.781250
9857,-54.687500
9858,-54.687500
9859,-54.687500
9860,-54.687500
9861,-58.593750
9862,-58.593750
9863,-58.593750
9864,-62.500000
9865,-62.500000
9866,-62.500000
9867,-62.500000
9868,-66.406250
9869,-66.406250
9870,-66.406250
9871,-66.406250
9872,-66.406250
9873,-70.312500
9874,-70.312500
9875,-70.312500
9876,-74.218750
9877,-74.218750
9878,-74.218750
9879,-78.125000
9880,-78.125000
9881,-78.125000
9882,-78.125000
9883,-78.125000
9884,-78.125000
9885,-82.031250
9886,-82.031250
9887,-82.031250
9888,-82.031250
9889,-82.031250
9890,-85.937500
9891,-85.937500
9892,-85.937500
9893,-85.937500
9894,-85.937500
9895,-89.843750
9896,-89.843750
9897,-89.843750
9898,-89.843750
9899,-89.843750
9900,-89.843750
9901,-89.843750
9902,-93.750000
9903,-93.750000
9904,-93.750000
9905,-93.750000
9906,-93.750000
9907,-93.750000
9908,-93.750000
9909,-93.750000
9910,-93.750000
9911,-97.656250
9912,-93.750000
9913,-97.656250
9914,-97.656250
9915,-97.656250
9916,-97.656250
9917,-97.656250
9918,-97.656250
9919,-97.656250
9920,-97.656250
9921,-97.656250
9922,-97.656250
9923,-97.656250
9924,-97.656250
9925,-97.656250
9926,-97.656250
9927,-97.656250
9928,-97.656250
9929,-97.656250
9930,-97.656250
9931,-97.656250
9932,-97.656250
9933,-97.656250
9934,-97.656250
9935,-97.656250
9936,-97.656250
9937,-97.656250
9938,-97.656250
9939,-97.656250
9940,-97.656250
9941,-97.656250
9942,-97.656250
9943,-97.656250
9944,-97.656250
9945,-97.656250
9946,-97.656250
9947,-93.750000
9948,-93.750000
9949,-93.750000
9950,-93.750000
9951,-93.750000
9952,-93.750000
9953,-93.750000
9954,-93.750000
9955,-89.843750
9956,-89.843750
9957,-89.843750
9958,-89.843750
9959,-89.843750
9960,-89.843750
9961,-89.843750
9962,-89.843750
9963,-85.937500
9964,-85.937500
9965,-85.937500
9966,-85.937500
9967,-85.937500
9968,-82.031250
9969,-82.031250
9970,-82.031250
9971,-82.031250
9972,-82.031250
9973,-82.031250
9974,-82.031250
9975,-78.125000
9976,-78.125000
9977,-78.125000
9978,-74.218750
9979,-78.125000
9980,-74.218750
9981,-74.218750
9982,-74.218750
9983,-74.218750
9984,-70.312500
9985,-70.312500
9986,-70.312500
9987,-70.312500
9988,-66.406250
9989,-66.406250
9990,-66.406250
9991,-66.406250
9992,-62.500000
9993,-62.500000
9994,-62.500000
9995,-62.500000
9996,-58.593750
9997,-58.593750
9998,-58.593750
9999,-58.593750
10000,-54.687500
