Channel              :,CH1
Frequency            :,1.200kHz
Period               :,0.833ms
PK-PK                :,140.6mV
Probe attenuation    :,1X
Voltage per ADC value:,0.244141mV
Time interval        :,2.00000us

index,CH1_Voltage(mV)
1,-50.781250
2,-50.781250
3,-50.781250
4,-50.781250
5,-50.781250
6,-46.875000
7,-46.875000
8,-46.875000
9,-46.875000
10,-42.968750
11,-42.968750
12,-42.968750
13,-42.968750
14,-42.968750
15,-39.062500
16,-39.062500
17,-39.062500
18,-35.156250
19,-35.156250
20,-35.156250
21,-31.250000
22,-31.250000
23,-31.250000
24,-31.250000
25,-31.250000
26,-27.343750
27,-27.343750
28,-27.343750
29,-27.343750
30,-23.437500
31,-23.437500
32,-23.437500
33,-23.437500
34,-19.531250
35,-19.531250
36,-19.531250
37,-19.531250
38,-19.531250
39,-15.625000
40,-15.625000
41,-15.625000
42,-11.718750
43,-11.718750
44,-11.718750
45,-11.718750
46,-7.812500
47,-7.812500
48,-7.812500
49,-7.812500
50,-7.812500
51,-3.906250
52,-3.906250
53,-3.906250
54,-3.906250
55,0.000000
56,0.000000
57,0.000000
58,0.000000
59,0.000000
60,3.906250
61,3.906250
62,3.906250
63,3.906250
64,7.812500
65,7.812500
66,7.812500
67,7.812500
68,7.812500
69,11.718750
70,11.718750
71,11.718750
72,11.718750
73,11.718750
74,15.625000
75,15.625000
76,15.625000
77,15.625000
78,15.625000
79,15.625000
80,19.531250
81,19.531250
82,19.531250
83,19.531250
84,19.531250
85,23.437500
86,23.437500
87,23.437500
88,23.437500
89,23.437500
90,23.437500
91,23.437500
92,27.343750
93,27.343750
94,27.343750
95,27.343750
96,27.343750
97,27.343750
98,27.343750
99,27.343750
100,31.250000
101,31.250000
102,31.250000
103,31.250000
104,31.250000
105,31.250000
106,31.250000
107,31.250000
108,35.156250
109,31.250000
110,35.156250
111,35.156250
112,35.156250
113,35.156250
114,35.156250
115,35.156250
116,35.156250
117,35.156250
118,35.156250
119,35.156250
120,35.156250
121,39.062500
122,35.156250
123,35.156250
124,35.156250
125,39.062500
126,39.062500
127,35.156250
128,39.062500
129,39.062500
130,39.062500
131,39.062500
132,39.062500
133,39.062500
134,39.062500
135,39.062500
136,39.062500
137,39.062500
138,39.062500
139,39.062500
140,39.062500
141,39.062500
142,39.062500
143,39.062500
144,39.062500
145,39.062500
146,39.062500
147,39.062500
148,39.062500
149,39.062500
150,35.156250
151,39.062500
152,35.156250
153,35.156250
154,35.156250
155,35.156250
156,35.156250
157,35.156250
158,35.156250
159,35.156250
160,35.156250
161,35.156250
162,35.156250
163,35.156250
164,35.156250
165,35.156250
166,31.250000
167,31.250000
168,31.250000
169,31.250000
170,31.250000
171,31.250000
172,31.250000
173,31.250000
174,27.343750
175,27.343750
176,27.343750
177,27.343750
178,27.343750
179,27.343750
180,27.343750
181,23.437500
182,23.437500
183,23.437500
184,23.437500
185,23.437500
186,23.437500
187,23.437500
188,23.437500
189,19.531250
190,19.531250
191,19.531250
192,19.531250
193,19.531250
194,19.531250
195,15.625000
196,15.625000
197,15.625000
198,15.625000
199,15.625000
200,11.718750
201,11.718750
202,11.718750
203,11.718750
204,11.718750
205,7.812500
206,7.812500
207,7.812500
208,7.812500
209,7.812500
210,7.812500
211,3.906250
212,3.906250
213,3.906250
214,3.906250
215,0.000000
216,0.000000
217,0.000000
218,0.000000
219,-3.906250
220,-3.906250
221,-3.906250
222,-3.906250
223,-7.812500
224,-7.812500
225,-7.812500
226,-7.812500
227,-11.718750
228,-11.718750
229,-11.718750
230,-11.718750
231,-15.625000
232,-15.625000
233,-15.625000
234,-15.625000
235,-19.531250
236,-19.531250
237,-19.531250
238,-19.531250
239,-23.437500
240,-23.437500
241,-23.437500
242,-27.343750
243,-27.343750
244,-27.343750
245,-31.250000
246,-31.250000
247,-31.250000
248,-31.250000
249,-31.250000
250,-35.156250
251,-35.156250
252,-35.156250
253,-35.156250
254,-39.062500
255,-39.062500
256,-42.968750
257,-39.062500
258,-42.968750
259,-42.968750
260,-42.968750
261,-42.968750
262,-46.875000
263,-46.875000
264,-46.875000
265,-46.875000
266,-50.781250
267,-50.781250
268,-50.781250
269,-54.687500
270,-54.687500
271,-54.687500
272,-54.687500
273,-54.687500
274,-58.593750
275,-58.593750
276,-58.593750
277,-58.593750
278,-62.500000
279,-62.500000
280,-62.500000
281,-62.500000
282,-62.500000
283,-66.406250
284,-66.406250
285,-66.406250
286,-70.312500
287,-70.312500
288,-70.312500
289,-70.312500
290,-70.312500
291,-74.218750
292,-74.218750
293,-74.218750
294,-74.218750
295,-74.218750
296,-78.125000
297,-78.125000
298,-78.125000
299,-78.125000
300,-78.125000
301,-82.031250
302,-82.031250
303,-82.031250
304,-82.031250
305,-82.031250
306,-82.031250
307,-82.031250
308,-82.031250
309,-85.937500
310,-85.937500
311,-85.937500
312,-85.937500
313,-85.937500
314,-85.937500
315,-85.937500
316,-89.843750
317,-85.937500
318,-89.843750
319,-89.843750
320,-89.843750
321,-89.843750
322,-89.843750
323,-89.843750
324,-89.843750
325,-89.843750
326,-93.750000
327,-93.750000
328,-93.750000
329,-93.750000
330,-93.750000
331,-93.750000
332,-93.750000
333,-93.750000
334,-93.750000
335,-93.750000
336,-93.750000
337,-93.750000
338,-93.750000
339,-93.750000
340,-93.750000
341,-93.750000
342,-93.750000
343,-93.750000
344,-93.750000
345,-93.750000
346,-93.750000
347,-93.750000
348,-93.750000
349,-93.750000
350,-93.750000
351,-93.750000
352,-93.750000
353,-93.750000
354,-93.750000
355,-89.843750
356,-93.750000
357,-93.750000
358,-93.750000
359,-89.843750
360,-89.843750
361,-89.843750
362,-89.843750
363,-89.843750
364,-89.843750
365,-89.843750
366,-89.843750
367,-89.843750
368,-89.843750
369,-89.843750
370,-89.843750
371,-85.937500
372,-85.937500
373,-85.937500
374,-85.937500
375,-85.937500
376,-85.937500
377,-85.937500
378,-85.937500
379,-82.031250
380,-82.031250
381,-82.031250
382,-82.031250
383,-82.031250
384,-82.031250
385,-78.125000
386,-78.125000
387,-78.125000
388,-78.125000
389,-78.125000
390,-78.125000
391,-74.218750
392,-74.218750
393,-74.218750
394,-74.218750
395,-74.218750
396,-70.312500
397,-70.312500
398,-70.312500
399,-70.312500
400,-70.312500
401,-66.406250
402,-66.406250
403,-66.406250
404,-66.406250
405,-62.500000
406,-62.500000
407,-62.500000
408,-62.500000
409,-58.593750
410,-58.593750
411,-58.593750
412,-58.593750
413,-58.593750
414,-54.687500
415,-54.687500
416,-54.687500
417,-54.687500
418,-50.781250
419,-50.781250
420,-50.781250
421,-50.781250
422,-50.781250
423,-46.875000
424,-46.875000
425,-46.875000
426,-46.875000
427,-42.968750
428,-42.968750
429,-42.968750
430,-42.968750
431,-39.062500
432,-39.062500
433,-39.062500
434,-35.156250
435,-35.156250
436,-35.156250
437,-35.156250
438,-31.250000
439,-31.250000
440,-31.250000
441,-31.250000
442,-31.250000
443,-27.343750
444,-27.343750
445,-27.343750
446,-27.343750
447,-23.437500
448,-23.437500
449,-23.437500
450,-23.437500
451,-19.531250
452,-19.531250
453,-19.531250
454,-15.625000
455,-15.625000
456,-15.625000
457,-15.625000
458,-15.625000
459,-11.718750
460,-11.718750
461,-11.718750
462,-7.812500
463,-7.812500
464,-7.812500
465,-7.812500
466,-7.812500
467,-3.906250
468,-3.906250
469,-3.906250
470,-3.906250
471,0.000000
472,0.000000
473,0.000000
474,3.906250
475,0.000000
476,3.906250
477,3.906250
478,3.906250
479,3.906250
480,3.906250
481,7.812500
482,7.812500
483,7.812500
484,7.812500
485,11.718750
486,11.718750
487,11.718750
488,11.718750
489,11.718750
490,11.718750
491,15.625000
492,15.625000
493,15.625000
494,15.625000
495,19.531250
496,19.531250
497,19.531250
498,19.531250
499,19.531250
500,19.531250
501,19.531250
502,23.437500
503,23.437500
504,23.437500
505,23.437500
506,23.437500
507,23.437500
508,23.437500
509,23.437500
510,27.343750
511,27.343750
512,27.343750
513,27.343750
514,27.343750
515,27.343750
516,31.250000
517,31.250000
518,31.250000
519,31.250000
520,31.250000
521,31.250000
522,31.250000
523,31.250000
524,31.250000
525,35.156250
526,35.156250
527,35.156250
528,35.156250
529,35.156250
530,35.156250
531,35.156250
532,35.156250
533,35.156250
534,35.156250
535,35.156250
536,35.156250
537,35.156250
538,39.062500
539,39.062500
540,39.062500
541,35.156250
542,39.062500
543,39.062500
544,39.062500
545,39.062500
546,39.062500
547,39.062500
548,39.062500
549,39.062500
550,39.062500
551,39.062500
552,39.062500
553,39.062500
554,39.062500
555,39.062500
556,39.062500
557,39.062500
558,39.062500
559,39.062500
560,39.062500
561,39.062500
562,39.062500
563,39.062500
564,39.062500
565,39.062500
566,39.062500
567,35.156250
568,39.062500
569,35.156250
570,35.156250
571,35.156250
572,35.156250
573,35.156250
574,35.156250
575,35.156250
576,35.156250
577,35.156250
578,35.156250
579,35.156250
580,35.156250
581,35.156250
582,35.156250
583,31.250000
584,31.250000
585,31.250000
586,31.250000
587,31.250000
588,31.250000
589,31.250000
590,31.250000
591,27.343750
592,27.343750
593,27.343750
594,27.343750
595,27.343750
596,27.343750
597,27.343750
598,27.343750
599,27.343750
600,23.437500
601,23.437500
602,23.437500
603,23.437500
604,23.437500
605,23.437500
606,19.531250
607,19.531250
608,19.531250
609,19.531250
610,19.531250
611,19.531250
612,15.625000
613,15.625000
614,15.625000
615,15.625000
616,15.625000
617,15.625000
618,11.718750
619,11.718750
620,11.718750
621,11.718750
622,7.812500
623,7.812500
624,7.812500
625,7.812500
626,3.906250
627,3.906250
628,3.906250
629,3.906250
630,3.906250
631,0.000000
632,0.000000
633,0.000000
634,0.000000
635,-3.906250
636,-3.906250
637,-3.906250
638,-3.906250
639,-3.906250
640,-7.812500
641,-7.812500
642,-7.812500
643,-11.718750
644,-11.718750
645,-11.718750
646,-11.718750
647,-11.718750
648,-15.625000
649,-15.625000
650,-15.625000
651,-15.625000
652,-19.531250
653,-19.531250
654,-19.531250
655,-23.437500
656,-23.437500
657,-23.437500
658,-23.437500
659,-27.343750
660,-27.343750
661,-27.343750
662,-27.343750
663,-31.250000
664,-31.250000
665,-31.250000
666,-31.250000
667,-35.156250
668,-35.156250
669,-35.156250
670,-39.062500
671,-39.062500
672,-39.062500
673,-39.062500
674,-39.062500
675,-42.968750
676,-42.968750
677,-42.968750
678,-46.875000
679,-46.875000
680,-46.875000
681,-46.875000
682,-50.781250
683,-50.781250
684,-50.781250
685,-50.781250
686,-54.687500
687,-54.687500
688,-54.687500
689,-54.687500
690,-58.593750
691,-58.593750
692,-58.593750
693,-58.593750
694,-58.593750
695,-62.500000
696,-62.500000
697,-62.500000
698,-66.406250
699,-66.406250
700,-66.406250
701,-66.406250
702,-66.406250
703,-66.406250
704,-70.312500
705,-70.312500
706,-70.312500
707,-74.218750
708,-74.218750
709,-74.218750
710,-74.218750
711,-74.218750
712,-74.218750
713,-74.218750
714,-78.125000
715,-78.125000
716,-78.125000
717,-78.125000
718,-82.031250
719,-82.031250
720,-82.031250
721,-82.031250
722,-82.031250
723,-82.031250
724,-82.031250
725,-82.031250
726,-85.937500
727,-85.937500
728,-85.937500
729,-85.937500
730,-85.937500
731,-85.937500
732,-85.937500
733,-89.843750
734,-89.843750
735,-89.843750
736,-89.843750
737,-89.843750
738,-89.843750
739,-89.843750
740,-89.843750
741,-89.843750
742,-89.843750
743,-89.843750
744,-93.750000
745,-93.750000
746,-93.750000
747,-93.750000
748,-93.750000
749,-93.750000
750,-93.750000
751,-93.750000
752,-93.750000
753,-93.750000
754,-93.750000
755,-93.750000
756,-93.750000
757,-93.750000
758,-93.750000
759,-93.750000
760,-93.750000
761,-93.750000
762,-93.750000
763,-93.750000
764,-93.750000
765,-93.750000
766,-93.750000
767,-93.750000
768,-93.750000
769,-93.750000
770,-93.750000
771,-93.750000
772,-93.750000
773,-93.750000
774,-93.750000
775,-93.750000
776,-93.750000
777,-89.843750
778,-93.750000
779,-89.843750
780,-89.843750
781,-89.843750
782,-89.843750
783,-89.843750
784,-89.843750
785,-89.843750
786,-85.937500
787,-85.937500
788,-85.937500
789,-85.937500
790,-85.937500
791,-85.937500
792,-85.937500
793,-85.937500
794,-85.937500
795,-82.031250
796,-82.031250
797,-82.031250
798,-82.031250
799,-82.031250
800,-82.031250
801,-82.031250
802,-78.125000
803,-78.125000
804,-78.125000
805,-78.125000
806,-78.125000
807,-78.125000
808,-74.218750
809,-74.218750
810,-74.218750
811,-74.218750
812,-74.218750
813,-70.312500
814,-70.312500
815,-70.312500
816,-70.312500
817,-66.406250
818,-66.406250
819,-66.406250
820,-66.406250
821,-66.406250
822,-62.500000
823,-62.500000
824,-62.500000
825,-62.500000
826,-58.593750
827,-58.593750
828,-58.593750
829,-58.593750
830,-58.593750
831,-54.687500
832,-54.687500
833,-54.687500
834,-54.687500
835,-50.781250
836,-50.781250
837,-50.781250
838,-50.781250
839,-46.875000
840,-46.875000
841,-46.875000
842,-46.875000
843,-46.875000
844,-42.968750
845,-42.968750
846,-42.968750
847,-39.062500
848,-39.062500
849,-39.062500
850,-39.062500
851,-39.062500
852,-35.156250
853,-35.156250
854,-31.250000
855,-31.250000
856,-31.250000
857,-31.250000
858,-31.250000
859,-27.343750
860,-27.343750
861,-27.343750
862,-27.343750
863,-23.437500
864,-23.437500
865,-23.437500
866,-23.437500
867,-19.531250
868,-19.531250
869,-19.531250
870,-19.531250
871,-19.531250
872,-19.531250
873,-15.625000
874,-15.625000
875,-15.625000
876,-11.718750
877,-11.718750
878,-11.718750
879,-7.812500
880,-7.812500
881,-7.812500
882,-7.812500
883,-7.812500
884,-3.906250
885,-3.906250
886,-3.906250
887,-3.906250
888,-3.906250
889,0.000000
890,0.000000
891,0.000000
892,0.000000
893,3.906250
894,3.906250
895,3.906250
896,3.906250
897,3.906250
898,7.812500
899,7.812500
900,7.812500
901,7.812500
902,11.718750
903,3.906250
904,11.718750
905,11.718750
906,11.718750
907,15.625000
908,15.625000
909,15.625000
910,15.625000
911,15.625000
912,15.625000
913,15.625000
914,19.531250
915,19.531250
916,19.531250
917,19.531250
918,19.531250
919,23.437500
920,23.437500
921,23.437500
922,23.437500
923,23.437500
924,23.437500
925,27.343750
926,27.343750
927,27.343750
928,27.343750
929,27.343750
930,27.343750
931,27.343750
932,27.343750
933,31.250000
934,31.250000
935,31.250000
936,31.250000
937,31.250000
938,31.250000
939,31.250000
940,31.250000
941,31.250000
942,31.250000
943,35.156250
944,35.156250
945,35.156250
946,35.156250
947,35.156250
948,35.156250
949,35.156250
950,35.156250
951,35.156250
952,35.156250
953,39.062500
954,35.156250
955,35.156250
956,35.156250
957,39.062500
958,39.062500
959,35.156250
960,39.062500
961,39.062500
962,39.062500
963,39.062500
964,39.062500
965,39.062500
966,39.062500
967,39.062500
968,39.062500
969,39.062500
970,39.062500
971,39.062500
972,39.062500
973,39.062500
974,39.062500
975,39.062500
976,39.062500
977,39.062500
978,39.062500
979,39.062500
980,39.062500
981,39.062500
982,39.062500
983,39.062500
984,39.062500
985,39.062500
986,35.156250
987,35.156250
988,35.156250
989,35.156250
990,35.156250
991,35.156250
992,35.156250
993,35.156250
994,35.156250
995,35.156250
996,35.156250
997,35.156250
998,35.156250
999,35.156250
1000,35.156250
1001,31.250000
1002,31.250000
1003,31.250000
1004,31.250000
1005,31.250000
1006,31.250000
1007,31.250000
1008,31.250000
1009,27.343750
1010,27.343750
1011,27.343750
1012,27.343750
1013,27.343750
1014,27.343750
1015,27.343750
1016,23.437500
1017,23.437500
1018,23.437500
1019,23.437500
1020,23.437500
1021,23.437500
1022,23.437500
1023,19.531250
1024,19.531250
1025,19.531250
1026,19.531250
1027,19.531250
1028,15.625000
1029,15.625000
1030,15.625000
1031,15.625000
1032,15.625000
1033,15.625000
1034,11.718750
1035,11.718750
1036,11.718750
1037,11.718750
1038,7.812500
1039,11.718750
1040,7.812500
1041,7.812500
1042,7.812500
1043,7.812500
1044,7.812500
1045,3.906250
1046,3.906250
1047,3.906250
1048,0.000000
1049,0.000000
1050,0.000000
1051,0.000000
1052,-3.906250
1053,-3.906250
1054,-3.906250
1055,-3.906250
1056,-3.906250
1057,-7.812500
1058,-7.812500
1059,-7.812500
1060,-7.812500
1061,-7.812500
1062,-11.718750
1063,-11.718750
1064,-11.718750
1065,-15.625000
1066,-15.625000
1067,-15.625000
1068,-19.531250
1069,-19.531250
1070,-19.531250
1071,-19.531250
1072,-23.437500
1073,-23.437500
1074,-23.437500
1075,-23.437500
1076,-27.343750
1077,-27.343750
1078,-27.343750
1079,-31.250000
1080,-31.250000
1081,-31.250000
1082,-31.250000
1083,-31.250000
1084,-35.156250
1085,-35.156250
1086,-35.156250
1087,-39.062500
1088,-39.062500
1089,-39.062500
1090,-39.062500
1091,-42.968750
1092,-42.968750
1093,-42.968750
1094,-42.968750
1095,-46.875000
1096,-46.875000
1097,-46.875000
1098,-46.875000
1099,-50.781250
1100,-50.781250
1101,-50.781250
1102,-50.781250
1103,-54.687500
1104,-54.687500
1105,-54.687500
1106,-54.687500
1107,-54.687500
1108,-58.593750
1109,-58.593750
1110,-58.593750
1111,-62.500000
1112,-62.500000
1113,-62.500000
1114,-62.500000
1115,-66.406250
1116,-66.406250
1117,-66.406250
1118,-66.406250
1119,-66.406250
1120,-70.312500
1121,-70.312500
1122,-70.312500
1123,-70.312500
1124,-70.312500
1125,-74.218750
1126,-74.218750
1127,-74.218750
1128,-74.218750
1129,-78.125000
1130,-78.125000
1131,-78.125000
1132,-78.125000
1133,-78.125000
1134,-78.125000
1135,-82.031250
1136,-82.031250
1137,-78.125000
1138,-82.031250
1139,-82.031250
1140,-82.031250
1141,-85.937500
1142,-85.937500
1143,-85.937500
1144,-85.937500
1145,-85.937500
1146,-85.937500
1147,-85.937500
1148,-85.937500
1149,-85.937500
1150,-89.843750
1151,-89.843750
1152,-89.843750
1153,-89.843750
1154,-89.843750
1155,-89.843750
1156,-89.843750
1157,-89.843750
1158,-89.843750
1159,-93.750000
1160,-89.843750
1161,-93.750000
1162,-93.750000
1163,-93.750000
1164,-93.750000
1165,-93.750000
1166,-93.750000
1167,-93.750000
1168,-93.750000
1169,-93.750000
1170,-93.750000
1171,-93.750000
1172,-93.750000
1173,-93.750000
1174,-93.750000
1175,-93.750000
1176,-93.750000
1177,-93.750000
1178,-93.750000
1179,-93.750000
1180,-93.750000
1181,-93.750000
1182,-93.750000
1183,-93.750000
1184,-93.750000
1185,-93.750000
1186,-93.750000
1187,-93.750000
1188,-93.750000
1189,-93.750000
1190,-93.750000
1191,-93.750000
1192,-89.843750
1193,-89.843750
1194,-89.843750
1195,-89.843750
1196,-89.843750
1197,-89.843750
1198,-89.843750
1199,-89.843750
1200,-89.843750
1201,-89.843750
1202,-89.843750
1203,-89.843750
1204,-85.937500
1205,-85.937500
1206,-85.937500
1207,-85.937500
1208,-85.937500
1209,-85.937500
1210,-85.937500
1211,-82.031250
1212,-82.031250
1213,-82.031250
1214,-82.031250
1215,-78.125000
1216,-82.031250
1217,-82.031250
1218,-82.031250
1219,-78.125000
1220,-78.125000
1221,-78.125000
1222,-78.125000
1223,-74.218750
1224,-74.218750
1225,-74.218750
1226,-74.218750
1227,-74.218750
1228,-74.218750
1229,-70.312500
1230,-70.312500
1231,-70.312500
1232,-70.312500
1233,-70.312500
1234,-70.312500
1235,-66.406250
1236,-66.406250
1237,-66.406250
1238,-66.406250
1239,-62.500000
1240,-62.500000
1241,-62.500000
1242,-62.500000
1243,-58.593750
1244,-58.593750
1245,-58.593750
1246,-58.593750
1247,-54.687500
1248,-54.687500
1249,-54.687500
1250,-54.687500
1251,-54.687500
1252,-50.781250
1253,-50.781250
1254,-50.781250
1255,-46.875000
1256,-46.875000
1257,-46.875000
1258,-46.875000
1259,-46.875000
1260,-42.968750
1261,-42.968750
1262,-42.968750
1263,-42.968750
1264,-39.062500
1265,-39.062500
1266,-35.156250
1267,-35.156250
1268,-35.156250
1269,-35.156250
1270,-35.156250
1271,-35.156250
1272,-31.250000
1273,-31.250000
1274,-31.250000
1275,-31.250000
1276,-27.343750
1277,-27.343750
1278,-27.343750
1279,-23.437500
1280,-27.343750
1281,-23.437500
1282,-23.437500
1283,-23.437500
1284,-19.531250
1285,-19.531250
1286,-19.531250
1287,-19.531250
1288,-15.625000
1289,-15.625000
1290,-15.625000
1291,-15.625000
1292,-11.718750
1293,-11.718750
1294,-11.718750
1295,-11.718750
1296,-3.906250
1297,-7.812500
1298,-7.812500
1299,-7.812500
1300,-3.906250
1301,-3.906250
1302,-7.812500
1303,-3.906250
1304,0.000000
1305,0.000000
1306,0.000000
1307,0.000000
1308,0.000000
1309,3.906250
1310,3.906250
1311,3.906250
1312,3.906250
1313,7.812500
1314,3.906250
1315,7.812500
1316,7.812500
1317,7.812500
1318,7.812500
1319,11.718750
1320,11.718750
1321,11.718750
1322,11.718750
1323,11.718750
1324,15.625000
1325,15.625000
1326,15.625000
1327,15.625000
1328,15.625000
1329,15.625000
1330,19.531250
1331,19.531250
1332,19.531250
1333,19.531250
1334,19.531250
1335,19.531250
1336,23.437500
1337,23.437500
1338,23.437500
1339,23.437500
1340,23.437500
1341,23.437500
1342,23.437500
1343,27.343750
1344,27.343750
1345,27.343750
1346,27.343750
1347,27.343750
1348,27.343750
1349,27.343750
1350,31.250000
1351,27.343750
1352,31.250000
1353,31.250000
1354,31.250000
1355,31.250000
1356,31.250000
1357,31.250000
1358,35.156250
1359,31.250000
1360,35.156250
1361,35.156250
1362,35.156250
1363,35.156250
1364,35.156250
1365,35.156250
1366,35.156250
1367,35.156250
1368,35.156250
1369,35.156250
1370,35.156250
1371,35.156250
1372,39.062500
1373,39.062500
1374,35.156250
1375,39.062500
1376,39.062500
1377,39.062500
1378,39.062500
1379,39.062500
1380,39.062500
1381,39.062500
1382,39.062500
1383,39.062500
1384,35.156250
1385,39.062500
1386,39.062500
1387,39.062500
1388,39.062500
1389,39.062500
1390,39.062500
1391,39.062500
1392,39.062500
1393,39.062500
1394,39.062500
1395,39.062500
1396,39.062500
1397,39.062500
1398,39.062500
1399,39.062500
1400,39.062500
1401,35.156250
1402,39.062500
1403,35.156250
1404,39.062500
1405,35.156250
1406,35.156250
1407,35.156250
1408,35.156250
1409,35.156250
1410,35.156250
1411,35.156250
1412,35.156250
1413,35.156250
1414,31.250000
1415,35.156250
1416,31.250000
1417,31.250000
1418,31.250000
1419,35.156250
1420,31.250000
1421,31.250000
1422,31.250000
1423,31.250000
1424,27.343750
1425,27.343750
1426,27.343750
1427,27.343750
1428,27.343750
1429,27.343750
1430,27.343750
1431,27.343750
1432,27.343750
1433,23.437500
1434,23.437500
1435,23.437500
1436,23.437500
1437,23.437500
1438,23.437500
1439,23.437500
1440,19.531250
1441,19.531250
1442,19.531250
1443,19.531250
1444,19.531250
1445,15.625000
1446,15.625000
1447,15.625000
1448,15.625000
1449,15.625000
1450,11.718750
1451,11.718750
1452,11.718750
1453,11.718750
1454,11.718750
1455,7.812500
1456,7.812500
1457,7.812500
1458,7.812500
1459,3.906250
1460,3.906250
1461,3.906250
1462,3.906250
1463,3.906250
1464,3.906250
1465,0.000000
1466,0.000000
1467,0.000000
1468,0.000000
1469,-3.906250
1470,-3.906250
1471,-3.906250
1472,-3.906250
1473,-7.812500
1474,-7.812500
1475,-7.812500
1476,-7.812500
1477,-11.718750
1478,-11.718750
1479,-11.718750
1480,-11.718750
1481,-15.625000
1482,-15.625000
1483,-15.625000
1484,-15.625000
1485,-19.531250
1486,-19.531250
1487,-19.531250
1488,-19.531250
1489,-19.531250
1490,-23.437500
1491,-23.437500
1492,-23.437500
1493,-23.437500
1494,-27.343750
1495,-27.343750
1496,-27.343750
1497,-31.250000
1498,-31.250000
1499,-31.250000
1500,-31.250000
1501,-35.156250
1502,-35.156250
1503,-35.156250
1504,-39.062500
1505,-39.062500
1506,-39.062500
1507,-39.062500
1508,-42.968750
1509,-42.968750
1510,-42.968750
1511,-42.968750
1512,-46.875000
1513,-46.875000
1514,-46.875000
1515,-50.781250
1516,-50.781250
1517,-50.781250
1518,-50.781250
1519,-54.687500
1520,-54.687500
1521,-54.687500
1522,-54.687500
1523,-54.687500
1524,-58.593750
1525,-58.593750
1526,-58.593750
1527,-58.593750
1528,-62.500000
1529,-62.500000
1530,-62.500000
1531,-62.500000
1532,-66.406250
1533,-66.406250
1534,-66.406250
1535,-66.406250
1536,-70.312500
1537,-70.312500
1538,-70.312500
1539,-70.312500
1540,-70.312500
1541,-70.312500
1542,-74.218750
1543,-74.218750
1544,-74.218750
1545,-74.218750
1546,-78.125000
1547,-78.125000
1548,-78.125000
1549,-78.125000
1550,-78.125000
1551,-78.125000
1552,-78.125000
1553,-78.125000
1554,-82.031250
1555,-82.031250
1556,-82.031250
1557,-82.031250
1558,-82.031250
1559,-85.937500
1560,-85.937500
1561,-85.937500
1562,-85.937500
1563,-85.937500
1564,-85.937500
1565,-85.937500
1566,-85.937500
1567,-89.843750
1568,-89.843750
1569,-89.843750
1570,-89.843750
1571,-89.843750
1572,-89.843750
1573,-89.843750
1574,-89.843750
1575,-89.843750
1576,-89.843750
1577,-93.750000
1578,-89.843750
1579,-93.750000
1580,-93.750000
1581,-93.750000
1582,-93.750000
1583,-93.750000
1584,-93.750000
1585,-93.750000
1586,-93.750000
1587,-93.750000
1588,-93.750000
1589,-93.750000
1590,-93.750000
1591,-93.750000
1592,-93.750000
1593,-93.750000
1594,-93.750000
1595,-93.750000
1596,-93.750000
1597,-93.750000
1598,-93.750000
1599,-93.750000
1600,-93.750000
1601,-93.750000
1602,-93.750000
1603,-93.750000
1604,-93.750000
1605,-93.750000
1606,-93.750000
1607,-93.750000
1608,-93.750000
1609,-93.750000
1610,-93.750000
1611,-89.843750
1612,-89.843750
1613,-89.843750
1614,-89.843750
1615,-89.843750
1616,-89.843750
1617,-89.843750
1618,-89.843750
1619,-89.843750
1620,-85.937500
1621,-85.937500
1622,-85.937500
1623,-85.937500
1624,-85.937500
1625,-85.937500
1626,-85.937500
1627,-82.031250
1628,-82.031250
1629,-82.031250
1630,-82.031250
1631,-82.031250
1632,-82.031250
1633,-82.031250
1634,-82.031250
1635,-78.125000
1636,-78.125000
1637,-78.125000
1638,-78.125000
1639,-78.125000
1640,-74.218750
1641,-74.218750
1642,-74.218750
1643,-74.218750
1644,-74.218750
1645,-70.312500
1646,-70.312500
1647,-70.312500
1648,-70.312500
1649,-70.312500
1650,-70.312500
1651,-66.406250
1652,-66.406250
1653,-66.406250
1654,-66.406250
1655,-62.500000
1656,-62.500000
1657,-62.500000
1658,-62.500000
1659,-62.500000
1660,-58.593750
1661,-58.593750
1662,-58.593750
1663,-58.593750
1664,-58.593750
1665,-54.687500
1666,-54.687500
1667,-54.687500
1668,-50.781250
1669,-50.781250
1670,-50.781250
1671,-50.781250
1672,-50.781250
1673,-46.875000
1674,-46.875000
1675,-46.875000
1676,-42.968750
1677,-42.968750
1678,-42.968750
1679,-42.968750
1680,-39.062500
1681,-39.062500
1682,-39.062500
1683,-39.062500
1684,-39.062500
1685,-35.156250
1686,-35.156250
1687,-35.156250
1688,-31.250000
1689,-31.250000
1690,-31.250000
1691,-31.250000
1692,-27.343750
1693,-27.343750
1694,-27.343750
1695,-27.343750
1696,-23.437500
1697,-23.437500
1698,-23.437500
1699,-23.437500
1700,-19.531250
1701,-19.531250
1702,-19.531250
1703,-19.531250
1704,-15.625000
1705,-15.625000
1706,-15.625000
1707,-15.625000
1708,-15.625000
1709,-11.718750
1710,-11.718750
1711,-11.718750
1712,-11.718750
1713,-7.812500
1714,-7.812500
1715,-7.812500
1716,-7.812500
1717,-3.906250
1718,-3.906250
1719,-3.906250
1720,-3.906250
1721,0.000000
1722,0.000000
1723,0.000000
1724,0.000000
1725,0.000000
1726,3.906250
1727,3.906250
1728,7.812500
1729,3.906250
1730,7.812500
1731,7.812500
1732,7.812500
1733,7.812500
1734,7.812500
1735,7.812500
1736,11.718750
1737,11.718750
1738,11.718750
1739,11.718750
1740,11.718750
1741,15.625000
1742,15.625000
1743,15.625000
1744,15.625000
1745,15.625000
1746,19.531250
1747,19.531250
1748,19.531250
1749,19.531250
1750,19.531250
1751,19.531250
1752,23.437500
1753,23.437500
1754,23.437500
1755,23.437500
1756,23.437500
1757,23.437500
1758,27.343750
1759,27.343750
1760,27.343750
1761,27.343750
1762,27.343750
1763,27.343750
1764,27.343750
1765,31.250000
1766,31.250000
1767,31.250000
1768,31.250000
1769,31.250000
1770,31.250000
1771,31.250000
1772,31.250000
1773,31.250000
1774,31.250000
1775,31.250000
1776,35.156250
1777,35.156250
1778,35.156250
1779,35.156250
1780,35.156250
1781,35.156250
1782,35.156250
1783,35.156250
1784,35.156250
1785,35.156250
1786,35.156250
1787,39.062500
1788,39.062500
1789,35.156250
1790,35.156250
1791,35.156250
1792,39.062500
1793,39.062500
1794,39.062500
1795,39.062500
1796,39.062500
1797,39.062500
1798,39.062500
1799,39.062500
1800,39.062500
1801,39.062500
1802,39.062500
1803,39.062500
1804,39.062500
1805,39.062500
1806,39.062500
1807,39.062500
1808,39.062500
1809,39.062500
1810,39.062500
1811,39.062500
1812,39.062500
1813,39.062500
1814,39.062500
1815,39.062500
1816,39.062500
1817,39.062500
1818,39.062500
1819,39.062500
1820,39.062500
1821,35.156250
1822,35.156250
1823,35.156250
1824,35.156250
1825,35.156250
1826,35.156250
1827,35.156250
1828,35.156250
1829,35.156250
1830,35.156250
1831,35.156250
1832,35.156250
1833,31.250000
1834,31.250000
1835,31.250000
1836,31.250000
1837,31.250000
1838,31.250000
1839,31.250000
1840,31.250000
1841,31.250000
1842,31.250000
1843,27.343750
1844,27.343750
1845,27.343750
1846,27.343750
1847,27.343750
1848,23.437500
1849,23.437500
1850,23.437500
1851,23.437500
1852,23.437500
1853,23.437500
1854,19.531250
1855,23.437500
1856,19.531250
1857,19.531250
1858,19.531250
1859,19.531250
1860,19.531250
1861,15.625000
1862,15.625000
1863,15.625000
1864,15.625000
1865,15.625000
1866,11.718750
1867,11.718750
1868,11.718750
1869,11.718750
1870,11.718750
1871,11.718750
1872,7.812500
1873,7.812500
1874,7.812500
1875,7.812500
1876,7.812500
1877,3.906250
1878,3.906250
1879,3.906250
1880,3.906250
1881,0.000000
1882,0.000000
1883,0.000000
1884,0.000000
1885,-3.906250
1886,-3.906250
1887,-3.906250
1888,-3.906250
1889,-3.906250
1890,-7.812500
1891,-7.812500
1892,-7.812500
1893,-7.812500
1894,-11.718750
1895,-11.718750
1896,-11.718750
1897,-11.718750
1898,-15.625000
1899,-15.625000
1900,-15.625000
1901,-19.531250
1902,-19.531250
1903,-19.531250
1904,-19.531250
1905,-23.437500
1906,-23.437500
1907,-23.437500
1908,-23.437500
1909,-23.437500
1910,-27.343750
1911,-27.343750
1912,-31.250000
1913,-31.250000
1914,-31.250000
1915,-31.250000
1916,-31.250000
1917,-35.156250
1918,-35.156250
1919,-35.156250
1920,-35.156250
1921,-39.062500
1922,-39.062500
1923,-39.062500
1924,-39.062500
1925,-42.968750
1926,-42.968750
1927,-42.968750
1928,-42.968750
1929,-46.875000
1930,-46.875000
1931,-46.875000
1932,-50.781250
1933,-50.781250
1934,-50.781250
1935,-50.781250
1936,-54.687500
1937,-54.687500
1938,-54.687500
1939,-54.687500
1940,-54.687500
1941,-58.593750
1942,-58.593750
1943,-58.593750
1944,-62.500000
1945,-58.593750
1946,-62.500000
1947,-62.500000
1948,-62.500000
1949,-66.406250
1950,-66.406250
1951,-66.406250
1952,-66.406250
1953,-66.406250
1954,-70.312500
1955,-70.312500
1956,-70.312500
1957,-70.312500
1958,-74.218750
1959,-74.218750
1960,-74.218750
1961,-74.218750
1962,-74.218750
1963,-74.218750
1964,-74.218750
1965,-78.125000
1966,-78.125000
1967,-78.125000
1968,-78.125000
1969,-78.125000
1970,-82.031250
1971,-82.031250
1972,-82.031250
1973,-82.031250
1974,-82.031250
1975,-82.031250
1976,-85.937500
1977,-85.937500
1978,-85.937500
1979,-85.937500
1980,-85.937500
1981,-85.937500
1982,-85.937500
1983,-89.843750
1984,-89.843750
1985,-89.843750
1986,-89.843750
1987,-89.843750
1988,-89.843750
1989,-89.843750
1990,-89.843750
1991,-93.750000
1992,-89.843750
1993,-89.843750
1994,-89.843750
1995,-93.750000
1996,-93.750000
1997,-93.750000
1998,-93.750000
1999,-89.843750
2000,-93.750000
2001,-93.750000
2002,-93.750000
2003,-93.750000
2004,-93.750000
2005,-93.750000
2006,-93.750000
2007,-93.750000
2008,-93.750000
2009,-93.750000
2010,-93.750000
2011,-93.750000
2012,-93.750000
2013,-93.750000
2014,-89.843750
2015,-93.750000
2016,-93.750000
2017,-89.843750
2018,-93.750000
2019,-93.750000
2020,-93.750000
2021,-93.750000
2022,-93.750000
2023,-93.750000
2024,-93.750000
2025,-89.843750
2026,-89.843750
2027,-89.843750
2028,-89.843750
2029,-89.843750
2030,-89.843750
2031,-89.843750
2032,-89.843750
2033,-89.843750
2034,-89.843750
2035,-89.843750
2036,-89.843750
2037,-85.937500
2038,-89.843750
2039,-85.937500
2040,-85.937500
2041,-85.937500
2042,-85.937500
2043,-85.937500
2044,-85.937500
2045,-82.031250
2046,-85.937500
2047,-85.937500
2048,-82.031250
2049,-82.031250
2050,-82.031250
2051,-78.125000
2052,-82.031250
2053,-78.125000
2054,-78.125000
2055,-74.218750
2056,-78.125000
2057,-74.218750
2058,-74.218750
2059,-74.218750
2060,-74.218750
2061,-74.218750
2062,-74.218750
2063,-70.312500
2064,-70.312500
2065,-70.312500
2066,-66.406250
2067,-66.406250
2068,-66.406250
2069,-66.406250
2070,-66.406250
2071,-66.406250
2072,-62.500000
2073,-62.500000
2074,-62.500000
2075,-62.500000
2076,-58.593750
2077,-58.593750
2078,-58.593750
2079,-58.593750
2080,-58.593750
2081,-54.687500
2082,-54.687500
2083,-54.687500
2084,-54.687500
2085,-54.687500
2086,-50.781250
2087,-50.781250
2088,-46.875000
2089,-46.875000
2090,-46.875000
2091,-46.875000
2092,-46.875000
2093,-42.968750
2094,-42.968750
2095,-42.968750
2096,-39.062500
2097,-39.062500
2098,-39.062500
2099,-39.062500
2100,-39.062500
2101,-39.062500
2102,-35.156250
2103,-35.156250
2104,-31.250000
2105,-35.156250
2106,-31.250000
2107,-31.250000
2108,-27.343750
2109,-31.250000
2110,-27.343750
2111,-27.343750
2112,-27.343750
2113,-23.437500
2114,-23.437500
2115,-23.437500
2116,-23.437500
2117,-23.437500
2118,-19.531250
2119,-19.531250
2120,-19.531250
2121,-15.625000
2122,-15.625000
2123,-15.625000
2124,-15.625000
2125,-15.625000
2126,-11.718750
2127,-11.718750
2128,-11.718750
2129,-7.812500
2130,-7.812500
2131,-7.812500
2132,-7.812500
2133,-7.812500
2134,-3.906250
2135,-3.906250
2136,0.000000
2137,-3.906250
2138,0.000000
2139,0.000000
2140,0.000000
2141,0.000000
2142,3.906250
2143,3.906250
2144,3.906250
2145,3.906250
2146,7.812500
2147,3.906250
2148,7.812500
2149,7.812500
2150,7.812500
2151,7.812500
2152,7.812500
2153,11.718750
2154,11.718750
2155,11.718750
2156,11.718750
2157,11.718750
2158,15.625000
2159,15.625000
2160,15.625000
2161,15.625000
2162,15.625000
2163,19.531250
2164,19.531250
2165,19.531250
2166,19.531250
2167,19.531250
2168,23.437500
2169,23.437500
2170,23.437500
2171,23.437500
2172,23.437500
2173,23.437500
2174,23.437500
2175,23.437500
2176,23.437500
2177,27.343750
2178,27.343750
2179,31.250000
2180,27.343750
2181,27.343750
2182,27.343750
2183,31.250000
2184,31.250000
2185,31.250000
2186,31.250000
2187,31.250000
2188,31.250000
2189,31.250000
2190,31.250000
2191,35.156250
2192,31.250000
2193,31.250000
2194,35.156250
2195,35.156250
2196,35.156250
2197,35.156250
2198,35.156250
2199,31.250000
2200,35.156250
2201,35.156250
2202,39.062500
2203,35.156250
2204,35.156250
2205,35.156250
2206,39.062500
2207,39.062500
2208,39.062500
2209,39.062500
2210,39.062500
2211,39.062500
2212,39.062500
2213,39.062500
2214,39.062500
2215,39.062500
2216,39.062500
2217,39.062500
2218,39.062500
2219,39.062500
2220,39.062500
2221,35.156250
2222,39.062500
2223,39.062500
2224,39.062500
2225,39.062500
2226,39.062500
2227,39.062500
2228,39.062500
2229,39.062500
2230,35.156250
2231,39.062500
2232,35.156250
2233,39.062500
2234,39.062500
2235,35.156250
2236,39.062500
2237,35.156250
2238,35.156250
2239,35.156250
2240,35.156250
2241,35.156250
2242,35.156250
2243,35.156250
2244,35.156250
2245,35.156250
2246,31.250000
2247,35.156250
2248,35.156250
2249,31.250000
2250,31.250000
2251,31.250000
2252,31.250000
2253,31.250000
2254,31.250000
2255,31.250000
2256,31.250000
2257,31.250000
2258,27.343750
2259,27.343750
2260,27.343750
2261,27.343750
2262,27.343750
2263,27.343750
2264,27.343750
2265,23.437500
2266,23.437500
2267,23.437500
2268,23.437500
2269,23.437500
2270,23.437500
2271,23.437500
2272,23.437500
2273,19.531250
2274,19.531250
2275,19.531250
2276,19.531250
2277,19.531250
2278,15.625000
2279,15.625000
2280,15.625000
2281,15.625000
2282,15.625000
2283,15.625000
2284,11.718750
2285,11.718750
2286,11.718750
2287,11.718750
2288,7.812500
2289,7.812500
2290,7.812500
2291,7.812500
2292,7.812500
2293,3.906250
2294,3.906250
2295,3.906250
2296,3.906250
2297,3.906250
2298,0.000000
2299,0.000000
2300,0.000000
2301,0.000000
2302,-3.906250
2303,-3.906250
2304,-3.906250
2305,-3.906250
2306,-7.812500
2307,-7.812500
2308,-7.812500
2309,-7.812500
2310,-11.718750
2311,-11.718750
2312,-11.718750
2313,-11.718750
2314,-11.718750
2315,-15.625000
2316,-15.625000
2317,-19.531250
2318,-19.531250
2319,-19.531250
2320,-19.531250
2321,-19.531250
2322,-23.437500
2323,-23.437500
2324,-23.437500
2325,-23.437500
2326,-23.437500
2327,-27.343750
2328,-27.343750
2329,-27.343750
2330,-31.250000
2331,-31.250000
2332,-31.250000
2333,-31.250000
2334,-35.156250
2335,-35.156250
2336,-35.156250
2337,-35.156250
2338,-39.062500
2339,-39.062500
2340,-39.062500
2341,-42.968750
2342,-42.968750
2343,-42.968750
2344,-42.968750
2345,-46.875000
2346,-46.875000
2347,-46.875000
2348,-46.875000
2349,-50.781250
2350,-50.781250
2351,-50.781250
2352,-50.781250
2353,-54.687500
2354,-54.687500
2355,-54.687500
2356,-54.687500
2357,-58.593750
2358,-58.593750
2359,-58.593750
2360,-58.593750
2361,-58.593750
2362,-62.500000
2363,-62.500000
2364,-62.500000
2365,-62.500000
2366,-66.406250
2367,-66.406250
2368,-66.406250
2369,-66.406250
2370,-70.312500
2371,-70.312500
2372,-70.312500
2373,-70.312500
2374,-74.218750
2375,-74.218750
2376,-74.218750
2377,-74.218750
2378,-74.218750
2379,-74.218750
2380,-78.125000
2381,-78.125000
2382,-78.125000
2383,-78.125000
2384,-78.125000
2385,-78.125000
2386,-82.031250
2387,-82.031250
2388,-82.031250
2389,-82.031250
2390,-82.031250
2391,-82.031250
2392,-82.031250
2393,-85.937500
2394,-85.937500
2395,-85.937500
2396,-85.937500
2397,-85.937500
2398,-85.937500
2399,-85.937500
2400,-85.937500
2401,-89.843750
2402,-89.843750
2403,-89.843750
2404,-89.843750
2405,-89.843750
2406,-89.843750
2407,-89.843750
2408,-89.843750
2409,-89.843750
2410,-89.843750
2411,-93.750000
2412,-93.750000
2413,-93.750000
2414,-93.750000
2415,-93.750000
2416,-93.750000
2417,-93.750000
2418,-93.750000
2419,-93.750000
2420,-93.750000
2421,-93.750000
2422,-93.750000
2423,-93.750000
2424,-93.750000
2425,-93.750000
2426,-93.750000
2427,-93.750000
2428,-93.750000
2429,-93.750000
2430,-93.750000
2431,-93.750000
2432,-93.750000
2433,-93.750000
2434,-93.750000
2435,-93.750000
2436,-93.750000
2437,-93.750000
2438,-93.750000
2439,-93.750000
2440,-93.750000
2441,-93.750000
2442,-93.750000
2443,-89.843750
2444,-89.843750
2445,-89.843750
2446,-89.843750
2447,-89.843750
2448,-89.843750
2449,-89.843750
2450,-89.843750
2451,-89.843750
2452,-89.843750
2453,-89.843750
2454,-85.937500
2455,-85.937500
2456,-85.937500
2457,-85.937500
2458,-85.937500
2459,-85.937500
2460,-85.937500
2461,-82.031250
2462,-82.031250
2463,-82.031250
2464,-82.031250
2465,-82.031250
2466,-82.031250
2467,-78.125000
2468,-78.125000
2469,-78.125000
2470,-78.125000
2471,-78.125000
2472,-78.125000
2473,-74.218750
2474,-74.218750
2475,-74.218750
2476,-74.218750
2477,-74.218750
2478,-74.218750
2479,-70.312500
2480,-70.312500
2481,-70.312500
2482,-70.312500
2483,-70.312500
2484,-66.406250
2485,-66.406250
2486,-66.406250
2487,-66.406250
2488,-62.500000
2489,-66.406250
2490,-62.500000
2491,-62.500000
2492,-62.500000
2493,-58.593750
2494,-58.593750
2495,-58.593750
2496,-58.593750
2497,-58.593750
2498,-54.687500
2499,-54.687500
2500,-54.687500
2501,-54.687500
2502,-50.781250
2503,-50.781250
2504,-50.781250
2505,-46.875000
2506,-50.781250
2507,-46.875000
2508,-46.875000
2509,-46.875000
2510,-42.968750
2511,-42.968750
2512,-42.968750
2513,-42.968750
2514,-39.062500
2515,-39.062500
2516,-39.062500
2517,-39.062500
2518,-39.062500
2519,-35.156250
2520,-35.156250
2521,-31.250000
2522,-31.250000
2523,-31.250000
2524,-31.250000
2525,-31.250000
2526,-27.343750
2527,-27.343750
2528,-27.343750
2529,-23.437500
2530,-23.437500
2531,-23.437500
2532,-23.437500
2533,-23.437500
2534,-19.531250
2535,-19.531250
2536,-19.531250
2537,-15.625000
2538,-15.625000
2539,-15.625000
2540,-15.625000
2541,-15.625000
2542,-15.625000
2543,-11.718750
2544,-7.812500
2545,-7.812500
2546,-11.718750
2547,-7.812500
2548,-7.812500
2549,-7.812500
2550,-3.906250
2551,-3.906250
2552,-3.906250
2553,-3.906250
2554,-3.906250
2555,0.000000
2556,0.000000
2557,0.000000
2558,0.000000
2559,3.906250
2560,3.906250
2561,3.906250
2562,3.906250
2563,3.906250
2564,7.812500
2565,7.812500
2566,7.812500
2567,7.812500
2568,7.812500
2569,11.718750
2570,11.718750
2571,11.718750
2572,11.718750
2573,11.718750
2574,15.625000
2575,15.625000
2576,15.625000
2577,15.625000
2578,15.625000
2579,19.531250
2580,19.531250
2581,19.531250
2582,19.531250
2583,19.531250
2584,19.531250
2585,23.437500
2586,23.437500
2587,27.343750
2588,23.437500
2589,27.343750
2590,23.437500
2591,23.437500
2592,27.343750
2593,27.343750
2594,27.343750
2595,27.343750
2596,27.343750
2597,27.343750
2598,27.343750
2599,27.343750
2600,31.250000
2601,31.250000
2602,31.250000
2603,31.250000
2604,31.250000
2605,31.250000
2606,31.250000
2607,31.250000
2608,31.250000
2609,35.156250
2610,35.156250
2611,35.156250
2612,35.156250
2613,35.156250
2614,35.156250
2615,35.156250
2616,35.156250
2617,35.156250
2618,35.156250
2619,35.156250
2620,39.062500
2621,39.062500
2622,35.156250
2623,35.156250
2624,35.156250
2625,39.062500
2626,35.156250
2627,39.062500
2628,39.062500
2629,39.062500
2630,39.062500
2631,39.062500
2632,39.062500
2633,39.062500
2634,39.062500
2635,39.062500
2636,39.062500
2637,39.062500
2638,39.062500
2639,39.062500
2640,39.062500
2641,39.062500
2642,39.062500
2643,39.062500
2644,39.062500
2645,39.062500
2646,35.156250
2647,39.062500
2648,39.062500
2649,39.062500
2650,35.156250
2651,35.156250
2652,35.156250
2653,39.062500
2654,35.156250
2655,35.156250
2656,35.156250
2657,35.156250
2658,35.156250
2659,39.062500
2660,35.156250
2661,35.156250
2662,35.156250
2663,35.156250
2664,35.156250
2665,31.250000
2666,31.250000
2667,31.250000
2668,31.250000
2669,31.250000
2670,31.250000
2671,31.250000
2672,31.250000
2673,27.343750
2674,31.250000
2675,31.250000
2676,27.343750
2677,27.343750
2678,27.343750
2679,27.343750
2680,27.343750
2681,27.343750
2682,23.437500
2683,23.437500
2684,23.437500
2685,23.437500
2686,23.437500
2687,23.437500
2688,19.531250
2689,19.531250
2690,19.531250
2691,19.531250
2692,19.531250
2693,15.625000
2694,15.625000
2695,15.625000
2696,15.625000
2697,15.625000
2698,15.625000
2699,11.718750
2700,15.625000
2701,11.718750
2702,11.718750
2703,11.718750
2704,11.718750
2705,7.812500
2706,7.812500
2707,7.812500
2708,7.812500
2709,7.812500
2710,3.906250
2711,3.906250
2712,3.906250
2713,3.906250
2714,0.000000
2715,0.000000
2716,0.000000
2717,0.000000
2718,-3.906250
2719,-3.906250
2720,-3.906250
2721,-3.906250
2722,-3.906250
2723,-7.812500
2724,-7.812500
2725,-7.812500
2726,-7.812500
2727,-7.812500
2728,-11.718750
2729,-11.718750
2730,-11.718750
2731,-15.625000
2732,-15.625000
2733,-15.625000
2734,-15.625000
2735,-19.531250
2736,-19.531250
2737,-19.531250
2738,-23.437500
2739,-19.531250
2740,-23.437500
2741,-23.437500
2742,-23.437500
2743,-27.343750
2744,-27.343750
2745,-27.343750
2746,-27.343750
2747,-31.250000
2748,-31.250000
2749,-31.250000
2750,-35.156250
2751,-35.156250
2752,-35.156250
2753,-35.156250
2754,-39.062500
2755,-39.062500
2756,-39.062500
2757,-39.062500
2758,-42.968750
2759,-42.968750
2760,-42.968750
2761,-46.875000
2762,-46.875000
2763,-46.875000
2764,-46.875000
2765,-46.875000
2766,-50.781250
2767,-50.781250
2768,-50.781250
2769,-54.687500
2770,-54.687500
2771,-54.687500
2772,-54.687500
2773,-54.687500
2774,-58.593750
2775,-58.593750
2776,-58.593750
2777,-58.593750
2778,-62.500000
2779,-62.500000
2780,-62.500000
2781,-62.500000
2782,-66.406250
2783,-66.406250
2784,-66.406250
2785,-66.406250
2786,-66.406250
2787,-70.312500
2788,-70.312500
2789,-70.312500
2790,-70.312500
2791,-74.218750
2792,-74.218750
2793,-74.218750
2794,-74.218750
2795,-74.218750
2796,-78.125000
2797,-78.125000
2798,-78.125000
2799,-78.125000
2800,-78.125000
2801,-78.125000
2802,-78.125000
2803,-82.031250
2804,-78.125000
2805,-82.031250
2806,-82.031250
2807,-85.937500
2808,-85.937500
2809,-85.937500
2810,-85.937500
2811,-85.937500
2812,-82.031250
2813,-85.937500
2814,-89.843750
2815,-89.843750
2816,-89.843750
2817,-89.843750
2818,-89.843750
2819,-89.843750
2820,-89.843750
2821,-89.843750
2822,-89.843750
2823,-89.843750
2824,-89.843750
2825,-89.843750
2826,-93.750000
2827,-93.750000
2828,-93.750000
2829,-93.750000
2830,-93.750000
2831,-93.750000
2832,-93.750000
2833,-93.750000
2834,-93.750000
2835,-93.750000
2836,-93.750000
2837,-93.750000
2838,-93.750000
2839,-93.750000
2840,-93.750000
2841,-93.750000
2842,-93.750000
2843,-93.750000
2844,-93.750000
2845,-93.750000
2846,-93.750000
2847,-93.750000
2848,-93.750000
2849,-93.750000
2850,-93.750000
2851,-93.750000
2852,-93.750000
2853,-93.750000
2854,-93.750000
2855,-93.750000
2856,-93.750000
2857,-89.843750
2858,-93.750000
2859,-93.750000
2860,-89.843750
2861,-89.843750
2862,-89.843750
2863,-89.843750
2864,-89.843750
2865,-89.843750
2866,-89.843750
2867,-89.843750
2868,-89.843750
2869,-85.937500
2870,-85.937500
2871,-85.937500
2872,-85.937500
2873,-85.937500
2874,-85.937500
2875,-85.937500
2876,-85.937500
2877,-85.937500
2878,-85.937500
2879,-82.031250
2880,-82.031250
2881,-82.031250
2882,-82.031250
2883,-82.031250
2884,-82.031250
2885,-78.125000
2886,-78.125000
2887,-78.125000
2888,-78.125000
2889,-78.125000
2890,-78.125000
2891,-74.218750
2892,-74.218750
2893,-74.218750
2894,-74.218750
2895,-74.218750
2896,-70.312500
2897,-70.312500
2898,-70.312500
2899,-70.312500
2900,-70.312500
2901,-70.312500
2902,-66.406250
2903,-66.406250
2904,-66.406250
2905,-62.500000
2906,-62.500000
2907,-62.500000
2908,-62.500000
2909,-62.500000
2910,-58.593750
2911,-58.593750
2912,-58.593750
2913,-58.593750
2914,-54.687500
2915,-54.687500
2916,-54.687500
2917,-54.687500
2918,-50.781250
2919,-50.781250
2920,-50.781250
2921,-50.781250
2922,-50.781250
2923,-46.875000
2924,-46.875000
2925,-46.875000
2926,-46.875000
2927,-42.968750
2928,-42.968750
2929,-42.968750
2930,-42.968750
2931,-42.968750
2932,-39.062500
2933,-39.062500
2934,-39.062500
2935,-35.156250
2936,-35.156250
2937,-35.156250
2938,-35.156250
2939,-31.250000
2940,-31.250000
2941,-31.250000
2942,-31.250000
2943,-27.343750
2944,-27.343750
2945,-27.343750
2946,-23.437500
2947,-23.437500
2948,-23.437500
2949,-23.437500
2950,-23.437500
2951,-19.531250
2952,-19.531250
2953,-19.531250
2954,-19.531250
2955,-15.625000
2956,-15.625000
2957,-11.718750
2958,-11.718750
2959,-11.718750
2960,-11.718750
2961,-11.718750
2962,-11.718750
2963,-7.812500
2964,-7.812500
2965,-7.812500
2966,-11.718750
2967,-7.812500
2968,-3.906250
2969,-3.906250
2970,-3.906250
2971,-3.906250
2972,0.000000
2973,0.000000
2974,0.000000
2975,0.000000
2976,3.906250
2977,3.906250
2978,3.906250
2979,7.812500
2980,7.812500
2981,7.812500
2982,7.812500
2983,7.812500
2984,7.812500
2985,7.812500
2986,11.718750
2987,11.718750
2988,11.718750
2989,11.718750
2990,11.718750
2991,15.625000
2992,15.625000
2993,15.625000
2994,15.625000
2995,15.625000
2996,15.625000
2997,19.531250
2998,19.531250
2999,15.625000
3000,19.531250
3001,19.531250
3002,19.531250
3003,23.437500
3004,23.437500
3005,23.437500
3006,23.437500
3007,23.437500
3008,23.437500
3009,23.437500
3010,27.343750
3011,27.343750
3012,27.343750
3013,27.343750
3014,27.343750
3015,31.250000
3016,27.343750
3017,31.250000
3018,27.343750
3019,31.250000
3020,31.250000
3021,31.250000
3022,31.250000
3023,31.250000
3024,31.250000
3025,31.250000
3026,31.250000
3027,35.156250
3028,35.156250
3029,35.156250
3030,35.156250
3031,35.156250
3032,35.156250
3033,35.156250
3034,35.156250
3035,35.156250
3036,35.156250
3037,39.062500
3038,35.156250
3039,35.156250
3040,35.156250
3041,39.062500
3042,35.156250
3043,35.156250
3044,39.062500
3045,39.062500
3046,39.062500
3047,35.156250
3048,39.062500
3049,39.062500
3050,39.062500
3051,39.062500
3052,39.062500
3053,39.062500
3054,39.062500
3055,39.062500
3056,39.062500
3057,39.062500
3058,39.062500
3059,39.062500
3060,39.062500
3061,35.156250
3062,39.062500
3063,39.062500
3064,39.062500
3065,39.062500
3066,39.062500
3067,39.062500
3068,35.156250
3069,35.156250
3070,35.156250
3071,35.156250
3072,35.156250
3073,35.156250
3074,35.156250
3075,35.156250
3076,35.156250
3077,35.156250
3078,35.156250
3079,35.156250
3080,35.156250
3081,31.250000
3082,31.250000
3083,31.250000
3084,31.250000
3085,31.250000
3086,31.250000
3087,31.250000
3088,31.250000
3089,27.343750
3090,27.343750
3091,31.250000
3092,27.343750
3093,27.343750
3094,27.343750
3095,27.343750
3096,27.343750
3097,27.343750
3098,23.437500
3099,23.437500
3100,23.437500
3101,23.437500
3102,23.437500
3103,23.437500
3104,23.437500
3105,19.531250
3106,19.531250
3107,19.531250
3108,19.531250
3109,19.531250
3110,19.531250
3111,19.531250
3112,15.625000
3113,15.625000
3114,15.625000
3115,15.625000
3116,15.625000
3117,11.718750
3118,11.718750
3119,11.718750
3120,11.718750
3121,11.718750
3122,7.812500
3123,7.812500
3124,7.812500
3125,7.812500
3126,7.812500
3127,3.906250
3128,3.906250
3129,3.906250
3130,0.000000
3131,3.906250
3132,0.000000
3133,0.000000
3134,0.000000
3135,0.000000
3136,-3.906250
3137,-3.906250
3138,-3.906250
3139,-3.906250
3140,-7.812500
3141,-7.812500
3142,-7.812500
3143,-11.718750
3144,-11.718750
3145,-11.718750
3146,-11.718750
3147,-11.718750
3148,-15.625000
3149,-15.625000
3150,-15.625000
3151,-19.531250
3152,-19.531250
3153,-19.531250
3154,-19.531250
3155,-23.437500
3156,-23.437500
3157,-23.437500
3158,-23.437500
3159,-27.343750
3160,-27.343750
3161,-27.343750
3162,-27.343750
3163,-31.250000
3164,-31.250000
3165,-31.250000
3166,-31.250000
3167,-35.156250
3168,-35.156250
3169,-35.156250
3170,-35.156250
3171,-39.062500
3172,-39.062500
3173,-39.062500
3174,-42.968750
3175,-42.968750
3176,-42.968750
3177,-42.968750
3178,-42.968750
3179,-46.875000
3180,-46.875000
3181,-46.875000
3182,-46.875000
3183,-50.781250
3184,-50.781250
3185,-50.781250
3186,-54.687500
3187,-54.687500
3188,-54.687500
3189,-54.687500
3190,-58.593750
3191,-58.593750
3192,-58.593750
3193,-58.593750
3194,-62.500000
3195,-62.500000
3196,-62.500000
3197,-62.500000
3198,-62.500000
3199,-66.406250
3200,-66.406250
3201,-66.406250
3202,-66.406250
3203,-70.312500
3204,-70.312500
3205,-70.312500
3206,-70.312500
3207,-70.312500
3208,-74.218750
3209,-74.218750
3210,-74.218750
3211,-74.218750
3212,-74.218750
3213,-78.125000
3214,-78.125000
3215,-78.125000
3216,-78.125000
3217,-78.125000
3218,-78.125000
3219,-82.031250
3220,-82.031250
3221,-82.031250
3222,-82.031250
3223,-82.031250
3224,-82.031250
3225,-85.937500
3226,-85.937500
3227,-85.937500
3228,-85.937500
3229,-85.937500
3230,-85.937500
3231,-85.937500
3232,-85.937500
3233,-85.937500
3234,-89.843750
3235,-89.843750
3236,-89.843750
3237,-89.843750
3238,-89.843750
3239,-89.843750
3240,-89.843750
3241,-89.843750
3242,-89.843750
3243,-89.843750
3244,-93.750000
3245,-93.750000
3246,-93.750000
3247,-89.843750
3248,-93.750000
3249,-93.750000
3250,-93.750000
3251,-93.750000
3252,-93.750000
3253,-93.750000
3254,-93.750000
3255,-93.750000
3256,-93.750000
3257,-93.750000
3258,-93.750000
3259,-93.750000
3260,-93.750000
3261,-93.750000
3262,-93.750000
3263,-93.750000
3264,-93.750000
3265,-93.750000
3266,-93.750000
3267,-93.750000
3268,-93.750000
3269,-93.750000
3270,-93.750000
3271,-93.750000
3272,-93.750000
3273,-93.750000
3274,-93.750000
3275,-93.750000
3276,-89.843750
3277,-89.843750
3278,-89.843750
3279,-93.750000
3280,-89.843750
3281,-89.843750
3282,-89.843750
3283,-89.843750
3284,-89.843750
3285,-89.843750
3286,-89.843750
3287,-89.843750
3288,-85.937500
3289,-85.937500
3290,-85.937500
3291,-85.937500
3292,-85.937500
3293,-85.937500
3294,-85.937500
3295,-82.031250
3296,-82.031250
3297,-82.031250
3298,-82.031250
3299,-82.031250
3300,-82.031250
3301,-82.031250
3302,-78.125000
3303,-78.125000
3304,-78.125000
3305,-78.125000
3306,-78.125000
3307,-74.218750
3308,-74.218750
3309,-74.218750
3310,-74.218750
3311,-74.218750
3312,-70.312500
3313,-70.312500
3314,-74.218750
3315,-70.312500
3316,-70.312500
3317,-70.312500
3318,-66.406250
3319,-66.406250
3320,-66.406250
3321,-66.406250
3322,-66.406250
3323,-62.500000
3324,-62.500000
3325,-62.500000
3326,-62.500000
3327,-58.593750
3328,-58.593750
3329,-58.593750
3330,-58.593750
3331,-54.687500
3332,-54.687500
3333,-54.687500
3334,-54.687500
3335,-50.781250
3336,-50.781250
3337,-50.781250
3338,-50.781250
3339,-50.781250
3340,-46.875000
3341,-46.875000
3342,-46.875000
3343,-42.968750
3344,-42.968750
3345,-42.968750
3346,-42.968750
3347,-39.062500
3348,-39.062500
3349,-39.062500
3350,-39.062500
3351,-39.062500
3352,-35.156250
3353,-35.156250
3354,-35.156250
3355,-31.250000
3356,-31.250000
3357,-31.250000
3358,-27.343750
3359,-27.343750
3360,-27.343750
3361,-27.343750
3362,-27.343750
3363,-23.437500
3364,-23.437500
3365,-23.437500
3366,-23.437500
3367,-19.531250
3368,-19.531250
3369,-19.531250
3370,-19.531250
3371,-15.625000
3372,-15.625000
3373,-15.625000
3374,-15.625000
3375,-11.718750
3376,-11.718750
3377,-11.718750
3378,-11.718750
3379,-7.812500
3380,-7.812500
3381,-3.906250
3382,-7.812500
3383,-3.906250
3384,-3.906250
3385,-3.906250
3386,-3.906250
3387,-3.906250
3388,0.000000
3389,0.000000
3390,0.000000
3391,0.000000
3392,0.000000
3393,3.906250
3394,3.906250
3395,3.906250
3396,3.906250
3397,7.812500
3398,7.812500
3399,7.812500
3400,7.812500
3401,7.812500
3402,7.812500
3403,11.718750
3404,11.718750
3405,11.718750
3406,11.718750
3407,11.718750
3408,15.625000
3409,15.625000
3410,15.625000
3411,15.625000
3412,15.625000
3413,19.531250
3414,19.531250
3415,19.531250
3416,19.531250
3417,19.531250
3418,23.437500
3419,23.437500
3420,23.437500
3421,23.437500
3422,23.437500
3423,23.437500
3424,23.437500
3425,23.437500
3426,27.343750
3427,27.343750
3428,27.343750
3429,27.343750
3430,27.343750
3431,27.343750
3432,27.343750
3433,27.343750
3434,31.250000
3435,31.250000
3436,31.250000
3437,31.250000
3438,31.250000
3439,31.250000
3440,31.250000
3441,31.250000
3442,35.156250
3443,31.250000
3444,35.156250
3445,35.156250
3446,35.156250
3447,35.156250
3448,35.156250
3449,35.156250
3450,35.156250
3451,35.156250
3452,35.156250
3453,39.062500
3454,35.156250
3455,35.156250
3456,39.062500
3457,39.062500
3458,35.156250
3459,35.156250
3460,39.062500
3461,39.062500
3462,39.062500
3463,35.156250
3464,39.062500
3465,39.062500
3466,39.062500
3467,39.062500
3468,39.062500
3469,39.062500
3470,39.062500
3471,39.062500
3472,39.062500
3473,39.062500
3474,39.062500
3475,39.062500
3476,39.062500
3477,39.062500
3478,39.062500
3479,35.156250
3480,39.062500
3481,35.156250
3482,39.062500
3483,35.156250
3484,39.062500
3485,35.156250
3486,35.156250
3487,35.156250
3488,35.156250
3489,35.156250
3490,35.156250
3491,35.156250
3492,35.156250
3493,35.156250
3494,35.156250
3495,35.156250
3496,35.156250
3497,35.156250
3498,31.250000
3499,31.250000
3500,31.250000
3501,31.250000
3502,31.250000
3503,31.250000
3504,31.250000
3505,31.250000
3506,31.250000
3507,31.250000
3508,31.250000
3509,27.343750
3510,27.343750
3511,27.343750
3512,27.343750
3513,27.343750
3514,27.343750
3515,23.437500
3516,23.437500
3517,23.437500
3518,23.437500
3519,23.437500
3520,23.437500
3521,19.531250
3522,19.531250
3523,19.531250
3524,19.531250
3525,19.531250
3526,19.531250
3527,15.625000
3528,15.625000
3529,15.625000
3530,15.625000
3531,15.625000
3532,15.625000
3533,11.718750
3534,11.718750
3535,11.718750
3536,11.718750
3537,11.718750
3538,7.812500
3539,7.812500
3540,7.812500
3541,11.718750
3542,3.906250
3543,3.906250
3544,3.906250
3545,3.906250
3546,3.906250
3547,0.000000
3548,0.000000
3549,0.000000
3550,0.000000
3551,0.000000
3552,0.000000
3553,-3.906250
3554,-3.906250
3555,-3.906250
3556,-3.906250
3557,-7.812500
3558,-7.812500
3559,-7.812500
3560,-11.718750
3561,-11.718750
3562,-11.718750
3563,-15.625000
3564,-15.625000
3565,-15.625000
3566,-15.625000
3567,-15.625000
3568,-19.531250
3569,-19.531250
3570,-19.531250
3571,-19.531250
3572,-23.437500
3573,-23.437500
3574,-23.437500
3575,-27.343750
3576,-27.343750
3577,-27.343750
3578,-27.343750
3579,-27.343750
3580,-31.250000
3581,-31.250000
3582,-31.250000
3583,-31.250000
3584,-35.156250
3585,-35.156250
3586,-35.156250
3587,-39.062500
3588,-39.062500
3589,-39.062500
3590,-39.062500
3591,-42.968750
3592,-42.968750
3593,-42.968750
3594,-42.968750
3595,-46.875000
3596,-46.875000
3597,-46.875000
3598,-46.875000
3599,-50.781250
3600,-50.781250
3601,-50.781250
3602,-54.687500
3603,-50.781250
3604,-54.687500
3605,-54.687500
3606,-58.593750
3607,-58.593750
3608,-58.593750
3609,-58.593750
3610,-58.593750
3611,-62.500000
3612,-62.500000
3613,-62.500000
3614,-62.500000
3615,-66.406250
3616,-66.406250
3617,-66.406250
3618,-66.406250
3619,-66.406250
3620,-70.312500
3621,-70.312500
3622,-70.312500
3623,-74.218750
3624,-74.218750
3625,-74.218750
3626,-74.218750
3627,-74.218750
3628,-74.218750
3629,-74.218750
3630,-78.125000
3631,-78.125000
3632,-78.125000
3633,-78.125000
3634,-78.125000
3635,-78.125000
3636,-82.031250
3637,-82.031250
3638,-82.031250
3639,-82.031250
3640,-82.031250
3641,-82.031250
3642,-85.937500
3643,-85.937500
3644,-85.937500
3645,-85.937500
3646,-85.937500
3647,-85.937500
3648,-89.843750
3649,-85.937500
3650,-85.937500
3651,-89.843750
3652,-89.843750
3653,-89.843750
3654,-89.843750
3655,-89.843750
3656,-89.843750
3657,-89.843750
3658,-93.750000
3659,-89.843750
3660,-89.843750
3661,-93.750000
3662,-93.750000
3663,-93.750000
3664,-93.750000
3665,-93.750000
3666,-93.750000
3667,-93.750000
3668,-93.750000
3669,-93.750000
3670,-93.750000
3671,-93.750000
3672,-93.750000
3673,-93.750000
3674,-93.750000
3675,-93.750000
3676,-93.750000
3677,-93.750000
3678,-93.750000
3679,-93.750000
3680,-93.750000
3681,-93.750000
3682,-93.750000
3683,-93.750000
3684,-93.750000
3685,-93.750000
3686,-93.750000
3687,-93.750000
3688,-93.750000
3689,-93.750000
3690,-93.750000
3691,-93.750000
3692,-89.843750
3693,-89.843750
3694,-93.750000
3695,-89.843750
3696,-89.843750
3697,-89.843750
3698,-89.843750
3699,-89.843750
3700,-89.843750
3701,-89.843750
3702,-89.843750
3703,-89.843750
3704,-85.937500
3705,-85.937500
3706,-85.937500
3707,-85.937500
3708,-85.937500
3709,-85.937500
3710,-85.937500
3711,-85.937500
3712,-82.031250
3713,-82.031250
3714,-82.031250
3715,-82.031250
3716,-82.031250
3717,-82.031250
3718,-78.125000
3719,-78.125000
3720,-78.125000
3721,-78.125000
3722,-78.125000
3723,-74.218750
3724,-78.125000
3725,-74.218750
3726,-74.218750
3727,-74.218750
3728,-74.218750
3729,-70.312500
3730,-70.312500
3731,-70.312500
3732,-70.312500
3733,-70.312500
3734,-70.312500
3735,-66.406250
3736,-66.406250
3737,-66.406250
3738,-66.406250
3739,-66.406250
3740,-62.500000
3741,-62.500000
3742,-62.500000
3743,-62.500000
3744,-58.593750
3745,-58.593750
3746,-58.593750
3747,-58.593750
3748,-54.687500
3749,-54.687500
3750,-54.687500
3751,-54.687500
3752,-50.781250
3753,-50.781250
3754,-50.781250
3755,-50.781250
3756,-46.875000
3757,-46.875000
3758,-46.875000
3759,-46.875000
3760,-42.968750
3761,-42.968750
3762,-42.968750
3763,-42.968750
3764,-39.062500
3765,-39.062500
3766,-39.062500
3767,-39.062500
3768,-35.156250
3769,-35.156250
3770,-35.156250
3771,-35.156250
3772,-35.156250
3773,-31.250000
3774,-31.250000
3775,-27.343750
3776,-27.343750
3777,-27.343750
3778,-27.343750
3779,-27.343750
3780,-23.437500
3781,-23.437500
3782,-23.437500
3783,-23.437500
3784,-23.437500
3785,-19.531250
3786,-19.531250
3787,-15.625000
3788,-19.531250
3789,-15.625000
3790,-15.625000
3791,-15.625000
3792,-11.718750
3793,-11.718750
3794,-11.718750
3795,-11.718750
3796,-11.718750
3797,-7.812500
3798,-7.812500
3799,-7.812500
3800,-3.906250
3801,-3.906250
3802,-3.906250
3803,-3.906250
3804,0.000000
3805,0.000000
3806,0.000000
3807,0.000000
3808,0.000000
3809,0.000000
3810,3.906250
3811,3.906250
3812,0.000000
3813,3.906250
3814,7.812500
3815,7.812500
3816,7.812500
3817,7.812500
3818,7.812500
3819,11.718750
3820,11.718750
3821,11.718750
3822,11.718750
3823,15.625000
3824,15.625000
3825,15.625000
3826,15.625000
3827,15.625000
3828,15.625000
3829,19.531250
3830,19.531250
3831,19.531250
3832,19.531250
3833,19.531250
3834,19.531250
3835,19.531250
3836,19.531250
3837,23.437500
3838,23.437500
3839,23.437500
3840,23.437500
3841,23.437500
3842,23.437500
3843,27.343750
3844,27.343750
3845,27.343750
3846,27.343750
3847,27.343750
3848,27.343750
3849,27.343750
3850,27.343750
3851,31.250000
3852,31.250000
3853,31.250000
3854,27.343750
3855,31.250000
3856,31.250000
3857,31.250000
3858,31.250000
3859,35.156250
3860,31.250000
3861,35.156250
3862,35.156250
3863,35.156250
3864,35.156250
3865,35.156250
3866,35.156250
3867,35.156250
3868,35.156250
3869,35.156250
3870,35.156250
3871,35.156250
3872,35.156250
3873,35.156250
3874,39.062500
3875,35.156250
3876,39.062500
3877,39.062500
3878,39.062500
3879,39.062500
3880,39.062500
3881,39.062500
3882,39.062500
3883,39.062500
3884,39.062500
3885,39.062500
3886,39.062500
3887,39.062500
3888,39.062500
3889,39.062500
3890,39.062500
3891,39.062500
3892,39.062500
3893,39.062500
3894,39.062500
3895,39.062500
3896,39.062500
3897,39.062500
3898,35.156250
3899,39.062500
3900,35.156250
3901,39.062500
3902,35.156250
3903,35.156250
3904,35.156250
3905,35.156250
3906,35.156250
3907,35.156250
3908,35.156250
3909,35.156250
3910,35.156250
3911,35.156250
3912,35.156250
3913,31.250000
3914,35.156250
3915,31.250000
3916,31.250000
3917,31.250000
3918,31.250000
3919,31.250000
3920,31.250000
3921,27.343750
3922,31.250000
3923,27.343750
3924,31.250000
3925,27.343750
3926,27.343750
3927,27.343750
3928,27.343750
3929,27.343750
3930,27.343750
3931,23.437500
3932,23.437500
3933,23.437500
3934,23.437500
3935,23.437500
3936,23.437500
3937,23.437500
3938,19.531250
3939,19.531250
3940,19.531250
3941,19.531250
3942,19.531250
3943,15.625000
3944,19.531250
3945,15.625000
3946,15.625000
3947,15.625000
3948,15.625000
3949,11.718750
3950,11.718750
3951,11.718750
3952,11.718750
3953,11.718750
3954,11.718750
3955,7.812500
3956,7.812500
3957,7.812500
3958,7.812500
3959,3.906250
3960,3.906250
3961,3.906250
3962,3.906250
3963,3.906250
3964,0.000000
3965,0.000000
3966,0.000000
3967,-3.906250
3968,-3.906250
3969,-3.906250
3970,-3.906250
3971,-3.906250
3972,-3.906250
3973,-7.812500
3974,-7.812500
3975,-7.812500
3976,-7.812500
3977,-11.718750
3978,-11.718750
3979,-11.718750
3980,-15.625000
3981,-15.625000
3982,-15.625000
3983,-15.625000
3984,-19.531250
3985,-19.531250
3986,-19.531250
3987,-19.531250
3988,-23.437500
3989,-23.437500
3990,-23.437500
3991,-23.437500
3992,-27.343750
3993,-27.343750
3994,-27.343750
3995,-27.343750
3996,-31.250000
3997,-31.250000
3998,-31.250000
3999,-31.250000
4000,-35.156250
4001,-35.156250
4002,-35.156250
4003,-35.156250
4004,-39.062500
4005,-39.062500
4006,-39.062500
4007,-39.062500
4008,-42.968750
4009,-42.968750
4010,-42.968750
4011,-42.968750
4012,-46.875000
4013,-46.875000
4014,-46.875000
4015,-50.781250
4016,-50.781250
4017,-50.781250
4018,-50.781250
4019,-54.687500
4020,-54.687500
4021,-54.687500
4022,-54.687500
4023,-58.593750
4024,-58.593750
4025,-58.593750
4026,-58.593750
4027,-58.593750
4028,-62.500000
4029,-62.500000
4030,-62.500000
4031,-62.500000
4032,-66.406250
4033,-66.406250
4034,-66.406250
4035,-66.406250
4036,-66.406250
4037,-70.312500
4038,-70.312500
4039,-70.312500
4040,-70.312500
4041,-74.218750
4042,-74.218750
4043,-74.218750
4044,-74.218750
4045,-74.218750
4046,-74.218750
4047,-78.125000
4048,-78.125000
4049,-78.125000
4050,-78.125000
4051,-78.125000
4052,-82.031250
4053,-82.031250
4054,-82.031250
4055,-82.031250
4056,-82.031250
4057,-82.031250
4058,-82.031250
4059,-82.031250
4060,-85.937500
4061,-85.937500
4062,-85.937500
4063,-85.937500
4064,-85.937500
4065,-85.937500
4066,-89.843750
4067,-89.843750
4068,-89.843750
4069,-89.843750
4070,-89.843750
4071,-89.843750
4072,-89.843750
4073,-89.843750
4074,-89.843750
4075,-89.843750
4076,-89.843750
4077,-89.843750
4078,-89.843750
4079,-93.750000
4080,-93.750000
4081,-93.750000
4082,-93.750000
4083,-93.750000
4084,-93.750000
4085,-93.750000
4086,-93.750000
4087,-93.750000
4088,-93.750000
4089,-93.750000
4090,-93.750000
4091,-93.750000
4092,-93.750000
4093,-93.750000
4094,-93.750000
4095,-93.750000
4096,-93.750000
4097,-93.750000
4098,-93.750000
4099,-93.750000
4100,-93.750000
4101,-93.750000
4102,-93.750000
4103,-93.750000
4104,-93.750000
4105,-93.750000
4106,-93.750000
4107,-93.750000
4108,-93.750000
4109,-93.750000
4110,-89.843750
4111,-89.843750
4112,-89.843750
4113,-89.843750
4114,-89.843750
4115,-89.843750
4116,-89.843750
4117,-89.843750
4118,-89.843750
4119,-89.843750
4120,-89.843750
4121,-89.843750
4122,-89.843750
4123,-85.937500
4124,-85.937500
4125,-85.937500
4126,-85.937500
4127,-85.937500
4128,-82.031250
4129,-82.031250
4130,-82.031250
4131,-82.031250
4132,-82.031250
4133,-82.031250
4134,-82.031250
4135,-78.125000
4136,-78.125000
4137,-78.125000
4138,-78.125000
4139,-78.125000
4140,-78.125000
4141,-74.218750
4142,-74.218750
4143,-74.218750
4144,-74.218750
4145,-74.218750
4146,-70.312500
4147,-70.312500
4148,-70.312500
4149,-70.312500
4150,-70.312500
4151,-70.312500
4152,-66.406250
4153,-66.406250
4154,-66.406250
4155,-66.406250
4156,-62.500000
4157,-62.500000
4158,-62.500000
4159,-62.500000
4160,-58.593750
4161,-58.593750
4162,-58.593750
4163,-58.593750
4164,-58.593750
4165,-54.687500
4166,-54.687500
4167,-54.687500
4168,-54.687500
4169,-54.687500
4170,-50.781250
4171,-50.781250
4172,-50.781250
4173,-50.781250
4174,-46.875000
4175,-46.875000
4176,-42.968750
4177,-42.968750
4178,-42.968750
4179,-42.968750
4180,-42.968750
4181,-39.062500
4182,-39.062500
4183,-39.062500
4184,-39.062500
4185,-35.156250
4186,-35.156250
4187,-35.156250
4188,-35.156250
4189,-31.250000
4190,-31.250000
4191,-31.250000
4192,-31.250000
4193,-27.343750
4194,-27.343750
4195,-27.343750
4196,-27.343750
4197,-23.437500
4198,-23.437500
4199,-23.437500
4200,-19.531250
4201,-19.531250
4202,-19.531250
4203,-19.531250
4204,-19.531250
4205,-15.625000
4206,-15.625000
4207,-15.625000
4208,-15.625000
4209,-11.718750
4210,-11.718750
4211,-11.718750
4212,-11.718750
4213,-7.812500
4214,-7.812500
4215,-7.812500
4216,-7.812500
4217,-3.906250
4218,-3.906250
4219,-3.906250
4220,-3.906250
4221,-3.906250
4222,0.000000
4223,0.000000
4224,0.000000
4225,0.000000
4226,3.906250
4227,3.906250
4228,3.906250
4229,3.906250
4230,7.812500
4231,7.812500
4232,7.812500
4233,7.812500
4234,7.812500
4235,7.812500
4236,11.718750
4237,11.718750
4238,11.718750
4239,11.718750
4240,11.718750
4241,15.625000
4242,15.625000
4243,15.625000
4244,15.625000
4245,15.625000
4246,19.531250
4247,15.625000
4248,19.531250
4249,19.531250
4250,19.531250
4251,23.437500
4252,19.531250
4253,19.531250
4254,23.437500
4255,23.437500
4256,23.437500
4257,23.437500
4258,27.343750
4259,27.343750
4260,27.343750
4261,27.343750
4262,27.343750
4263,27.343750
4264,27.343750
4265,27.343750
4266,27.343750
4267,31.250000
4268,31.250000
4269,31.250000
4270,31.250000
4271,31.250000
4272,31.250000
4273,31.250000
4274,31.250000
4275,31.250000
4276,35.156250
4277,35.156250
4278,39.062500
4279,35.156250
4280,35.156250
4281,35.156250
4282,35.156250
4283,35.156250
4284,35.156250
4285,35.156250
4286,35.156250
4287,35.156250
4288,35.156250
4289,35.156250
4290,39.062500
4291,35.156250
4292,39.062500
4293,39.062500
4294,39.062500
4295,39.062500
4296,39.062500
4297,39.062500
4298,39.062500
4299,39.062500
4300,39.062500
4301,39.062500
4302,39.062500
4303,39.062500
4304,39.062500
4305,39.062500
4306,39.062500
4307,39.062500
4308,39.062500
4309,39.062500
4310,39.062500
4311,39.062500
4312,39.062500
4313,39.062500
4314,39.062500
4315,35.156250
4316,39.062500
4317,35.156250
4318,35.156250
4319,39.062500
4320,35.156250
4321,35.156250
4322,35.156250
4323,35.156250
4324,35.156250
4325,35.156250
4326,35.156250
4327,35.156250
4328,35.156250
4329,35.156250
4330,35.156250
4331,35.156250
4332,31.250000
4333,31.250000
4334,31.250000
4335,31.250000
4336,31.250000
4337,31.250000
4338,31.250000
4339,31.250000
4340,31.250000
4341,31.250000
4342,31.250000
4343,27.343750
4344,27.343750
4345,27.343750
4346,27.343750
4347,23.437500
4348,23.437500
4349,23.437500
4350,23.437500
4351,23.437500
4352,23.437500
4353,23.437500
4354,23.437500
4355,19.531250
4356,19.531250
4357,19.531250
4358,19.531250
4359,19.531250
4360,15.625000
4361,15.625000
4362,15.625000
4363,15.625000
4364,15.625000
4365,11.718750
4366,11.718750
4367,11.718750
4368,11.718750
4369,11.718750
4370,11.718750
4371,7.812500
4372,7.812500
4373,7.812500
4374,7.812500
4375,3.906250
4376,3.906250
4377,3.906250
4378,3.906250
4379,3.906250
4380,0.000000
4381,0.000000
4382,0.000000
4383,0.000000
4384,0.000000
4385,-3.906250
4386,-3.906250
4387,-3.906250
4388,-3.906250
4389,-3.906250
4390,-7.812500
4391,-7.812500
4392,-7.812500
4393,-11.718750
4394,-11.718750
4395,-11.718750
4396,-11.718750
4397,-15.625000
4398,-15.625000
4399,-15.625000
4400,-15.625000
4401,-19.531250
4402,-19.531250
4403,-19.531250
4404,-19.531250
4405,-23.437500
4406,-23.437500
4407,-23.437500
4408,-27.343750
4409,-27.343750
4410,-27.343750
4411,-27.343750
4412,-27.343750
4413,-31.250000
4414,-31.250000
4415,-31.250000
4416,-35.156250
4417,-35.156250
4418,-35.156250
4419,-35.156250
4420,-39.062500
4421,-39.062500
4422,-39.062500
4423,-39.062500
4424,-42.968750
4425,-42.968750
4426,-42.968750
4427,-42.968750
4428,-46.875000
4429,-46.875000
4430,-46.875000
4431,-46.875000
4432,-50.781250
4433,-50.781250
4434,-50.781250
4435,-50.781250
4436,-54.687500
4437,-54.687500
4438,-54.687500
4439,-54.687500
4440,-58.593750
4441,-58.593750
4442,-58.593750
4443,-58.593750
4444,-62.500000
4445,-62.500000
4446,-62.500000
4447,-62.500000
4448,-66.406250
4449,-66.406250
4450,-66.406250
4451,-66.406250
4452,-66.406250
4453,-70.312500
4454,-70.312500
4455,-70.312500
4456,-70.312500
4457,-70.312500
4458,-74.218750
4459,-74.218750
4460,-74.218750
4461,-74.218750
4462,-74.218750
4463,-78.125000
4464,-78.125000
4465,-78.125000
4466,-78.125000
4467,-78.125000
4468,-78.125000
4469,-82.031250
4470,-82.031250
4471,-82.031250
4472,-82.031250
4473,-82.031250
4474,-82.031250
4475,-85.937500
4476,-85.937500
4477,-85.937500
4478,-85.937500
4479,-85.937500
4480,-85.937500
4481,-85.937500
4482,-89.843750
4483,-89.843750
4484,-89.843750
4485,-89.843750
4486,-89.843750
4487,-89.843750
4488,-89.843750
4489,-89.843750
4490,-89.843750
4491,-89.843750
4492,-89.843750
4493,-89.843750
4494,-93.750000
4495,-93.750000
4496,-93.750000
4497,-93.750000
4498,-93.750000
4499,-93.750000
4500,-93.750000
4501,-93.750000
4502,-93.750000
4503,-93.750000
4504,-93.750000
4505,-93.750000
4506,-93.750000
4507,-93.750000
4508,-93.750000
4509,-93.750000
4510,-93.750000
4511,-93.750000
4512,-93.750000
4513,-97.656250
4514,-93.750000
4515,-93.750000
4516,-93.750000
4517,-93.750000
4518,-93.750000
4519,-93.750000
4520,-93.750000
4521,-93.750000
4522,-93.750000
4523,-93.750000
4524,-93.750000
4525,-89.843750
4526,-89.843750
4527,-89.843750
4528,-93.750000
4529,-89.843750
4530,-89.843750
4531,-89.843750
4532,-89.843750
4533,-89.843750
4534,-89.843750
4535,-89.843750
4536,-89.843750
4537,-85.937500
4538,-85.937500
4539,-85.937500
4540,-85.937500
4541,-85.937500
4542,-85.937500
4543,-85.937500
4544,-82.031250
4545,-82.031250
4546,-82.031250
4547,-85.937500
4548,-82.031250
4549,-82.031250
4550,-82.031250
4551,-78.125000
4552,-78.125000
4553,-78.125000
4554,-78.125000
4555,-78.125000
4556,-78.125000
4557,-78.125000
4558,-74.218750
4559,-74.218750
4560,-74.218750
4561,-74.218750
4562,-74.218750
4563,-70.312500
4564,-70.312500
4565,-70.312500
4566,-70.312500
4567,-70.312500
4568,-66.406250
4569,-66.406250
4570,-66.406250
4571,-66.406250
4572,-62.500000
4573,-62.500000
4574,-62.500000
4575,-62.500000
4576,-62.500000
4577,-58.593750
4578,-58.593750
4579,-58.593750
4580,-58.593750
4581,-58.593750
4582,-54.687500
4583,-54.687500
4584,-54.687500
4585,-54.687500
4586,-50.781250
4587,-50.781250
4588,-50.781250
4589,-50.781250
4590,-46.875000
4591,-46.875000
4592,-46.875000
4593,-42.968750
4594,-42.968750
4595,-42.968750
4596,-42.968750
4597,-39.062500
4598,-39.062500
4599,-39.062500
4600,-39.062500
4601,-35.156250
4602,-35.156250
4603,-39.062500
4604,-35.156250
4605,-31.250000
4606,-31.250000
4607,-31.250000
4608,-31.250000
4609,-31.250000
4610,-27.343750
4611,-27.343750
4612,-27.343750
4613,-23.437500
4614,-23.437500
4615,-23.437500
4616,-23.437500
4617,-19.531250
4618,-19.531250
4619,-19.531250
4620,-19.531250
4621,-15.625000
4622,-15.625000
4623,-15.625000
4624,-15.625000
4625,-15.625000
4626,-11.718750
4627,-11.718750
4628,-11.718750
4629,-11.718750
4630,-7.812500
4631,-7.812500
4632,-7.812500
4633,-7.812500
4634,-3.906250
4635,-3.906250
4636,-3.906250
4637,-3.906250
4638,0.000000
4639,0.000000
4640,0.000000
4641,0.000000
4642,0.000000
4643,3.906250
4644,3.906250
4645,3.906250
4646,3.906250
4647,7.812500
4648,7.812500
4649,7.812500
4650,7.812500
4651,7.812500
4652,11.718750
4653,11.718750
4654,11.718750
4655,11.718750
4656,11.718750
4657,15.625000
4658,15.625000
4659,15.625000
4660,15.625000
4661,15.625000
4662,19.531250
4663,19.531250
4664,19.531250
4665,19.531250
4666,19.531250
4667,19.531250
4668,23.437500
4669,23.437500
4670,23.437500
4671,23.437500
4672,23.437500
4673,23.437500
4674,23.437500
4675,27.343750
4676,23.437500
4677,27.343750
4678,27.343750
4679,27.343750
4680,27.343750
4681,27.343750
4682,27.343750
4683,31.250000
4684,31.250000
4685,31.250000
4686,31.250000
4687,31.250000
4688,31.250000
4689,31.250000
4690,31.250000
4691,31.250000
4692,31.250000
4693,31.250000
4694,35.156250
4695,35.156250
4696,35.156250
4697,35.156250
4698,35.156250
4699,35.156250
4700,35.156250
4701,35.156250
4702,35.156250
4703,35.156250
4704,35.156250
4705,35.156250
4706,35.156250
4707,39.062500
4708,35.156250
4709,39.062500
4710,39.062500
4711,39.062500
4712,39.062500
4713,39.062500
4714,39.062500
4715,39.062500
4716,39.062500
4717,39.062500
4718,39.062500
4719,39.062500
4720,39.062500
4721,39.062500
4722,39.062500
4723,39.062500
4724,39.062500
4725,39.062500
4726,39.062500
4727,39.062500
4728,39.062500
4729,39.062500
4730,39.062500
4731,39.062500
4732,39.062500
4733,39.062500
4734,39.062500
4735,35.156250
4736,35.156250
4737,35.156250
4738,35.156250
4739,35.156250
4740,35.156250
4741,35.156250
4742,35.156250
4743,35.156250
4744,35.156250
4745,35.156250
4746,35.156250
4747,31.250000
4748,35.156250
4749,31.250000
4750,31.250000
4751,31.250000
4752,31.250000
4753,31.250000
4754,31.250000
4755,31.250000
4756,31.250000
4757,31.250000
4758,27.343750
4759,27.343750
4760,27.343750
4761,27.343750
4762,27.343750
4763,27.343750
4764,27.343750
4765,23.437500
4766,23.437500
4767,23.437500
4768,23.437500
4769,23.437500
4770,23.437500
4771,19.531250
4772,19.531250
4773,19.531250
4774,19.531250
4775,19.531250
4776,19.531250
4777,19.531250
4778,15.625000
4779,15.625000
4780,15.625000
4781,15.625000
4782,15.625000
4783,11.718750
4784,11.718750
4785,11.718750
4786,11.718750
4787,11.718750
4788,7.812500
4789,7.812500
4790,7.812500
4791,7.812500
4792,7.812500
4793,3.906250
4794,3.906250
4795,3.906250
4796,3.906250
4797,0.000000
4798,0.000000
4799,0.000000
4800,0.000000
4801,-3.906250
4802,-3.906250
4803,-3.906250
4804,-3.906250
4805,-3.906250
4806,-7.812500
4807,-7.812500
4808,-7.812500
4809,-7.812500
4810,-11.718750
4811,-11.718750
4812,-11.718750
4813,-15.625000
4814,-15.625000
4815,-15.625000
4816,-15.625000
4817,-19.531250
4818,-19.531250
4819,-19.531250
4820,-19.531250
4821,-23.437500
4822,-23.437500
4823,-23.437500
4824,-23.437500
4825,-27.343750
4826,-27.343750
4827,-27.343750
4828,-27.343750
4829,-31.250000
4830,-31.250000
4831,-31.250000
4832,-31.250000
4833,-35.156250
4834,-35.156250
4835,-35.156250
4836,-35.156250
4837,-35.156250
4838,-39.062500
4839,-39.062500
4840,-42.968750
4841,-42.968750
4842,-42.968750
4843,-42.968750
4844,-42.968750
4845,-46.875000
4846,-46.875000
4847,-46.875000
4848,-50.781250
4849,-50.781250
4850,-50.781250
4851,-50.781250
4852,-50.781250
4853,-54.687500
4854,-54.687500
4855,-54.687500
4856,-54.687500
4857,-58.593750
4858,-58.593750
4859,-58.593750
4860,-58.593750
4861,-62.500000
4862,-62.500000
4863,-62.500000
4864,-62.500000
4865,-62.500000
4866,-66.406250
4867,-66.406250
4868,-66.406250
4869,-70.312500
4870,-66.406250
4871,-70.312500
4872,-70.312500
4873,-70.312500
4874,-74.218750
4875,-74.218750
4876,-74.218750
4877,-74.218750
4878,-74.218750
4879,-74.218750
4880,-78.125000
4881,-78.125000
4882,-78.125000
4883,-78.125000
4884,-78.125000
4885,-78.125000
4886,-82.031250
4887,-82.031250
4888,-82.031250
4889,-82.031250
4890,-85.937500
4891,-82.031250
4892,-85.937500
4893,-85.937500
4894,-85.937500
4895,-85.937500
4896,-85.937500
4897,-85.937500
4898,-85.937500
4899,-85.937500
4900,-89.843750
4901,-89.843750
4902,-89.843750
4903,-89.843750
4904,-89.843750
4905,-89.843750
4906,-89.843750
4907,-89.843750
4908,-89.843750
4909,-89.843750
4910,-89.843750
4911,-93.750000
4912,-93.750000
4913,-93.750000
4914,-93.750000
4915,-93.750000
4916,-93.750000
4917,-93.750000
4918,-93.750000
4919,-93.750000
4920,-93.750000
4921,-93.750000
4922,-93.750000
4923,-93.750000
4924,-93.750000
4925,-93.750000
4926,-93.750000
4927,-93.750000
4928,-93.750000
4929,-93.750000
4930,-93.750000
4931,-93.750000
4932,-93.750000
4933,-93.750000
4934,-93.750000
4935,-93.750000
4936,-93.750000
4937,-93.750000
4938,-93.750000
4939,-93.750000
4940,-93.750000
4941,-93.750000
4942,-89.843750
4943,-93.750000
4944,-89.843750
4945,-89.843750
4946,-89.843750
4947,-89.843750
4948,-89.843750
4949,-89.843750
4950,-89.843750
4951,-89.843750
4952,-89.843750
4953,-85.937500
4954,-89.843750
4955,-89.843750
4956,-85.937500
4957,-85.937500
4958,-85.937500
4959,-85.937500
4960,-85.937500
4961,-85.937500
4962,-82.031250
4963,-82.031250
4964,-82.031250
4965,-82.031250
4966,-82.031250
4967,-78.125000
4968,-82.031250
4969,-78.125000
4970,-78.125000
4971,-78.125000
4972,-78.125000
4973,-74.218750
4974,-74.218750
4975,-74.218750
4976,-74.218750
4977,-74.218750
4978,-74.218750
4979,-70.312500
4980,-70.312500
4981,-70.312500
4982,-70.312500
4983,-70.312500
4984,-66.406250
4985,-66.406250
4986,-66.406250
4987,-66.406250
4988,-62.500000
4989,-62.500000
4990,-62.500000
4991,-62.500000
4992,-62.500000
4993,-58.593750
4994,-58.593750
4995,-58.593750
4996,-58.593750
4997,-58.593750
4998,-54.687500
4999,-54.687500
5000,-54.687500
5001,-54.687500
5002,-50.781250
5003,-50.781250
5004,-50.781250
5005,-50.781250
5006,-50.781250
5007,-46.875000
5008,-46.875000
5009,-46.875000
5010,-46.875000
5011,-42.968750
5012,-42.968750
5013,-42.968750
5014,-39.062500
5015,-39.062500
5016,-39.062500
5017,-39.062500
5018,-35.156250
5019,-35.156250
5020,-35.156250
5021,-35.156250
5022,-31.250000
5023,-31.250000
5024,-31.250000
5025,-31.250000
5026,-27.343750
5027,-27.343750
5028,-27.343750
5029,-27.343750
5030,-23.437500
5031,-23.437500
5032,-23.437500
5033,-23.437500
5034,-19.531250
5035,-19.531250
5036,-19.531250
5037,-19.531250
5038,-15.625000
5039,-15.625000
5040,-15.625000
5041,-15.625000
5042,-11.718750
5043,-11.718750
5044,-11.718750
5045,-11.718750
5046,-7.812500
5047,-7.812500
5048,-7.812500
5049,-7.812500
5050,-3.906250
5051,-3.906250
5052,-3.906250
5053,-3.906250
5054,-3.906250
5055,0.000000
5056,0.000000
5057,0.000000
5058,3.906250
5059,0.000000
5060,3.906250
5061,3.906250
5062,3.906250
5063,3.906250
5064,3.906250
5065,7.812500
5066,7.812500
5067,7.812500
5068,7.812500
5069,11.718750
5070,11.718750
5071,11.718750
5072,11.718750
5073,11.718750
5074,11.718750
5075,15.625000
5076,15.625000
5077,15.625000
5078,15.625000
5079,15.625000
5080,19.531250
5081,19.531250
5082,19.531250
5083,19.531250
5084,19.531250
5085,19.531250
5086,23.437500
5087,23.437500
5088,23.437500
5089,23.437500
5090,23.437500
5091,23.437500
5092,27.343750
5093,27.343750
5094,27.343750
5095,27.343750
5096,27.343750
5097,27.343750
5098,31.250000
5099,31.250000
5100,31.250000
5101,31.250000
5102,31.250000
5103,31.250000
5104,31.250000
5105,31.250000
5106,31.250000
5107,31.250000
5108,31.250000
5109,35.156250
5110,35.156250
5111,35.156250
5112,35.156250
5113,35.156250
5114,35.156250
5115,35.156250
5116,35.156250
5117,35.156250
5118,35.156250
5119,35.156250
5120,35.156250
5121,35.156250
5122,35.156250
5123,39.062500
5124,35.156250
5125,39.062500
5126,35.156250
5127,39.062500
5128,39.062500
5129,39.062500
5130,39.062500
5131,39.062500
5132,39.062500
5133,39.062500
5134,39.062500
5135,39.062500
5136,39.062500
5137,39.062500
5138,39.062500
5139,39.062500
5140,39.062500
5141,39.062500
5142,39.062500
5143,39.062500
5144,39.062500
5145,39.062500
5146,39.062500
5147,39.062500
5148,39.062500
5149,39.062500
5150,35.156250
5151,35.156250
5152,35.156250
5153,35.156250
5154,35.156250
5155,35.156250
5156,35.156250
5157,35.156250
5158,35.156250
5159,35.156250
5160,35.156250
5161,35.156250
5162,35.156250
5163,35.156250
5164,35.156250
5165,35.156250
5166,35.156250
5167,35.156250
5168,31.250000
5169,31.250000
5170,31.250000
5171,31.250000
5172,31.250000
5173,31.250000
5174,27.343750
5175,31.250000
5176,27.343750
5177,27.343750
5178,27.343750
5179,27.343750
5180,27.343750
5181,27.343750
5182,23.437500
5183,23.437500
5184,23.437500
5185,23.437500
5186,23.437500
5187,23.437500
5188,19.531250
5189,19.531250
5190,19.531250
5191,19.531250
5192,19.531250
5193,19.531250
5194,19.531250
5195,15.625000
5196,15.625000
5197,15.625000
5198,15.625000
5199,15.625000
5200,11.718750
5201,11.718750
5202,11.718750
5203,11.718750
5204,7.812500
5205,7.812500
5206,7.812500
5207,7.812500
5208,7.812500
5209,3.906250
5210,3.906250
5211,3.906250
5212,3.906250
5213,3.906250
5214,0.000000
5215,0.000000
5216,0.000000
5217,-3.906250
5218,0.000000
5219,-3.906250
5220,-3.906250
5221,-3.906250
5222,-7.812500
5223,-7.812500
5224,-7.812500
5225,-7.812500
5226,-11.718750
5227,-11.718750
5228,-11.718750
5229,-11.718750
5230,-11.718750
5231,-15.625000
5232,-15.625000
5233,-15.625000
5234,-15.625000
5235,-15.625000
5236,-19.531250
5237,-19.531250
5238,-19.531250
5239,-23.437500
5240,-23.437500
5241,-23.437500
5242,-27.343750
5243,-27.343750
5244,-27.343750
5245,-27.343750
5246,-31.250000
5247,-31.250000
5248,-31.250000
5249,-31.250000
5250,-35.156250
5251,-35.156250
5252,-35.156250
5253,-39.062500
5254,-39.062500
5255,-39.062500
5256,-39.062500
5257,-42.968750
5258,-42.968750
5259,-42.968750
5260,-42.968750
5261,-46.875000
5262,-46.875000
5263,-46.875000
5264,-46.875000
5265,-50.781250
5266,-50.781250
5267,-50.781250
5268,-50.781250
5269,-54.687500
5270,-54.687500
5271,-54.687500
5272,-54.687500
5273,-58.593750
5274,-58.593750
5275,-58.593750
5276,-58.593750
5277,-58.593750
5278,-62.500000
5279,-62.500000
5280,-62.500000
5281,-62.500000
5282,-66.406250
5283,-66.406250
5284,-66.406250
5285,-70.312500
5286,-70.312500
5287,-70.312500
5288,-70.312500
5289,-70.312500
5290,-70.312500
5291,-74.218750
5292,-74.218750
5293,-74.218750
5294,-74.218750
5295,-78.125000
5296,-74.218750
5297,-78.125000
5298,-78.125000
5299,-78.125000
5300,-74.218750
5301,-78.125000
5302,-82.031250
5303,-82.031250
5304,-82.031250
5305,-82.031250
5306,-82.031250
5307,-82.031250
5308,-82.031250
5309,-85.937500
5310,-85.937500
5311,-85.937500
5312,-85.937500
5313,-85.937500
5314,-85.937500
5315,-89.843750
5316,-89.843750
5317,-89.843750
5318,-89.843750
5319,-89.843750
5320,-89.843750
5321,-89.843750
5322,-89.843750
5323,-89.843750
5324,-89.843750
5325,-89.843750
5326,-93.750000
5327,-93.750000
5328,-93.750000
5329,-93.750000
5330,-93.750000
5331,-93.750000
5332,-93.750000
5333,-93.750000
5334,-93.750000
5335,-93.750000
5336,-93.750000
5337,-93.750000
5338,-93.750000
5339,-93.750000
5340,-93.750000
5341,-93.750000
5342,-93.750000
5343,-93.750000
5344,-93.750000
5345,-93.750000
5346,-93.750000
5347,-93.750000
5348,-93.750000
5349,-93.750000
5350,-93.750000
5351,-93.750000
5352,-93.750000
5353,-93.750000
5354,-93.750000
5355,-93.750000
5356,-93.750000
5357,-93.750000
5358,-89.843750
5359,-93.750000
5360,-93.750000
5361,-89.843750
5362,-89.843750
5363,-89.843750
5364,-89.843750
5365,-89.843750
5366,-89.843750
5367,-89.843750
5368,-89.843750
5369,-89.843750
5370,-89.843750
5371,-89.843750
5372,-85.937500
5373,-85.937500
5374,-85.937500
5375,-85.937500
5376,-85.937500
5377,-85.937500
5378,-85.937500
5379,-82.031250
5380,-82.031250
5381,-82.031250
5382,-82.031250
5383,-82.031250
5384,-78.125000
5385,-82.031250
5386,-78.125000
5387,-78.125000
5388,-78.125000
5389,-78.125000
5390,-78.125000
5391,-74.218750
5392,-74.218750
5393,-74.218750
5394,-74.218750
5395,-74.218750
5396,-70.312500
5397,-70.312500
5398,-70.312500
5399,-70.312500
5400,-70.312500
5401,-66.406250
5402,-66.406250
5403,-66.406250
5404,-66.406250
5405,-66.406250
5406,-62.500000
5407,-62.500000
5408,-62.500000
5409,-62.500000
5410,-62.500000
5411,-58.593750
5412,-58.593750
5413,-58.593750
5414,-54.687500
5415,-54.687500
5416,-54.687500
5417,-54.687500
5418,-50.781250
5419,-50.781250
5420,-50.781250
5421,-50.781250
5422,-50.781250
5423,-46.875000
5424,-46.875000
5425,-46.875000
5426,-46.875000
5427,-42.968750
5428,-42.968750
5429,-42.968750
5430,-42.968750
5431,-39.062500
5432,-39.062500
5433,-39.062500
5434,-35.156250
5435,-35.156250
5436,-35.156250
5437,-35.156250
5438,-35.156250
5439,-31.250000
5440,-31.250000
5441,-31.250000
5442,-31.250000
5443,-27.343750
5444,-27.343750
5445,-27.343750
5446,-27.343750
5447,-23.437500
5448,-23.437500
5449,-23.437500
5450,-23.437500
5451,-19.531250
5452,-19.531250
5453,-19.531250
5454,-19.531250
5455,-15.625000
5456,-15.625000
5457,-15.625000
5458,-15.625000
5459,-11.718750
5460,-11.718750
5461,-11.718750
5462,-11.718750
5463,-7.812500
5464,-7.812500
5465,-7.812500
5466,-7.812500
5467,-3.906250
5468,-3.906250
5469,-3.906250
5470,-3.906250
5471,-3.906250
5472,0.000000
5473,0.000000
5474,0.000000
5475,3.906250
5476,3.906250
5477,3.906250
5478,0.000000
5479,7.812500
5480,3.906250
5481,3.906250
5482,7.812500
5483,7.812500
5484,7.812500
5485,11.718750
5486,11.718750
5487,11.718750
5488,11.718750
5489,11.718750
5490,15.625000
5491,15.625000
5492,15.625000
5493,15.625000
5494,15.625000
5495,15.625000
5496,19.531250
5497,19.531250
5498,19.531250
5499,19.531250
5500,19.531250
5501,19.531250
5502,23.437500
5503,23.437500
5504,23.437500
5505,23.437500
5506,23.437500
5507,23.437500
5508,23.437500
5509,23.437500
5510,27.343750
5511,27.343750
5512,27.343750
5513,27.343750
5514,27.343750
5515,27.343750
5516,31.250000
5517,31.250000
5518,27.343750
5519,31.250000
5520,31.250000
5521,31.250000
5522,31.250000
5523,31.250000
5524,31.250000
5525,31.250000
5526,35.156250
5527,35.156250
5528,35.156250
5529,35.156250
5530,35.156250
5531,35.156250
5532,35.156250
5533,35.156250
5534,35.156250
5535,35.156250
5536,35.156250
5537,39.062500
5538,35.156250
5539,35.156250
5540,35.156250
5541,39.062500
5542,39.062500
5543,39.062500
5544,35.156250
5545,39.062500
5546,39.062500
5547,39.062500
5548,39.062500
5549,39.062500
5550,39.062500
5551,39.062500
5552,39.062500
5553,39.062500
5554,39.062500
5555,39.062500
5556,39.062500
5557,39.062500
5558,39.062500
5559,39.062500
5560,39.062500
5561,39.062500
5562,39.062500
5563,39.062500
5564,39.062500
5565,39.062500
5566,39.062500
5567,39.062500
5568,39.062500
5569,35.156250
5570,35.156250
5571,35.156250
5572,35.156250
5573,35.156250
5574,35.156250
5575,35.156250
5576,35.156250
5577,35.156250
5578,35.156250
5579,35.156250
5580,35.156250
5581,31.250000
5582,35.156250
5583,31.250000
5584,31.250000
5585,31.250000
5586,31.250000
5587,31.250000
5588,31.250000
5589,31.250000
5590,31.250000
5591,27.343750
5592,27.343750
5593,27.343750
5594,27.343750
5595,27.343750
5596,27.343750
5597,27.343750
5598,27.343750
5599,23.437500
5600,23.437500
5601,23.437500
5602,23.437500
5603,23.437500
5604,23.437500
5605,23.437500
5606,19.531250
5607,19.531250
5608,19.531250
5609,19.531250
5610,15.625000
5611,19.531250
5612,15.625000
5613,15.625000
5614,15.625000
5615,15.625000
5616,15.625000
5617,15.625000
5618,11.718750
5619,11.718750
5620,11.718750
5621,7.812500
5622,7.812500
5623,7.812500
5624,7.812500
5625,7.812500
5626,3.906250
5627,3.906250
5628,3.906250
5629,3.906250
5630,3.906250
5631,0.000000
5632,0.000000
5633,0.000000
5634,0.000000
5635,-3.906250
5636,-3.906250
5637,-3.906250
5638,-3.906250
5639,-3.906250
5640,-7.812500
5641,-7.812500
5642,-7.812500
5643,-11.718750
5644,-11.718750
5645,-11.718750
5646,-11.718750
5647,-15.625000
5648,-15.625000
5649,-19.531250
5650,-15.625000
5651,-15.625000
5652,-19.531250
5653,-19.531250
5654,-19.531250
5655,-23.437500
5656,-23.437500
5657,-23.437500
5658,-23.437500
5659,-27.343750
5660,-27.343750
5661,-27.343750
5662,-27.343750
5663,-31.250000
5664,-31.250000
5665,-31.250000
5666,-31.250000
5667,-35.156250
5668,-35.156250
5669,-35.156250
5670,-39.062500
5671,-39.062500
5672,-39.062500
5673,-39.062500
5674,-46.875000
5675,-42.968750
5676,-42.968750
5677,-42.968750
5678,-42.968750
5679,-46.875000
5680,-46.875000
5681,-46.875000
5682,-50.781250
5683,-50.781250
5684,-50.781250
5685,-50.781250
5686,-54.687500
5687,-54.687500
5688,-54.687500
5689,-54.687500
5690,-58.593750
5691,-58.593750
5692,-58.593750
5693,-58.593750
5694,-58.593750
5695,-62.500000
5696,-62.500000
5697,-62.500000
5698,-62.500000
5699,-66.406250
5700,-66.406250
5701,-70.312500
5702,-66.406250
5703,-66.406250
5704,-70.312500
5705,-70.312500
5706,-70.312500
5707,-74.218750
5708,-74.218750
5709,-74.218750
5710,-74.218750
5711,-74.218750
5712,-74.218750
5713,-78.125000
5714,-78.125000
5715,-78.125000
5716,-78.125000
5717,-78.125000
5718,-82.031250
5719,-82.031250
5720,-82.031250
5721,-82.031250
5722,-78.125000
5723,-82.031250
5724,-82.031250
5725,-85.937500
5726,-85.937500
5727,-85.937500
5728,-89.843750
5729,-85.937500
5730,-85.937500
5731,-85.937500
5732,-85.937500
5733,-89.843750
5734,-89.843750
5735,-89.843750
5736,-89.843750
5737,-89.843750
5738,-89.843750
5739,-89.843750
5740,-89.843750
5741,-89.843750
5742,-89.843750
5743,-93.750000
5744,-93.750000
5745,-93.750000
5746,-93.750000
5747,-93.750000
5748,-93.750000
5749,-93.750000
5750,-93.750000
5751,-93.750000
5752,-93.750000
5753,-93.750000
5754,-93.750000
5755,-93.750000
5756,-93.750000
5757,-93.750000
5758,-93.750000
5759,-93.750000
5760,-93.750000
5761,-93.750000
5762,-93.750000
5763,-93.750000
5764,-93.750000
5765,-93.750000
5766,-93.750000
5767,-93.750000
5768,-93.750000
5769,-93.750000
5770,-93.750000
5771,-93.750000
5772,-93.750000
5773,-89.843750
5774,-93.750000
5775,-89.843750
5776,-93.750000
5777,-93.750000
5778,-89.843750
5779,-89.843750
5780,-89.843750
5781,-89.843750
5782,-93.750000
5783,-89.843750
5784,-89.843750
5785,-89.843750
5786,-89.843750
5787,-89.843750
5788,-89.843750
5789,-85.937500
5790,-85.937500
5791,-85.937500
5792,-85.937500
5793,-85.937500
5794,-85.937500
5795,-82.031250
5796,-82.031250
5797,-82.031250
5798,-82.031250
5799,-82.031250
5800,-82.031250
5801,-78.125000
5802,-78.125000
5803,-78.125000
5804,-78.125000
5805,-78.125000
5806,-78.125000
5807,-74.218750
5808,-74.218750
5809,-74.218750
5810,-74.218750
5811,-74.218750
5812,-70.312500
5813,-70.312500
5814,-70.312500
5815,-70.312500
5816,-70.312500
5817,-66.406250
5818,-66.406250
5819,-66.406250
5820,-66.406250
5821,-66.406250
5822,-62.500000
5823,-62.500000
5824,-62.500000
5825,-62.500000
5826,-62.500000
5827,-58.593750
5828,-58.593750
5829,-58.593750
5830,-54.687500
5831,-54.687500
5832,-54.687500
5833,-54.687500
5834,-54.687500
5835,-50.781250
5836,-50.781250
5837,-50.781250
5838,-46.875000
5839,-46.875000
5840,-46.875000
5841,-46.875000
5842,-46.875000
5843,-42.968750
5844,-42.968750
5845,-42.968750
5846,-42.968750
5847,-42.968750
5848,-39.062500
5849,-39.062500
5850,-39.062500
5851,-39.062500
5852,-35.156250
5853,-35.156250
5854,-35.156250
5855,-35.156250
5856,-31.250000
5857,-31.250000
5858,-31.250000
5859,-27.343750
5860,-27.343750
5861,-27.343750
5862,-27.343750
5863,-27.343750
5864,-23.437500
5865,-23.437500
5866,-23.437500
5867,-23.437500
5868,-19.531250
5869,-19.531250
5870,-19.531250
5871,-15.625000
5872,-15.625000
5873,-19.531250
5874,-15.625000
5875,-15.625000
5876,-11.718750
5877,-11.718750
5878,-11.718750
5879,-7.812500
5880,-7.812500
5881,-7.812500
5882,-7.812500
5883,-3.906250
5884,-3.906250
5885,-3.906250
5886,-7.812500
5887,-3.906250
5888,-3.906250
5889,0.000000
5890,0.000000
5891,-3.906250
5892,3.906250
5893,3.906250
5894,3.906250
5895,3.906250
5896,3.906250
5897,7.812500
5898,7.812500
5899,7.812500
5900,7.812500
5901,7.812500
5902,7.812500
5903,11.718750
5904,11.718750
5905,11.718750
5906,11.718750
5907,11.718750
5908,15.625000
5909,15.625000
5910,15.625000
5911,15.625000
5912,15.625000
5913,15.625000
5914,19.531250
5915,19.531250
5916,19.531250
5917,19.531250
5918,23.437500
5919,23.437500
5920,23.437500
5921,23.437500
5922,23.437500
5923,23.437500
5924,23.437500
5925,23.437500
5926,27.343750
5927,27.343750
5928,27.343750
5929,27.343750
5930,27.343750
5931,27.343750
5932,27.343750
5933,31.250000
5934,31.250000
5935,31.250000
5936,31.250000
5937,31.250000
5938,31.250000
5939,31.250000
5940,31.250000
5941,31.250000
5942,31.250000
5943,35.156250
5944,35.156250
5945,35.156250
5946,35.156250
5947,35.156250
5948,35.156250
5949,35.156250
5950,35.156250
5951,35.156250
5952,35.156250
5953,35.156250
5954,39.062500
5955,39.062500
5956,39.062500
5957,39.062500
5958,35.156250
5959,39.062500
5960,39.062500
5961,39.062500
5962,39.062500
5963,39.062500
5964,39.062500
5965,39.062500
5966,39.062500
5967,39.062500
5968,39.062500
5969,39.062500
5970,39.062500
5971,39.062500
5972,39.062500
5973,39.062500
5974,39.062500
5975,39.062500
5976,39.062500
5977,39.062500
5978,39.062500
5979,39.062500
5980,39.062500
5981,35.156250
5982,39.062500
5983,39.062500
5984,35.156250
5985,35.156250
5986,35.156250
5987,35.156250
5988,35.156250
5989,35.156250
5990,35.156250
5991,35.156250
5992,35.156250
5993,35.156250
5994,35.156250
5995,35.156250
5996,35.156250
5997,35.156250
5998,35.156250
5999,35.156250
6000,31.250000
6001,31.250000
6002,31.250000
6003,31.250000
6004,31.250000
6005,31.250000
6006,31.250000
6007,31.250000
6008,31.250000
6009,31.250000
6010,27.343750
6011,27.343750
6012,27.343750
6013,27.343750
6014,27.343750
6015,27.343750
6016,23.437500
6017,23.437500
6018,23.437500
6019,23.437500
6020,23.437500
6021,23.437500
6022,23.437500
6023,19.531250
6024,19.531250
6025,19.531250
6026,19.531250
6027,15.625000
6028,15.625000
6029,15.625000
6030,15.625000
6031,15.625000
6032,15.625000
6033,11.718750
6034,11.718750
6035,11.718750
6036,11.718750
6037,7.812500
6038,11.718750
6039,7.812500
6040,7.812500
6041,7.812500
6042,7.812500
6043,7.812500
6044,3.906250
6045,3.906250
6046,3.906250
6047,0.000000
6048,0.000000
6049,0.000000
6050,0.000000
6051,0.000000
6052,-3.906250
6053,-3.906250
6054,-3.906250
6055,-3.906250
6056,-7.812500
6057,-7.812500
6058,-7.812500
6059,-7.812500
6060,-11.718750
6061,-11.718750
6062,-11.718750
6063,-11.718750
6064,-15.625000
6065,-15.625000
6066,-15.625000
6067,-15.625000
6068,-19.531250
6069,-19.531250
6070,-19.531250
6071,-23.437500
6072,-23.437500
6073,-23.437500
6074,-23.437500
6075,-23.437500
6076,-27.343750
6077,-27.343750
6078,-27.343750
6079,-27.343750
6080,-31.250000
6081,-31.250000
6082,-31.250000
6083,-35.156250
6084,-35.156250
6085,-35.156250
6086,-35.156250
6087,-39.062500
6088,-39.062500
6089,-39.062500
6090,-35.156250
6091,-42.968750
6092,-42.968750
6093,-42.968750
6094,-42.968750
6095,-46.875000
6096,-46.875000
6097,-46.875000
6098,-50.781250
6099,-50.781250
6100,-50.781250
6101,-50.781250
6102,-54.687500
6103,-54.687500
6104,-54.687500
6105,-54.687500
6106,-54.687500
6107,-58.593750
6108,-58.593750
6109,-58.593750
6110,-62.500000
6111,-62.500000
6112,-62.500000
6113,-62.500000
6114,-62.500000
6115,-66.406250
6116,-66.406250
6117,-66.406250
6118,-70.312500
6119,-66.406250
6120,-70.312500
6121,-70.312500
6122,-70.312500
6123,-74.218750
6124,-70.312500
6125,-74.218750
6126,-74.218750
6127,-74.218750
6128,-74.218750
6129,-78.125000
6130,-78.125000
6131,-78.125000
6132,-78.125000
6133,-78.125000
6134,-78.125000
6135,-78.125000
6136,-82.031250
6137,-82.031250
6138,-82.031250
6139,-82.031250
6140,-82.031250
6141,-82.031250
6142,-85.937500
6143,-85.937500
6144,-85.937500
6145,-85.937500
6146,-85.937500
6147,-89.843750
6148,-85.937500
6149,-85.937500
6150,-89.843750
6151,-89.843750
6152,-89.843750
6153,-89.843750
6154,-89.843750
6155,-89.843750
6156,-89.843750
6157,-93.750000
6158,-93.750000
6159,-89.843750
6160,-93.750000
6161,-93.750000
6162,-93.750000
6163,-93.750000
6164,-93.750000
6165,-93.750000
6166,-93.750000
6167,-93.750000
6168,-93.750000
6169,-93.750000
6170,-93.750000
6171,-97.656250
6172,-93.750000
6173,-93.750000
6174,-93.750000
6175,-93.750000
6176,-97.656250
6177,-93.750000
6178,-93.750000
6179,-93.750000
6180,-93.750000
6181,-93.750000
6182,-93.750000
6183,-93.750000
6184,-93.750000
6185,-93.750000
6186,-93.750000
6187,-93.750000
6188,-89.843750
6189,-93.750000
6190,-93.750000
6191,-93.750000
6192,-89.843750
6193,-93.750000
6194,-89.843750
6195,-89.843750
6196,-89.843750
6197,-89.843750
6198,-89.843750
6199,-89.843750
6200,-89.843750
6201,-89.843750
6202,-89.843750
6203,-85.937500
6204,-85.937500
6205,-85.937500
6206,-89.843750
6207,-85.937500
6208,-85.937500
6209,-85.937500
6210,-85.937500
6211,-82.031250
6212,-82.031250
6213,-82.031250
6214,-82.031250
6215,-85.937500
6216,-82.031250
6217,-82.031250
6218,-82.031250
6219,-78.125000
6220,-78.125000
6221,-78.125000
6222,-78.125000
6223,-74.218750
6224,-78.125000
6225,-74.218750
6226,-74.218750
6227,-74.218750
6228,-74.218750
6229,-74.218750
6230,-70.312500
6231,-70.312500
6232,-70.312500
6233,-70.312500
6234,-66.406250
6235,-66.406250
6236,-66.406250
6237,-66.406250
6238,-66.406250
6239,-62.500000
6240,-62.500000
6241,-62.500000
6242,-62.500000
6243,-62.500000
6244,-58.593750
6245,-58.593750
6246,-58.593750
6247,-58.593750
6248,-54.687500
6249,-54.687500
6250,-54.687500
6251,-50.781250
6252,-54.687500
6253,-50.781250
6254,-50.781250
6255,-50.781250
6256,-46.875000
6257,-46.875000
6258,-46.875000
6259,-46.875000
6260,-42.968750
6261,-42.968750
6262,-42.968750
6263,-42.968750
6264,-39.062500
6265,-39.062500
6266,-39.062500
6267,-39.062500
6268,-35.156250
6269,-35.156250
6270,-35.156250
6271,-35.156250
6272,-31.250000
6273,-31.250000
6274,-31.250000
6275,-31.250000
6276,-27.343750
6277,-27.343750
6278,-27.343750
6279,-27.343750
6280,-23.437500
6281,-23.437500
6282,-23.437500
6283,-23.437500
6284,-19.531250
6285,-19.531250
6286,-19.531250
6287,-19.531250
6288,-15.625000
6289,-15.625000
6290,-15.625000
6291,-15.625000
6292,-15.625000
6293,-11.718750
6294,-11.718750
6295,-11.718750
6296,-7.812500
6297,-7.812500
6298,-7.812500
6299,-7.812500
6300,-7.812500
6301,-3.906250
6302,-3.906250
6303,-3.906250
6304,-3.906250
6305,0.000000
6306,0.000000
6307,0.000000
6308,0.000000
6309,3.906250
6310,3.906250
6311,3.906250
6312,3.906250
6313,3.906250
6314,7.812500
6315,7.812500
6316,7.812500
6317,7.812500
6318,7.812500
6319,7.812500
6320,11.718750
6321,11.718750
6322,11.718750
6323,11.718750
6324,11.718750
6325,15.625000
6326,15.625000
6327,15.625000
6328,19.531250
6329,15.625000
6330,19.531250
6331,19.531250
6332,19.531250
6333,19.531250
6334,23.437500
6335,19.531250
6336,23.437500
6337,23.437500
6338,23.437500
6339,23.437500
6340,23.437500
6341,23.437500
6342,27.343750
6343,27.343750
6344,27.343750
6345,27.343750
6346,27.343750
6347,27.343750
6348,27.343750
6349,31.250000
6350,31.250000
6351,31.250000
6352,31.250000
6353,31.250000
6354,31.250000
6355,31.250000
6356,31.250000
6357,31.250000
6358,31.250000
6359,35.156250
6360,31.250000
6361,35.156250
6362,35.156250
6363,35.156250
6364,35.156250
6365,35.156250
6366,39.062500
6367,35.156250
6368,35.156250
6369,35.156250
6370,35.156250
6371,35.156250
6372,35.156250
6373,35.156250
6374,39.062500
6375,39.062500
6376,39.062500
6377,39.062500
6378,35.156250
6379,39.062500
6380,39.062500
6381,39.062500
6382,39.062500
6383,39.062500
6384,39.062500
6385,35.156250
6386,39.062500
6387,39.062500
6388,39.062500
6389,39.062500
6390,39.062500
6391,39.062500
6392,39.062500
6393,39.062500
6394,39.062500
6395,39.062500
6396,39.062500
6397,39.062500
6398,39.062500
6399,39.062500
6400,39.062500
6401,35.156250
6402,39.062500
6403,39.062500
6404,39.062500
6405,35.156250
6406,35.156250
6407,35.156250
6408,35.156250
6409,35.156250
6410,35.156250
6411,35.156250
6412,35.156250
6413,35.156250
6414,35.156250
6415,35.156250
6416,31.250000
6417,31.250000
6418,31.250000
6419,31.250000
6420,31.250000
6421,31.250000
6422,31.250000
6423,31.250000
6424,27.343750
6425,27.343750
6426,27.343750
6427,27.343750
6428,27.343750
6429,27.343750
6430,27.343750
6431,27.343750
6432,23.437500
6433,23.437500
6434,23.437500
6435,23.437500
6436,23.437500
6437,23.437500
6438,23.437500
6439,19.531250
6440,19.531250
6441,19.531250
6442,19.531250
6443,15.625000
6444,15.625000
6445,15.625000
6446,15.625000
6447,15.625000
6448,15.625000
6449,15.625000
6450,11.718750
6451,11.718750
6452,11.718750
6453,11.718750
6454,11.718750
6455,7.812500
6456,7.812500
6457,7.812500
6458,7.812500
6459,7.812500
6460,7.812500
6461,3.906250
6462,3.906250
6463,3.906250
6464,3.906250
6465,0.000000
6466,0.000000
6467,0.000000
6468,-3.906250
6469,-3.906250
6470,-3.906250
6471,-3.906250
6472,-3.906250
6473,-7.812500
6474,-7.812500
6475,-7.812500
6476,-7.812500
6477,-11.718750
6478,-11.718750
6479,-11.718750
6480,-11.718750
6481,-15.625000
6482,-15.625000
6483,-15.625000
6484,-15.625000
6485,-19.531250
6486,-19.531250
6487,-23.437500
6488,-23.437500
6489,-23.437500
6490,-23.437500
6491,-27.343750
6492,-27.343750
6493,-27.343750
6494,-27.343750
6495,-27.343750
6496,-31.250000
6497,-31.250000
6498,-31.250000
6499,-31.250000
6500,-35.156250
6501,-35.156250
6502,-35.156250
6503,-39.062500
6504,-39.062500
6505,-39.062500
6506,-39.062500
6507,-42.968750
6508,-42.968750
6509,-42.968750
6510,-42.968750
6511,-46.875000
6512,-46.875000
6513,-46.875000
6514,-46.875000
6515,-50.781250
6516,-50.781250
6517,-50.781250
6518,-50.781250
6519,-50.781250
6520,-54.687500
6521,-54.687500
6522,-54.687500
6523,-58.593750
6524,-58.593750
6525,-58.593750
6526,-58.593750
6527,-62.500000
6528,-62.500000
6529,-62.500000
6530,-62.500000
6531,-62.500000
6532,-66.406250
6533,-66.406250
6534,-66.406250
6535,-66.406250
6536,-70.312500
6537,-70.312500
6538,-70.312500
6539,-70.312500
6540,-70.312500
6541,-74.218750
6542,-74.218750
6543,-74.218750
6544,-74.218750
6545,-74.218750
6546,-78.125000
6547,-78.125000
6548,-78.125000
6549,-78.125000
6550,-78.125000
6551,-82.031250
6552,-82.031250
6553,-82.031250
6554,-82.031250
6555,-82.031250
6556,-82.031250
6557,-82.031250
6558,-85.937500
6559,-85.937500
6560,-85.937500
6561,-85.937500
6562,-85.937500
6563,-85.937500
6564,-85.937500
6565,-89.843750
6566,-85.937500
6567,-89.843750
6568,-89.843750
6569,-89.843750
6570,-89.843750
6571,-89.843750
6572,-89.843750
6573,-89.843750
6574,-89.843750
6575,-93.750000
6576,-93.750000
6577,-93.750000
6578,-93.750000
6579,-93.750000
6580,-93.750000
6581,-93.750000
6582,-93.750000
6583,-93.750000
6584,-93.750000
6585,-93.750000
6586,-93.750000
6587,-93.750000
6588,-93.750000
6589,-93.750000
6590,-93.750000
6591,-93.750000
6592,-93.750000
6593,-93.750000
6594,-93.750000
6595,-93.750000
6596,-93.750000
6597,-93.750000
6598,-93.750000
6599,-93.750000
6600,-93.750000
6601,-93.750000
6602,-93.750000
6603,-93.750000
6604,-93.750000
6605,-93.750000
6606,-93.750000
6607,-89.843750
6608,-93.750000
6609,-89.843750
6610,-93.750000
6611,-89.843750
6612,-89.843750
6613,-89.843750
6614,-89.843750
6615,-89.843750
6616,-89.843750
6617,-89.843750
6618,-89.843750
6619,-89.843750
6620,-89.843750
6621,-89.843750
6622,-85.937500
6623,-85.937500
6624,-85.937500
6625,-85.937500
6626,-85.937500
6627,-85.937500
6628,-82.031250
6629,-82.031250
6630,-82.031250
6631,-82.031250
6632,-82.031250
6633,-82.031250
6634,-82.031250
6635,-78.125000
6636,-78.125000
6637,-78.125000
6638,-78.125000
6639,-78.125000
6640,-78.125000
6641,-74.218750
6642,-74.218750
6643,-74.218750
6644,-74.218750
6645,-74.218750
6646,-70.312500
6647,-70.312500
6648,-70.312500
6649,-70.312500
6650,-70.312500
6651,-66.406250
6652,-66.406250
6653,-66.406250
6654,-66.406250
6655,-66.406250
6656,-62.500000
6657,-62.500000
6658,-62.500000
6659,-62.500000
6660,-58.593750
6661,-58.593750
6662,-58.593750
6663,-58.593750
6664,-58.593750
6665,-54.687500
6666,-54.687500
6667,-54.687500
6668,-50.781250
6669,-50.781250
6670,-50.781250
6671,-50.781250
6672,-50.781250
6673,-46.875000
6674,-46.875000
6675,-46.875000
6676,-46.875000
6677,-42.968750
6678,-42.968750
6679,-42.968750
6680,-42.968750
6681,-39.062500
6682,-39.062500
6683,-39.062500
6684,-39.062500
6685,-35.156250
6686,-35.156250
6687,-35.156250
6688,-31.250000
6689,-35.156250
6690,-31.250000
6691,-31.250000
6692,-31.250000
6693,-27.343750
6694,-27.343750
6695,-27.343750
6696,-27.343750
6697,-23.437500
6698,-23.437500
6699,-23.437500
6700,-23.437500
6701,-19.531250
6702,-19.531250
6703,-19.531250
6704,-15.625000
6705,-15.625000
6706,-15.625000
6707,-15.625000
6708,-15.625000
6709,-15.625000
6710,-11.718750
6711,-11.718750
6712,-11.718750
6713,-7.812500
6714,-7.812500
6715,-7.812500
6716,-7.812500
6717,-3.906250
6718,-3.906250
6719,-3.906250
6720,-3.906250
6721,-3.906250
6722,0.000000
6723,0.000000
6724,0.000000
6725,0.000000
6726,0.000000
6727,3.906250
6728,3.906250
6729,3.906250
6730,3.906250
6731,7.812500
6732,7.812500
6733,7.812500
6734,7.812500
6735,7.812500
6736,11.718750
6737,11.718750
6738,11.718750
6739,11.718750
6740,11.718750
6741,15.625000
6742,15.625000
6743,15.625000
6744,15.625000
6745,15.625000
6746,19.531250
6747,19.531250
6748,19.531250
6749,19.531250
6750,19.531250
6751,15.625000
6752,19.531250
6753,23.437500
6754,23.437500
6755,23.437500
6756,23.437500
6757,23.437500
6758,23.437500
6759,27.343750
6760,27.343750
6761,27.343750
6762,27.343750
6763,27.343750
6764,27.343750
6765,27.343750
6766,31.250000
6767,31.250000
6768,31.250000
6769,31.250000
6770,31.250000
6771,31.250000
6772,31.250000
6773,31.250000
6774,31.250000
6775,31.250000
6776,35.156250
6777,35.156250
6778,35.156250
6779,35.156250
6780,35.156250
6781,35.156250
6782,35.156250
6783,35.156250
6784,35.156250
6785,35.156250
6786,35.156250
6787,39.062500
6788,35.156250
6789,35.156250
6790,39.062500
6791,39.062500
6792,39.062500
6793,39.062500
6794,39.062500
6795,39.062500
6796,39.062500
6797,39.062500
6798,39.062500
6799,39.062500
6800,39.062500
6801,39.062500
6802,39.062500
6803,39.062500
6804,39.062500
6805,39.062500
6806,39.062500
6807,39.062500
6808,39.062500
6809,39.062500
6810,39.062500
6811,39.062500
6812,39.062500
6813,39.062500
6814,39.062500
6815,35.156250
6816,35.156250
6817,35.156250
6818,39.062500
6819,35.156250
6820,35.156250
6821,39.062500
6822,35.156250
6823,35.156250
6824,35.156250
6825,35.156250
6826,35.156250
6827,35.156250
6828,35.156250
6829,35.156250
6830,35.156250
6831,35.156250
6832,31.250000
6833,31.250000
6834,31.250000
6835,31.250000
6836,31.250000
6837,31.250000
6838,31.250000
6839,31.250000
6840,31.250000
6841,31.250000
6842,31.250000
6843,27.343750
6844,27.343750
6845,27.343750
6846,27.343750
6847,27.343750
6848,27.343750
6849,27.343750
6850,23.437500
6851,23.437500
6852,23.437500
6853,23.437500
6854,23.437500
6855,19.531250
6856,19.531250
6857,19.531250
6858,19.531250
6859,19.531250
6860,19.531250
6861,15.625000
6862,15.625000
6863,15.625000
6864,15.625000
6865,15.625000
6866,11.718750
6867,11.718750
6868,11.718750
6869,11.718750
6870,11.718750
6871,11.718750
6872,7.812500
6873,7.812500
6874,7.812500
6875,3.906250
6876,3.906250
6877,3.906250
6878,3.906250
6879,3.906250
6880,3.906250
6881,0.000000
6882,0.000000
6883,0.000000
6884,0.000000
6885,-3.906250
6886,-3.906250
6887,-3.906250
6888,-3.906250
6889,-3.906250
6890,-7.812500
6891,-7.812500
6892,-7.812500
6893,-11.718750
6894,-11.718750
6895,-11.718750
6896,-11.718750
6897,-15.625000
6898,-11.718750
6899,-15.625000
6900,-15.625000
6901,-15.625000
6902,-19.531250
6903,-19.531250
6904,-19.531250
6905,-19.531250
6906,-23.437500
6907,-23.437500
6908,-23.437500
6909,-27.343750
6910,-27.343750
6911,-27.343750
6912,-27.343750
6913,-31.250000
6914,-31.250000
6915,-31.250000
6916,-31.250000
6917,-35.156250
6918,-35.156250
6919,-35.156250
6920,-35.156250
6921,-39.062500
6922,-39.062500
6923,-39.062500
6924,-39.062500
6925,-42.968750
6926,-42.968750
6927,-42.968750
6928,-46.875000
6929,-46.875000
6930,-46.875000
6931,-46.875000
6932,-50.781250
6933,-50.781250
6934,-50.781250
6935,-54.687500
6936,-50.781250
6937,-54.687500
6938,-54.687500
6939,-54.687500
6940,-58.593750
6941,-58.593750
6942,-58.593750
6943,-58.593750
6944,-62.500000
6945,-62.500000
6946,-62.500000
6947,-62.500000
6948,-62.500000
6949,-66.406250
6950,-66.406250
6951,-66.406250
6952,-66.406250
6953,-70.312500
6954,-70.312500
6955,-70.312500
6956,-70.312500
6957,-70.312500
6958,-74.218750
6959,-74.218750
6960,-74.218750
6961,-74.218750
6962,-74.218750
6963,-78.125000
6964,-78.125000
6965,-78.125000
6966,-78.125000
6967,-78.125000
6968,-78.125000
6969,-78.125000
6970,-82.031250
6971,-82.031250
6972,-82.031250
6973,-82.031250
6974,-82.031250
6975,-85.937500
6976,-82.031250
6977,-85.937500
6978,-85.937500
6979,-85.937500
6980,-85.937500
6981,-85.937500
6982,-85.937500
6983,-85.937500
6984,-89.843750
6985,-89.843750
6986,-89.843750
6987,-89.843750
6988,-89.843750
6989,-89.843750
6990,-89.843750
6991,-89.843750
6992,-89.843750
6993,-93.750000
6994,-93.750000
6995,-93.750000
6996,-93.750000
6997,-93.750000
6998,-93.750000
6999,-93.750000
7000,-93.750000
7001,-93.750000
7002,-93.750000
7003,-93.750000
7004,-93.750000
7005,-93.750000
7006,-93.750000
7007,-93.750000
7008,-93.750000
7009,-93.750000
7010,-93.750000
7011,-93.750000
7012,-93.750000
7013,-93.750000
7014,-93.750000
7015,-93.750000
7016,-93.750000
7017,-93.750000
7018,-93.750000
7019,-93.750000
7020,-93.750000
7021,-93.750000
7022,-93.750000
7023,-93.750000
7024,-93.750000
7025,-93.750000
7026,-93.750000
7027,-89.843750
7028,-89.843750
7029,-89.843750
7030,-89.843750
7031,-89.843750
7032,-89.843750
7033,-89.843750
7034,-89.843750
7035,-89.843750
7036,-89.843750
7037,-85.937500
7038,-85.937500
7039,-85.937500
7040,-85.937500
7041,-85.937500
7042,-85.937500
7043,-85.937500
7044,-85.937500
7045,-82.031250
7046,-82.031250
7047,-82.031250
7048,-82.031250
7049,-82.031250
7050,-82.031250
7051,-82.031250
7052,-78.125000
7053,-78.125000
7054,-78.125000
7055,-78.125000
7056,-78.125000
7057,-78.125000
7058,-74.218750
7059,-74.218750
7060,-74.218750
7061,-74.218750
7062,-74.218750
7063,-74.218750
7064,-70.312500
7065,-70.312500
7066,-70.312500
7067,-70.312500
7068,-70.312500
7069,-66.406250
7070,-66.406250
7071,-66.406250
7072,-66.406250
7073,-62.500000
7074,-62.500000
7075,-62.500000
7076,-62.500000
7077,-58.593750
7078,-58.593750
7079,-58.593750
7080,-58.593750
7081,-54.687500
7082,-54.687500
7083,-54.687500
7084,-54.687500
7085,-54.687500
7086,-50.781250
7087,-50.781250
7088,-50.781250
7089,-50.781250
7090,-46.875000
7091,-46.875000
7092,-46.875000
7093,-42.968750
7094,-42.968750
7095,-42.968750
7096,-42.968750
7097,-42.968750
7098,-39.062500
7099,-39.062500
7100,-39.062500
7101,-39.062500
7102,-42.968750
7103,-35.156250
7104,-35.156250
7105,-31.250000
7106,-31.250000
7107,-31.250000
7108,-31.250000
7109,-27.343750
7110,-27.343750
7111,-27.343750
7112,-27.343750
7113,-23.437500
7114,-23.437500
7115,-23.437500
7116,-23.437500
7117,-19.531250
7118,-19.531250
7119,-19.531250
7120,-19.531250
7121,-15.625000
7122,-15.625000
7123,-15.625000
7124,-15.625000
7125,-15.625000
7126,-11.718750
7127,-11.718750
7128,-11.718750
7129,-11.718750
7130,-7.812500
7131,-7.812500
7132,-7.812500
7133,-7.812500
7134,-3.906250
7135,-3.906250
7136,-3.906250
7137,-3.906250
7138,0.000000
7139,0.000000
7140,0.000000
7141,3.906250
7142,0.000000
7143,3.906250
7144,3.906250
7145,3.906250
7146,3.906250
7147,3.906250
7148,7.812500
7149,7.812500
7150,7.812500
7151,7.812500
7152,11.718750
7153,11.718750
7154,11.718750
7155,11.718750
7156,11.718750
7157,11.718750
7158,15.625000
7159,15.625000
7160,15.625000
7161,15.625000
7162,19.531250
7163,15.625000
7164,19.531250
7165,19.531250
7166,19.531250
7167,19.531250
7168,19.531250
7169,19.531250
7170,23.437500
7171,23.437500
7172,23.437500
7173,23.437500
7174,23.437500
7175,23.437500
7176,27.343750
7177,27.343750
7178,27.343750
7179,27.343750
7180,27.343750
7181,27.343750
7182,27.343750
7183,31.250000
7184,31.250000
7185,31.250000
7186,31.250000
7187,31.250000
7188,31.250000
7189,31.250000
7190,31.250000
7191,31.250000
7192,31.250000
7193,35.156250
7194,35.156250
7195,35.156250
7196,35.156250
7197,35.156250
7198,35.156250
7199,35.156250
7200,35.156250
7201,35.156250
7202,35.156250
7203,35.156250
7204,35.156250
7205,35.156250
7206,35.156250
7207,35.156250
7208,35.156250
7209,35.156250
7210,39.062500
7211,39.062500
7212,39.062500
7213,35.156250
7214,39.062500
7215,39.062500
7216,39.062500
7217,39.062500
7218,39.062500
7219,39.062500
7220,39.062500
7221,39.062500
7222,39.062500
7223,39.062500
7224,39.062500
7225,39.062500
7226,39.062500
7227,39.062500
7228,39.062500
7229,39.062500
7230,39.062500
7231,39.062500
7232,39.062500
7233,39.062500
7234,39.062500
7235,35.156250
7236,39.062500
7237,35.156250
7238,39.062500
7239,35.156250
7240,35.156250
7241,35.156250
7242,35.156250
7243,35.156250
7244,35.156250
7245,35.156250
7246,35.156250
7247,35.156250
7248,35.156250
7249,31.250000
7250,35.156250
7251,31.250000
7252,31.250000
7253,31.250000
7254,31.250000
7255,31.250000
7256,31.250000
7257,31.250000
7258,31.250000
7259,27.343750
7260,27.343750
7261,27.343750
7262,27.343750
7263,27.343750
7264,27.343750
7265,27.343750
7266,23.437500
7267,23.437500
7268,23.437500
7269,23.437500
7270,23.437500
7271,23.437500
7272,23.437500
7273,19.531250
7274,19.531250
7275,19.531250
7276,19.531250
7277,19.531250
7278,15.625000
7279,15.625000
7280,15.625000
7281,15.625000
7282,15.625000
7283,11.718750
7284,11.718750
7285,11.718750
7286,11.718750
7287,11.718750
7288,11.718750
7289,7.812500
7290,7.812500
7291,7.812500
7292,7.812500
7293,7.812500
7294,3.906250
7295,3.906250
7296,3.906250
7297,3.906250
7298,0.000000
7299,0.000000
7300,0.000000
7301,0.000000
7302,0.000000
7303,-3.906250
7304,-3.906250
7305,-3.906250
7306,-7.812500
7307,-7.812500
7308,-7.812500
7309,-7.812500
7310,-11.718750
7311,-11.718750
7312,-11.718750
7313,-11.718750
7314,-11.718750
7315,-15.625000
7316,-15.625000
7317,-15.625000
7318,-19.531250
7319,-19.531250
7320,-19.531250
7321,-19.531250
7322,-23.437500
7323,-23.437500
7324,-23.437500
7325,-27.343750
7326,-27.343750
7327,-27.343750
7328,-27.343750
7329,-27.343750
7330,-31.250000
7331,-31.250000
7332,-31.250000
7333,-35.156250
7334,-35.156250
7335,-35.156250
7336,-39.062500
7337,-39.062500
7338,-39.062500
7339,-39.062500
7340,-39.062500
7341,-39.062500
7342,-42.968750
7343,-42.968750
7344,-42.968750
7345,-46.875000
7346,-46.875000
7347,-46.875000
7348,-46.875000
7349,-50.781250
7350,-50.781250
7351,-50.781250
7352,-50.781250
7353,-54.687500
7354,-54.687500
7355,-54.687500
7356,-54.687500
7357,-58.593750
7358,-58.593750
7359,-62.500000
7360,-58.593750
7361,-62.500000
7362,-62.500000
7363,-62.500000
7364,-62.500000
7365,-62.500000
7366,-66.406250
7367,-66.406250
7368,-66.406250
7369,-66.406250
7370,-70.312500
7371,-70.312500
7372,-70.312500
7373,-70.312500
7374,-70.312500
7375,-74.218750
7376,-74.218750
7377,-74.218750
7378,-74.218750
7379,-74.218750
7380,-78.125000
7381,-78.125000
7382,-78.125000
7383,-78.125000
7384,-78.125000
7385,-82.031250
7386,-82.031250
7387,-82.031250
7388,-82.031250
7389,-82.031250
7390,-82.031250
7391,-82.031250
7392,-85.937500
7393,-85.937500
7394,-85.937500
7395,-85.937500
7396,-85.937500
7397,-85.937500
7398,-85.937500
7399,-89.843750
7400,-89.843750
7401,-89.843750
7402,-89.843750
7403,-89.843750
7404,-89.843750
7405,-89.843750
7406,-89.843750
7407,-89.843750
7408,-89.843750
7409,-89.843750
7410,-93.750000
7411,-93.750000
7412,-93.750000
7413,-93.750000
7414,-93.750000
7415,-93.750000
7416,-93.750000
7417,-93.750000
7418,-93.750000
7419,-93.750000
7420,-93.750000
7421,-93.750000
7422,-93.750000
7423,-93.750000
7424,-93.750000
7425,-93.750000
7426,-97.656250
7427,-93.750000
7428,-93.750000
7429,-93.750000
7430,-93.750000
7431,-93.750000
7432,-93.750000
7433,-93.750000
7434,-93.750000
7435,-93.750000
7436,-93.750000
7437,-93.750000
7438,-93.750000
7439,-93.750000
7440,-93.750000
7441,-93.750000
7442,-93.750000
7443,-93.750000
7444,-89.843750
7445,-89.843750
7446,-89.843750
7447,-89.843750
7448,-89.843750
7449,-89.843750
7450,-89.843750
7451,-89.843750
7452,-89.843750
7453,-89.843750
7454,-85.937500
7455,-85.937500
7456,-85.937500
7457,-85.937500
7458,-85.937500
7459,-85.937500
7460,-85.937500
7461,-82.031250
7462,-82.031250
7463,-85.937500
7464,-82.031250
7465,-82.031250
7466,-82.031250
7467,-82.031250
7468,-82.031250
7469,-78.125000
7470,-78.125000
7471,-78.125000
7472,-78.125000
7473,-78.125000
7474,-78.125000
7475,-74.218750
7476,-74.218750
7477,-74.218750
7478,-74.218750
7479,-74.218750
7480,-70.312500
7481,-70.312500
7482,-70.312500
7483,-70.312500
7484,-70.312500
7485,-66.406250
7486,-66.406250
7487,-62.500000
7488,-66.406250
7489,-62.500000
7490,-62.500000
7491,-62.500000
7492,-62.500000
7493,-62.500000
7494,-58.593750
7495,-58.593750
7496,-58.593750
7497,-58.593750
7498,-54.687500
7499,-54.687500
7500,-54.687500
7501,-54.687500
7502,-50.781250
7503,-50.781250
7504,-50.781250
7505,-50.781250
7506,-50.781250
7507,-46.875000
7508,-46.875000
7509,-46.875000
7510,-46.875000
7511,-42.968750
7512,-42.968750
7513,-42.968750
7514,-39.062500
7515,-39.062500
7516,-39.062500
7517,-39.062500
7518,-35.156250
7519,-35.156250
7520,-35.156250
7521,-35.156250
7522,-31.250000
7523,-31.250000
7524,-31.250000
7525,-31.250000
7526,-27.343750
7527,-27.343750
7528,-27.343750
7529,-23.437500
7530,-23.437500
7531,-23.437500
7532,-23.437500
7533,-23.437500
7534,-19.531250
7535,-19.531250
7536,-19.531250
7537,-19.531250
7538,-19.531250
7539,-15.625000
7540,-15.625000
7541,-11.718750
7542,-11.718750
7543,-11.718750
7544,-11.718750
7545,-11.718750
7546,-7.812500
7547,-7.812500
7548,-7.812500
7549,-7.812500
7550,-3.906250
7551,-3.906250
7552,-3.906250
7553,0.000000
7554,0.000000
7555,0.000000
7556,-7.812500
7557,0.000000
7558,0.000000
7559,3.906250
7560,3.906250
7561,3.906250
7562,3.906250
7563,7.812500
7564,7.812500
7565,7.812500
7566,7.812500
7567,11.718750
7568,11.718750
7569,11.718750
7570,11.718750
7571,11.718750
7572,11.718750
7573,11.718750
7574,15.625000
7575,15.625000
7576,15.625000
7577,15.625000
7578,15.625000
7579,15.625000
7580,19.531250
7581,19.531250
7582,19.531250
7583,19.531250
7584,19.531250
7585,23.437500
7586,23.437500
7587,23.437500
7588,23.437500
7589,23.437500
7590,23.437500
7591,23.437500
7592,27.343750
7593,23.437500
7594,27.343750
7595,27.343750
7596,27.343750
7597,27.343750
7598,27.343750
7599,27.343750
7600,27.343750
7601,31.250000
7602,31.250000
7603,31.250000
7604,31.250000
7605,31.250000
7606,31.250000
7607,31.250000
7608,31.250000
7609,31.250000
7610,35.156250
7611,35.156250
7612,35.156250
7613,35.156250
7614,35.156250
7615,35.156250
7616,35.156250
7617,35.156250
7618,35.156250
7619,35.156250
7620,35.156250
7621,35.156250
7622,39.062500
7623,35.156250
7624,39.062500
7625,39.062500
7626,39.062500
7627,39.062500
7628,39.062500
7629,39.062500
7630,39.062500
7631,39.062500
7632,39.062500
7633,39.062500
7634,39.062500
7635,39.062500
7636,39.062500
7637,39.062500
7638,39.062500
7639,39.062500
7640,39.062500
7641,39.062500
7642,39.062500
7643,39.062500
7644,39.062500
7645,39.062500
7646,35.156250
7647,39.062500
7648,39.062500
7649,35.156250
7650,35.156250
7651,35.156250
7652,35.156250
7653,35.156250
7654,35.156250
7655,35.156250
7656,35.156250
7657,35.156250
7658,35.156250
7659,35.156250
7660,35.156250
7661,35.156250
7662,35.156250
7663,31.250000
7664,31.250000
7665,31.250000
7666,31.250000
7667,31.250000
7668,31.250000
7669,31.250000
7670,31.250000
7671,31.250000
7672,31.250000
7673,27.343750
7674,31.250000
7675,31.250000
7676,27.343750
7677,27.343750
7678,27.343750
7679,27.343750
7680,27.343750
7681,23.437500
7682,23.437500
7683,23.437500
7684,23.437500
7685,23.437500
7686,23.437500
7687,23.437500
7688,19.531250
7689,19.531250
7690,19.531250
7691,19.531250
7692,19.531250
7693,19.531250
7694,15.625000
7695,15.625000
7696,15.625000
7697,15.625000
7698,15.625000
7699,11.718750
7700,15.625000
7701,11.718750
7702,11.718750
7703,11.718750
7704,11.718750
7705,11.718750
7706,7.812500
7707,7.812500
7708,7.812500
7709,7.812500
7710,3.906250
7711,3.906250
7712,3.906250
7713,3.906250
7714,3.906250
7715,0.000000
7716,0.000000
7717,0.000000
7718,-3.906250
7719,-3.906250
7720,-3.906250
7721,-3.906250
7722,-3.906250
7723,-7.812500
7724,-7.812500
7725,-7.812500
7726,-7.812500
7727,-11.718750
7728,-11.718750
7729,-11.718750
7730,-11.718750
7731,-15.625000
7732,-15.625000
7733,-15.625000
7734,-15.625000
7735,-19.531250
7736,-19.531250
7737,-19.531250
7738,-19.531250
7739,-23.437500
7740,-23.437500
7741,-23.437500
7742,-27.343750
7743,-27.343750
7744,-27.343750
7745,-27.343750
7746,-31.250000
7747,-31.250000
7748,-31.250000
7749,-31.250000
7750,-31.250000
7751,-35.156250
7752,-35.156250
7753,-35.156250
7754,-39.062500
7755,-39.062500
7756,-39.062500
7757,-39.062500
7758,-42.968750
7759,-42.968750
7760,-42.968750
7761,-42.968750
7762,-46.875000
7763,-46.875000
7764,-46.875000
7765,-50.781250
7766,-50.781250
7767,-50.781250
7768,-50.781250
7769,-54.687500
7770,-54.687500
7771,-54.687500
7772,-54.687500
7773,-54.687500
7774,-58.593750
7775,-58.593750
7776,-58.593750
7777,-62.500000
7778,-62.500000
7779,-62.500000
7780,-62.500000
7781,-62.500000
7782,-62.500000
7783,-66.406250
7784,-66.406250
7785,-62.500000
7786,-66.406250
7787,-70.312500
7788,-70.312500
7789,-70.312500
7790,-70.312500
7791,-74.218750
7792,-74.218750
7793,-74.218750
7794,-74.218750
7795,-78.125000
7796,-74.218750
7797,-78.125000
7798,-78.125000
7799,-78.125000
7800,-78.125000
7801,-78.125000
7802,-82.031250
7803,-82.031250
7804,-82.031250
7805,-82.031250
7806,-82.031250
7807,-82.031250
7808,-82.031250
7809,-85.937500
7810,-85.937500
7811,-85.937500
7812,-85.937500
7813,-85.937500
7814,-85.937500
7815,-85.937500
7816,-85.937500
7817,-89.843750
7818,-89.843750
7819,-89.843750
7820,-89.843750
7821,-89.843750
7822,-89.843750
7823,-89.843750
7824,-93.750000
7825,-89.843750
7826,-89.843750
7827,-89.843750
7828,-93.750000
7829,-93.750000
7830,-93.750000
7831,-93.750000
7832,-93.750000
7833,-93.750000
7834,-93.750000
7835,-93.750000
7836,-93.750000
7837,-93.750000
7838,-93.750000
7839,-93.750000
7840,-93.750000
7841,-93.750000
7842,-93.750000
7843,-93.750000
7844,-97.656250
7845,-93.750000
7846,-93.750000
7847,-93.750000
7848,-93.750000
7849,-93.750000
7850,-93.750000
7851,-93.750000
7852,-93.750000
7853,-93.750000
7854,-93.750000
7855,-93.750000
7856,-93.750000
7857,-93.750000
7858,-93.750000
7859,-93.750000
7860,-93.750000
7861,-89.843750
7862,-89.843750
7863,-89.843750
7864,-89.843750
7865,-89.843750
7866,-89.843750
7867,-89.843750
7868,-89.843750
7869,-89.843750
7870,-89.843750
7871,-85.937500
7872,-85.937500
7873,-85.937500
7874,-85.937500
7875,-85.937500
7876,-85.937500
7877,-85.937500
7878,-85.937500
7879,-82.031250
7880,-82.031250
7881,-82.031250
7882,-82.031250
7883,-82.031250
7884,-82.031250
7885,-78.125000
7886,-78.125000
7887,-78.125000
7888,-78.125000
7889,-78.125000
7890,-78.125000
7891,-74.218750
7892,-74.218750
7893,-74.218750
7894,-74.218750
7895,-74.218750
7896,-70.312500
7897,-70.312500
7898,-70.312500
7899,-70.312500
7900,-70.312500
7901,-70.312500
7902,-66.406250
7903,-66.406250
7904,-66.406250
7905,-66.406250
7906,-62.500000
7907,-62.500000
7908,-62.500000
7909,-62.500000
7910,-58.593750
7911,-58.593750
7912,-58.593750
7913,-58.593750
7914,-58.593750
7915,-54.687500
7916,-54.687500
7917,-54.687500
7918,-54.687500
7919,-50.781250
7920,-50.781250
7921,-50.781250
7922,-46.875000
7923,-46.875000
7924,-46.875000
7925,-46.875000
7926,-46.875000
7927,-42.968750
7928,-42.968750
7929,-42.968750
7930,-42.968750
7931,-39.062500
7932,-39.062500
7933,-39.062500
7934,-39.062500
7935,-35.156250
7936,-35.156250
7937,-35.156250
7938,-35.156250
7939,-31.250000
7940,-31.250000
7941,-31.250000
7942,-31.250000
7943,-27.343750
7944,-27.343750
7945,-23.437500
7946,-23.437500
7947,-23.437500
7948,-23.437500
7949,-23.437500
7950,-19.531250
7951,-19.531250
7952,-19.531250
7953,-19.531250
7954,-19.531250
7955,-15.625000
7956,-15.625000
7957,-15.625000
7958,-15.625000
7959,-7.812500
7960,-11.718750
7961,-11.718750
7962,-11.718750
7963,-7.812500
7964,-7.812500
7965,-7.812500
7966,-7.812500
7967,-7.812500
7968,-7.812500
7969,-3.906250
7970,-3.906250
7971,0.000000
7972,0.000000
7973,0.000000
7974,0.000000
7975,0.000000
7976,3.906250
7977,3.906250
7978,3.906250
7979,3.906250
7980,3.906250
7981,7.812500
7982,7.812500
7983,7.812500
7984,7.812500
7985,11.718750
7986,11.718750
7987,11.718750
7988,11.718750
7989,11.718750
7990,15.625000
7991,15.625000
7992,15.625000
7993,15.625000
7994,15.625000
7995,15.625000
7996,19.531250
7997,19.531250
7998,19.531250
7999,19.531250
8000,19.531250
8001,19.531250
8002,23.437500
8003,23.437500
8004,23.437500
8005,23.437500
8006,23.437500
8007,23.437500
8008,23.437500
8009,27.343750
8010,27.343750
8011,27.343750
8012,27.343750
8013,27.343750
8014,27.343750
8015,27.343750
8016,31.250000
8017,31.250000
8018,31.250000
8019,31.250000
8020,31.250000
8021,31.250000
8022,31.250000
8023,31.250000
8024,31.250000
8025,31.250000
8026,35.156250
8027,35.156250
8028,35.156250
8029,35.156250
8030,35.156250
8031,35.156250
8032,35.156250
8033,35.156250
8034,35.156250
8035,35.156250
8036,35.156250
8037,35.156250
8038,35.156250
8039,35.156250
8040,35.156250
8041,39.062500
8042,39.062500
8043,35.156250
8044,39.062500
8045,35.156250
8046,39.062500
8047,39.062500
8048,39.062500
8049,39.062500
8050,35.156250
8051,39.062500
8052,39.062500
8053,39.062500
8054,39.062500
8055,42.968750
8056,39.062500
8057,39.062500
8058,39.062500
8059,39.062500
8060,39.062500
8061,39.062500
8062,39.062500
8063,39.062500
8064,35.156250
8065,39.062500
8066,39.062500
8067,35.156250
8068,35.156250
8069,35.156250
8070,35.156250
8071,39.062500
8072,35.156250
8073,35.156250
8074,35.156250
8075,35.156250
8076,35.156250
8077,35.156250
8078,35.156250
8079,35.156250
8080,35.156250
8081,35.156250
8082,35.156250
8083,31.250000
8084,31.250000
8085,31.250000
8086,31.250000
8087,31.250000
8088,31.250000
8089,31.250000
8090,27.343750
8091,27.343750
8092,27.343750
8093,27.343750
8094,27.343750
8095,27.343750
8096,27.343750
8097,27.343750
8098,23.437500
8099,23.437500
8100,23.437500
8101,23.437500
8102,23.437500
8103,23.437500
8104,23.437500
8105,19.531250
8106,19.531250
8107,19.531250
8108,19.531250
8109,19.531250
8110,19.531250
8111,15.625000
8112,15.625000
8113,15.625000
8114,15.625000
8115,15.625000
8116,11.718750
8117,11.718750
8118,11.718750
8119,11.718750
8120,11.718750
8121,7.812500
8122,7.812500
8123,7.812500
8124,7.812500
8125,7.812500
8126,7.812500
8127,3.906250
8128,3.906250
8129,3.906250
8130,3.906250
8131,3.906250
8132,0.000000
8133,0.000000
8134,0.000000
8135,-3.906250
8136,-3.906250
8137,-3.906250
8138,-3.906250
8139,-3.906250
8140,-7.812500
8141,-7.812500
8142,-7.812500
8143,-11.718750
8144,-11.718750
8145,-11.718750
8146,-15.625000
8147,-11.718750
8148,-15.625000
8149,-15.625000
8150,-15.625000
8151,-15.625000
8152,-19.531250
8153,-19.531250
8154,-19.531250
8155,-23.437500
8156,-23.437500
8157,-23.437500
8158,-23.437500
8159,-27.343750
8160,-27.343750
8161,-27.343750
8162,-27.343750
8163,-31.250000
8164,-31.250000
8165,-31.250000
8166,-31.250000
8167,-35.156250
8168,-35.156250
8169,-35.156250
8170,-39.062500
8171,-39.062500
8172,-39.062500
8173,-39.062500
8174,-42.968750
8175,-42.968750
8176,-42.968750
8177,-42.968750
8178,-42.968750
8179,-46.875000
8180,-46.875000
8181,-46.875000
8182,-50.781250
8183,-50.781250
8184,-50.781250
8185,-50.781250
8186,-54.687500
8187,-54.687500
8188,-54.687500
8189,-54.687500
8190,-58.593750
8191,-54.687500
8192,-58.593750
8193,-58.593750
8194,-58.593750
8195,-62.500000
8196,-62.500000
8197,-62.500000
8198,-62.500000
8199,-66.406250
8200,-66.406250
8201,-66.406250
8202,-66.406250
8203,-70.312500
8204,-70.312500
8205,-70.312500
8206,-70.312500
8207,-70.312500
8208,-74.218750
8209,-74.218750
8210,-74.218750
8211,-74.218750
8212,-74.218750
8213,-78.125000
8214,-78.125000
8215,-78.125000
8216,-78.125000
8217,-78.125000
8218,-82.031250
8219,-82.031250
8220,-82.031250
8221,-82.031250
8222,-82.031250
8223,-82.031250
8224,-82.031250
8225,-85.937500
8226,-85.937500
8227,-85.937500
8228,-85.937500
8229,-85.937500
8230,-85.937500
8231,-85.937500
8232,-89.843750
8233,-89.843750
8234,-89.843750
8235,-89.843750
8236,-89.843750
8237,-89.843750
8238,-89.843750
8239,-89.843750
8240,-89.843750
8241,-89.843750
8242,-93.750000
8243,-93.750000
8244,-93.750000
8245,-93.750000
8246,-93.750000
8247,-93.750000
8248,-93.750000
8249,-93.750000
8250,-93.750000
8251,-93.750000
8252,-93.750000
8253,-93.750000
8254,-93.750000
8255,-93.750000
8256,-93.750000
8257,-93.750000
8258,-93.750000
8259,-93.750000
8260,-93.750000
8261,-93.750000
8262,-93.750000
8263,-93.750000
8264,-93.750000
8265,-93.750000
8266,-93.750000
8267,-93.750000
8268,-93.750000
8269,-93.750000
8270,-93.750000
8271,-93.750000
8272,-93.750000
8273,-93.750000
8274,-93.750000
8275,-93.750000
8276,-89.843750
8277,-93.750000
8278,-89.843750
8279,-89.843750
8280,-89.843750
8281,-89.843750
8282,-89.843750
8283,-89.843750
8284,-89.843750
8285,-89.843750
8286,-89.843750
8287,-85.937500
8288,-85.937500
8289,-85.937500
8290,-89.843750
8291,-85.937500
8292,-85.937500
8293,-85.937500
8294,-85.937500
8295,-85.937500
8296,-82.031250
8297,-82.031250
8298,-82.031250
8299,-82.031250
8300,-82.031250
8301,-82.031250
8302,-78.125000
8303,-78.125000
8304,-78.125000
8305,-78.125000
8306,-78.125000
8307,-78.125000
8308,-74.218750
8309,-74.218750
8310,-74.218750
8311,-74.218750
8312,-74.218750
8313,-74.218750
8314,-70.312500
8315,-70.312500
8316,-70.312500
8317,-70.312500
8318,-66.406250
8319,-66.406250
8320,-66.406250
8321,-66.406250
8322,-62.500000
8323,-62.500000
8324,-62.500000
8325,-62.500000
8326,-58.593750
8327,-58.593750
8328,-58.593750
8329,-58.593750
8330,-58.593750
8331,-54.687500
8332,-54.687500
8333,-54.687500
8334,-54.687500
8335,-54.687500
8336,-50.781250
8337,-50.781250
8338,-50.781250
8339,-46.875000
8340,-46.875000
8341,-46.875000
8342,-46.875000
8343,-42.968750
8344,-46.875000
8345,-42.968750
8346,-42.968750
8347,-39.062500
8348,-39.062500
8349,-39.062500
8350,-39.062500
8351,-39.062500
8352,-35.156250
8353,-35.156250
8354,-35.156250
8355,-35.156250
8356,-31.250000
8357,-31.250000
8358,-31.250000
8359,-31.250000
8360,-27.343750
8361,-27.343750
8362,-27.343750
8363,-27.343750
8364,-23.437500
8365,-23.437500
8366,-23.437500
8367,-23.437500
8368,-19.531250
8369,-19.531250
8370,-19.531250
8371,-19.531250
8372,-15.625000
8373,-15.625000
8374,-15.625000
8375,-15.625000
8376,-11.718750
8377,-11.718750
8378,-11.718750
8379,-11.718750
8380,-7.812500
8381,-7.812500
8382,-7.812500
8383,-3.906250
8384,-3.906250
8385,-3.906250
8386,-3.906250
8387,-3.906250
8388,0.000000
8389,0.000000
8390,0.000000
8391,0.000000
8392,0.000000
8393,3.906250
8394,3.906250
8395,3.906250
8396,3.906250
8397,3.906250
8398,7.812500
8399,7.812500
8400,7.812500
8401,7.812500
8402,11.718750
8403,11.718750
8404,11.718750
8405,11.718750
8406,11.718750
8407,15.625000
8408,15.625000
8409,15.625000
8410,15.625000
8411,15.625000
8412,15.625000
8413,19.531250
8414,19.531250
8415,15.625000
8416,19.531250
8417,19.531250
8418,19.531250
8419,19.531250
8420,23.437500
8421,23.437500
8422,23.437500
8423,23.437500
8424,23.437500
8425,27.343750
8426,27.343750
8427,27.343750
8428,27.343750
8429,27.343750
8430,27.343750
8431,27.343750
8432,27.343750
8433,27.343750
8434,27.343750
8435,31.250000
8436,31.250000
8437,31.250000
8438,31.250000
8439,31.250000
8440,31.250000
8441,31.250000
8442,31.250000
8443,31.250000
8444,31.250000
8445,35.156250
8446,35.156250
8447,35.156250
8448,35.156250
8449,35.156250
8450,35.156250
8451,35.156250
8452,35.156250
8453,35.156250
8454,35.156250
8455,35.156250
8456,35.156250
8457,39.062500
8458,39.062500
8459,39.062500
8460,39.062500
8461,39.062500
8462,39.062500
8463,39.062500
8464,39.062500
8465,35.156250
8466,39.062500
8467,39.062500
8468,39.062500
8469,39.062500
8470,39.062500
8471,39.062500
8472,39.062500
8473,39.062500
8474,39.062500
8475,39.062500
8476,39.062500
8477,39.062500
8478,39.062500
8479,39.062500
8480,39.062500
8481,39.062500
8482,42.968750
8483,35.156250
8484,39.062500
8485,35.156250
8486,35.156250
8487,35.156250
8488,35.156250
8489,35.156250
8490,35.156250
8491,35.156250
8492,35.156250
8493,35.156250
8494,35.156250
8495,35.156250
8496,35.156250
8497,35.156250
8498,35.156250
8499,31.250000
8500,31.250000
8501,31.250000
8502,31.250000
8503,31.250000
8504,31.250000
8505,31.250000
8506,31.250000
8507,27.343750
8508,27.343750
8509,27.343750
8510,27.343750
8511,27.343750
8512,27.343750
8513,27.343750
8514,27.343750
8515,23.437500
8516,23.437500
8517,23.437500
8518,23.437500
8519,23.437500
8520,23.437500
8521,23.437500
8522,23.437500
8523,19.531250
8524,19.531250
8525,19.531250
8526,19.531250
8527,19.531250
8528,15.625000
8529,15.625000
8530,15.625000
8531,15.625000
8532,15.625000
8533,11.718750
8534,15.625000
8535,11.718750
8536,11.718750
8537,11.718750
8538,7.812500
8539,7.812500
8540,7.812500
8541,7.812500
8542,7.812500
8543,3.906250
8544,3.906250
8545,3.906250
8546,3.906250
8547,0.000000
8548,0.000000
8549,0.000000
8550,0.000000
8551,-3.906250
8552,-3.906250
8553,-3.906250
8554,-3.906250
8555,-3.906250
8556,-7.812500
8557,-7.812500
8558,-7.812500
8559,-11.718750
8560,-11.718750
8561,-11.718750
8562,-11.718750
8563,-11.718750
8564,-15.625000
8565,-15.625000
8566,-15.625000
8567,-15.625000
8568,-19.531250
8569,-19.531250
8570,-19.531250
8571,-23.437500
8572,-19.531250
8573,-23.437500
8574,-23.437500
8575,-23.437500
8576,-27.343750
8577,-27.343750
8578,-27.343750
8579,-27.343750
8580,-31.250000
8581,-31.250000
8582,-31.250000
8583,-35.156250
8584,-35.156250
8585,-35.156250
8586,-35.156250
8587,-35.156250
8588,-39.062500
8589,-39.062500
8590,-39.062500
8591,-42.968750
8592,-42.968750
8593,-42.968750
8594,-42.968750
8595,-46.875000
8596,-46.875000
8597,-46.875000
8598,-46.875000
8599,-50.781250
8600,-50.781250
8601,-50.781250
8602,-54.687500
8603,-50.781250
8604,-54.687500
8605,-54.687500
8606,-54.687500
8607,-58.593750
8608,-58.593750
8609,-58.593750
8610,-62.500000
8611,-62.500000
8612,-62.500000
8613,-62.500000
8614,-62.500000
8615,-66.406250
8616,-66.406250
8617,-66.406250
8618,-66.406250
8619,-66.406250
8620,-70.312500
8621,-70.312500
8622,-70.312500
8623,-70.312500
8624,-74.218750
8625,-74.218750
8626,-74.218750
8627,-74.218750
8628,-74.218750
8629,-78.125000
8630,-78.125000
8631,-78.125000
8632,-78.125000
8633,-78.125000
8634,-78.125000
8635,-82.031250
8636,-82.031250
8637,-82.031250
8638,-82.031250
8639,-82.031250
8640,-85.937500
8641,-85.937500
8642,-85.937500
8643,-85.937500
8644,-85.937500
8645,-85.937500
8646,-85.937500
8647,-85.937500
8648,-85.937500
8649,-89.843750
8650,-85.937500
8651,-89.843750
8652,-85.937500
8653,-89.843750
8654,-89.843750
8655,-89.843750
8656,-89.843750
8657,-89.843750
8658,-89.843750
8659,-89.843750
8660,-93.750000
8661,-89.843750
8662,-93.750000
8663,-93.750000
8664,-93.750000
8665,-93.750000
8666,-93.750000
8667,-93.750000
8668,-93.750000
8669,-93.750000
8670,-93.750000
8671,-93.750000
8672,-93.750000
8673,-93.750000
8674,-93.750000
8675,-93.750000
8676,-93.750000
8677,-93.750000
8678,-93.750000
8679,-93.750000
8680,-93.750000
8681,-93.750000
8682,-93.750000
8683,-93.750000
8684,-93.750000
8685,-93.750000
8686,-93.750000
8687,-93.750000
8688,-93.750000
8689,-93.750000
8690,-93.750000
8691,-93.750000
8692,-93.750000
8693,-93.750000
8694,-89.843750
8695,-89.843750
8696,-89.843750
8697,-89.843750
8698,-89.843750
8699,-89.843750
8700,-89.843750
8701,-89.843750
8702,-89.843750
8703,-85.937500
8704,-89.843750
8705,-85.937500
8706,-85.937500
8707,-85.937500
8708,-85.937500
8709,-85.937500
8710,-85.937500
8711,-85.937500
8712,-82.031250
8713,-82.031250
8714,-82.031250
8715,-82.031250
8716,-82.031250
8717,-82.031250
8718,-78.125000
8719,-78.125000
8720,-78.125000
8721,-78.125000
8722,-78.125000
8723,-74.218750
8724,-78.125000
8725,-74.218750
8726,-74.218750
8727,-74.218750
8728,-74.218750
8729,-70.312500
8730,-70.312500
8731,-70.312500
8732,-70.312500
8733,-70.312500
8734,-70.312500
8735,-66.406250
8736,-66.406250
8737,-66.406250
8738,-66.406250
8739,-62.500000
8740,-62.500000
8741,-62.500000
8742,-62.500000
8743,-58.593750
8744,-58.593750
8745,-58.593750
8746,-58.593750
8747,-58.593750
8748,-54.687500
8749,-54.687500
8750,-54.687500
8751,-54.687500
8752,-50.781250
8753,-50.781250
8754,-50.781250
8755,-50.781250
8756,-50.781250
8757,-46.875000
8758,-46.875000
8759,-46.875000
8760,-42.968750
8761,-42.968750
8762,-42.968750
8763,-42.968750
8764,-39.062500
8765,-39.062500
8766,-39.062500
8767,-39.062500
8768,-39.062500
8769,-35.156250
8770,-35.156250
8771,-35.156250
8772,-31.250000
8773,-31.250000
8774,-31.250000
8775,-31.250000
8776,-27.343750
8777,-27.343750
8778,-27.343750
8779,-27.343750
8780,-23.437500
8781,-23.437500
8782,-23.437500
8783,-23.437500
8784,-19.531250
8785,-19.531250
8786,-19.531250
8787,-15.625000
8788,-15.625000
8789,-15.625000
8790,-15.625000
8791,-15.625000
8792,-11.718750
8793,-11.718750
8794,-11.718750
8795,-11.718750
8796,-7.812500
8797,-7.812500
8798,-7.812500
8799,-7.812500
8800,-3.906250
8801,-7.812500
8802,-3.906250
8803,-3.906250
8804,-3.906250
8805,0.000000
8806,0.000000
8807,0.000000
8808,0.000000
8809,0.000000
8810,3.906250
8811,3.906250
8812,3.906250
8813,3.906250
8814,3.906250
8815,7.812500
8816,7.812500
8817,7.812500
8818,7.812500
8819,7.812500
8820,7.812500
8821,11.718750
8822,11.718750
8823,11.718750
8824,11.718750
8825,11.718750
8826,15.625000
8827,15.625000
8828,15.625000
8829,15.625000
8830,19.531250
8831,19.531250
8832,19.531250
8833,19.531250
8834,19.531250
8835,23.437500
8836,23.437500
8837,23.437500
8838,23.437500
8839,23.437500
8840,23.437500
8841,23.437500
8842,23.437500
8843,27.343750
8844,27.343750
8845,27.343750
8846,27.343750
8847,27.343750
8848,27.343750
8849,27.343750
8850,31.250000
8851,31.250000
8852,31.250000
8853,31.250000
8854,31.250000
8855,31.250000
8856,31.250000
8857,31.250000
8858,31.250000
8859,31.250000
8860,31.250000
8861,35.156250
8862,35.156250
8863,35.156250
8864,35.156250
8865,35.156250
8866,35.156250
8867,35.156250
8868,35.156250
8869,35.156250
8870,35.156250
8871,35.156250
8872,39.062500
8873,35.156250
8874,35.156250
8875,35.156250
8876,39.062500
8877,39.062500
8878,39.062500
8879,39.062500
8880,39.062500
8881,39.062500
8882,39.062500
8883,39.062500
8884,39.062500
8885,39.062500
8886,39.062500
8887,39.062500
8888,39.062500
8889,39.062500
8890,39.062500
8891,39.062500
8892,39.062500
8893,39.062500
8894,39.062500
8895,39.062500
8896,39.062500
8897,39.062500
8898,39.062500
8899,39.062500
8900,39.062500
8901,35.156250
8902,35.156250
8903,35.156250
8904,35.156250
8905,35.156250
8906,35.156250
8907,35.156250
8908,35.156250
8909,35.156250
8910,35.156250
8911,35.156250
8912,35.156250
8913,35.156250
8914,35.156250
8915,31.250000
8916,31.250000
8917,31.250000
8918,31.250000
8919,31.250000
8920,31.250000
8921,31.250000
8922,31.250000
8923,31.250000
8924,31.250000
8925,27.343750
8926,27.343750
8927,27.343750
8928,27.343750
8929,27.343750
8930,27.343750
8931,23.437500
8932,27.343750
8933,23.437500
8934,23.437500
8935,23.437500
8936,23.437500
8937,23.437500
8938,19.531250
8939,19.531250
8940,19.531250
8941,19.531250
8942,19.531250
8943,23.437500
8944,15.625000
8945,15.625000
8946,15.625000
8947,15.625000
8948,15.625000
8949,11.718750
8950,11.718750
8951,11.718750
8952,11.718750
8953,11.718750
8954,11.718750
8955,7.812500
8956,7.812500
8957,7.812500
8958,7.812500
8959,7.812500
8960,3.906250
8961,3.906250
8962,3.906250
8963,3.906250
8964,3.906250
8965,0.000000
8966,-3.906250
8967,0.000000
8968,-3.906250
8969,-3.906250
8970,-3.906250
8971,-3.906250
8972,-7.812500
8973,-7.812500
8974,-7.812500
8975,-7.812500
8976,-7.812500
8977,-7.812500
8978,-11.718750
8979,-11.718750
8980,-15.625000
8981,-11.718750
8982,-15.625000
8983,-15.625000
8984,-15.625000
8985,-19.531250
8986,-19.531250
8987,-19.531250
8988,-19.531250
8989,-23.437500
8990,-23.437500
8991,-27.343750
8992,-27.343750
8993,-27.343750
8994,-27.343750
8995,-27.343750
8996,-27.343750
8997,-31.250000
8998,-31.250000
8999,-31.250000
9000,-35.156250
9001,-35.156250
9002,-35.156250
9003,-39.062500
9004,-39.062500
9005,-39.062500
9006,-39.062500
9007,-42.968750
9008,-42.968750
9009,-42.968750
9010,-42.968750
9011,-42.968750
9012,-46.875000
9013,-46.875000
9014,-46.875000
9015,-50.781250
9016,-50.781250
9017,-50.781250
9018,-50.781250
9019,-54.687500
9020,-54.687500
9021,-54.687500
9022,-54.687500
9023,-54.687500
9024,-58.593750
9025,-58.593750
9026,-58.593750
9027,-62.500000
9028,-62.500000
9029,-62.500000
9030,-54.687500
9031,-62.500000
9032,-66.406250
9033,-66.406250
9034,-66.406250
9035,-70.312500
9036,-66.406250
9037,-70.312500
9038,-70.312500
9039,-70.312500
9040,-70.312500
9041,-70.312500
9042,-74.218750
9043,-74.218750
9044,-74.218750
9045,-74.218750
9046,-74.218750
9047,-78.125000
9048,-78.125000
9049,-78.125000
9050,-78.125000
9051,-78.125000
9052,-82.031250
9053,-82.031250
9054,-82.031250
9055,-82.031250
9056,-82.031250
9057,-82.031250
9058,-82.031250
9059,-85.937500
9060,-85.937500
9061,-85.937500
9062,-85.937500
9063,-85.937500
9064,-85.937500
9065,-85.937500
9066,-89.843750
9067,-89.843750
9068,-89.843750
9069,-89.843750
9070,-89.843750
9071,-89.843750
9072,-89.843750
9073,-89.843750
9074,-89.843750
9075,-93.750000
9076,-89.843750
9077,-93.750000
9078,-93.750000
9079,-93.750000
9080,-93.750000
9081,-93.750000
9082,-93.750000
9083,-93.750000
9084,-93.750000
9085,-93.750000
9086,-93.750000
9087,-93.750000
9088,-93.750000
9089,-93.750000
9090,-93.750000
9091,-93.750000
9092,-93.750000
9093,-93.750000
9094,-93.750000
9095,-93.750000
9096,-93.750000
9097,-93.750000
9098,-93.750000
9099,-93.750000
9100,-93.750000
9101,-93.750000
9102,-93.750000
9103,-93.750000
9104,-93.750000
9105,-93.750000
9106,-93.750000
9107,-93.750000
9108,-93.750000
9109,-89.843750
9110,-93.750000
9111,-93.750000
9112,-89.843750
9113,-89.843750
9114,-89.843750
9115,-89.843750
9116,-89.843750
9117,-89.843750
9118,-89.843750
9119,-89.843750
9120,-89.843750
9121,-85.937500
9122,-85.937500
9123,-85.937500
9124,-85.937500
9125,-85.937500
9126,-85.937500
9127,-85.937500
9128,-85.937500
9129,-82.031250
9130,-82.031250
9131,-82.031250
9132,-82.031250
9133,-82.031250
9134,-82.031250
9135,-78.125000
9136,-78.125000
9137,-78.125000
9138,-78.125000
9139,-78.125000
9140,-78.125000
9141,-74.218750
9142,-74.218750
9143,-74.218750
9144,-74.218750
9145,-74.218750
9146,-74.218750
9147,-70.312500
9148,-70.312500
9149,-70.312500
9150,-70.312500
9151,-66.406250
9152,-66.406250
9153,-66.406250
9154,-66.406250
9155,-66.406250
9156,-66.406250
9157,-62.500000
9158,-62.500000
9159,-62.500000
9160,-62.500000
9161,-58.593750
9162,-58.593750
9163,-58.593750
9164,-54.687500
9165,-54.687500
9166,-54.687500
9167,-54.687500
9168,-54.687500
9169,-50.781250
9170,-50.781250
9171,-50.781250
9172,-50.781250
9173,-46.875000
9174,-46.875000
9175,-46.875000
9176,-42.968750
9177,-42.968750
9178,-42.968750
9179,-42.968750
9180,-42.968750
9181,-39.062500
9182,-39.062500
9183,-39.062500
9184,-35.156250
9185,-35.156250
9186,-35.156250
9187,-35.156250
9188,-35.156250
9189,-31.250000
9190,-31.250000
9191,-31.250000
9192,-27.343750
9193,-27.343750
9194,-27.343750
9195,-27.343750
9196,-27.343750
9197,-23.437500
9198,-23.437500
9199,-23.437500
9200,-23.437500
9201,-19.531250
9202,-19.531250
9203,-19.531250
9204,-19.531250
9205,-15.625000
9206,-15.625000
9207,-15.625000
9208,-11.718750
9209,-11.718750
9210,-11.718750
9211,-11.718750
9212,-11.718750
9213,-7.812500
9214,-7.812500
9215,-7.812500
9216,-7.812500
9217,-3.906250
9218,-3.906250
9219,-3.906250
9220,-3.906250
9221,0.000000
9222,0.000000
9223,0.000000
9224,0.000000
9225,0.000000
9226,3.906250
9227,3.906250
9228,3.906250
9229,3.906250
9230,3.906250
9231,7.812500
9232,7.812500
9233,7.812500
9234,7.812500
9235,11.718750
9236,11.718750
9237,11.718750
9238,11.718750
9239,11.718750
9240,15.625000
9241,15.625000
9242,15.625000
9243,15.625000
9244,15.625000
9245,15.625000
9246,19.531250
9247,19.531250
9248,19.531250
9249,19.531250
9250,19.531250
9251,19.531250
9252,23.437500
9253,23.437500
9254,23.437500
9255,23.437500
9256,23.437500
9257,23.437500
9258,23.437500
9259,27.343750
9260,27.343750
9261,27.343750
9262,27.343750
9263,27.343750
9264,27.343750
9265,27.343750
9266,31.250000
9267,27.343750
9268,31.250000
9269,31.250000
9270,31.250000
9271,31.250000
9272,31.250000
9273,31.250000
9274,31.250000
9275,31.250000
9276,35.156250
9277,35.156250
9278,35.156250
9279,35.156250
9280,35.156250
9281,35.156250
9282,35.156250
9283,35.156250
9284,35.156250
9285,35.156250
9286,35.156250
9287,35.156250
9288,39.062500
9289,39.062500
9290,39.062500
9291,39.062500
9292,39.062500
9293,39.062500
9294,39.062500
9295,39.062500
9296,39.062500
9297,39.062500
9298,39.062500
9299,39.062500
9300,39.062500
9301,39.062500
9302,39.062500
9303,39.062500
9304,39.062500
9305,39.062500
9306,39.062500
9307,39.062500
9308,39.062500
9309,39.062500
9310,39.062500
9311,39.062500
9312,39.062500
9313,39.062500
9314,39.062500
9315,35.156250
9316,39.062500
9317,39.062500
9318,35.156250
9319,39.062500
9320,35.156250
9321,35.156250
9322,35.156250
9323,35.156250
9324,35.156250
9325,35.156250
9326,35.156250
9327,35.156250
9328,35.156250
9329,35.156250
9330,35.156250
9331,35.156250
9332,31.250000
9333,31.250000
9334,31.250000
9335,31.250000
9336,31.250000
9337,31.250000
9338,31.250000
9339,31.250000
9340,31.250000
9341,27.343750
9342,27.343750
9343,27.343750
9344,27.343750
9345,27.343750
9346,27.343750
9347,27.343750
9348,27.343750
9349,23.437500
9350,23.437500
9351,23.437500
9352,23.437500
9353,23.437500
9354,23.437500
9355,23.437500
9356,19.531250
9357,19.531250
9358,19.531250
9359,19.531250
9360,19.531250
9361,15.625000
9362,15.625000
9363,15.625000
9364,15.625000
9365,15.625000
9366,11.718750
9367,11.718750
9368,11.718750
9369,11.718750
9370,11.718750
9371,7.812500
9372,7.812500
9373,7.812500
9374,7.812500
9375,7.812500
9376,3.906250
9377,3.906250
9378,3.906250
9379,3.906250
9380,3.906250
9381,0.000000
9382,0.000000
9383,0.000000
9384,0.000000
9385,-3.906250
9386,-3.906250
9387,-3.906250
9388,-3.906250
9389,-7.812500
9390,-7.812500
9391,-7.812500
9392,-7.812500
9393,-11.718750
9394,-11.718750
9395,-11.718750
9396,-15.625000
9397,-15.625000
9398,-15.625000
9399,-15.625000
9400,-15.625000
9401,-19.531250
9402,-19.531250
9403,-19.531250
9404,-19.531250
9405,-23.437500
9406,-23.437500
9407,-23.437500
9408,-27.343750
9409,-27.343750
9410,-27.343750
9411,-27.343750
9412,-31.250000
9413,-31.250000
9414,-31.250000
9415,-31.250000
9416,-35.156250
9417,-35.156250
9418,-35.156250
9419,-35.156250
9420,-39.062500
9421,-39.062500
9422,-39.062500
9423,-39.062500
9424,-42.968750
9425,-42.968750
9426,-42.968750
9427,-46.875000
9428,-46.875000
9429,-46.875000
9430,-46.875000
9431,-46.875000
9432,-50.781250
9433,-50.781250
9434,-50.781250
9435,-50.781250
9436,-54.687500
9437,-54.687500
9438,-54.687500
9439,-54.687500
9440,-58.593750
9441,-58.593750
9442,-58.593750
9443,-58.593750
9444,-62.500000
9445,-62.500000
9446,-62.500000
9447,-62.500000
9448,-62.500000
9449,-66.406250
9450,-66.406250
9451,-66.406250
9452,-66.406250
9453,-66.406250
9454,-70.312500
9455,-70.312500
9456,-70.312500
9457,-74.218750
9458,-74.218750
9459,-74.218750
9460,-74.218750
9461,-74.218750
9462,-78.125000
9463,-78.125000
9464,-78.125000
9465,-78.125000
9466,-78.125000
9467,-78.125000
9468,-78.125000
9469,-82.031250
9470,-82.031250
9471,-82.031250
9472,-82.031250
9473,-82.031250
9474,-82.031250
9475,-85.937500
9476,-85.937500
9477,-85.937500
9478,-85.937500
9479,-85.937500
9480,-85.937500
9481,-85.937500
9482,-85.937500
9483,-89.843750
9484,-89.843750
9485,-89.843750
9486,-89.843750
9487,-89.843750
9488,-89.843750
9489,-89.843750
9490,-89.843750
9491,-89.843750
9492,-89.843750
9493,-89.843750
9494,-93.750000
9495,-93.750000
9496,-93.750000
9497,-93.750000
9498,-93.750000
9499,-93.750000
9500,-93.750000
9501,-93.750000
9502,-93.750000
9503,-93.750000
9504,-93.750000
9505,-93.750000
9506,-93.750000
9507,-93.750000
9508,-97.656250
9509,-93.750000
9510,-93.750000
9511,-93.750000
9512,-93.750000
9513,-93.750000
9514,-93.750000
9515,-93.750000
9516,-93.750000
9517,-93.750000
9518,-93.750000
9519,-93.750000
9520,-93.750000
9521,-93.750000
9522,-93.750000
9523,-93.750000
9524,-93.750000
9525,-93.750000
9526,-93.750000
9527,-89.843750
9528,-93.750000
9529,-93.750000
9530,-89.843750
9531,-89.843750
9532,-89.843750
9533,-89.843750
9534,-89.843750
9535,-89.843750
9536,-89.843750
9537,-89.843750
9538,-85.937500
9539,-85.937500
9540,-85.937500
9541,-85.937500
9542,-85.937500
9543,-85.937500
9544,-82.031250
9545,-85.937500
9546,-82.031250
9547,-82.031250
9548,-82.031250
9549,-82.031250
9550,-82.031250
9551,-82.031250
9552,-78.125000
9553,-78.125000
9554,-78.125000
9555,-78.125000
9556,-78.125000
9557,-74.218750
9558,-74.218750
9559,-74.218750
9560,-74.218750
9561,-74.218750
9562,-74.218750
9563,-70.312500
9564,-70.312500
9565,-70.312500
9566,-70.312500
9567,-66.406250
9568,-66.406250
9569,-66.406250
9570,-66.406250
9571,-66.406250
9572,-62.500000
9573,-62.500000
9574,-62.500000
9575,-62.500000
9576,-62.500000
9577,-58.593750
9578,-58.593750
9579,-58.593750
9580,-58.593750
9581,-58.593750
9582,-54.687500
9583,-54.687500
9584,-54.687500
9585,-50.781250
9586,-50.781250
9587,-50.781250
9588,-50.781250
9589,-50.781250
9590,-46.875000
9591,-46.875000
9592,-46.875000
9593,-46.875000
9594,-42.968750
9595,-42.968750
9596,-42.968750
9597,-39.062500
9598,-39.062500
9599,-39.062500
9600,-39.062500
9601,-35.156250
9602,-35.156250
9603,-35.156250
9604,-35.156250
9605,-35.156250
9606,-31.250000
9607,-31.250000
9608,-31.250000
9609,-27.343750
9610,-27.343750
9611,-27.343750
9612,-27.343750
9613,-23.437500
9614,-23.437500
9615,-19.531250
9616,-19.531250
9617,-19.531250
9618,-19.531250
9619,-19.531250
9620,-19.531250
9621,-15.625000
9622,-15.625000
9623,-15.625000
9624,-15.625000
9625,-11.718750
9626,-11.718750
9627,-11.718750
9628,-11.718750
9629,-7.812500
9630,-7.812500
9631,-7.812500
9632,-7.812500
9633,-7.812500
9634,-3.906250
9635,-3.906250
9636,-3.906250
9637,-3.906250
9638,0.000000
9639,0.000000
9640,0.000000
9641,0.000000
9642,0.000000
9643,3.906250
9644,3.906250
9645,3.906250
9646,3.906250
9647,7.812500
9648,7.812500
9649,11.718750
9650,7.812500
9651,7.812500
9652,7.812500
9653,11.718750
9654,11.718750
9655,11.718750
9656,11.718750
9657,11.718750
9658,15.625000
9659,15.625000
9660,15.625000
9661,15.625000
9662,15.625000
9663,19.531250
9664,19.531250
9665,19.531250
9666,19.531250
9667,19.531250
9668,23.437500
9669,23.437500
9670,23.437500
9671,23.437500
9672,23.437500
9673,23.437500
9674,23.437500
9675,27.343750
9676,27.343750
9677,27.343750
9678,31.250000
9679,27.343750
9680,27.343750
9681,27.343750
9682,31.250000
9683,31.250000
9684,31.250000
9685,31.250000
9686,31.250000
9687,31.250000
9688,31.250000
9689,31.250000
9690,31.250000
9691,31.250000
9692,35.156250
9693,35.156250
9694,35.156250
9695,35.156250
9696,35.156250
9697,35.156250
9698,35.156250
9699,35.156250
9700,35.156250
9701,35.156250
9702,35.156250
9703,39.062500
9704,35.156250
9705,39.062500
9706,35.156250
9707,39.062500
9708,39.062500
9709,39.062500
9710,39.062500
9711,39.062500
9712,39.062500
9713,39.062500
9714,39.062500
9715,35.156250
9716,39.062500
9717,39.062500
9718,35.156250
9719,39.062500
9720,39.062500
9721,42.968750
9722,39.062500
9723,39.062500
9724,39.062500
9725,39.062500
9726,39.062500
9727,39.062500
9728,39.062500
9729,39.062500
9730,39.062500
9731,39.062500
9732,39.062500
9733,39.062500
9734,35.156250
9735,35.156250
9736,39.062500
9737,39.062500
9738,35.156250
9739,35.156250
9740,35.156250
9741,35.156250
9742,35.156250
9743,35.156250
9744,35.156250
9745,35.156250
9746,35.156250
9747,31.250000
9748,35.156250
9749,31.250000
9750,31.250000
9751,31.250000
9752,31.250000
9753,31.250000
9754,31.250000
9755,31.250000
9756,31.250000
9757,31.250000
9758,31.250000
9759,27.343750
9760,27.343750
9761,27.343750
9762,27.343750
9763,27.343750
9764,27.343750
9765,27.343750
9766,23.437500
9767,23.437500
9768,23.437500
9769,23.437500
9770,23.437500
9771,19.531250
9772,19.531250
9773,19.531250
9774,19.531250
9775,19.531250
9776,19.531250
9777,19.531250
9778,15.625000
9779,15.625000
9780,15.625000
9781,15.625000
9782,15.625000
9783,15.625000
9784,11.718750
9785,11.718750
9786,11.718750
9787,11.718750
9788,7.812500
9789,7.812500
9790,7.812500
9791,7.812500
9792,7.812500
9793,3.906250
9794,3.906250
9795,3.906250
9796,3.906250
9797,0.000000
9798,0.000000
9799,0.000000
9800,0.000000
9801,0.000000
9802,-3.906250
9803,-3.906250
9804,-3.906250
9805,-3.906250
9806,-7.812500
9807,-7.812500
9808,-7.812500
9809,-7.812500
9810,-11.718750
9811,-11.718750
9812,-11.718750
9813,-11.718750
9814,-15.625000
9815,-15.625000
9816,-15.625000
9817,-15.625000
9818,-19.531250
9819,-19.531250
9820,-19.531250
9821,-19.531250
9822,-23.437500
9823,-23.437500
9824,-23.437500
9825,-23.437500
9826,-27.343750
9827,-27.343750
9828,-27.343750
9829,-27.343750
9830,-31.250000
9831,-31.250000
9832,-31.250000
9833,-31.250000
9834,-35.156250
9835,-35.156250
9836,-35.156250
9837,-39.062500
9838,-39.062500
9839,-39.062500
9840,-42.968750
9841,-39.062500
9842,-42.968750
9843,-42.968750
9844,-42.968750
9845,-46.875000
9846,-46.875000
9847,-46.875000
9848,-46.875000
9849,-50.781250
9850,-50.781250
9851,-50.781250
9852,-50.781250
9853,-54.687500
9854,-54.687500
9855,-54.687500
9856,-54.687500
9857,-58.593750
9858,-58.593750
9859,-58.593750
9860,-58.593750
9861,-62.500000
9862,-62.500000
9863,-62.500000
9864,-62.500000
9865,-66.406250
9866,-66.406250
9867,-66.406250
9868,-66.406250
9869,-66.406250
9870,-70.312500
9871,-70.312500
9872,-70.312500
9873,-70.312500
9874,-70.312500
9875,-74.218750
9876,-74.218750
9877,-74.218750
9878,-74.218750
9879,-74.218750
9880,-74.218750
9881,-78.125000
9882,-78.125000
9883,-78.125000
9884,-78.125000
9885,-78.125000
9886,-82.031250
9887,-82.031250
9888,-82.031250
9889,-82.031250
9890,-82.031250
9891,-82.031250
9892,-85.937500
9893,-85.937500
9894,-85.937500
9895,-85.937500
9896,-85.937500
9897,-85.937500
9898,-85.937500
9899,-89.843750
9900,-89.843750
9901,-89.843750
9902,-89.843750
9903,-89.843750
9904,-89.843750
9905,-89.843750
9906,-93.750000
9907,-89.843750
9908,-89.843750
9909,-89.843750
9910,-89.843750
9911,-89.843750
9912,-93.750000
9913,-93.750000
9914,-93.750000
9915,-93.750000
9916,-93.750000
9917,-93.750000
9918,-93.750000
9919,-93.750000
9920,-93.750000
9921,-93.750000
9922,-93.750000
9923,-93.750000
9924,-93.750000
9925,-93.750000
9926,-93.750000
9927,-93.750000
9928,-93.750000
9929,-93.750000
9930,-93.750000
9931,-93.750000
9932,-93.750000
9933,-93.750000
9934,-93.750000
9935,-93.750000
9936,-93.750000
9937,-93.750000
9938,-93.750000
9939,-93.750000
9940,-97.656250
9941,-93.750000
9942,-93.750000
9943,-93.750000
9944,-93.750000
9945,-93.750000
9946,-89.843750
9947,-89.843750
9948,-89.843750
9949,-89.843750
9950,-89.843750
9951,-89.843750
9952,-89.843750
9953,-89.843750
9954,-89.843750
9955,-85.937500
9956,-85.937500
9957,-85.937500
9958,-85.937500
9959,-85.937500
9960,-85.937500
9961,-85.937500
9962,-85.937500
9963,-82.031250
9964,-82.031250
9965,-82.031250
9966,-82.031250
9967,-82.031250
9968,-82.031250
9969,-78.125000
9970,-78.125000
9971,-78.125000
9972,-78.125000
9973,-78.125000
9974,-78.125000
9975,-78.125000
9976,-74.218750
9977,-74.218750
9978,-74.218750
9979,-74.218750
9980,-70.312500
9981,-70.312500
9982,-70.312500
9983,-70.312500
9984,-70.312500
9985,-66.406250
9986,-66.406250
9987,-66.406250
9988,-66.406250
9989,-66.406250
9990,-62.500000
9991,-62.500000
9992,-62.500000
9993,-62.500000
9994,-62.500000
9995,-58.593750
9996,-58.593750
9997,-58.593750
9998,-54.687500
9999,-54.687500
10000,-54.687500
