Channel              :,CH1
Frequency            :,1.198kHz
Period               :,0.834ms
PK-PK                :,484.4mV
Probe attenuation    :,1X
Voltage per ADC value:,0.244141mV
Time interval        :,2.00000us

index,CH1_Voltage(mV)
1,-62.500000
2,-62.500000
3,-58.593750
4,-54.687500
5,-54.687500
6,-46.875000
7,-46.875000
8,-39.062500
9,-35.156250
10,-31.250000
11,-27.343750
12,-23.437500
13,-19.531250
14,-19.531250
15,-15.625000
16,-11.718750
17,-7.812500
18,-3.906250
19,0.000000
20,3.906250
21,7.812500
22,11.718750
23,15.625000
24,19.531250
25,23.437500
26,23.437500
27,31.250000
28,31.250000
29,35.156250
30,39.062500
31,42.968750
32,46.875000
33,50.781250
34,50.781250
35,54.687500
36,58.593750
37,62.500000
38,62.500000
39,66.406250
40,70.312500
41,70.312500
42,74.218750
43,78.125000
44,82.031250
45,85.937500
46,85.937500
47,89.843750
48,93.750000
49,93.750000
50,97.656250
51,101.562500
52,101.562500
53,105.468750
54,105.468750
55,109.375000
56,113.281250
57,113.281250
58,117.187500
59,117.187500
60,121.093750
61,125.000000
62,125.000000
63,128.906250
64,128.906250
65,128.906250
66,132.812500
67,132.812500
68,136.718750
69,136.718750
70,140.625000
71,140.625000
72,144.531250
73,144.531250
74,144.531250
75,148.437500
76,148.437500
77,148.437500
78,152.343750
79,152.343750
80,152.343750
81,156.250000
82,156.250000
83,160.156250
84,160.156250
85,160.156250
86,160.156250
87,160.156250
88,164.062500
89,164.062500
90,164.062500
91,167.968750
92,164.062500
93,167.968750
94,167.968750
95,167.968750
96,167.968750
97,167.968750
98,171.875000
99,167.968750
100,171.875000
101,171.875000
102,171.875000
103,171.875000
104,171.875000
105,171.875000
106,171.875000
107,171.875000
108,171.875000
109,175.781250
110,175.781250
111,175.781250
112,171.875000
113,171.875000
114,175.781250
115,175.781250
116,171.875000
117,171.875000
118,175.781250
119,175.781250
120,171.875000
121,175.781250
122,171.875000
123,171.875000
124,171.875000
125,171.875000
126,171.875000
127,171.875000
128,171.875000
129,171.875000
130,167.968750
131,167.968750
132,167.968750
133,167.968750
134,167.968750
135,167.968750
136,167.968750
137,164.062500
138,164.062500
139,164.062500
140,164.062500
141,160.156250
142,160.156250
143,160.156250
144,160.156250
145,156.250000
146,156.250000
147,156.250000
148,152.343750
149,152.343750
150,148.437500
151,148.437500
152,148.437500
153,148.437500
154,144.531250
155,144.531250
156,140.625000
157,140.625000
158,140.625000
159,136.718750
160,136.718750
161,132.812500
162,132.812500
163,128.906250
164,128.906250
165,125.000000
166,125.000000
167,121.093750
168,121.093750
169,117.187500
170,117.187500
171,113.281250
172,109.375000
173,109.375000
174,105.468750
175,105.468750
176,101.562500
177,97.656250
178,97.656250
179,93.750000
180,93.750000
181,89.843750
182,85.937500
183,82.031250
184,82.031250
185,78.125000
186,74.218750
187,70.312500
188,70.312500
189,66.406250
190,62.500000
191,58.593750
192,58.593750
193,54.687500
194,50.781250
195,46.875000
196,42.968750
197,42.968750
198,39.062500
199,35.156250
200,31.250000
201,27.343750
202,23.437500
203,19.531250
204,15.625000
205,15.625000
206,11.718750
207,7.812500
208,3.906250
209,0.000000
210,-3.906250
211,-7.812500
212,-11.718750
213,-15.625000
214,-19.531250
215,-23.437500
216,-27.343750
217,-31.250000
218,-35.156250
219,-39.062500
220,-42.968750
221,-46.875000
222,-50.781250
223,-54.687500
224,-58.593750
225,-62.500000
226,-66.406250
227,-70.312500
228,-74.218750
229,-78.125000
230,-82.031250
231,-85.937500
232,-89.843750
233,-93.750000
234,-97.656250
235,-101.562500
236,-105.468750
237,-109.375000
238,-113.281250
239,-117.187500
240,-121.093750
241,-125.000000
242,-128.906250
243,-132.812500
244,-136.718750
245,-140.625000
246,-144.531250
247,-148.437500
248,-152.343750
249,-156.250000
250,-160.156250
251,-160.156250
252,-164.062500
253,-167.968750
254,-175.781250
255,-175.781250
256,-179.687500
257,-183.593750
258,-187.500000
259,-191.406250
260,-191.406250
261,-195.312500
262,-199.218750
263,-203.125000
264,-207.031250
265,-210.937500
266,-210.937500
267,-218.750000
268,-218.750000
269,-222.656250
270,-222.656250
271,-226.562500
272,-230.468750
273,-234.375000
274,-234.375000
275,-238.281250
276,-242.187500
277,-246.093750
278,-246.093750
279,-250.000000
280,-253.906250
281,-253.906250
282,-257.812500
283,-257.812500
284,-261.718750
285,-265.625000
286,-265.625000
287,-269.531250
288,-269.531250
289,-273.437500
290,-273.437500
291,-277.343750
292,-281.250000
293,-281.250000
294,-285.156250
295,-285.156250
296,-285.156250
297,-285.156250
298,-289.062500
299,-292.968750
300,-292.968750
301,-292.968750
302,-296.875000
303,-296.875000
304,-296.875000
305,-296.875000
306,-300.781250
307,-300.781250
308,-300.781250
309,-304.687500
310,-304.687500
311,-304.687500
312,-304.687500
313,-304.687500
314,-304.687500
315,-304.687500
316,-308.593750
317,-308.593750
318,-308.593750
319,-304.687500
320,-308.593750
321,-308.593750
322,-308.593750
323,-304.687500
324,-308.593750
325,-308.593750
326,-308.593750
327,-308.593750
328,-308.593750
329,-304.687500
330,-304.687500
331,-304.687500
332,-304.687500
333,-304.687500
334,-304.687500
335,-304.687500
336,-300.781250
337,-300.781250
338,-300.781250
339,-296.875000
340,-296.875000
341,-296.875000
342,-296.875000
343,-292.968750
344,-292.968750
345,-292.968750
346,-289.062500
347,-289.062500
348,-285.156250
349,-285.156250
350,-285.156250
351,-281.250000
352,-281.250000
353,-277.343750
354,-277.343750
355,-273.437500
356,-273.437500
357,-269.531250
358,-269.531250
359,-265.625000
360,-261.718750
361,-261.718750
362,-257.812500
363,-257.812500
364,-253.906250
365,-253.906250
366,-250.000000
367,-246.093750
368,-246.093750
369,-242.187500
370,-238.281250
371,-234.375000
372,-234.375000
373,-230.468750
374,-226.562500
375,-222.656250
376,-222.656250
377,-218.750000
378,-214.843750
379,-210.937500
380,-207.031250
381,-207.031250
382,-203.125000
383,-199.218750
384,-195.312500
385,-191.406250
386,-187.500000
387,-183.593750
388,-179.687500
389,-175.781250
390,-171.875000
391,-171.875000
392,-167.968750
393,-164.062500
394,-160.156250
395,-156.250000
396,-152.343750
397,-148.437500
398,-144.531250
399,-140.625000
400,-136.718750
401,-132.812500
402,-128.906250
403,-125.000000
404,-121.093750
405,-117.187500
406,-113.281250
407,-109.375000
408,-105.468750
409,-101.562500
410,-97.656250
411,-93.750000
412,-89.843750
413,-85.937500
414,-82.031250
415,-78.125000
416,-74.218750
417,-70.312500
418,-66.406250
419,-62.500000
420,-62.500000
421,-54.687500
422,-50.781250
423,-46.875000
424,-42.968750
425,-39.062500
426,-35.156250
427,-31.250000
428,-27.343750
429,-23.437500
430,-19.531250
431,-15.625000
432,-11.718750
433,-7.812500
434,-3.906250
435,0.000000
436,3.906250
437,3.906250
438,7.812500
439,11.718750
440,15.625000
441,19.531250
442,23.437500
443,27.343750
444,27.343750
445,35.156250
446,35.156250
447,39.062500
448,42.968750
449,46.875000
450,50.781250
451,50.781250
452,58.593750
453,58.593750
454,62.500000
455,66.406250
456,66.406250
457,70.312500
458,74.218750
459,78.125000
460,78.125000
461,82.031250
462,85.937500
463,89.843750
464,89.843750
465,93.750000
466,97.656250
467,97.656250
468,101.562500
469,101.562500
470,105.468750
471,109.375000
472,109.375000
473,113.281250
474,117.187500
475,117.187500
476,117.187500
477,121.093750
478,125.000000
479,125.000000
480,128.906250
481,128.906250
482,128.906250
483,132.812500
484,132.812500
485,136.718750
486,136.718750
487,140.625000
488,140.625000
489,144.531250
490,144.531250
491,144.531250
492,148.437500
493,148.437500
494,148.437500
495,152.343750
496,152.343750
497,152.343750
498,156.250000
499,156.250000
500,160.156250
501,160.156250
502,160.156250
503,160.156250
504,160.156250
505,164.062500
506,164.062500
507,164.062500
508,164.062500
509,164.062500
510,167.968750
511,167.968750
512,167.968750
513,167.968750
514,167.968750
515,171.875000
516,171.875000
517,171.875000
518,171.875000
519,171.875000
520,171.875000
521,171.875000
522,171.875000
523,175.781250
524,175.781250
525,171.875000
526,171.875000
527,175.781250
528,175.781250
529,171.875000
530,175.781250
531,175.781250
532,171.875000
533,175.781250
534,171.875000
535,175.781250
536,171.875000
537,171.875000
538,171.875000
539,171.875000
540,171.875000
541,171.875000
542,171.875000
543,171.875000
544,171.875000
545,171.875000
546,167.968750
547,167.968750
548,167.968750
549,167.968750
550,167.968750
551,167.968750
552,164.062500
553,164.062500
554,164.062500
555,164.062500
556,164.062500
557,160.156250
558,160.156250
559,160.156250
560,156.250000
561,156.250000
562,156.250000
563,156.250000
564,152.343750
565,152.343750
566,152.343750
567,148.437500
568,148.437500
569,148.437500
570,144.531250
571,144.531250
572,144.531250
573,140.625000
574,140.625000
575,136.718750
576,136.718750
577,136.718750
578,132.812500
579,132.812500
580,125.000000
581,128.906250
582,125.000000
583,125.000000
584,121.093750
585,121.093750
586,117.187500
587,113.281250
588,113.281250
589,109.375000
590,109.375000
591,105.468750
592,101.562500
593,101.562500
594,97.656250
595,97.656250
596,93.750000
597,89.843750
598,89.843750
599,85.937500
600,82.031250
601,78.125000
602,78.125000
603,74.218750
604,70.312500
605,70.312500
606,66.406250
607,62.500000
608,58.593750
609,54.687500
610,54.687500
611,50.781250
612,46.875000
613,42.968750
614,39.062500
615,35.156250
616,31.250000
617,31.250000
618,27.343750
619,23.437500
620,19.531250
621,15.625000
622,11.718750
623,7.812500
624,3.906250
625,0.000000
626,0.000000
627,-3.906250
628,-7.812500
629,-11.718750
630,-15.625000
631,-19.531250
632,-23.437500
633,-27.343750
634,-31.250000
635,-35.156250
636,-39.062500
637,-42.968750
638,-46.875000
639,-50.781250
640,-54.687500
641,-58.593750
642,-62.500000
643,-66.406250
644,-70.312500
645,-74.218750
646,-78.125000
647,-82.031250
648,-85.937500
649,-89.843750
650,-93.750000
651,-97.656250
652,-101.562500
653,-105.468750
654,-109.375000
655,-113.281250
656,-117.187500
657,-121.093750
658,-125.000000
659,-128.906250
660,-132.812500
661,-136.718750
662,-140.625000
663,-144.531250
664,-148.437500
665,-152.343750
666,-152.343750
667,-160.156250
668,-160.156250
669,-164.062500
670,-167.968750
671,-171.875000
672,-175.781250
673,-179.687500
674,-183.593750
675,-187.500000
676,-191.406250
677,-195.312500
678,-199.218750
679,-199.218750
680,-203.125000
681,-207.031250
682,-210.937500
683,-214.843750
684,-214.843750
685,-218.750000
686,-222.656250
687,-226.562500
688,-230.468750
689,-230.468750
690,-234.375000
691,-238.281250
692,-242.187500
693,-242.187500
694,-246.093750
695,-250.000000
696,-250.000000
697,-253.906250
698,-253.906250
699,-257.812500
700,-261.718750
701,-261.718750
702,-265.625000
703,-265.625000
704,-269.531250
705,-269.531250
706,-273.437500
707,-273.437500
708,-277.343750
709,-281.250000
710,-281.250000
711,-285.156250
712,-285.156250
713,-285.156250
714,-289.062500
715,-289.062500
716,-292.968750
717,-292.968750
718,-292.968750
719,-292.968750
720,-296.875000
721,-296.875000
722,-296.875000
723,-300.781250
724,-300.781250
725,-300.781250
726,-300.781250
727,-304.687500
728,-304.687500
729,-304.687500
730,-304.687500
731,-304.687500
732,-304.687500
733,-304.687500
734,-304.687500
735,-308.593750
736,-304.687500
737,-308.593750
738,-308.593750
739,-308.593750
740,-308.593750
741,-308.593750
742,-308.593750
743,-308.593750
744,-308.593750
745,-304.687500
746,-304.687500
747,-308.593750
748,-304.687500
749,-304.687500
750,-304.687500
751,-304.687500
752,-304.687500
753,-304.687500
754,-300.781250
755,-300.781250
756,-300.781250
757,-296.875000
758,-296.875000
759,-296.875000
760,-292.968750
761,-292.968750
762,-292.968750
763,-289.062500
764,-289.062500
765,-285.156250
766,-285.156250
767,-285.156250
768,-281.250000
769,-281.250000
770,-277.343750
771,-277.343750
772,-273.437500
773,-273.437500
774,-269.531250
775,-269.531250
776,-265.625000
777,-265.625000
778,-261.718750
779,-257.812500
780,-257.812500
781,-253.906250
782,-253.906250
783,-250.000000
784,-246.093750
785,-246.093750
786,-242.187500
787,-238.281250
788,-238.281250
789,-234.375000
790,-230.468750
791,-226.562500
792,-222.656250
793,-222.656250
794,-218.750000
795,-214.843750
796,-210.937500
797,-207.031250
798,-207.031250
799,-203.125000
800,-199.218750
801,-195.312500
802,-191.406250
803,-187.500000
804,-183.593750
805,-183.593750
806,-179.687500
807,-175.781250
808,-171.875000
809,-167.968750
810,-164.062500
811,-160.156250
812,-156.250000
813,-152.343750
814,-148.437500
815,-144.531250
816,-140.625000
817,-136.718750
818,-132.812500
819,-132.812500
820,-125.000000
821,-121.093750
822,-117.187500
823,-117.187500
824,-109.375000
825,-105.468750
826,-101.562500
827,-97.656250
828,-93.750000
829,-89.843750
830,-85.937500
831,-82.031250
832,-78.125000
833,-74.218750
834,-70.312500
835,-66.406250
836,-62.500000
837,-62.500000
838,-54.687500
839,-50.781250
840,-46.875000
841,-42.968750
842,-39.062500
843,-35.156250
844,-31.250000
845,-27.343750
846,-23.437500
847,-19.531250
848,-15.625000
849,-11.718750
850,-7.812500
851,-3.906250
852,-3.906250
853,3.906250
854,7.812500
855,11.718750
856,11.718750
857,15.625000
858,19.531250
859,23.437500
860,27.343750
861,31.250000
862,31.250000
863,35.156250
864,39.062500
865,42.968750
866,46.875000
867,50.781250
868,54.687500
869,54.687500
870,58.593750
871,58.593750
872,66.406250
873,66.406250
874,70.312500
875,74.218750
876,78.125000
877,82.031250
878,82.031250
879,85.937500
880,89.843750
881,89.843750
882,93.750000
883,93.750000
884,97.656250
885,101.562500
886,101.562500
887,105.468750
888,105.468750
889,109.375000
890,113.281250
891,113.281250
892,117.187500
893,117.187500
894,121.093750
895,125.000000
896,125.000000
897,128.906250
898,128.906250
899,132.812500
900,132.812500
901,136.718750
902,136.718750
903,136.718750
904,140.625000
905,140.625000
906,144.531250
907,144.531250
908,144.531250
909,148.437500
910,148.437500
911,148.437500
912,152.343750
913,152.343750
914,156.250000
915,156.250000
916,156.250000
917,156.250000
918,160.156250
919,160.156250
920,160.156250
921,160.156250
922,164.062500
923,164.062500
924,164.062500
925,164.062500
926,164.062500
927,167.968750
928,167.968750
929,167.968750
930,171.875000
931,167.968750
932,167.968750
933,171.875000
934,171.875000
935,171.875000
936,171.875000
937,171.875000
938,171.875000
939,171.875000
940,171.875000
941,171.875000
942,171.875000
943,175.781250
944,171.875000
945,171.875000
946,171.875000
947,175.781250
948,175.781250
949,175.781250
950,171.875000
951,175.781250
952,171.875000
953,171.875000
954,171.875000
955,171.875000
956,171.875000
957,171.875000
958,171.875000
959,171.875000
960,171.875000
961,171.875000
962,171.875000
963,171.875000
964,167.968750
965,167.968750
966,167.968750
967,167.968750
968,167.968750
969,164.062500
970,164.062500
971,164.062500
972,164.062500
973,164.062500
974,164.062500
975,160.156250
976,160.156250
977,160.156250
978,160.156250
979,156.250000
980,156.250000
981,156.250000
982,152.343750
983,152.343750
984,148.437500
985,148.437500
986,148.437500
987,144.531250
988,144.531250
989,144.531250
990,140.625000
991,140.625000
992,140.625000
993,136.718750
994,136.718750
995,132.812500
996,132.812500
997,128.906250
998,128.906250
999,125.000000
1000,125.000000
1001,121.093750
1002,117.187500
1003,117.187500
1004,117.187500
1005,113.281250
1006,109.375000
1007,109.375000
1008,105.468750
1009,101.562500
1010,101.562500
1011,97.656250
1012,97.656250
1013,93.750000
1014,89.843750
1015,89.843750
1016,85.937500
1017,82.031250
1018,78.125000
1019,78.125000
1020,74.218750
1021,70.312500
1022,66.406250
1023,66.406250
1024,62.500000
1025,58.593750
1026,54.687500
1027,54.687500
1028,50.781250
1029,46.875000
1030,42.968750
1031,39.062500
1032,35.156250
1033,35.156250
1034,31.250000
1035,27.343750
1036,23.437500
1037,19.531250
1038,15.625000
1039,11.718750
1040,7.812500
1041,3.906250
1042,3.906250
1043,0.000000
1044,-3.906250
1045,-7.812500
1046,-11.718750
1047,-15.625000
1048,-19.531250
1049,-23.437500
1050,-27.343750
1051,-31.250000
1052,-35.156250
1053,-39.062500
1054,-42.968750
1055,-46.875000
1056,-50.781250
1057,-54.687500
1058,-58.593750
1059,-62.500000
1060,-66.406250
1061,-70.312500
1062,-74.218750
1063,-78.125000
1064,-82.031250
1065,-85.937500
1066,-89.843750
1067,-93.750000
1068,-97.656250
1069,-101.562500
1070,-105.468750
1071,-109.375000
1072,-117.187500
1073,-117.187500
1074,-121.093750
1075,-125.000000
1076,-128.906250
1077,-132.812500
1078,-136.718750
1079,-140.625000
1080,-144.531250
1081,-148.437500
1082,-152.343750
1083,-156.250000
1084,-160.156250
1085,-164.062500
1086,-167.968750
1087,-171.875000
1088,-175.781250
1089,-175.781250
1090,-179.687500
1091,-183.593750
1092,-187.500000
1093,-191.406250
1094,-195.312500
1095,-199.218750
1096,-203.125000
1097,-203.125000
1098,-207.031250
1099,-210.937500
1100,-214.843750
1101,-218.750000
1102,-222.656250
1103,-222.656250
1104,-226.562500
1105,-230.468750
1106,-230.468750
1107,-234.375000
1108,-238.281250
1109,-242.187500
1110,-242.187500
1111,-246.093750
1112,-250.000000
1113,-250.000000
1114,-253.906250
1115,-257.812500
1116,-257.812500
1117,-261.718750
1118,-261.718750
1119,-265.625000
1120,-269.531250
1121,-269.531250
1122,-273.437500
1123,-273.437500
1124,-277.343750
1125,-277.343750
1126,-281.250000
1127,-281.250000
1128,-285.156250
1129,-285.156250
1130,-285.156250
1131,-289.062500
1132,-289.062500
1133,-292.968750
1134,-292.968750
1135,-292.968750
1136,-300.781250
1137,-296.875000
1138,-296.875000
1139,-300.781250
1140,-300.781250
1141,-300.781250
1142,-300.781250
1143,-304.687500
1144,-304.687500
1145,-304.687500
1146,-304.687500
1147,-304.687500
1148,-308.593750
1149,-308.593750
1150,-308.593750
1151,-308.593750
1152,-308.593750
1153,-308.593750
1154,-308.593750
1155,-308.593750
1156,-308.593750
1157,-308.593750
1158,-308.593750
1159,-308.593750
1160,-308.593750
1161,-308.593750
1162,-308.593750
1163,-304.687500
1164,-308.593750
1165,-304.687500
1166,-304.687500
1167,-304.687500
1168,-304.687500
1169,-300.781250
1170,-300.781250
1171,-300.781250
1172,-300.781250
1173,-300.781250
1174,-296.875000
1175,-296.875000
1176,-296.875000
1177,-292.968750
1178,-292.968750
1179,-292.968750
1180,-289.062500
1181,-289.062500
1182,-289.062500
1183,-285.156250
1184,-285.156250
1185,-281.250000
1186,-281.250000
1187,-277.343750
1188,-277.343750
1189,-273.437500
1190,-273.437500
1191,-269.531250
1192,-269.531250
1193,-265.625000
1194,-261.718750
1195,-261.718750
1196,-257.812500
1197,-257.812500
1198,-253.906250
1199,-250.000000
1200,-246.093750
1201,-246.093750
1202,-246.093750
1203,-242.187500
1204,-238.281250
1205,-234.375000
1206,-234.375000
1207,-230.468750
1208,-226.562500
1209,-222.656250
1210,-222.656250
1211,-218.750000
1212,-214.843750
1213,-210.937500
1214,-207.031250
1215,-207.031250
1216,-203.125000
1217,-199.218750
1218,-195.312500
1219,-191.406250
1220,-187.500000
1221,-183.593750
1222,-179.687500
1223,-179.687500
1224,-171.875000
1225,-167.968750
1226,-164.062500
1227,-164.062500
1228,-160.156250
1229,-156.250000
1230,-152.343750
1231,-148.437500
1232,-144.531250
1233,-140.625000
1234,-136.718750
1235,-132.812500
1236,-128.906250
1237,-125.000000
1238,-121.093750
1239,-117.187500
1240,-113.281250
1241,-109.375000
1242,-105.468750
1243,-101.562500
1244,-97.656250
1245,-93.750000
1246,-89.843750
1247,-85.937500
1248,-82.031250
1249,-78.125000
1250,-74.218750
1251,-70.312500
1252,-66.406250
1253,-62.500000
1254,-58.593750
1255,-54.687500
1256,-50.781250
1257,-46.875000
1258,-42.968750
1259,-39.062500
1260,-35.156250
1261,-31.250000
1262,-27.343750
1263,-23.437500
1264,-19.531250
1265,-15.625000
1266,-11.718750
1267,-7.812500
1268,-3.906250
1269,0.000000
1270,0.000000
1271,3.906250
1272,11.718750
1273,11.718750
1274,15.625000
1275,19.531250
1276,23.437500
1277,27.343750
1278,31.250000
1279,35.156250
1280,39.062500
1281,39.062500
1282,42.968750
1283,46.875000
1284,50.781250
1285,54.687500
1286,58.593750
1287,58.593750
1288,62.500000
1289,66.406250
1290,70.312500
1291,70.312500
1292,74.218750
1293,78.125000
1294,82.031250
1295,85.937500
1296,85.937500
1297,89.843750
1298,89.843750
1299,93.750000
1300,97.656250
1301,97.656250
1302,101.562500
1303,105.468750
1304,105.468750
1305,109.375000
1306,113.281250
1307,113.281250
1308,117.187500
1309,117.187500
1310,121.093750
1311,121.093750
1312,125.000000
1313,128.906250
1314,128.906250
1315,128.906250
1316,132.812500
1317,132.812500
1318,136.718750
1319,136.718750
1320,140.625000
1321,140.625000
1322,140.625000
1323,144.531250
1324,144.531250
1325,148.437500
1326,148.437500
1327,148.437500
1328,152.343750
1329,152.343750
1330,152.343750
1331,156.250000
1332,156.250000
1333,156.250000
1334,156.250000
1335,160.156250
1336,160.156250
1337,160.156250
1338,160.156250
1339,164.062500
1340,164.062500
1341,164.062500
1342,164.062500
1343,167.968750
1344,167.968750
1345,167.968750
1346,167.968750
1347,167.968750
1348,167.968750
1349,167.968750
1350,171.875000
1351,171.875000
1352,171.875000
1353,171.875000
1354,171.875000
1355,171.875000
1356,171.875000
1357,171.875000
1358,171.875000
1359,171.875000
1360,175.781250
1361,175.781250
1362,175.781250
1363,175.781250
1364,175.781250
1365,175.781250
1366,175.781250
1367,171.875000
1368,171.875000
1369,171.875000
1370,175.781250
1371,171.875000
1372,171.875000
1373,171.875000
1374,171.875000
1375,171.875000
1376,171.875000
1377,171.875000
1378,171.875000
1379,171.875000
1380,167.968750
1381,167.968750
1382,167.968750
1383,167.968750
1384,167.968750
1385,167.968750
1386,167.968750
1387,164.062500
1388,164.062500
1389,164.062500
1390,164.062500
1391,160.156250
1392,160.156250
1393,160.156250
1394,160.156250
1395,156.250000
1396,156.250000
1397,156.250000
1398,152.343750
1399,152.343750
1400,152.343750
1401,148.437500
1402,148.437500
1403,148.437500
1404,148.437500
1405,144.531250
1406,144.531250
1407,140.625000
1408,140.625000
1409,136.718750
1410,136.718750
1411,136.718750
1412,132.812500
1413,128.906250
1414,128.906250
1415,128.906250
1416,125.000000
1417,121.093750
1418,121.093750
1419,117.187500
1420,117.187500
1421,113.281250
1422,113.281250
1423,109.375000
1424,105.468750
1425,105.468750
1426,101.562500
1427,101.562500
1428,97.656250
1429,93.750000
1430,93.750000
1431,89.843750
1432,85.937500
1433,85.937500
1434,82.031250
1435,78.125000
1436,74.218750
1437,74.218750
1438,70.312500
1439,66.406250
1440,62.500000
1441,62.500000
1442,58.593750
1443,54.687500
1444,50.781250
1445,50.781250
1446,46.875000
1447,42.968750
1448,39.062500
1449,35.156250
1450,31.250000
1451,27.343750
1452,23.437500
1453,19.531250
1454,19.531250
1455,15.625000
1456,11.718750
1457,7.812500
1458,3.906250
1459,0.000000
1460,-3.906250
1461,-7.812500
1462,-11.718750
1463,-15.625000
1464,-19.531250
1465,-23.437500
1466,-27.343750
1467,-31.250000
1468,-35.156250
1469,-35.156250
1470,-42.968750
1471,-46.875000
1472,-46.875000
1473,-54.687500
1474,-54.687500
1475,-58.593750
1476,-62.500000
1477,-66.406250
1478,-74.218750
1479,-78.125000
1480,-78.125000
1481,-82.031250
1482,-85.937500
1483,-89.843750
1484,-97.656250
1485,-97.656250
1486,-101.562500
1487,-105.468750
1488,-113.281250
1489,-113.281250
1490,-117.187500
1491,-121.093750
1492,-125.000000
1493,-128.906250
1494,-132.812500
1495,-136.718750
1496,-140.625000
1497,-144.531250
1498,-148.437500
1499,-152.343750
1500,-156.250000
1501,-160.156250
1502,-164.062500
1503,-167.968750
1504,-171.875000
1505,-175.781250
1506,-179.687500
1507,-179.687500
1508,-183.593750
1509,-187.500000
1510,-191.406250
1511,-195.312500
1512,-199.218750
1513,-203.125000
1514,-207.031250
1515,-210.937500
1516,-210.937500
1517,-214.843750
1518,-218.750000
1519,-222.656250
1520,-226.562500
1521,-226.562500
1522,-230.468750
1523,-234.375000
1524,-238.281250
1525,-238.281250
1526,-242.187500
1527,-242.187500
1528,-246.093750
1529,-250.000000
1530,-253.906250
1531,-253.906250
1532,-257.812500
1533,-257.812500
1534,-261.718750
1535,-261.718750
1536,-265.625000
1537,-265.625000
1538,-269.531250
1539,-273.437500
1540,-273.437500
1541,-277.343750
1542,-277.343750
1543,-281.250000
1544,-281.250000
1545,-285.156250
1546,-285.156250
1547,-285.156250
1548,-289.062500
1549,-289.062500
1550,-292.968750
1551,-292.968750
1552,-292.968750
1553,-296.875000
1554,-296.875000
1555,-296.875000
1556,-296.875000
1557,-300.781250
1558,-300.781250
1559,-300.781250
1560,-300.781250
1561,-304.687500
1562,-304.687500
1563,-304.687500
1564,-304.687500
1565,-304.687500
1566,-304.687500
1567,-308.593750
1568,-308.593750
1569,-308.593750
1570,-304.687500
1571,-308.593750
1572,-308.593750
1573,-308.593750
1574,-308.593750
1575,-308.593750
1576,-308.593750
1577,-308.593750
1578,-308.593750
1579,-304.687500
1580,-304.687500
1581,-304.687500
1582,-304.687500
1583,-304.687500
1584,-304.687500
1585,-304.687500
1586,-300.781250
1587,-300.781250
1588,-300.781250
1589,-300.781250
1590,-296.875000
1591,-296.875000
1592,-296.875000
1593,-296.875000
1594,-292.968750
1595,-292.968750
1596,-292.968750
1597,-289.062500
1598,-289.062500
1599,-285.156250
1600,-285.156250
1601,-281.250000
1602,-281.250000
1603,-281.250000
1604,-277.343750
1605,-273.437500
1606,-273.437500
1607,-273.437500
1608,-269.531250
1609,-265.625000
1610,-265.625000
1611,-261.718750
1612,-261.718750
1613,-257.812500
1614,-257.812500
1615,-253.906250
1616,-250.000000
1617,-250.000000
1618,-246.093750
1619,-242.187500
1620,-238.281250
1621,-238.281250
1622,-234.375000
1623,-234.375000
1624,-230.468750
1625,-226.562500
1626,-218.750000
1627,-218.750000
1628,-218.750000
1629,-214.843750
1630,-210.937500
1631,-207.031250
1632,-203.125000
1633,-199.218750
1634,-199.218750
1635,-195.312500
1636,-191.406250
1637,-187.500000
1638,-183.593750
1639,-179.687500
1640,-175.781250
1641,-171.875000
1642,-167.968750
1643,-167.968750
1644,-160.156250
1645,-160.156250
1646,-156.250000
1647,-152.343750
1648,-148.437500
1649,-140.625000
1650,-140.625000
1651,-136.718750
1652,-132.812500
1653,-128.906250
1654,-125.000000
1655,-121.093750
1656,-117.187500
1657,-113.281250
1658,-109.375000
1659,-105.468750
1660,-101.562500
1661,-97.656250
1662,-93.750000
1663,-89.843750
1664,-85.937500
1665,-82.031250
1666,-78.125000
1667,-74.218750
1668,-66.406250
1669,-66.406250
1670,-62.500000
1671,-58.593750
1672,-50.781250
1673,-50.781250
1674,-46.875000
1675,-42.968750
1676,-39.062500
1677,-35.156250
1678,-27.343750
1679,-27.343750
1680,-23.437500
1681,-19.531250
1682,-15.625000
1683,-15.625000
1684,-7.812500
1685,-3.906250
1686,0.000000
1687,3.906250
1688,7.812500
1689,11.718750
1690,15.625000
1691,15.625000
1692,23.437500
1693,23.437500
1694,27.343750
1695,31.250000
1696,35.156250
1697,39.062500
1698,42.968750
1699,46.875000
1700,46.875000
1701,50.781250
1702,54.687500
1703,58.593750
1704,62.500000
1705,62.500000
1706,66.406250
1707,70.312500
1708,74.218750
1709,74.218750
1710,78.125000
1711,82.031250
1712,82.031250
1713,85.937500
1714,89.843750
1715,89.843750
1716,93.750000
1717,97.656250
1718,97.656250
1719,101.562500
1720,105.468750
1721,105.468750
1722,109.375000
1723,109.375000
1724,113.281250
1725,113.281250
1726,117.187500
1727,121.093750
1728,121.093750
1729,125.000000
1730,125.000000
1731,128.906250
1732,128.906250
1733,132.812500
1734,132.812500
1735,132.812500
1736,136.718750
1737,140.625000
1738,140.625000
1739,140.625000
1740,144.531250
1741,144.531250
1742,148.437500
1743,148.437500
1744,148.437500
1745,152.343750
1746,152.343750
1747,156.250000
1748,156.250000
1749,156.250000
1750,156.250000
1751,160.156250
1752,160.156250
1753,160.156250
1754,160.156250
1755,164.062500
1756,164.062500
1757,164.062500
1758,164.062500
1759,164.062500
1760,164.062500
1761,167.968750
1762,167.968750
1763,167.968750
1764,167.968750
1765,167.968750
1766,171.875000
1767,171.875000
1768,171.875000
1769,171.875000
1770,171.875000
1771,171.875000
1772,171.875000
1773,175.781250
1774,171.875000
1775,171.875000
1776,171.875000
1777,175.781250
1778,175.781250
1779,175.781250
1780,175.781250
1781,175.781250
1782,175.781250
1783,175.781250
1784,175.781250
1785,175.781250
1786,171.875000
1787,171.875000
1788,171.875000
1789,171.875000
1790,171.875000
1791,171.875000
1792,171.875000
1793,171.875000
1794,171.875000
1795,171.875000
1796,171.875000
1797,167.968750
1798,167.968750
1799,167.968750
1800,167.968750
1801,167.968750
1802,167.968750
1803,164.062500
1804,164.062500
1805,164.062500
1806,160.156250
1807,164.062500
1808,164.062500
1809,160.156250
1810,160.156250
1811,160.156250
1812,156.250000
1813,156.250000
1814,156.250000
1815,156.250000
1816,152.343750
1817,152.343750
1818,152.343750
1819,148.437500
1820,148.437500
1821,144.531250
1822,144.531250
1823,144.531250
1824,140.625000
1825,140.625000
1826,140.625000
1827,136.718750
1828,132.812500
1829,132.812500
1830,132.812500
1831,128.906250
1832,128.906250
1833,125.000000
1834,121.093750
1835,121.093750
1836,121.093750
1837,117.187500
1838,113.281250
1839,113.281250
1840,109.375000
1841,105.468750
1842,105.468750
1843,101.562500
1844,101.562500
1845,97.656250
1846,93.750000
1847,93.750000
1848,89.843750
1849,85.937500
1850,85.937500
1851,82.031250
1852,78.125000
1853,74.218750
1854,74.218750
1855,70.312500
1856,66.406250
1857,66.406250
1858,62.500000
1859,58.593750
1860,54.687500
1861,50.781250
1862,46.875000
1863,46.875000
1864,42.968750
1865,39.062500
1866,35.156250
1867,31.250000
1868,27.343750
1869,27.343750
1870,23.437500
1871,19.531250
1872,15.625000
1873,11.718750
1874,7.812500
1875,3.906250
1876,0.000000
1877,-3.906250
1878,-7.812500
1879,-11.718750
1880,-15.625000
1881,-19.531250
1882,-19.531250
1883,-27.343750
1884,-27.343750
1885,-35.156250
1886,-35.156250
1887,-39.062500
1888,-42.968750
1889,-46.875000
1890,-50.781250
1891,-54.687500
1892,-58.593750
1893,-62.500000
1894,-66.406250
1895,-70.312500
1896,-78.125000
1897,-78.125000
1898,-82.031250
1899,-85.937500
1900,-89.843750
1901,-93.750000
1902,-97.656250
1903,-105.468750
1904,-105.468750
1905,-109.375000
1906,-113.281250
1907,-117.187500
1908,-121.093750
1909,-125.000000
1910,-128.906250
1911,-132.812500
1912,-136.718750
1913,-140.625000
1914,-144.531250
1915,-148.437500
1916,-152.343750
1917,-156.250000
1918,-160.156250
1919,-164.062500
1920,-167.968750
1921,-171.875000
1922,-175.781250
1923,-179.687500
1924,-179.687500
1925,-187.500000
1926,-187.500000
1927,-191.406250
1928,-195.312500
1929,-199.218750
1930,-203.125000
1931,-207.031250
1932,-207.031250
1933,-210.937500
1934,-214.843750
1935,-218.750000
1936,-222.656250
1937,-222.656250
1938,-226.562500
1939,-230.468750
1940,-230.468750
1941,-234.375000
1942,-238.281250
1943,-242.187500
1944,-246.093750
1945,-250.000000
1946,-250.000000
1947,-250.000000
1948,-253.906250
1949,-257.812500
1950,-257.812500
1951,-261.718750
1952,-265.625000
1953,-265.625000
1954,-269.531250
1955,-269.531250
1956,-273.437500
1957,-273.437500
1958,-277.343750
1959,-277.343750
1960,-281.250000
1961,-281.250000
1962,-281.250000
1963,-285.156250
1964,-285.156250
1965,-289.062500
1966,-289.062500
1967,-292.968750
1968,-292.968750
1969,-296.875000
1970,-296.875000
1971,-296.875000
1972,-296.875000
1973,-300.781250
1974,-300.781250
1975,-300.781250
1976,-300.781250
1977,-304.687500
1978,-304.687500
1979,-304.687500
1980,-304.687500
1981,-304.687500
1982,-308.593750
1983,-308.593750
1984,-308.593750
1985,-308.593750
1986,-304.687500
1987,-308.593750
1988,-308.593750
1989,-308.593750
1990,-308.593750
1991,-308.593750
1992,-308.593750
1993,-308.593750
1994,-308.593750
1995,-308.593750
1996,-308.593750
1997,-304.687500
1998,-304.687500
1999,-304.687500
2000,-304.687500
2001,-304.687500
2002,-308.593750
2003,-300.781250
2004,-300.781250
2005,-300.781250
2006,-300.781250
2007,-300.781250
2008,-296.875000
2009,-296.875000
2010,-296.875000
2011,-292.968750
2012,-292.968750
2013,-292.968750
2014,-289.062500
2015,-289.062500
2016,-289.062500
2017,-285.156250
2018,-285.156250
2019,-281.250000
2020,-281.250000
2021,-277.343750
2022,-277.343750
2023,-273.437500
2024,-273.437500
2025,-269.531250
2026,-269.531250
2027,-265.625000
2028,-261.718750
2029,-261.718750
2030,-257.812500
2031,-253.906250
2032,-253.906250
2033,-250.000000
2034,-250.000000
2035,-246.093750
2036,-242.187500
2037,-238.281250
2038,-238.281250
2039,-234.375000
2040,-230.468750
2041,-230.468750
2042,-226.562500
2043,-222.656250
2044,-222.656250
2045,-218.750000
2046,-210.937500
2047,-210.937500
2048,-207.031250
2049,-203.125000
2050,-199.218750
2051,-195.312500
2052,-195.312500
2053,-191.406250
2054,-187.500000
2055,-183.593750
2056,-179.687500
2057,-175.781250
2058,-171.875000
2059,-167.968750
2060,-164.062500
2061,-160.156250
2062,-156.250000
2063,-152.343750
2064,-152.343750
2065,-144.531250
2066,-140.625000
2067,-136.718750
2068,-136.718750
2069,-132.812500
2070,-125.000000
2071,-121.093750
2072,-121.093750
2073,-113.281250
2074,-113.281250
2075,-105.468750
2076,-105.468750
2077,-97.656250
2078,-97.656250
2079,-93.750000
2080,-89.843750
2081,-85.937500
2082,-78.125000
2083,-74.218750
2084,-70.312500
2085,-70.312500
2086,-66.406250
2087,-62.500000
2088,-54.687500
2089,-50.781250
2090,-46.875000
2091,-42.968750
2092,-39.062500
2093,-35.156250
2094,-31.250000
2095,-27.343750
2096,-27.343750
2097,-23.437500
2098,-19.531250
2099,-11.718750
2100,-11.718750
2101,-7.812500
2102,-3.906250
2103,0.000000
2104,3.906250
2105,7.812500
2106,11.718750
2107,15.625000
2108,19.531250
2109,23.437500
2110,23.437500
2111,27.343750
2112,31.250000
2113,35.156250
2114,39.062500
2115,42.968750
2116,42.968750
2117,46.875000
2118,50.781250
2119,54.687500
2120,58.593750
2121,62.500000
2122,62.500000
2123,66.406250
2124,70.312500
2125,74.218750
2126,74.218750
2127,78.125000
2128,82.031250
2129,85.937500
2130,85.937500
2131,89.843750
2132,93.750000
2133,93.750000
2134,97.656250
2135,101.562500
2136,101.562500
2137,105.468750
2138,109.375000
2139,109.375000
2140,113.281250
2141,113.281250
2142,117.187500
2143,121.093750
2144,121.093750
2145,121.093750
2146,125.000000
2147,125.000000
2148,128.906250
2149,128.906250
2150,132.812500
2151,132.812500
2152,136.718750
2153,136.718750
2154,140.625000
2155,144.531250
2156,144.531250
2157,144.531250
2158,148.437500
2159,148.437500
2160,148.437500
2161,152.343750
2162,152.343750
2163,152.343750
2164,152.343750
2165,152.343750
2166,156.250000
2167,156.250000
2168,160.156250
2169,160.156250
2170,160.156250
2171,164.062500
2172,164.062500
2173,164.062500
2174,164.062500
2175,164.062500
2176,164.062500
2177,167.968750
2178,167.968750
2179,167.968750
2180,167.968750
2181,167.968750
2182,171.875000
2183,171.875000
2184,171.875000
2185,171.875000
2186,171.875000
2187,171.875000
2188,171.875000
2189,175.781250
2190,171.875000
2191,171.875000
2192,175.781250
2193,175.781250
2194,175.781250
2195,175.781250
2196,175.781250
2197,175.781250
2198,171.875000
2199,175.781250
2200,175.781250
2201,175.781250
2202,171.875000
2203,175.781250
2204,175.781250
2205,171.875000
2206,171.875000
2207,171.875000
2208,171.875000
2209,171.875000
2210,171.875000
2211,171.875000
2212,171.875000
2213,171.875000
2214,167.968750
2215,167.968750
2216,167.968750
2217,167.968750
2218,167.968750
2219,167.968750
2220,164.062500
2221,164.062500
2222,164.062500
2223,164.062500
2224,160.156250
2225,164.062500
2226,160.156250
2227,160.156250
2228,160.156250
2229,156.250000
2230,156.250000
2231,156.250000
2232,152.343750
2233,152.343750
2234,152.343750
2235,148.437500
2236,148.437500
2237,144.531250
2238,144.531250
2239,144.531250
2240,140.625000
2241,140.625000
2242,140.625000
2243,136.718750
2244,136.718750
2245,132.812500
2246,132.812500
2247,128.906250
2248,128.906250
2249,125.000000
2250,125.000000
2251,121.093750
2252,121.093750
2253,117.187500
2254,117.187500
2255,113.281250
2256,109.375000
2257,109.375000
2258,105.468750
2259,105.468750
2260,101.562500
2261,97.656250
2262,97.656250
2263,93.750000
2264,89.843750
2265,89.843750
2266,85.937500
2267,82.031250
2268,82.031250
2269,78.125000
2270,74.218750
2271,74.218750
2272,70.312500
2273,66.406250
2274,62.500000
2275,58.593750
2276,58.593750
2277,54.687500
2278,50.781250
2279,46.875000
2280,46.875000
2281,39.062500
2282,39.062500
2283,35.156250
2284,31.250000
2285,27.343750
2286,23.437500
2287,19.531250
2288,15.625000
2289,15.625000
2290,11.718750
2291,7.812500
2292,3.906250
2293,0.000000
2294,-3.906250
2295,-7.812500
2296,-11.718750
2297,-15.625000
2298,-19.531250
2299,-23.437500
2300,-27.343750
2301,-31.250000
2302,-35.156250
2303,-39.062500
2304,-42.968750
2305,-46.875000
2306,-50.781250
2307,-54.687500
2308,-58.593750
2309,-62.500000
2310,-66.406250
2311,-70.312500
2312,-74.218750
2313,-78.125000
2314,-82.031250
2315,-85.937500
2316,-89.843750
2317,-93.750000
2318,-97.656250
2319,-101.562500
2320,-101.562500
2321,-109.375000
2322,-109.375000
2323,-117.187500
2324,-121.093750
2325,-125.000000
2326,-125.000000
2327,-132.812500
2328,-136.718750
2329,-140.625000
2330,-140.625000
2331,-148.437500
2332,-148.437500
2333,-152.343750
2334,-156.250000
2335,-160.156250
2336,-164.062500
2337,-167.968750
2338,-171.875000
2339,-175.781250
2340,-179.687500
2341,-183.593750
2342,-183.593750
2343,-187.500000
2344,-191.406250
2345,-195.312500
2346,-199.218750
2347,-203.125000
2348,-207.031250
2349,-210.937500
2350,-210.937500
2351,-214.843750
2352,-218.750000
2353,-222.656250
2354,-222.656250
2355,-230.468750
2356,-230.468750
2357,-234.375000
2358,-234.375000
2359,-238.281250
2360,-242.187500
2361,-246.093750
2362,-246.093750
2363,-250.000000
2364,-253.906250
2365,-253.906250
2366,-257.812500
2367,-261.718750
2368,-261.718750
2369,-261.718750
2370,-265.625000
2371,-269.531250
2372,-269.531250
2373,-273.437500
2374,-273.437500
2375,-277.343750
2376,-277.343750
2377,-281.250000
2378,-281.250000
2379,-285.156250
2380,-285.156250
2381,-289.062500
2382,-289.062500
2383,-289.062500
2384,-292.968750
2385,-292.968750
2386,-292.968750
2387,-296.875000
2388,-296.875000
2389,-296.875000
2390,-296.875000
2391,-300.781250
2392,-300.781250
2393,-300.781250
2394,-300.781250
2395,-304.687500
2396,-304.687500
2397,-304.687500
2398,-304.687500
2399,-304.687500
2400,-304.687500
2401,-304.687500
2402,-308.593750
2403,-308.593750
2404,-308.593750
2405,-308.593750
2406,-308.593750
2407,-308.593750
2408,-304.687500
2409,-304.687500
2410,-308.593750
2411,-304.687500
2412,-304.687500
2413,-304.687500
2414,-304.687500
2415,-304.687500
2416,-304.687500
2417,-304.687500
2418,-304.687500
2419,-300.781250
2420,-300.781250
2421,-300.781250
2422,-300.781250
2423,-296.875000
2424,-296.875000
2425,-296.875000
2426,-296.875000
2427,-292.968750
2428,-292.968750
2429,-292.968750
2430,-289.062500
2431,-289.062500
2432,-289.062500
2433,-281.250000
2434,-285.156250
2435,-281.250000
2436,-281.250000
2437,-277.343750
2438,-277.343750
2439,-273.437500
2440,-273.437500
2441,-269.531250
2442,-269.531250
2443,-265.625000
2444,-261.718750
2445,-261.718750
2446,-257.812500
2447,-257.812500
2448,-253.906250
2449,-253.906250
2450,-250.000000
2451,-246.093750
2452,-246.093750
2453,-242.187500
2454,-238.281250
2455,-234.375000
2456,-234.375000
2457,-230.468750
2458,-226.562500
2459,-222.656250
2460,-218.750000
2461,-218.750000
2462,-214.843750
2463,-210.937500
2464,-207.031250
2465,-207.031250
2466,-203.125000
2467,-199.218750
2468,-195.312500
2469,-191.406250
2470,-187.500000
2471,-183.593750
2472,-183.593750
2473,-175.781250
2474,-175.781250
2475,-171.875000
2476,-167.968750
2477,-164.062500
2478,-160.156250
2479,-156.250000
2480,-152.343750
2481,-148.437500
2482,-144.531250
2483,-140.625000
2484,-136.718750
2485,-132.812500
2486,-128.906250
2487,-125.000000
2488,-121.093750
2489,-117.187500
2490,-113.281250
2491,-109.375000
2492,-105.468750
2493,-101.562500
2494,-97.656250
2495,-93.750000
2496,-89.843750
2497,-85.937500
2498,-82.031250
2499,-78.125000
2500,-74.218750
2501,-70.312500
2502,-66.406250
2503,-62.500000
2504,-58.593750
2505,-54.687500
2506,-50.781250
2507,-46.875000
2508,-42.968750
2509,-39.062500
2510,-35.156250
2511,-31.250000
2512,-27.343750
2513,-23.437500
2514,-23.437500
2515,-15.625000
2516,-11.718750
2517,-7.812500
2518,-7.812500
2519,0.000000
2520,0.000000
2521,3.906250
2522,7.812500
2523,11.718750
2524,15.625000
2525,19.531250
2526,23.437500
2527,27.343750
2528,31.250000
2529,35.156250
2530,35.156250
2531,39.062500
2532,42.968750
2533,46.875000
2534,50.781250
2535,54.687500
2536,54.687500
2537,58.593750
2538,62.500000
2539,66.406250
2540,70.312500
2541,70.312500
2542,74.218750
2543,78.125000
2544,78.125000
2545,82.031250
2546,85.937500
2547,85.937500
2548,89.843750
2549,93.750000
2550,93.750000
2551,97.656250
2552,101.562500
2553,101.562500
2554,105.468750
2555,105.468750
2556,109.375000
2557,113.281250
2558,113.281250
2559,117.187500
2560,117.187500
2561,121.093750
2562,121.093750
2563,125.000000
2564,125.000000
2565,128.906250
2566,128.906250
2567,132.812500
2568,136.718750
2569,136.718750
2570,136.718750
2571,140.625000
2572,140.625000
2573,144.531250
2574,144.531250
2575,144.531250
2576,148.437500
2577,148.437500
2578,152.343750
2579,152.343750
2580,152.343750
2581,152.343750
2582,156.250000
2583,152.343750
2584,160.156250
2585,160.156250
2586,160.156250
2587,160.156250
2588,160.156250
2589,164.062500
2590,164.062500
2591,164.062500
2592,167.968750
2593,167.968750
2594,167.968750
2595,167.968750
2596,167.968750
2597,171.875000
2598,167.968750
2599,167.968750
2600,171.875000
2601,171.875000
2602,171.875000
2603,171.875000
2604,171.875000
2605,171.875000
2606,175.781250
2607,171.875000
2608,171.875000
2609,171.875000
2610,175.781250
2611,175.781250
2612,175.781250
2613,175.781250
2614,175.781250
2615,175.781250
2616,175.781250
2617,171.875000
2618,171.875000
2619,171.875000
2620,175.781250
2621,171.875000
2622,171.875000
2623,171.875000
2624,171.875000
2625,171.875000
2626,171.875000
2627,171.875000
2628,171.875000
2629,171.875000
2630,167.968750
2631,167.968750
2632,167.968750
2633,167.968750
2634,167.968750
2635,167.968750
2636,167.968750
2637,167.968750
2638,164.062500
2639,164.062500
2640,164.062500
2641,160.156250
2642,160.156250
2643,160.156250
2644,160.156250
2645,160.156250
2646,156.250000
2647,156.250000
2648,156.250000
2649,152.343750
2650,152.343750
2651,148.437500
2652,148.437500
2653,148.437500
2654,148.437500
2655,144.531250
2656,144.531250
2657,144.531250
2658,140.625000
2659,136.718750
2660,136.718750
2661,136.718750
2662,132.812500
2663,132.812500
2664,132.812500
2665,128.906250
2666,125.000000
2667,125.000000
2668,125.000000
2669,121.093750
2670,117.187500
2671,113.281250
2672,113.281250
2673,109.375000
2674,109.375000
2675,105.468750
2676,105.468750
2677,101.562500
2678,97.656250
2679,97.656250
2680,93.750000
2681,89.843750
2682,89.843750
2683,85.937500
2684,82.031250
2685,82.031250
2686,78.125000
2687,74.218750
2688,70.312500
2689,70.312500
2690,66.406250
2691,62.500000
2692,58.593750
2693,54.687500
2694,54.687500
2695,50.781250
2696,46.875000
2697,42.968750
2698,42.968750
2699,39.062500
2700,35.156250
2701,31.250000
2702,27.343750
2703,23.437500
2704,19.531250
2705,15.625000
2706,11.718750
2707,11.718750
2708,7.812500
2709,3.906250
2710,0.000000
2711,-3.906250
2712,-7.812500
2713,-11.718750
2714,-15.625000
2715,-19.531250
2716,-23.437500
2717,-27.343750
2718,-31.250000
2719,-35.156250
2720,-39.062500
2721,-42.968750
2722,-46.875000
2723,-50.781250
2724,-50.781250
2725,-58.593750
2726,-62.500000
2727,-66.406250
2728,-66.406250
2729,-74.218750
2730,-78.125000
2731,-82.031250
2732,-85.937500
2733,-89.843750
2734,-93.750000
2735,-97.656250
2736,-101.562500
2737,-105.468750
2738,-109.375000
2739,-113.281250
2740,-117.187500
2741,-121.093750
2742,-125.000000
2743,-128.906250
2744,-132.812500
2745,-136.718750
2746,-140.625000
2747,-144.531250
2748,-148.437500
2749,-148.437500
2750,-152.343750
2751,-160.156250
2752,-160.156250
2753,-164.062500
2754,-167.968750
2755,-171.875000
2756,-175.781250
2757,-179.687500
2758,-183.593750
2759,-187.500000
2760,-191.406250
2761,-191.406250
2762,-195.312500
2763,-199.218750
2764,-203.125000
2765,-207.031250
2766,-210.937500
2767,-210.937500
2768,-214.843750
2769,-218.750000
2770,-222.656250
2771,-226.562500
2772,-230.468750
2773,-230.468750
2774,-234.375000
2775,-238.281250
2776,-238.281250
2777,-242.187500
2778,-246.093750
2779,-246.093750
2780,-250.000000
2781,-253.906250
2782,-253.906250
2783,-257.812500
2784,-265.625000
2785,-261.718750
2786,-265.625000
2787,-269.531250
2788,-269.531250
2789,-269.531250
2790,-273.437500
2791,-273.437500
2792,-277.343750
2793,-277.343750
2794,-281.250000
2795,-281.250000
2796,-285.156250
2797,-285.156250
2798,-289.062500
2799,-289.062500
2800,-289.062500
2801,-292.968750
2802,-292.968750
2803,-292.968750
2804,-296.875000
2805,-296.875000
2806,-296.875000
2807,-300.781250
2808,-300.781250
2809,-300.781250
2810,-300.781250
2811,-304.687500
2812,-304.687500
2813,-304.687500
2814,-304.687500
2815,-304.687500
2816,-304.687500
2817,-304.687500
2818,-308.593750
2819,-308.593750
2820,-308.593750
2821,-308.593750
2822,-308.593750
2823,-308.593750
2824,-308.593750
2825,-304.687500
2826,-308.593750
2827,-308.593750
2828,-308.593750
2829,-308.593750
2830,-304.687500
2831,-308.593750
2832,-304.687500
2833,-304.687500
2834,-304.687500
2835,-304.687500
2836,-300.781250
2837,-304.687500
2838,-300.781250
2839,-300.781250
2840,-300.781250
2841,-296.875000
2842,-296.875000
2843,-296.875000
2844,-296.875000
2845,-292.968750
2846,-292.968750
2847,-289.062500
2848,-289.062500
2849,-289.062500
2850,-285.156250
2851,-285.156250
2852,-285.156250
2853,-281.250000
2854,-277.343750
2855,-277.343750
2856,-273.437500
2857,-273.437500
2858,-269.531250
2859,-269.531250
2860,-265.625000
2861,-265.625000
2862,-261.718750
2863,-257.812500
2864,-257.812500
2865,-253.906250
2866,-253.906250
2867,-250.000000
2868,-246.093750
2869,-246.093750
2870,-242.187500
2871,-238.281250
2872,-238.281250
2873,-234.375000
2874,-230.468750
2875,-226.562500
2876,-226.562500
2877,-222.656250
2878,-218.750000
2879,-214.843750
2880,-210.937500
2881,-210.937500
2882,-207.031250
2883,-203.125000
2884,-199.218750
2885,-195.312500
2886,-191.406250
2887,-187.500000
2888,-183.593750
2889,-179.687500
2890,-179.687500
2891,-175.781250
2892,-171.875000
2893,-167.968750
2894,-164.062500
2895,-160.156250
2896,-156.250000
2897,-152.343750
2898,-148.437500
2899,-144.531250
2900,-140.625000
2901,-136.718750
2902,-132.812500
2903,-128.906250
2904,-125.000000
2905,-121.093750
2906,-117.187500
2907,-113.281250
2908,-109.375000
2909,-105.468750
2910,-101.562500
2911,-97.656250
2912,-97.656250
2913,-89.843750
2914,-85.937500
2915,-82.031250
2916,-78.125000
2917,-74.218750
2918,-70.312500
2919,-66.406250
2920,-62.500000
2921,-58.593750
2922,-54.687500
2923,-50.781250
2924,-46.875000
2925,-42.968750
2926,-39.062500
2927,-35.156250
2928,-31.250000
2929,-27.343750
2930,-23.437500
2931,-19.531250
2932,-15.625000
2933,-11.718750
2934,-7.812500
2935,-3.906250
2936,0.000000
2937,3.906250
2938,3.906250
2939,7.812500
2940,11.718750
2941,19.531250
2942,19.531250
2943,23.437500
2944,27.343750
2945,31.250000
2946,35.156250
2947,39.062500
2948,39.062500
2949,42.968750
2950,46.875000
2951,50.781250
2952,54.687500
2953,54.687500
2954,58.593750
2955,62.500000
2956,66.406250
2957,70.312500
2958,70.312500
2959,74.218750
2960,78.125000
2961,82.031250
2962,82.031250
2963,85.937500
2964,89.843750
2965,89.843750
2966,93.750000
2967,97.656250
2968,97.656250
2969,101.562500
2970,105.468750
2971,105.468750
2972,109.375000
2973,109.375000
2974,113.281250
2975,113.281250
2976,117.187500
2977,117.187500
2978,121.093750
2979,125.000000
2980,125.000000
2981,128.906250
2982,128.906250
2983,132.812500
2984,132.812500
2985,136.718750
2986,136.718750
2987,136.718750
2988,140.625000
2989,140.625000
2990,144.531250
2991,144.531250
2992,148.437500
2993,148.437500
2994,148.437500
2995,152.343750
2996,152.343750
2997,152.343750
2998,156.250000
2999,156.250000
3000,156.250000
3001,156.250000
3002,160.156250
3003,160.156250
3004,160.156250
3005,164.062500
3006,164.062500
3007,164.062500
3008,164.062500
3009,167.968750
3010,167.968750
3011,167.968750
3012,167.968750
3013,167.968750
3014,167.968750
3015,167.968750
3016,171.875000
3017,171.875000
3018,171.875000
3019,171.875000
3020,171.875000
3021,171.875000
3022,171.875000
3023,171.875000
3024,171.875000
3025,171.875000
3026,171.875000
3027,171.875000
3028,175.781250
3029,175.781250
3030,175.781250
3031,175.781250
3032,175.781250
3033,175.781250
3034,175.781250
3035,175.781250
3036,171.875000
3037,175.781250
3038,171.875000
3039,171.875000
3040,175.781250
3041,171.875000
3042,171.875000
3043,171.875000
3044,171.875000
3045,171.875000
3046,171.875000
3047,171.875000
3048,167.968750
3049,167.968750
3050,167.968750
3051,167.968750
3052,167.968750
3053,167.968750
3054,164.062500
3055,164.062500
3056,164.062500
3057,164.062500
3058,164.062500
3059,164.062500
3060,160.156250
3061,160.156250
3062,156.250000
3063,156.250000
3064,156.250000
3065,156.250000
3066,152.343750
3067,152.343750
3068,152.343750
3069,148.437500
3070,148.437500
3071,144.531250
3072,144.531250
3073,144.531250
3074,140.625000
3075,140.625000
3076,136.718750
3077,136.718750
3078,136.718750
3079,132.812500
3080,132.812500
3081,128.906250
3082,128.906250
3083,125.000000
3084,125.000000
3085,121.093750
3086,117.187500
3087,117.187500
3088,117.187500
3089,113.281250
3090,109.375000
3091,109.375000
3092,105.468750
3093,101.562500
3094,101.562500
3095,97.656250
3096,93.750000
3097,93.750000
3098,89.843750
3099,85.937500
3100,85.937500
3101,82.031250
3102,78.125000
3103,78.125000
3104,74.218750
3105,70.312500
3106,66.406250
3107,66.406250
3108,62.500000
3109,58.593750
3110,54.687500
3111,50.781250
3112,50.781250
3113,46.875000
3114,42.968750
3115,42.968750
3116,35.156250
3117,31.250000
3118,31.250000
3119,27.343750
3120,23.437500
3121,19.531250
3122,15.625000
3123,11.718750
3124,7.812500
3125,7.812500
3126,0.000000
3127,0.000000
3128,-3.906250
3129,-7.812500
3130,-11.718750
3131,-15.625000
3132,-19.531250
3133,-23.437500
3134,-27.343750
3135,-31.250000
3136,-35.156250
3137,-39.062500
3138,-42.968750
3139,-46.875000
3140,-50.781250
3141,-54.687500
3142,-58.593750
3143,-62.500000
3144,-66.406250
3145,-70.312500
3146,-74.218750
3147,-78.125000
3148,-82.031250
3149,-85.937500
3150,-89.843750
3151,-93.750000
3152,-97.656250
3153,-101.562500
3154,-105.468750
3155,-109.375000
3156,-113.281250
3157,-117.187500
3158,-121.093750
3159,-125.000000
3160,-128.906250
3161,-132.812500
3162,-136.718750
3163,-140.625000
3164,-144.531250
3165,-148.437500
3166,-152.343750
3167,-156.250000
3168,-160.156250
3169,-164.062500
3170,-167.968750
3171,-171.875000
3172,-171.875000
3173,-175.781250
3174,-179.687500
3175,-183.593750
3176,-187.500000
3177,-191.406250
3178,-191.406250
3179,-195.312500
3180,-199.218750
3181,-203.125000
3182,-207.031250
3183,-210.937500
3184,-214.843750
3185,-214.843750
3186,-218.750000
3187,-222.656250
3188,-222.656250
3189,-230.468750
3190,-230.468750
3191,-234.375000
3192,-238.281250
3193,-238.281250
3194,-242.187500
3195,-246.093750
3196,-246.093750
3197,-250.000000
3198,-253.906250
3199,-257.812500
3200,-257.812500
3201,-261.718750
3202,-261.718750
3203,-265.625000
3204,-269.531250
3205,-269.531250
3206,-269.531250
3207,-269.531250
3208,-277.343750
3209,-277.343750
3210,-281.250000
3211,-281.250000
3212,-281.250000
3213,-285.156250
3214,-285.156250
3215,-289.062500
3216,-289.062500
3217,-289.062500
3218,-292.968750
3219,-292.968750
3220,-292.968750
3221,-296.875000
3222,-296.875000
3223,-296.875000
3224,-300.781250
3225,-300.781250
3226,-300.781250
3227,-300.781250
3228,-304.687500
3229,-300.781250
3230,-304.687500
3231,-304.687500
3232,-304.687500
3233,-304.687500
3234,-304.687500
3235,-304.687500
3236,-304.687500
3237,-308.593750
3238,-308.593750
3239,-308.593750
3240,-308.593750
3241,-304.687500
3242,-304.687500
3243,-308.593750
3244,-304.687500
3245,-304.687500
3246,-304.687500
3247,-304.687500
3248,-304.687500
3249,-304.687500
3250,-304.687500
3251,-304.687500
3252,-300.781250
3253,-300.781250
3254,-300.781250
3255,-300.781250
3256,-300.781250
3257,-296.875000
3258,-296.875000
3259,-296.875000
3260,-292.968750
3261,-292.968750
3262,-292.968750
3263,-289.062500
3264,-289.062500
3265,-289.062500
3266,-285.156250
3267,-285.156250
3268,-281.250000
3269,-281.250000
3270,-277.343750
3271,-277.343750
3272,-277.343750
3273,-273.437500
3274,-269.531250
3275,-269.531250
3276,-265.625000
3277,-265.625000
3278,-261.718750
3279,-261.718750
3280,-257.812500
3281,-253.906250
3282,-253.906250
3283,-250.000000
3284,-246.093750
3285,-246.093750
3286,-242.187500
3287,-242.187500
3288,-238.281250
3289,-234.375000
3290,-230.468750
3291,-230.468750
3292,-226.562500
3293,-222.656250
3294,-218.750000
3295,-214.843750
3296,-214.843750
3297,-210.937500
3298,-207.031250
3299,-203.125000
3300,-199.218750
3301,-195.312500
3302,-195.312500
3303,-191.406250
3304,-187.500000
3305,-183.593750
3306,-183.593750
3307,-175.781250
3308,-171.875000
3309,-167.968750
3310,-164.062500
3311,-160.156250
3312,-156.250000
3313,-156.250000
3314,-148.437500
3315,-148.437500
3316,-144.531250
3317,-140.625000
3318,-136.718750
3319,-132.812500
3320,-128.906250
3321,-125.000000
3322,-121.093750
3323,-117.187500
3324,-113.281250
3325,-109.375000
3326,-105.468750
3327,-101.562500
3328,-97.656250
3329,-93.750000
3330,-89.843750
3331,-85.937500
3332,-82.031250
3333,-78.125000
3334,-74.218750
3335,-70.312500
3336,-66.406250
3337,-62.500000
3338,-58.593750
3339,-54.687500
3340,-50.781250
3341,-46.875000
3342,-42.968750
3343,-39.062500
3344,-35.156250
3345,-31.250000
3346,-27.343750
3347,-23.437500
3348,-19.531250
3349,-15.625000
3350,-11.718750
3351,-7.812500
3352,-3.906250
3353,0.000000
3354,3.906250
3355,7.812500
3356,11.718750
3357,11.718750
3358,19.531250
3359,19.531250
3360,23.437500
3361,27.343750
3362,31.250000
3363,35.156250
3364,39.062500
3365,42.968750
3366,42.968750
3367,46.875000
3368,50.781250
3369,54.687500
3370,58.593750
3371,62.500000
3372,62.500000
3373,66.406250
3374,70.312500
3375,70.312500
3376,74.218750
3377,78.125000
3378,82.031250
3379,82.031250
3380,85.937500
3381,89.843750
3382,93.750000
3383,93.750000
3384,97.656250
3385,101.562500
3386,101.562500
3387,105.468750
3388,105.468750
3389,109.375000
3390,109.375000
3391,113.281250
3392,117.187500
3393,117.187500
3394,121.093750
3395,121.093750
3396,125.000000
3397,125.000000
3398,128.906250
3399,128.906250
3400,132.812500
3401,132.812500
3402,136.718750
3403,136.718750
3404,140.625000
3405,140.625000
3406,140.625000
3407,140.625000
3408,144.531250
3409,144.531250
3410,148.437500
3411,148.437500
3412,152.343750
3413,152.343750
3414,152.343750
3415,156.250000
3416,156.250000
3417,156.250000
3418,160.156250
3419,160.156250
3420,160.156250
3421,160.156250
3422,164.062500
3423,164.062500
3424,164.062500
3425,164.062500
3426,167.968750
3427,164.062500
3428,167.968750
3429,167.968750
3430,167.968750
3431,167.968750
3432,171.875000
3433,171.875000
3434,171.875000
3435,171.875000
3436,171.875000
3437,171.875000
3438,171.875000
3439,171.875000
3440,171.875000
3441,171.875000
3442,175.781250
3443,171.875000
3444,171.875000
3445,175.781250
3446,175.781250
3447,175.781250
3448,175.781250
3449,175.781250
3450,175.781250
3451,175.781250
3452,171.875000
3453,171.875000
3454,171.875000
3455,171.875000
3456,171.875000
3457,171.875000
3458,171.875000
3459,171.875000
3460,171.875000
3461,171.875000
3462,171.875000
3463,171.875000
3464,167.968750
3465,167.968750
3466,167.968750
3467,167.968750
3468,167.968750
3469,167.968750
3470,164.062500
3471,164.062500
3472,164.062500
3473,164.062500
3474,164.062500
3475,160.156250
3476,160.156250
3477,160.156250
3478,160.156250
3479,156.250000
3480,156.250000
3481,156.250000
3482,152.343750
3483,152.343750
3484,152.343750
3485,152.343750
3486,148.437500
3487,148.437500
3488,144.531250
3489,144.531250
3490,144.531250
3491,140.625000
3492,140.625000
3493,136.718750
3494,136.718750
3495,132.812500
3496,132.812500
3497,128.906250
3498,128.906250
3499,128.906250
3500,125.000000
3501,121.093750
3502,121.093750
3503,117.187500
3504,117.187500
3505,113.281250
3506,113.281250
3507,109.375000
3508,109.375000
3509,105.468750
3510,101.562500
3511,101.562500
3512,97.656250
3513,93.750000
3514,93.750000
3515,89.843750
3516,85.937500
3517,85.937500
3518,82.031250
3519,78.125000
3520,74.218750
3521,74.218750
3522,70.312500
3523,66.406250
3524,66.406250
3525,62.500000
3526,58.593750
3527,54.687500
3528,50.781250
3529,46.875000
3530,46.875000
3531,42.968750
3532,39.062500
3533,35.156250
3534,31.250000
3535,27.343750
3536,27.343750
3537,23.437500
3538,19.531250
3539,15.625000
3540,11.718750
3541,7.812500
3542,3.906250
3543,0.000000
3544,-3.906250
3545,-7.812500
3546,-11.718750
3547,-11.718750
3548,-15.625000
3549,-23.437500
3550,-27.343750
3551,-27.343750
3552,-31.250000
3553,-35.156250
3554,-42.968750
3555,-42.968750
3556,-46.875000
3557,-50.781250
3558,-54.687500
3559,-58.593750
3560,-62.500000
3561,-66.406250
3562,-70.312500
3563,-74.218750
3564,-78.125000
3565,-82.031250
3566,-85.937500
3567,-89.843750
3568,-93.750000
3569,-101.562500
3570,-101.562500
3571,-105.468750
3572,-109.375000
3573,-113.281250
3574,-117.187500
3575,-121.093750
3576,-125.000000
3577,-128.906250
3578,-132.812500
3579,-136.718750
3580,-140.625000
3581,-144.531250
3582,-148.437500
3583,-152.343750
3584,-156.250000
3585,-160.156250
3586,-164.062500
3587,-167.968750
3588,-171.875000
3589,-175.781250
3590,-175.781250
3591,-179.687500
3592,-183.593750
3593,-191.406250
3594,-191.406250
3595,-195.312500
3596,-199.218750
3597,-203.125000
3598,-203.125000
3599,-207.031250
3600,-210.937500
3601,-214.843750
3602,-218.750000
3603,-218.750000
3604,-222.656250
3605,-226.562500
3606,-230.468750
3607,-230.468750
3608,-234.375000
3609,-238.281250
3610,-242.187500
3611,-242.187500
3612,-246.093750
3613,-250.000000
3614,-250.000000
3615,-253.906250
3616,-257.812500
3617,-257.812500
3618,-261.718750
3619,-261.718750
3620,-265.625000
3621,-265.625000
3622,-269.531250
3623,-273.437500
3624,-273.437500
3625,-277.343750
3626,-277.343750
3627,-277.343750
3628,-281.250000
3629,-281.250000
3630,-285.156250
3631,-285.156250
3632,-289.062500
3633,-289.062500
3634,-289.062500
3635,-292.968750
3636,-292.968750
3637,-292.968750
3638,-296.875000
3639,-296.875000
3640,-296.875000
3641,-300.781250
3642,-300.781250
3643,-300.781250
3644,-300.781250
3645,-300.781250
3646,-304.687500
3647,-304.687500
3648,-304.687500
3649,-304.687500
3650,-304.687500
3651,-308.593750
3652,-304.687500
3653,-304.687500
3654,-308.593750
3655,-308.593750
3656,-308.593750
3657,-308.593750
3658,-308.593750
3659,-308.593750
3660,-308.593750
3661,-308.593750
3662,-308.593750
3663,-304.687500
3664,-304.687500
3665,-308.593750
3666,-304.687500
3667,-304.687500
3668,-304.687500
3669,-300.781250
3670,-300.781250
3671,-300.781250
3672,-300.781250
3673,-300.781250
3674,-296.875000
3675,-296.875000
3676,-296.875000
3677,-296.875000
3678,-292.968750
3679,-292.968750
3680,-289.062500
3681,-289.062500
3682,-289.062500
3683,-285.156250
3684,-285.156250
3685,-285.156250
3686,-277.343750
3687,-281.250000
3688,-277.343750
3689,-273.437500
3690,-273.437500
3691,-269.531250
3692,-269.531250
3693,-269.531250
3694,-265.625000
3695,-261.718750
3696,-261.718750
3697,-257.812500
3698,-257.812500
3699,-253.906250
3700,-250.000000
3701,-250.000000
3702,-246.093750
3703,-242.187500
3704,-238.281250
3705,-238.281250
3706,-234.375000
3707,-230.468750
3708,-226.562500
3709,-226.562500
3710,-222.656250
3711,-218.750000
3712,-218.750000
3713,-214.843750
3714,-210.937500
3715,-207.031250
3716,-203.125000
3717,-199.218750
3718,-195.312500
3719,-195.312500
3720,-191.406250
3721,-183.593750
3722,-183.593750
3723,-179.687500
3724,-175.781250
3725,-171.875000
3726,-167.968750
3727,-164.062500
3728,-164.062500
3729,-156.250000
3730,-152.343750
3731,-152.343750
3732,-148.437500
3733,-144.531250
3734,-140.625000
3735,-136.718750
3736,-132.812500
3737,-128.906250
3738,-125.000000
3739,-121.093750
3740,-117.187500
3741,-113.281250
3742,-109.375000
3743,-101.562500
3744,-101.562500
3745,-97.656250
3746,-93.750000
3747,-89.843750
3748,-85.937500
3749,-78.125000
3750,-78.125000
3751,-74.218750
3752,-66.406250
3753,-62.500000
3754,-62.500000
3755,-54.687500
3756,-54.687500
3757,-50.781250
3758,-46.875000
3759,-42.968750
3760,-39.062500
3761,-31.250000
3762,-31.250000
3763,-23.437500
3764,-23.437500
3765,-19.531250
3766,-15.625000
3767,-11.718750
3768,-7.812500
3769,-3.906250
3770,0.000000
3771,3.906250
3772,7.812500
3773,11.718750
3774,15.625000
3775,19.531250
3776,23.437500
3777,23.437500
3778,27.343750
3779,31.250000
3780,35.156250
3781,39.062500
3782,42.968750
3783,46.875000
3784,50.781250
3785,50.781250
3786,54.687500
3787,58.593750
3788,62.500000
3789,62.500000
3790,66.406250
3791,70.312500
3792,74.218750
3793,74.218750
3794,78.125000
3795,82.031250
3796,82.031250
3797,85.937500
3798,89.843750
3799,93.750000
3800,93.750000
3801,97.656250
3802,97.656250
3803,101.562500
3804,105.468750
3805,109.375000
3806,109.375000
3807,113.281250
3808,113.281250
3809,117.187500
3810,117.187500
3811,121.093750
3812,125.000000
3813,125.000000
3814,125.000000
3815,128.906250
3816,132.812500
3817,132.812500
3818,132.812500
3819,136.718750
3820,136.718750
3821,140.625000
3822,140.625000
3823,140.625000
3824,144.531250
3825,144.531250
3826,144.531250
3827,148.437500
3828,148.437500
3829,152.343750
3830,152.343750
3831,156.250000
3832,156.250000
3833,156.250000
3834,156.250000
3835,160.156250
3836,160.156250
3837,160.156250
3838,160.156250
3839,164.062500
3840,164.062500
3841,164.062500
3842,164.062500
3843,167.968750
3844,167.968750
3845,167.968750
3846,167.968750
3847,167.968750
3848,167.968750
3849,171.875000
3850,171.875000
3851,171.875000
3852,171.875000
3853,171.875000
3854,171.875000
3855,171.875000
3856,171.875000
3857,171.875000
3858,171.875000
3859,175.781250
3860,175.781250
3861,171.875000
3862,175.781250
3863,175.781250
3864,171.875000
3865,175.781250
3866,175.781250
3867,171.875000
3868,175.781250
3869,175.781250
3870,175.781250
3871,171.875000
3872,171.875000
3873,171.875000
3874,171.875000
3875,171.875000
3876,171.875000
3877,171.875000
3878,171.875000
3879,171.875000
3880,171.875000
3881,167.968750
3882,167.968750
3883,167.968750
3884,167.968750
3885,167.968750
3886,167.968750
3887,167.968750
3888,164.062500
3889,164.062500
3890,164.062500
3891,164.062500
3892,160.156250
3893,160.156250
3894,160.156250
3895,160.156250
3896,156.250000
3897,156.250000
3898,156.250000
3899,152.343750
3900,152.343750
3901,152.343750
3902,148.437500
3903,148.437500
3904,148.437500
3905,144.531250
3906,144.531250
3907,140.625000
3908,140.625000
3909,140.625000
3910,136.718750
3911,136.718750
3912,136.718750
3913,132.812500
3914,128.906250
3915,128.906250
3916,128.906250
3917,125.000000
3918,121.093750
3919,121.093750
3920,117.187500
3921,117.187500
3922,113.281250
3923,113.281250
3924,109.375000
3925,105.468750
3926,105.468750
3927,101.562500
3928,97.656250
3929,97.656250
3930,93.750000
3931,89.843750
3932,89.843750
3933,85.937500
3934,82.031250
3935,82.031250
3936,78.125000
3937,78.125000
3938,74.218750
3939,70.312500
3940,66.406250
3941,62.500000
3942,62.500000
3943,58.593750
3944,54.687500
3945,54.687500
3946,46.875000
3947,46.875000
3948,42.968750
3949,39.062500
3950,35.156250
3951,31.250000
3952,23.437500
3953,23.437500
3954,19.531250
3955,19.531250
3956,15.625000
3957,11.718750
3958,7.812500
3959,3.906250
3960,0.000000
3961,-3.906250
3962,-7.812500
3963,-11.718750
3964,-15.625000
3965,-19.531250
3966,-23.437500
3967,-27.343750
3968,-31.250000
3969,-35.156250
3970,-39.062500
3971,-42.968750
3972,-46.875000
3973,-46.875000
3974,-50.781250
3975,-58.593750
3976,-58.593750
3977,-66.406250
3978,-66.406250
3979,-74.218750
3980,-78.125000
3981,-82.031250
3982,-85.937500
3983,-89.843750
3984,-93.750000
3985,-97.656250
3986,-101.562500
3987,-105.468750
3988,-109.375000
3989,-113.281250
3990,-117.187500
3991,-121.093750
3992,-125.000000
3993,-128.906250
3994,-132.812500
3995,-132.812500
3996,-140.625000
3997,-144.531250
3998,-144.531250
3999,-152.343750
4000,-152.343750
4001,-156.250000
4002,-160.156250
4003,-164.062500
4004,-167.968750
4005,-171.875000
4006,-175.781250
4007,-179.687500
4008,-183.593750
4009,-183.593750
4010,-191.406250
4011,-191.406250
4012,-195.312500
4013,-199.218750
4014,-203.125000
4015,-207.031250
4016,-207.031250
4017,-210.937500
4018,-214.843750
4019,-218.750000
4020,-222.656250
4021,-222.656250
4022,-226.562500
4023,-230.468750
4024,-234.375000
4025,-238.281250
4026,-238.281250
4027,-242.187500
4028,-242.187500
4029,-246.093750
4030,-250.000000
4031,-250.000000
4032,-253.906250
4033,-253.906250
4034,-257.812500
4035,-261.718750
4036,-265.625000
4037,-265.625000
4038,-269.531250
4039,-269.531250
4040,-273.437500
4041,-273.437500
4042,-277.343750
4043,-277.343750
4044,-281.250000
4045,-281.250000
4046,-281.250000
4047,-285.156250
4048,-285.156250
4049,-289.062500
4050,-289.062500
4051,-292.968750
4052,-292.968750
4053,-292.968750
4054,-292.968750
4055,-296.875000
4056,-296.875000
4057,-296.875000
4058,-300.781250
4059,-300.781250
4060,-300.781250
4061,-300.781250
4062,-304.687500
4063,-304.687500
4064,-304.687500
4065,-304.687500
4066,-304.687500
4067,-304.687500
4068,-304.687500
4069,-308.593750
4070,-304.687500
4071,-308.593750
4072,-308.593750
4073,-308.593750
4074,-308.593750
4075,-304.687500
4076,-308.593750
4077,-304.687500
4078,-304.687500
4079,-304.687500
4080,-304.687500
4081,-304.687500
4082,-304.687500
4083,-304.687500
4084,-304.687500
4085,-304.687500
4086,-300.781250
4087,-300.781250
4088,-300.781250
4089,-300.781250
4090,-296.875000
4091,-296.875000
4092,-296.875000
4093,-296.875000
4094,-292.968750
4095,-292.968750
4096,-292.968750
4097,-289.062500
4098,-289.062500
4099,-285.156250
4100,-285.156250
4101,-281.250000
4102,-281.250000
4103,-281.250000
4104,-277.343750
4105,-277.343750
4106,-273.437500
4107,-273.437500
4108,-269.531250
4109,-269.531250
4110,-265.625000
4111,-265.625000
4112,-261.718750
4113,-257.812500
4114,-257.812500
4115,-253.906250
4116,-253.906250
4117,-250.000000
4118,-246.093750
4119,-246.093750
4120,-242.187500
4121,-238.281250
4122,-234.375000
4123,-230.468750
4124,-230.468750
4125,-226.562500
4126,-222.656250
4127,-222.656250
4128,-218.750000
4129,-214.843750
4130,-210.937500
4131,-210.937500
4132,-203.125000
4133,-203.125000
4134,-199.218750
4135,-195.312500
4136,-191.406250
4137,-187.500000
4138,-183.593750
4139,-179.687500
4140,-179.687500
4141,-175.781250
4142,-171.875000
4143,-167.968750
4144,-164.062500
4145,-160.156250
4146,-156.250000
4147,-152.343750
4148,-148.437500
4149,-144.531250
4150,-140.625000
4151,-136.718750
4152,-132.812500
4153,-128.906250
4154,-125.000000
4155,-121.093750
4156,-117.187500
4157,-113.281250
4158,-109.375000
4159,-105.468750
4160,-101.562500
4161,-97.656250
4162,-93.750000
4163,-89.843750
4164,-85.937500
4165,-82.031250
4166,-78.125000
4167,-74.218750
4168,-70.312500
4169,-66.406250
4170,-62.500000
4171,-58.593750
4172,-54.687500
4173,-50.781250
4174,-46.875000
4175,-42.968750
4176,-39.062500
4177,-35.156250
4178,-31.250000
4179,-27.343750
4180,-23.437500
4181,-23.437500
4182,-15.625000
4183,-11.718750
4184,-7.812500
4185,-3.906250
4186,0.000000
4187,0.000000
4188,3.906250
4189,7.812500
4190,11.718750
4191,15.625000
4192,19.531250
4193,23.437500
4194,27.343750
4195,27.343750
4196,35.156250
4197,35.156250
4198,39.062500
4199,42.968750
4200,46.875000
4201,50.781250
4202,50.781250
4203,54.687500
4204,58.593750
4205,62.500000
4206,66.406250
4207,66.406250
4208,70.312500
4209,74.218750
4210,78.125000
4211,78.125000
4212,82.031250
4213,85.937500
4214,85.937500
4215,89.843750
4216,93.750000
4217,97.656250
4218,97.656250
4219,101.562500
4220,105.468750
4221,105.468750
4222,109.375000
4223,109.375000
4224,113.281250
4225,113.281250
4226,117.187500
4227,117.187500
4228,121.093750
4229,121.093750
4230,125.000000
4231,128.906250
4232,128.906250
4233,132.812500
4234,132.812500
4235,132.812500
4236,136.718750
4237,136.718750
4238,140.625000
4239,140.625000
4240,140.625000
4241,144.531250
4242,144.531250
4243,148.437500
4244,148.437500
4245,148.437500
4246,152.343750
4247,152.343750
4248,152.343750
4249,156.250000
4250,156.250000
4251,156.250000
4252,160.156250
4253,160.156250
4254,160.156250
4255,160.156250
4256,164.062500
4257,164.062500
4258,164.062500
4259,164.062500
4260,167.968750
4261,167.968750
4262,167.968750
4263,167.968750
4264,167.968750
4265,167.968750
4266,171.875000
4267,171.875000
4268,171.875000
4269,171.875000
4270,171.875000
4271,171.875000
4272,171.875000
4273,171.875000
4274,171.875000
4275,175.781250
4276,171.875000
4277,171.875000
4278,171.875000
4279,171.875000
4280,175.781250
4281,175.781250
4282,175.781250
4283,175.781250
4284,175.781250
4285,175.781250
4286,175.781250
4287,171.875000
4288,171.875000
4289,171.875000
4290,171.875000
4291,171.875000
4292,171.875000
4293,171.875000
4294,171.875000
4295,171.875000
4296,171.875000
4297,171.875000
4298,167.968750
4299,167.968750
4300,167.968750
4301,167.968750
4302,167.968750
4303,167.968750
4304,164.062500
4305,164.062500
4306,164.062500
4307,164.062500
4308,164.062500
4309,160.156250
4310,160.156250
4311,160.156250
4312,156.250000
4313,156.250000
4314,156.250000
4315,156.250000
4316,152.343750
4317,152.343750
4318,148.437500
4319,148.437500
4320,148.437500
4321,148.437500
4322,144.531250
4323,144.531250
4324,140.625000
4325,140.625000
4326,136.718750
4327,136.718750
4328,136.718750
4329,132.812500
4330,132.812500
4331,128.906250
4332,128.906250
4333,128.906250
4334,125.000000
4335,121.093750
4336,121.093750
4337,117.187500
4338,117.187500
4339,113.281250
4340,109.375000
4341,109.375000
4342,105.468750
4343,105.468750
4344,101.562500
4345,97.656250
4346,97.656250
4347,93.750000
4348,89.843750
4349,89.843750
4350,85.937500
4351,82.031250
4352,82.031250
4353,78.125000
4354,74.218750
4355,70.312500
4356,66.406250
4357,66.406250
4358,62.500000
4359,58.593750
4360,54.687500
4361,54.687500
4362,50.781250
4363,46.875000
4364,42.968750
4365,39.062500
4366,39.062500
4367,35.156250
4368,31.250000
4369,27.343750
4370,23.437500
4371,19.531250
4372,15.625000
4373,15.625000
4374,11.718750
4375,3.906250
4376,3.906250
4377,0.000000
4378,-3.906250
4379,-7.812500
4380,-11.718750
4381,-15.625000
4382,-19.531250
4383,-23.437500
4384,-27.343750
4385,-31.250000
4386,-27.343750
4387,-39.062500
4388,-42.968750
4389,-46.875000
4390,-50.781250
4391,-54.687500
4392,-58.593750
4393,-62.500000
4394,-66.406250
4395,-70.312500
4396,-74.218750
4397,-78.125000
4398,-82.031250
4399,-85.937500
4400,-89.843750
4401,-93.750000
4402,-97.656250
4403,-101.562500
4404,-105.468750
4405,-109.375000
4406,-113.281250
4407,-117.187500
4408,-117.187500
4409,-125.000000
4410,-128.906250
4411,-128.906250
4412,-136.718750
4413,-140.625000
4414,-144.531250
4415,-144.531250
4416,-148.437500
4417,-156.250000
4418,-156.250000
4419,-160.156250
4420,-164.062500
4421,-167.968750
4422,-171.875000
4423,-175.781250
4424,-179.687500
4425,-183.593750
4426,-183.593750
4427,-187.500000
4428,-191.406250
4429,-195.312500
4430,-199.218750
4431,-203.125000
4432,-207.031250
4433,-210.937500
4434,-210.937500
4435,-214.843750
4436,-218.750000
4437,-222.656250
4438,-226.562500
4439,-226.562500
4440,-230.468750
4441,-234.375000
4442,-238.281250
4443,-238.281250
4444,-242.187500
4445,-242.187500
4446,-246.093750
4447,-250.000000
4448,-250.000000
4449,-253.906250
4450,-257.812500
4451,-257.812500
4452,-261.718750
4453,-261.718750
4454,-265.625000
4455,-269.531250
4456,-269.531250
4457,-273.437500
4458,-273.437500
4459,-277.343750
4460,-277.343750
4461,-281.250000
4462,-281.250000
4463,-281.250000
4464,-285.156250
4465,-285.156250
4466,-289.062500
4467,-289.062500
4468,-292.968750
4469,-292.968750
4470,-292.968750
4471,-292.968750
4472,-296.875000
4473,-296.875000
4474,-296.875000
4475,-300.781250
4476,-300.781250
4477,-300.781250
4478,-300.781250
4479,-300.781250
4480,-304.687500
4481,-304.687500
4482,-304.687500
4483,-304.687500
4484,-304.687500
4485,-304.687500
4486,-304.687500
4487,-304.687500
4488,-304.687500
4489,-304.687500
4490,-308.593750
4491,-304.687500
4492,-304.687500
4493,-304.687500
4494,-304.687500
4495,-308.593750
4496,-304.687500
4497,-304.687500
4498,-304.687500
4499,-304.687500
4500,-304.687500
4501,-300.781250
4502,-300.781250
4503,-300.781250
4504,-300.781250
4505,-300.781250
4506,-300.781250
4507,-296.875000
4508,-296.875000
4509,-296.875000
4510,-296.875000
4511,-292.968750
4512,-292.968750
4513,-289.062500
4514,-289.062500
4515,-289.062500
4516,-285.156250
4517,-285.156250
4518,-281.250000
4519,-281.250000
4520,-281.250000
4521,-277.343750
4522,-277.343750
4523,-273.437500
4524,-273.437500
4525,-269.531250
4526,-269.531250
4527,-265.625000
4528,-261.718750
4529,-261.718750
4530,-257.812500
4531,-257.812500
4532,-253.906250
4533,-250.000000
4534,-250.000000
4535,-246.093750
4536,-242.187500
4537,-242.187500
4538,-238.281250
4539,-234.375000
4540,-234.375000
4541,-230.468750
4542,-226.562500
4543,-222.656250
4544,-222.656250
4545,-218.750000
4546,-214.843750
4547,-210.937500
4548,-207.031250
4549,-203.125000
4550,-203.125000
4551,-199.218750
4552,-195.312500
4553,-191.406250
4554,-187.500000
4555,-183.593750
4556,-179.687500
4557,-175.781250
4558,-175.781250
4559,-171.875000
4560,-167.968750
4561,-164.062500
4562,-160.156250
4563,-156.250000
4564,-152.343750
4565,-148.437500
4566,-144.531250
4567,-140.625000
4568,-136.718750
4569,-132.812500
4570,-128.906250
4571,-125.000000
4572,-121.093750
4573,-117.187500
4574,-113.281250
4575,-109.375000
4576,-105.468750
4577,-101.562500
4578,-97.656250
4579,-93.750000
4580,-89.843750
4581,-85.937500
4582,-82.031250
4583,-78.125000
4584,-74.218750
4585,-70.312500
4586,-66.406250
4587,-62.500000
4588,-58.593750
4589,-54.687500
4590,-50.781250
4591,-46.875000
4592,-42.968750
4593,-39.062500
4594,-35.156250
4595,-31.250000
4596,-27.343750
4597,-23.437500
4598,-19.531250
4599,-15.625000
4600,-11.718750
4601,-7.812500
4602,-3.906250
4603,0.000000
4604,3.906250
4605,3.906250
4606,7.812500
4607,11.718750
4608,15.625000
4609,19.531250
4610,23.437500
4611,27.343750
4612,31.250000
4613,35.156250
4614,39.062500
4615,39.062500
4616,42.968750
4617,46.875000
4618,50.781250
4619,50.781250
4620,54.687500
4621,58.593750
4622,62.500000
4623,66.406250
4624,70.312500
4625,70.312500
4626,74.218750
4627,78.125000
4628,78.125000
4629,82.031250
4630,85.937500
4631,85.937500
4632,89.843750
4633,93.750000
4634,97.656250
4635,97.656250
4636,101.562500
4637,101.562500
4638,105.468750
4639,109.375000
4640,109.375000
4641,113.281250
4642,113.281250
4643,117.187500
4644,121.093750
4645,121.093750
4646,125.000000
4647,125.000000
4648,128.906250
4649,128.906250
4650,132.812500
4651,132.812500
4652,136.718750
4653,136.718750
4654,136.718750
4655,140.625000
4656,140.625000
4657,144.531250
4658,144.531250
4659,148.437500
4660,148.437500
4661,148.437500
4662,152.343750
4663,152.343750
4664,152.343750
4665,156.250000
4666,156.250000
4667,156.250000
4668,160.156250
4669,160.156250
4670,160.156250
4671,160.156250
4672,164.062500
4673,164.062500
4674,164.062500
4675,164.062500
4676,164.062500
4677,167.968750
4678,167.968750
4679,167.968750
4680,167.968750
4681,167.968750
4682,171.875000
4683,171.875000
4684,171.875000
4685,171.875000
4686,171.875000
4687,171.875000
4688,171.875000
4689,171.875000
4690,171.875000
4691,171.875000
4692,175.781250
4693,175.781250
4694,171.875000
4695,175.781250
4696,175.781250
4697,175.781250
4698,175.781250
4699,175.781250
4700,175.781250
4701,175.781250
4702,175.781250
4703,171.875000
4704,175.781250
4705,175.781250
4706,171.875000
4707,175.781250
4708,171.875000
4709,171.875000
4710,171.875000
4711,171.875000
4712,171.875000
4713,171.875000
4714,171.875000
4715,167.968750
4716,167.968750
4717,167.968750
4718,167.968750
4719,167.968750
4720,167.968750
4721,164.062500
4722,164.062500
4723,164.062500
4724,164.062500
4725,164.062500
4726,160.156250
4727,160.156250
4728,160.156250
4729,160.156250
4730,156.250000
4731,156.250000
4732,156.250000
4733,152.343750
4734,152.343750
4735,148.437500
4736,148.437500
4737,148.437500
4738,148.437500
4739,144.531250
4740,144.531250
4741,140.625000
4742,140.625000
4743,140.625000
4744,136.718750
4745,136.718750
4746,132.812500
4747,132.812500
4748,128.906250
4749,128.906250
4750,125.000000
4751,125.000000
4752,121.093750
4753,121.093750
4754,121.093750
4755,113.281250
4756,113.281250
4757,109.375000
4758,109.375000
4759,105.468750
4760,101.562500
4761,101.562500
4762,97.656250
4763,97.656250
4764,93.750000
4765,89.843750
4766,85.937500
4767,85.937500
4768,82.031250
4769,78.125000
4770,78.125000
4771,74.218750
4772,70.312500
4773,66.406250
4774,66.406250
4775,58.593750
4776,58.593750
4777,54.687500
4778,54.687500
4779,50.781250
4780,46.875000
4781,42.968750
4782,39.062500
4783,35.156250
4784,31.250000
4785,31.250000
4786,27.343750
4787,23.437500
4788,19.531250
4789,15.625000
4790,11.718750
4791,7.812500
4792,3.906250
4793,3.906250
4794,-3.906250
4795,-7.812500
4796,-7.812500
4797,-11.718750
4798,-15.625000
4799,-19.531250
4800,-23.437500
4801,-27.343750
4802,-31.250000
4803,-35.156250
4804,-39.062500
4805,-42.968750
4806,-46.875000
4807,-50.781250
4808,-54.687500
4809,-58.593750
4810,-62.500000
4811,-66.406250
4812,-70.312500
4813,-74.218750
4814,-78.125000
4815,-82.031250
4816,-85.937500
4817,-89.843750
4818,-93.750000
4819,-97.656250
4820,-101.562500
4821,-105.468750
4822,-109.375000
4823,-113.281250
4824,-117.187500
4825,-121.093750
4826,-125.000000
4827,-128.906250
4828,-132.812500
4829,-136.718750
4830,-140.625000
4831,-144.531250
4832,-148.437500
4833,-152.343750
4834,-156.250000
4835,-160.156250
4836,-164.062500
4837,-167.968750
4838,-171.875000
4839,-175.781250
4840,-175.781250
4841,-179.687500
4842,-183.593750
4843,-187.500000
4844,-191.406250
4845,-195.312500
4846,-195.312500
4847,-199.218750
4848,-203.125000
4849,-207.031250
4850,-210.937500
4851,-214.843750
4852,-214.843750
4853,-218.750000
4854,-218.750000
4855,-226.562500
4856,-230.468750
4857,-230.468750
4858,-234.375000
4859,-238.281250
4860,-238.281250
4861,-242.187500
4862,-246.093750
4863,-246.093750
4864,-250.000000
4865,-253.906250
4866,-253.906250
4867,-257.812500
4868,-261.718750
4869,-261.718750
4870,-265.625000
4871,-265.625000
4872,-269.531250
4873,-269.531250
4874,-273.437500
4875,-273.437500
4876,-277.343750
4877,-277.343750
4878,-281.250000
4879,-281.250000
4880,-285.156250
4881,-285.156250
4882,-289.062500
4883,-289.062500
4884,-289.062500
4885,-292.968750
4886,-292.968750
4887,-296.875000
4888,-296.875000
4889,-296.875000
4890,-296.875000
4891,-296.875000
4892,-300.781250
4893,-300.781250
4894,-300.781250
4895,-300.781250
4896,-304.687500
4897,-304.687500
4898,-304.687500
4899,-304.687500
4900,-304.687500
4901,-304.687500
4902,-304.687500
4903,-308.593750
4904,-308.593750
4905,-308.593750
4906,-304.687500
4907,-304.687500
4908,-308.593750
4909,-308.593750
4910,-308.593750
4911,-304.687500
4912,-304.687500
4913,-304.687500
4914,-304.687500
4915,-304.687500
4916,-304.687500
4917,-304.687500
4918,-300.781250
4919,-300.781250
4920,-304.687500
4921,-300.781250
4922,-300.781250
4923,-296.875000
4924,-296.875000
4925,-296.875000
4926,-296.875000
4927,-296.875000
4928,-292.968750
4929,-292.968750
4930,-289.062500
4931,-289.062500
4932,-289.062500
4933,-285.156250
4934,-285.156250
4935,-281.250000
4936,-281.250000
4937,-277.343750
4938,-277.343750
4939,-277.343750
4940,-273.437500
4941,-273.437500
4942,-269.531250
4943,-265.625000
4944,-265.625000
4945,-261.718750
4946,-261.718750
4947,-257.812500
4948,-253.906250
4949,-253.906250
4950,-250.000000
4951,-250.000000
4952,-246.093750
4953,-242.187500
4954,-242.187500
4955,-238.281250
4956,-234.375000
4957,-230.468750
4958,-230.468750
4959,-226.562500
4960,-222.656250
4961,-218.750000
4962,-214.843750
4963,-214.843750
4964,-210.937500
4965,-207.031250
4966,-203.125000
4967,-199.218750
4968,-195.312500
4969,-195.312500
4970,-191.406250
4971,-187.500000
4972,-183.593750
4973,-179.687500
4974,-175.781250
4975,-171.875000
4976,-167.968750
4977,-164.062500
4978,-164.062500
4979,-160.156250
4980,-156.250000
4981,-152.343750
4982,-144.531250
4983,-144.531250
4984,-140.625000
4985,-136.718750
4986,-132.812500
4987,-128.906250
4988,-125.000000
4989,-121.093750
4990,-113.281250
4991,-109.375000
4992,-109.375000
4993,-105.468750
4994,-101.562500
4995,-97.656250
4996,-93.750000
4997,-89.843750
4998,-85.937500
4999,-82.031250
5000,-78.125000
5001,-74.218750
5002,-70.312500
5003,-66.406250
5004,-62.500000
5005,-58.593750
5006,-54.687500
5007,-46.875000
5008,-46.875000
5009,-42.968750
5010,-39.062500
5011,-35.156250
5012,-31.250000
5013,-27.343750
5014,-23.437500
5015,-19.531250
5016,-15.625000
5017,-11.718750
5018,-7.812500
5019,-3.906250
5020,0.000000
5021,3.906250
5022,7.812500
5023,11.718750
5024,11.718750
5025,11.718750
5026,19.531250
5027,23.437500
5028,27.343750
5029,31.250000
5030,35.156250
5031,35.156250
5032,42.968750
5033,46.875000
5034,46.875000
5035,50.781250
5036,54.687500
5037,58.593750
5038,62.500000
5039,62.500000
5040,66.406250
5041,70.312500
5042,74.218750
5043,74.218750
5044,78.125000
5045,82.031250
5046,82.031250
5047,85.937500
5048,89.843750
5049,93.750000
5050,93.750000
5051,97.656250
5052,97.656250
5053,101.562500
5054,105.468750
5055,105.468750
5056,109.375000
5057,113.281250
5058,113.281250
5059,117.187500
5060,117.187500
5061,121.093750
5062,125.000000
5063,125.000000
5064,125.000000
5065,128.906250
5066,128.906250
5067,132.812500
5068,132.812500
5069,136.718750
5070,136.718750
5071,140.625000
5072,140.625000
5073,140.625000
5074,144.531250
5075,144.531250
5076,144.531250
5077,148.437500
5078,148.437500
5079,152.343750
5080,152.343750
5081,152.343750
5082,156.250000
5083,156.250000
5084,156.250000
5085,160.156250
5086,160.156250
5087,160.156250
5088,160.156250
5089,164.062500
5090,164.062500
5091,164.062500
5092,164.062500
5093,164.062500
5094,167.968750
5095,167.968750
5096,167.968750
5097,167.968750
5098,167.968750
5099,167.968750
5100,171.875000
5101,171.875000
5102,171.875000
5103,171.875000
5104,171.875000
5105,171.875000
5106,171.875000
5107,175.781250
5108,171.875000
5109,171.875000
5110,171.875000
5111,171.875000
5112,175.781250
5113,171.875000
5114,175.781250
5115,175.781250
5116,175.781250
5117,171.875000
5118,171.875000
5119,175.781250
5120,171.875000
5121,175.781250
5122,171.875000
5123,171.875000
5124,171.875000
5125,171.875000
5126,171.875000
5127,171.875000
5128,171.875000
5129,167.968750
5130,171.875000
5131,171.875000
5132,167.968750
5133,167.968750
5134,167.968750
5135,167.968750
5136,167.968750
5137,167.968750
5138,164.062500
5139,164.062500
5140,164.062500
5141,160.156250
5142,160.156250
5143,160.156250
5144,160.156250
5145,156.250000
5146,156.250000
5147,156.250000
5148,156.250000
5149,152.343750
5150,152.343750
5151,152.343750
5152,148.437500
5153,148.437500
5154,148.437500
5155,144.531250
5156,144.531250
5157,140.625000
5158,140.625000
5159,140.625000
5160,136.718750
5161,136.718750
5162,132.812500
5163,132.812500
5164,128.906250
5165,128.906250
5166,125.000000
5167,125.000000
5168,125.000000
5169,121.093750
5170,117.187500
5171,117.187500
5172,113.281250
5173,113.281250
5174,109.375000
5175,105.468750
5176,105.468750
5177,101.562500
5178,101.562500
5179,97.656250
5180,93.750000
5181,93.750000
5182,89.843750
5183,85.937500
5184,85.937500
5185,82.031250
5186,78.125000
5187,78.125000
5188,74.218750
5189,70.312500
5190,66.406250
5191,62.500000
5192,62.500000
5193,58.593750
5194,54.687500
5195,50.781250
5196,50.781250
5197,42.968750
5198,42.968750
5199,39.062500
5200,35.156250
5201,31.250000
5202,27.343750
5203,23.437500
5204,23.437500
5205,19.531250
5206,15.625000
5207,11.718750
5208,7.812500
5209,3.906250
5210,0.000000
5211,-3.906250
5212,-7.812500
5213,-11.718750
5214,-11.718750
5215,-19.531250
5216,-23.437500
5217,-27.343750
5218,-31.250000
5219,-31.250000
5220,-35.156250
5221,-39.062500
5222,-42.968750
5223,-46.875000
5224,-50.781250
5225,-54.687500
5226,-58.593750
5227,-62.500000
5228,-66.406250
5229,-70.312500
5230,-74.218750
5231,-78.125000
5232,-85.937500
5233,-85.937500
5234,-89.843750
5235,-93.750000
5236,-97.656250
5237,-101.562500
5238,-105.468750
5239,-109.375000
5240,-113.281250
5241,-117.187500
5242,-121.093750
5243,-125.000000
5244,-128.906250
5245,-132.812500
5246,-136.718750
5247,-140.625000
5248,-144.531250
5249,-148.437500
5250,-152.343750
5251,-156.250000
5252,-160.156250
5253,-164.062500
5254,-167.968750
5255,-171.875000
5256,-175.781250
5257,-175.781250
5258,-179.687500
5259,-183.593750
5260,-187.500000
5261,-191.406250
5262,-195.312500
5263,-199.218750
5264,-199.218750
5265,-203.125000
5266,-207.031250
5267,-210.937500
5268,-214.843750
5269,-218.750000
5270,-218.750000
5271,-222.656250
5272,-226.562500
5273,-230.468750
5274,-234.375000
5275,-234.375000
5276,-238.281250
5277,-238.281250
5278,-242.187500
5279,-246.093750
5280,-250.000000
5281,-250.000000
5282,-253.906250
5283,-257.812500
5284,-257.812500
5285,-261.718750
5286,-261.718750
5287,-265.625000
5288,-269.531250
5289,-269.531250
5290,-273.437500
5291,-273.437500
5292,-273.437500
5293,-277.343750
5294,-281.250000
5295,-281.250000
5296,-281.250000
5297,-285.156250
5298,-285.156250
5299,-289.062500
5300,-289.062500
5301,-292.968750
5302,-292.968750
5303,-292.968750
5304,-292.968750
5305,-296.875000
5306,-296.875000
5307,-296.875000
5308,-300.781250
5309,-300.781250
5310,-300.781250
5311,-300.781250
5312,-300.781250
5313,-304.687500
5314,-304.687500
5315,-304.687500
5316,-304.687500
5317,-304.687500
5318,-304.687500
5319,-304.687500
5320,-304.687500
5321,-308.593750
5322,-304.687500
5323,-308.593750
5324,-308.593750
5325,-308.593750
5326,-308.593750
5327,-304.687500
5328,-304.687500
5329,-308.593750
5330,-304.687500
5331,-304.687500
5332,-304.687500
5333,-304.687500
5334,-304.687500
5335,-304.687500
5336,-300.781250
5337,-300.781250
5338,-300.781250
5339,-300.781250
5340,-300.781250
5341,-296.875000
5342,-296.875000
5343,-296.875000
5344,-292.968750
5345,-292.968750
5346,-292.968750
5347,-292.968750
5348,-289.062500
5349,-289.062500
5350,-285.156250
5351,-285.156250
5352,-281.250000
5353,-281.250000
5354,-277.343750
5355,-277.343750
5356,-273.437500
5357,-273.437500
5358,-269.531250
5359,-269.531250
5360,-265.625000
5361,-265.625000
5362,-261.718750
5363,-257.812500
5364,-257.812500
5365,-253.906250
5366,-253.906250
5367,-246.093750
5368,-246.093750
5369,-246.093750
5370,-242.187500
5371,-238.281250
5372,-234.375000
5373,-234.375000
5374,-230.468750
5375,-226.562500
5376,-226.562500
5377,-222.656250
5378,-218.750000
5379,-214.843750
5380,-214.843750
5381,-207.031250
5382,-207.031250
5383,-203.125000
5384,-199.218750
5385,-195.312500
5386,-191.406250
5387,-187.500000
5388,-187.500000
5389,-183.593750
5390,-179.687500
5391,-175.781250
5392,-171.875000
5393,-167.968750
5394,-164.062500
5395,-160.156250
5396,-156.250000
5397,-152.343750
5398,-148.437500
5399,-144.531250
5400,-144.531250
5401,-140.625000
5402,-136.718750
5403,-128.906250
5404,-128.906250
5405,-125.000000
5406,-121.093750
5407,-113.281250
5408,-113.281250
5409,-109.375000
5410,-105.468750
5411,-101.562500
5412,-97.656250
5413,-93.750000
5414,-89.843750
5415,-85.937500
5416,-78.125000
5417,-78.125000
5418,-74.218750
5419,-70.312500
5420,-66.406250
5421,-58.593750
5422,-58.593750
5423,-50.781250
5424,-50.781250
5425,-42.968750
5426,-42.968750
5427,-35.156250
5428,-35.156250
5429,-31.250000
5430,-27.343750
5431,-23.437500
5432,-15.625000
5433,-15.625000
5434,-11.718750
5435,-7.812500
5436,-3.906250
5437,0.000000
5438,3.906250
5439,7.812500
5440,11.718750
5441,15.625000
5442,19.531250
5443,23.437500
5444,23.437500
5445,27.343750
5446,31.250000
5447,35.156250
5448,39.062500
5449,42.968750
5450,46.875000
5451,46.875000
5452,50.781250
5453,54.687500
5454,58.593750
5455,62.500000
5456,62.500000
5457,66.406250
5458,70.312500
5459,74.218750
5460,74.218750
5461,78.125000
5462,82.031250
5463,85.937500
5464,85.937500
5465,89.843750
5466,93.750000
5467,93.750000
5468,97.656250
5469,101.562500
5470,101.562500
5471,105.468750
5472,105.468750
5473,109.375000
5474,113.281250
5475,113.281250
5476,117.187500
5477,117.187500
5478,121.093750
5479,121.093750
5480,125.000000
5481,125.000000
5482,128.906250
5483,128.906250
5484,132.812500
5485,132.812500
5486,136.718750
5487,136.718750
5488,140.625000
5489,140.625000
5490,140.625000
5491,144.531250
5492,144.531250
5493,148.437500
5494,148.437500
5495,148.437500
5496,152.343750
5497,152.343750
5498,152.343750
5499,156.250000
5500,160.156250
5501,156.250000
5502,160.156250
5503,160.156250
5504,160.156250
5505,164.062500
5506,164.062500
5507,164.062500
5508,164.062500
5509,164.062500
5510,167.968750
5511,167.968750
5512,167.968750
5513,167.968750
5514,167.968750
5515,171.875000
5516,171.875000
5517,171.875000
5518,171.875000
5519,171.875000
5520,171.875000
5521,171.875000
5522,171.875000
5523,171.875000
5524,171.875000
5525,171.875000
5526,171.875000
5527,171.875000
5528,171.875000
5529,175.781250
5530,171.875000
5531,171.875000
5532,175.781250
5533,175.781250
5534,175.781250
5535,175.781250
5536,175.781250
5537,171.875000
5538,171.875000
5539,171.875000
5540,171.875000
5541,171.875000
5542,171.875000
5543,171.875000
5544,171.875000
5545,171.875000
5546,171.875000
5547,171.875000
5548,171.875000
5549,167.968750
5550,167.968750
5551,167.968750
5552,167.968750
5553,167.968750
5554,164.062500
5555,164.062500
5556,164.062500
5557,164.062500
5558,164.062500
5559,160.156250
5560,160.156250
5561,160.156250
5562,156.250000
5563,156.250000
5564,156.250000
5565,156.250000
5566,152.343750
5567,148.437500
5568,152.343750
5569,152.343750
5570,148.437500
5571,148.437500
5572,144.531250
5573,144.531250
5574,144.531250
5575,140.625000
5576,140.625000
5577,136.718750
5578,136.718750
5579,136.718750
5580,132.812500
5581,128.906250
5582,128.906250
5583,128.906250
5584,125.000000
5585,121.093750
5586,121.093750
5587,117.187500
5588,117.187500
5589,113.281250
5590,113.281250
5591,109.375000
5592,109.375000
5593,105.468750
5594,101.562500
5595,101.562500
5596,97.656250
5597,93.750000
5598,89.843750
5599,89.843750
5600,85.937500
5601,82.031250
5602,82.031250
5603,78.125000
5604,74.218750
5605,70.312500
5606,70.312500
5607,66.406250
5608,62.500000
5609,62.500000
5610,58.593750
5611,54.687500
5612,50.781250
5613,46.875000
5614,42.968750
5615,42.968750
5616,39.062500
5617,35.156250
5618,31.250000
5619,27.343750
5620,23.437500
5621,23.437500
5622,19.531250
5623,15.625000
5624,11.718750
5625,7.812500
5626,7.812500
5627,0.000000
5628,-3.906250
5629,-7.812500
5630,-11.718750
5631,-15.625000
5632,-15.625000
5633,-23.437500
5634,-23.437500
5635,-27.343750
5636,-35.156250
5637,-35.156250
5638,-42.968750
5639,-42.968750
5640,-50.781250
5641,-50.781250
5642,-58.593750
5643,-58.593750
5644,-62.500000
5645,-66.406250
5646,-70.312500
5647,-74.218750
5648,-78.125000
5649,-82.031250
5650,-89.843750
5651,-89.843750
5652,-97.656250
5653,-97.656250
5654,-101.562500
5655,-109.375000
5656,-109.375000
5657,-117.187500
5658,-117.187500
5659,-121.093750
5660,-125.000000
5661,-128.906250
5662,-136.718750
5663,-136.718750
5664,-140.625000
5665,-144.531250
5666,-148.437500
5667,-152.343750
5668,-156.250000
5669,-160.156250
5670,-164.062500
5671,-167.968750
5672,-171.875000
5673,-175.781250
5674,-179.687500
5675,-183.593750
5676,-183.593750
5677,-187.500000
5678,-191.406250
5679,-195.312500
5680,-199.218750
5681,-203.125000
5682,-207.031250
5683,-210.937500
5684,-210.937500
5685,-214.843750
5686,-218.750000
5687,-222.656250
5688,-222.656250
5689,-226.562500
5690,-230.468750
5691,-234.375000
5692,-234.375000
5693,-238.281250
5694,-242.187500
5695,-246.093750
5696,-246.093750
5697,-250.000000
5698,-250.000000
5699,-253.906250
5700,-257.812500
5701,-257.812500
5702,-261.718750
5703,-261.718750
5704,-265.625000
5705,-269.531250
5706,-269.531250
5707,-273.437500
5708,-273.437500
5709,-277.343750
5710,-277.343750
5711,-281.250000
5712,-281.250000
5713,-285.156250
5714,-285.156250
5715,-285.156250
5716,-289.062500
5717,-289.062500
5718,-292.968750
5719,-292.968750
5720,-292.968750
5721,-292.968750
5722,-296.875000
5723,-296.875000
5724,-296.875000
5725,-300.781250
5726,-300.781250
5727,-300.781250
5728,-300.781250
5729,-304.687500
5730,-304.687500
5731,-304.687500
5732,-304.687500
5733,-304.687500
5734,-308.593750
5735,-304.687500
5736,-308.593750
5737,-308.593750
5738,-308.593750
5739,-308.593750
5740,-308.593750
5741,-308.593750
5742,-308.593750
5743,-308.593750
5744,-308.593750
5745,-308.593750
5746,-304.687500
5747,-304.687500
5748,-304.687500
5749,-304.687500
5750,-304.687500
5751,-304.687500
5752,-304.687500
5753,-304.687500
5754,-300.781250
5755,-300.781250
5756,-300.781250
5757,-296.875000
5758,-296.875000
5759,-296.875000
5760,-296.875000
5761,-292.968750
5762,-292.968750
5763,-292.968750
5764,-289.062500
5765,-289.062500
5766,-289.062500
5767,-285.156250
5768,-285.156250
5769,-281.250000
5770,-277.343750
5771,-277.343750
5772,-277.343750
5773,-273.437500
5774,-273.437500
5775,-269.531250
5776,-269.531250
5777,-265.625000
5778,-265.625000
5779,-261.718750
5780,-261.718750
5781,-257.812500
5782,-253.906250
5783,-253.906250
5784,-250.000000
5785,-246.093750
5786,-246.093750
5787,-242.187500
5788,-238.281250
5789,-234.375000
5790,-234.375000
5791,-230.468750
5792,-226.562500
5793,-226.562500
5794,-222.656250
5795,-218.750000
5796,-214.843750
5797,-210.937500
5798,-207.031250
5799,-207.031250
5800,-203.125000
5801,-199.218750
5802,-195.312500
5803,-191.406250
5804,-187.500000
5805,-187.500000
5806,-179.687500
5807,-179.687500
5808,-175.781250
5809,-171.875000
5810,-167.968750
5811,-164.062500
5812,-160.156250
5813,-156.250000
5814,-152.343750
5815,-148.437500
5816,-144.531250
5817,-140.625000
5818,-136.718750
5819,-132.812500
5820,-128.906250
5821,-125.000000
5822,-121.093750
5823,-117.187500
5824,-113.281250
5825,-109.375000
5826,-105.468750
5827,-101.562500
5828,-97.656250
5829,-93.750000
5830,-89.843750
5831,-85.937500
5832,-82.031250
5833,-78.125000
5834,-74.218750
5835,-70.312500
5836,-66.406250
5837,-62.500000
5838,-58.593750
5839,-54.687500
5840,-50.781250
5841,-46.875000
5842,-42.968750
5843,-39.062500
5844,-35.156250
5845,-31.250000
5846,-27.343750
5847,-23.437500
5848,-19.531250
5849,-15.625000
5850,-11.718750
5851,-11.718750
5852,-7.812500
5853,-3.906250
5854,0.000000
5855,3.906250
5856,7.812500
5857,11.718750
5858,15.625000
5859,19.531250
5860,23.437500
5861,27.343750
5862,31.250000
5863,31.250000
5864,35.156250
5865,39.062500
5866,42.968750
5867,46.875000
5868,46.875000
5869,54.687500
5870,54.687500
5871,58.593750
5872,62.500000
5873,66.406250
5874,66.406250
5875,70.312500
5876,74.218750
5877,78.125000
5878,78.125000
5879,82.031250
5880,85.937500
5881,85.937500
5882,89.843750
5883,93.750000
5884,97.656250
5885,97.656250
5886,101.562500
5887,101.562500
5888,105.468750
5889,109.375000
5890,109.375000
5891,113.281250
5892,113.281250
5893,117.187500
5894,121.093750
5895,121.093750
5896,125.000000
5897,125.000000
5898,125.000000
5899,128.906250
5900,132.812500
5901,132.812500
5902,136.718750
5903,136.718750
5904,136.718750
5905,140.625000
5906,140.625000
5907,144.531250
5908,144.531250
5909,144.531250
5910,148.437500
5911,148.437500
5912,148.437500
5913,152.343750
5914,152.343750
5915,152.343750
5916,156.250000
5917,156.250000
5918,156.250000
5919,160.156250
5920,160.156250
5921,160.156250
5922,160.156250
5923,164.062500
5924,164.062500
5925,164.062500
5926,164.062500
5927,160.156250
5928,167.968750
5929,167.968750
5930,167.968750
5931,167.968750
5932,171.875000
5933,171.875000
5934,171.875000
5935,171.875000
5936,171.875000
5937,171.875000
5938,171.875000
5939,171.875000
5940,171.875000
5941,171.875000
5942,175.781250
5943,171.875000
5944,175.781250
5945,175.781250
5946,175.781250
5947,175.781250
5948,171.875000
5949,175.781250
5950,175.781250
5951,175.781250
5952,175.781250
5953,175.781250
5954,175.781250
5955,175.781250
5956,175.781250
5957,171.875000
5958,171.875000
5959,171.875000
5960,171.875000
5961,171.875000
5962,171.875000
5963,171.875000
5964,171.875000
5965,171.875000
5966,167.968750
5967,167.968750
5968,167.968750
5969,167.968750
5970,167.968750
5971,167.968750
5972,164.062500
5973,164.062500
5974,164.062500
5975,160.156250
5976,160.156250
5977,160.156250
5978,160.156250
5979,160.156250
5980,156.250000
5981,156.250000
5982,156.250000
5983,152.343750
5984,152.343750
5985,152.343750
5986,148.437500
5987,148.437500
5988,148.437500
5989,144.531250
5990,144.531250
5991,140.625000
5992,140.625000
5993,136.718750
5994,136.718750
5995,136.718750
5996,132.812500
5997,132.812500
5998,128.906250
5999,128.906250
6000,125.000000
6001,125.000000
6002,121.093750
6003,121.093750
6004,117.187500
6005,117.187500
6006,113.281250
6007,113.281250
6008,109.375000
6009,105.468750
6010,105.468750
6011,101.562500
6012,101.562500
6013,97.656250
6014,93.750000
6015,93.750000
6016,89.843750
6017,85.937500
6018,85.937500
6019,82.031250
6020,78.125000
6021,74.218750
6022,74.218750
6023,70.312500
6024,66.406250
6025,62.500000
6026,58.593750
6027,58.593750
6028,54.687500
6029,50.781250
6030,46.875000
6031,46.875000
6032,42.968750
6033,39.062500
6034,35.156250
6035,31.250000
6036,27.343750
6037,27.343750
6038,19.531250
6039,15.625000
6040,15.625000
6041,11.718750
6042,7.812500
6043,3.906250
6044,0.000000
6045,-3.906250
6046,-7.812500
6047,-11.718750
6048,-15.625000
6049,-19.531250
6050,-23.437500
6051,-27.343750
6052,-31.250000
6053,-35.156250
6054,-39.062500
6055,-42.968750
6056,-46.875000
6057,-50.781250
6058,-54.687500
6059,-58.593750
6060,-62.500000
6061,-66.406250
6062,-70.312500
6063,-74.218750
6064,-78.125000
6065,-82.031250
6066,-85.937500
6067,-85.937500
6068,-93.750000
6069,-97.656250
6070,-97.656250
6071,-105.468750
6072,-105.468750
6073,-113.281250
6074,-117.187500
6075,-121.093750
6076,-125.000000
6077,-125.000000
6078,-132.812500
6079,-132.812500
6080,-136.718750
6081,-140.625000
6082,-144.531250
6083,-148.437500
6084,-152.343750
6085,-156.250000
6086,-160.156250
6087,-164.062500
6088,-167.968750
6089,-171.875000
6090,-175.781250
6091,-179.687500
6092,-183.593750
6093,-187.500000
6094,-187.500000
6095,-191.406250
6096,-195.312500
6097,-199.218750
6098,-203.125000
6099,-207.031250
6100,-210.937500
6101,-210.937500
6102,-214.843750
6103,-218.750000
6104,-222.656250
6105,-226.562500
6106,-226.562500
6107,-230.468750
6108,-234.375000
6109,-234.375000
6110,-238.281250
6111,-242.187500
6112,-246.093750
6113,-246.093750
6114,-250.000000
6115,-253.906250
6116,-253.906250
6117,-257.812500
6118,-257.812500
6119,-261.718750
6120,-261.718750
6121,-265.625000
6122,-269.531250
6123,-269.531250
6124,-273.437500
6125,-273.437500
6126,-277.343750
6127,-277.343750
6128,-281.250000
6129,-281.250000
6130,-285.156250
6131,-285.156250
6132,-285.156250
6133,-289.062500
6134,-289.062500
6135,-289.062500
6136,-292.968750
6137,-292.968750
6138,-296.875000
6139,-296.875000
6140,-296.875000
6141,-300.781250
6142,-300.781250
6143,-300.781250
6144,-300.781250
6145,-300.781250
6146,-304.687500
6147,-304.687500
6148,-304.687500
6149,-304.687500
6150,-304.687500
6151,-304.687500
6152,-304.687500
6153,-304.687500
6154,-308.593750
6155,-304.687500
6156,-308.593750
6157,-308.593750
6158,-304.687500
6159,-304.687500
6160,-304.687500
6161,-304.687500
6162,-304.687500
6163,-304.687500
6164,-304.687500
6165,-304.687500
6166,-304.687500
6167,-304.687500
6168,-304.687500
6169,-300.781250
6170,-300.781250
6171,-300.781250
6172,-300.781250
6173,-300.781250
6174,-296.875000
6175,-296.875000
6176,-296.875000
6177,-292.968750
6178,-292.968750
6179,-292.968750
6180,-292.968750
6181,-289.062500
6182,-289.062500
6183,-285.156250
6184,-285.156250
6185,-285.156250
6186,-281.250000
6187,-281.250000
6188,-277.343750
6189,-277.343750
6190,-273.437500
6191,-273.437500
6192,-269.531250
6193,-269.531250
6194,-265.625000
6195,-261.718750
6196,-261.718750
6197,-257.812500
6198,-257.812500
6199,-253.906250
6200,-250.000000
6201,-250.000000
6202,-246.093750
6203,-242.187500
6204,-242.187500
6205,-238.281250
6206,-234.375000
6207,-230.468750
6208,-230.468750
6209,-226.562500
6210,-222.656250
6211,-218.750000
6212,-214.843750
6213,-214.843750
6214,-210.937500
6215,-207.031250
6216,-207.031250
6217,-203.125000
6218,-199.218750
6219,-195.312500
6220,-191.406250
6221,-187.500000
6222,-183.593750
6223,-179.687500
6224,-175.781250
6225,-171.875000
6226,-167.968750
6227,-167.968750
6228,-164.062500
6229,-160.156250
6230,-152.343750
6231,-152.343750
6232,-148.437500
6233,-144.531250
6234,-140.625000
6235,-136.718750
6236,-132.812500
6237,-128.906250
6238,-125.000000
6239,-121.093750
6240,-117.187500
6241,-113.281250
6242,-109.375000
6243,-105.468750
6244,-101.562500
6245,-97.656250
6246,-93.750000
6247,-89.843750
6248,-85.937500
6249,-82.031250
6250,-78.125000
6251,-74.218750
6252,-70.312500
6253,-66.406250
6254,-62.500000
6255,-58.593750
6256,-54.687500
6257,-50.781250
6258,-46.875000
6259,-42.968750
6260,-39.062500
6261,-35.156250
6262,-31.250000
6263,-27.343750
6264,-23.437500
6265,-19.531250
6266,-15.625000
6267,-11.718750
6268,-7.812500
6269,-3.906250
6270,0.000000
6271,3.906250
6272,3.906250
6273,7.812500
6274,11.718750
6275,15.625000
6276,19.531250
6277,23.437500
6278,27.343750
6279,31.250000
6280,35.156250
6281,39.062500
6282,39.062500
6283,42.968750
6284,46.875000
6285,50.781250
6286,54.687500
6287,58.593750
6288,58.593750
6289,62.500000
6290,66.406250
6291,70.312500
6292,70.312500
6293,74.218750
6294,78.125000
6295,78.125000
6296,82.031250
6297,85.937500
6298,89.843750
6299,89.843750
6300,93.750000
6301,97.656250
6302,97.656250
6303,101.562500
6304,101.562500
6305,105.468750
6306,105.468750
6307,109.375000
6308,113.281250
6309,113.281250
6310,117.187500
6311,121.093750
6312,121.093750
6313,121.093750
6314,125.000000
6315,128.906250
6316,128.906250
6317,132.812500
6318,132.812500
6319,136.718750
6320,136.718750
6321,136.718750
6322,140.625000
6323,140.625000
6324,140.625000
6325,144.531250
6326,148.437500
6327,148.437500
6328,148.437500
6329,152.343750
6330,152.343750
6331,152.343750
6332,156.250000
6333,156.250000
6334,156.250000
6335,156.250000
6336,160.156250
6337,160.156250
6338,160.156250
6339,164.062500
6340,164.062500
6341,164.062500
6342,164.062500
6343,164.062500
6344,167.968750
6345,167.968750
6346,167.968750
6347,167.968750
6348,167.968750
6349,167.968750
6350,171.875000
6351,171.875000
6352,171.875000
6353,171.875000
6354,171.875000
6355,171.875000
6356,171.875000
6357,171.875000
6358,171.875000
6359,175.781250
6360,175.781250
6361,175.781250
6362,175.781250
6363,175.781250
6364,175.781250
6365,175.781250
6366,175.781250
6367,175.781250
6368,175.781250
6369,175.781250
6370,175.781250
6371,175.781250
6372,175.781250
6373,171.875000
6374,171.875000
6375,171.875000
6376,171.875000
6377,171.875000
6378,171.875000
6379,171.875000
6380,171.875000
6381,171.875000
6382,167.968750
6383,167.968750
6384,167.968750
6385,167.968750
6386,167.968750
6387,164.062500
6388,167.968750
6389,164.062500
6390,164.062500
6391,164.062500
6392,160.156250
6393,160.156250
6394,160.156250
6395,160.156250
6396,160.156250
6397,156.250000
6398,156.250000
6399,156.250000
6400,152.343750
6401,152.343750
6402,152.343750
6403,148.437500
6404,148.437500
6405,148.437500
6406,144.531250
6407,144.531250
6408,144.531250
6409,140.625000
6410,140.625000
6411,136.718750
6412,136.718750
6413,132.812500
6414,132.812500
6415,132.812500
6416,128.906250
6417,125.000000
6418,125.000000
6419,121.093750
6420,121.093750
6421,117.187500
6422,117.187500
6423,113.281250
6424,109.375000
6425,109.375000
6426,105.468750
6427,105.468750
6428,101.562500
6429,97.656250
6430,97.656250
6431,93.750000
6432,89.843750
6433,89.843750
6434,85.937500
6435,82.031250
6436,82.031250
6437,78.125000
6438,74.218750
6439,74.218750
6440,70.312500
6441,66.406250
6442,62.500000
6443,58.593750
6444,58.593750
6445,54.687500
6446,50.781250
6447,46.875000
6448,42.968750
6449,39.062500
6450,39.062500
6451,35.156250
6452,31.250000
6453,27.343750
6454,23.437500
6455,19.531250
6456,19.531250
6457,11.718750
6458,11.718750
6459,7.812500
6460,3.906250
6461,0.000000
6462,-3.906250
6463,-7.812500
6464,-11.718750
6465,-15.625000
6466,-19.531250
6467,-23.437500
6468,-27.343750
6469,-31.250000
6470,-35.156250
6471,-39.062500
6472,-42.968750
6473,-46.875000
6474,-50.781250
6475,-54.687500
6476,-58.593750
6477,-62.500000
6478,-66.406250
6479,-70.312500
6480,-74.218750
6481,-78.125000
6482,-82.031250
6483,-85.937500
6484,-89.843750
6485,-93.750000
6486,-97.656250
6487,-101.562500
6488,-105.468750
6489,-109.375000
6490,-113.281250
6491,-117.187500
6492,-121.093750
6493,-125.000000
6494,-128.906250
6495,-132.812500
6496,-136.718750
6497,-140.625000
6498,-144.531250
6499,-144.531250
6500,-148.437500
6501,-152.343750
6502,-156.250000
6503,-160.156250
6504,-164.062500
6505,-167.968750
6506,-171.875000
6507,-175.781250
6508,-179.687500
6509,-183.593750
6510,-187.500000
6511,-191.406250
6512,-195.312500
6513,-195.312500
6514,-199.218750
6515,-203.125000
6516,-207.031250
6517,-210.937500
6518,-210.937500
6519,-214.843750
6520,-218.750000
6521,-218.750000
6522,-226.562500
6523,-226.562500
6524,-230.468750
6525,-234.375000
6526,-238.281250
6527,-238.281250
6528,-242.187500
6529,-246.093750
6530,-246.093750
6531,-250.000000
6532,-253.906250
6533,-253.906250
6534,-257.812500
6535,-257.812500
6536,-261.718750
6537,-265.625000
6538,-265.625000
6539,-269.531250
6540,-269.531250
6541,-273.437500
6542,-273.437500
6543,-277.343750
6544,-277.343750
6545,-281.250000
6546,-281.250000
6547,-285.156250
6548,-285.156250
6549,-289.062500
6550,-289.062500
6551,-289.062500
6552,-292.968750
6553,-292.968750
6554,-292.968750
6555,-296.875000
6556,-296.875000
6557,-296.875000
6558,-300.781250
6559,-300.781250
6560,-300.781250
6561,-300.781250
6562,-300.781250
6563,-300.781250
6564,-304.687500
6565,-304.687500
6566,-304.687500
6567,-304.687500
6568,-304.687500
6569,-304.687500
6570,-308.593750
6571,-308.593750
6572,-308.593750
6573,-308.593750
6574,-308.593750
6575,-308.593750
6576,-308.593750
6577,-308.593750
6578,-308.593750
6579,-308.593750
6580,-304.687500
6581,-304.687500
6582,-304.687500
6583,-304.687500
6584,-304.687500
6585,-304.687500
6586,-300.781250
6587,-300.781250
6588,-300.781250
6589,-300.781250
6590,-300.781250
6591,-300.781250
6592,-296.875000
6593,-296.875000
6594,-292.968750
6595,-292.968750
6596,-292.968750
6597,-289.062500
6598,-289.062500
6599,-289.062500
6600,-285.156250
6601,-285.156250
6602,-281.250000
6603,-281.250000
6604,-281.250000
6605,-277.343750
6606,-277.343750
6607,-273.437500
6608,-269.531250
6609,-269.531250
6610,-265.625000
6611,-265.625000
6612,-261.718750
6613,-261.718750
6614,-257.812500
6615,-253.906250
6616,-253.906250
6617,-250.000000
6618,-246.093750
6619,-246.093750
6620,-242.187500
6621,-238.281250
6622,-238.281250
6623,-234.375000
6624,-230.468750
6625,-230.468750
6626,-222.656250
6627,-222.656250
6628,-218.750000
6629,-218.750000
6630,-214.843750
6631,-210.937500
6632,-207.031250
6633,-203.125000
6634,-199.218750
6635,-199.218750
6636,-195.312500
6637,-191.406250
6638,-187.500000
6639,-183.593750
6640,-179.687500
6641,-179.687500
6642,-171.875000
6643,-167.968750
6644,-167.968750
6645,-164.062500
6646,-160.156250
6647,-156.250000
6648,-152.343750
6649,-148.437500
6650,-144.531250
6651,-140.625000
6652,-136.718750
6653,-132.812500
6654,-128.906250
6655,-125.000000
6656,-121.093750
6657,-117.187500
6658,-113.281250
6659,-109.375000
6660,-105.468750
6661,-101.562500
6662,-97.656250
6663,-93.750000
6664,-89.843750
6665,-85.937500
6666,-82.031250
6667,-78.125000
6668,-74.218750
6669,-70.312500
6670,-66.406250
6671,-62.500000
6672,-58.593750
6673,-54.687500
6674,-50.781250
6675,-46.875000
6676,-42.968750
6677,-39.062500
6678,-35.156250
6679,-31.250000
6680,-27.343750
6681,-23.437500
6682,-19.531250
6683,-15.625000
6684,-11.718750
6685,-7.812500
6686,-3.906250
6687,0.000000
6688,3.906250
6689,7.812500
6690,11.718750
6691,15.625000
6692,15.625000
6693,19.531250
6694,23.437500
6695,27.343750
6696,31.250000
6697,35.156250
6698,39.062500
6699,39.062500
6700,46.875000
6701,46.875000
6702,50.781250
6703,54.687500
6704,54.687500
6705,62.500000
6706,62.500000
6707,66.406250
6708,70.312500
6709,70.312500
6710,74.218750
6711,78.125000
6712,82.031250
6713,82.031250
6714,85.937500
6715,89.843750
6716,89.843750
6717,93.750000
6718,97.656250
6719,97.656250
6720,101.562500
6721,105.468750
6722,105.468750
6723,109.375000
6724,113.281250
6725,113.281250
6726,117.187500
6727,117.187500
6728,121.093750
6729,121.093750
6730,125.000000
6731,125.000000
6732,128.906250
6733,132.812500
6734,132.812500
6735,132.812500
6736,136.718750
6737,136.718750
6738,140.625000
6739,140.625000
6740,144.531250
6741,144.531250
6742,144.531250
6743,148.437500
6744,148.437500
6745,148.437500
6746,152.343750
6747,152.343750
6748,152.343750
6749,156.250000
6750,156.250000
6751,156.250000
6752,160.156250
6753,160.156250
6754,160.156250
6755,160.156250
6756,160.156250
6757,164.062500
6758,164.062500
6759,164.062500
6760,167.968750
6761,167.968750
6762,167.968750
6763,167.968750
6764,167.968750
6765,167.968750
6766,171.875000
6767,171.875000
6768,171.875000
6769,171.875000
6770,171.875000
6771,171.875000
6772,171.875000
6773,171.875000
6774,171.875000
6775,175.781250
6776,175.781250
6777,175.781250
6778,175.781250
6779,175.781250
6780,175.781250
6781,175.781250
6782,175.781250
6783,175.781250
6784,175.781250
6785,175.781250
6786,175.781250
6787,175.781250
6788,175.781250
6789,175.781250
6790,175.781250
6791,171.875000
6792,171.875000
6793,171.875000
6794,171.875000
6795,171.875000
6796,171.875000
6797,171.875000
6798,171.875000
6799,167.968750
6800,167.968750
6801,167.968750
6802,167.968750
6803,167.968750
6804,167.968750
6805,164.062500
6806,164.062500
6807,164.062500
6808,164.062500
6809,164.062500
6810,160.156250
6811,160.156250
6812,160.156250
6813,160.156250
6814,156.250000
6815,156.250000
6816,156.250000
6817,152.343750
6818,152.343750
6819,152.343750
6820,152.343750
6821,148.437500
6822,148.437500
6823,144.531250
6824,144.531250
6825,140.625000
6826,140.625000
6827,140.625000
6828,136.718750
6829,136.718750
6830,132.812500
6831,132.812500
6832,128.906250
6833,128.906250
6834,125.000000
6835,125.000000
6836,121.093750
6837,121.093750
6838,117.187500
6839,117.187500
6840,113.281250
6841,113.281250
6842,109.375000
6843,105.468750
6844,105.468750
6845,101.562500
6846,97.656250
6847,97.656250
6848,93.750000
6849,89.843750
6850,89.843750
6851,85.937500
6852,82.031250
6853,82.031250
6854,78.125000
6855,74.218750
6856,70.312500
6857,70.312500
6858,66.406250
6859,62.500000
6860,58.593750
6861,54.687500
6862,54.687500
6863,50.781250
6864,46.875000
6865,42.968750
6866,39.062500
6867,35.156250
6868,35.156250
6869,31.250000
6870,27.343750
6871,23.437500
6872,19.531250
6873,15.625000
6874,11.718750
6875,7.812500
6876,7.812500
6877,3.906250
6878,0.000000
6879,-3.906250
6880,-7.812500
6881,-11.718750
6882,-15.625000
6883,-19.531250
6884,-23.437500
6885,-27.343750
6886,-31.250000
6887,-35.156250
6888,-39.062500
6889,-42.968750
6890,-46.875000
6891,-50.781250
6892,-54.687500
6893,-58.593750
6894,-62.500000
6895,-66.406250
6896,-70.312500
6897,-74.218750
6898,-78.125000
6899,-82.031250
6900,-85.937500
6901,-89.843750
6902,-93.750000
6903,-97.656250
6904,-101.562500
6905,-105.468750
6906,-109.375000
6907,-113.281250
6908,-117.187500
6909,-121.093750
6910,-125.000000
6911,-128.906250
6912,-132.812500
6913,-136.718750
6914,-140.625000
6915,-144.531250
6916,-148.437500
6917,-152.343750
6918,-156.250000
6919,-160.156250
6920,-160.156250
6921,-164.062500
6922,-167.968750
6923,-171.875000
6924,-175.781250
6925,-179.687500
6926,-183.593750
6927,-187.500000
6928,-191.406250
6929,-191.406250
6930,-195.312500
6931,-199.218750
6932,-203.125000
6933,-207.031250
6934,-210.937500
6935,-214.843750
6936,-214.843750
6937,-218.750000
6938,-222.656250
6939,-222.656250
6940,-226.562500
6941,-230.468750
6942,-234.375000
6943,-234.375000
6944,-238.281250
6945,-242.187500
6946,-246.093750
6947,-246.093750
6948,-250.000000
6949,-253.906250
6950,-253.906250
6951,-257.812500
6952,-257.812500
6953,-261.718750
6954,-265.625000
6955,-265.625000
6956,-269.531250
6957,-269.531250
6958,-273.437500
6959,-273.437500
6960,-277.343750
6961,-277.343750
6962,-281.250000
6963,-281.250000
6964,-285.156250
6965,-285.156250
6966,-285.156250
6967,-289.062500
6968,-289.062500
6969,-292.968750
6970,-292.968750
6971,-292.968750
6972,-296.875000
6973,-296.875000
6974,-296.875000
6975,-296.875000
6976,-300.781250
6977,-296.875000
6978,-300.781250
6979,-300.781250
6980,-300.781250
6981,-304.687500
6982,-304.687500
6983,-304.687500
6984,-304.687500
6985,-304.687500
6986,-304.687500
6987,-304.687500
6988,-304.687500
6989,-304.687500
6990,-304.687500
6991,-304.687500
6992,-304.687500
6993,-304.687500
6994,-304.687500
6995,-304.687500
6996,-304.687500
6997,-304.687500
6998,-304.687500
6999,-304.687500
7000,-304.687500
7001,-304.687500
7002,-304.687500
7003,-300.781250
7004,-300.781250
7005,-300.781250
7006,-300.781250
7007,-296.875000
7008,-296.875000
7009,-296.875000
7010,-292.968750
7011,-292.968750
7012,-292.968750
7013,-292.968750
7014,-289.062500
7015,-289.062500
7016,-289.062500
7017,-285.156250
7018,-285.156250
7019,-281.250000
7020,-281.250000
7021,-277.343750
7022,-277.343750
7023,-273.437500
7024,-273.437500
7025,-269.531250
7026,-269.531250
7027,-265.625000
7028,-265.625000
7029,-261.718750
7030,-257.812500
7031,-257.812500
7032,-253.906250
7033,-253.906250
7034,-250.000000
7035,-246.093750
7036,-246.093750
7037,-242.187500
7038,-238.281250
7039,-238.281250
7040,-234.375000
7041,-230.468750
7042,-226.562500
7043,-226.562500
7044,-222.656250
7045,-218.750000
7046,-214.843750
7047,-214.843750
7048,-207.031250
7049,-207.031250
7050,-203.125000
7051,-199.218750
7052,-195.312500
7053,-195.312500
7054,-187.500000
7055,-183.593750
7056,-183.593750
7057,-179.687500
7058,-175.781250
7059,-171.875000
7060,-167.968750
7061,-164.062500
7062,-160.156250
7063,-156.250000
7064,-152.343750
7065,-152.343750
7066,-144.531250
7067,-140.625000
7068,-140.625000
7069,-132.812500
7070,-132.812500
7071,-128.906250
7072,-121.093750
7073,-121.093750
7074,-117.187500
7075,-113.281250
7076,-109.375000
7077,-105.468750
7078,-101.562500
7079,-97.656250
7080,-93.750000
7081,-89.843750
7082,-85.937500
7083,-82.031250
7084,-78.125000
7085,-70.312500
7086,-70.312500
7087,-66.406250
7088,-62.500000
7089,-58.593750
7090,-54.687500
7091,-46.875000
7092,-46.875000
7093,-42.968750
7094,-39.062500
7095,-35.156250
7096,-27.343750
7097,-27.343750
7098,-23.437500
7099,-19.531250
7100,-15.625000
7101,-11.718750
7102,-7.812500
7103,-3.906250
7104,0.000000
7105,3.906250
7106,7.812500
7107,11.718750
7108,15.625000
7109,15.625000
7110,19.531250
7111,23.437500
7112,27.343750
7113,31.250000
7114,35.156250
7115,39.062500
7116,42.968750
7117,46.875000
7118,46.875000
7119,50.781250
7120,54.687500
7121,58.593750
7122,58.593750
7123,66.406250
7124,66.406250
7125,70.312500
7126,74.218750
7127,74.218750
7128,78.125000
7129,82.031250
7130,82.031250
7131,85.937500
7132,89.843750
7133,93.750000
7134,93.750000
7135,97.656250
7136,101.562500
7137,101.562500
7138,105.468750
7139,105.468750
7140,109.375000
7141,109.375000
7142,113.281250
7143,117.187500
7144,117.187500
7145,121.093750
7146,121.093750
7147,125.000000
7148,125.000000
7149,128.906250
7150,128.906250
7151,132.812500
7152,132.812500
7153,136.718750
7154,136.718750
7155,140.625000
7156,140.625000
7157,140.625000
7158,144.531250
7159,144.531250
7160,144.531250
7161,148.437500
7162,148.437500
7163,152.343750
7164,152.343750
7165,156.250000
7166,156.250000
7167,156.250000
7168,156.250000
7169,160.156250
7170,160.156250
7171,160.156250
7172,160.156250
7173,164.062500
7174,164.062500
7175,164.062500
7176,164.062500
7177,167.968750
7178,167.968750
7179,167.968750
7180,167.968750
7181,167.968750
7182,167.968750
7183,171.875000
7184,171.875000
7185,171.875000
7186,171.875000
7187,171.875000
7188,171.875000
7189,171.875000
7190,171.875000
7191,171.875000
7192,171.875000
7193,175.781250
7194,175.781250
7195,175.781250
7196,175.781250
7197,175.781250
7198,175.781250
7199,175.781250
7200,175.781250
7201,175.781250
7202,175.781250
7203,175.781250
7204,175.781250
7205,175.781250
7206,175.781250
7207,175.781250
7208,171.875000
7209,171.875000
7210,171.875000
7211,171.875000
7212,171.875000
7213,171.875000
7214,171.875000
7215,167.968750
7216,167.968750
7217,167.968750
7218,167.968750
7219,167.968750
7220,167.968750
7221,167.968750
7222,167.968750
7223,164.062500
7224,164.062500
7225,164.062500
7226,160.156250
7227,160.156250
7228,160.156250
7229,160.156250
7230,160.156250
7231,156.250000
7232,156.250000
7233,156.250000
7234,152.343750
7235,152.343750
7236,152.343750
7237,148.437500
7238,148.437500
7239,144.531250
7240,144.531250
7241,144.531250
7242,140.625000
7243,140.625000
7244,136.718750
7245,136.718750
7246,136.718750
7247,132.812500
7248,132.812500
7249,128.906250
7250,128.906250
7251,125.000000
7252,125.000000
7253,121.093750
7254,121.093750
7255,117.187500
7256,117.187500
7257,113.281250
7258,109.375000
7259,109.375000
7260,105.468750
7261,101.562500
7262,101.562500
7263,97.656250
7264,97.656250
7265,93.750000
7266,89.843750
7267,89.843750
7268,85.937500
7269,82.031250
7270,78.125000
7271,78.125000
7272,74.218750
7273,70.312500
7274,66.406250
7275,66.406250
7276,62.500000
7277,58.593750
7278,54.687500
7279,54.687500
7280,50.781250
7281,46.875000
7282,42.968750
7283,39.062500
7284,35.156250
7285,31.250000
7286,31.250000
7287,27.343750
7288,23.437500
7289,19.531250
7290,15.625000
7291,11.718750
7292,7.812500
7293,3.906250
7294,0.000000
7295,-3.906250
7296,-7.812500
7297,-11.718750
7298,-11.718750
7299,-15.625000
7300,-19.531250
7301,-23.437500
7302,-27.343750
7303,-35.156250
7304,-35.156250
7305,-39.062500
7306,-42.968750
7307,-46.875000
7308,-46.875000
7309,-54.687500
7310,-58.593750
7311,-62.500000
7312,-66.406250
7313,-66.406250
7314,-74.218750
7315,-78.125000
7316,-82.031250
7317,-85.937500
7318,-89.843750
7319,-93.750000
7320,-97.656250
7321,-101.562500
7322,-105.468750
7323,-109.375000
7324,-113.281250
7325,-117.187500
7326,-121.093750
7327,-125.000000
7328,-128.906250
7329,-132.812500
7330,-136.718750
7331,-140.625000
7332,-144.531250
7333,-148.437500
7334,-152.343750
7335,-156.250000
7336,-160.156250
7337,-164.062500
7338,-167.968750
7339,-171.875000
7340,-171.875000
7341,-175.781250
7342,-179.687500
7343,-183.593750
7344,-187.500000
7345,-191.406250
7346,-191.406250
7347,-199.218750
7348,-199.218750
7349,-203.125000
7350,-207.031250
7351,-210.937500
7352,-214.843750
7353,-218.750000
7354,-222.656250
7355,-222.656250
7356,-226.562500
7357,-230.468750
7358,-230.468750
7359,-234.375000
7360,-238.281250
7361,-238.281250
7362,-242.187500
7363,-246.093750
7364,-250.000000
7365,-250.000000
7366,-253.906250
7367,-253.906250
7368,-257.812500
7369,-257.812500
7370,-261.718750
7371,-265.625000
7372,-265.625000
7373,-269.531250
7374,-273.437500
7375,-273.437500
7376,-273.437500
7377,-277.343750
7378,-277.343750
7379,-281.250000
7380,-281.250000
7381,-285.156250
7382,-285.156250
7383,-289.062500
7384,-289.062500
7385,-289.062500
7386,-289.062500
7387,-292.968750
7388,-292.968750
7389,-296.875000
7390,-296.875000
7391,-296.875000
7392,-296.875000
7393,-300.781250
7394,-300.781250
7395,-300.781250
7396,-300.781250
7397,-304.687500
7398,-304.687500
7399,-304.687500
7400,-304.687500
7401,-304.687500
7402,-304.687500
7403,-304.687500
7404,-304.687500
7405,-308.593750
7406,-304.687500
7407,-304.687500
7408,-308.593750
7409,-304.687500
7410,-304.687500
7411,-304.687500
7412,-304.687500
7413,-304.687500
7414,-304.687500
7415,-304.687500
7416,-304.687500
7417,-304.687500
7418,-304.687500
7419,-304.687500
7420,-304.687500
7421,-300.781250
7422,-300.781250
7423,-300.781250
7424,-300.781250
7425,-296.875000
7426,-296.875000
7427,-296.875000
7428,-292.968750
7429,-292.968750
7430,-292.968750
7431,-289.062500
7432,-289.062500
7433,-289.062500
7434,-289.062500
7435,-285.156250
7436,-281.250000
7437,-281.250000
7438,-277.343750
7439,-277.343750
7440,-273.437500
7441,-273.437500
7442,-269.531250
7443,-269.531250
7444,-265.625000
7445,-265.625000
7446,-261.718750
7447,-257.812500
7448,-257.812500
7449,-257.812500
7450,-253.906250
7451,-250.000000
7452,-246.093750
7453,-242.187500
7454,-242.187500
7455,-238.281250
7456,-234.375000
7457,-234.375000
7458,-230.468750
7459,-226.562500
7460,-226.562500
7461,-222.656250
7462,-218.750000
7463,-214.843750
7464,-210.937500
7465,-210.937500
7466,-207.031250
7467,-203.125000
7468,-199.218750
7469,-195.312500
7470,-195.312500
7471,-191.406250
7472,-187.500000
7473,-183.593750
7474,-179.687500
7475,-175.781250
7476,-171.875000
7477,-167.968750
7478,-164.062500
7479,-160.156250
7480,-156.250000
7481,-152.343750
7482,-148.437500
7483,-144.531250
7484,-140.625000
7485,-140.625000
7486,-132.812500
7487,-128.906250
7488,-125.000000
7489,-125.000000
7490,-121.093750
7491,-113.281250
7492,-109.375000
7493,-105.468750
7494,-101.562500
7495,-101.562500
7496,-93.750000
7497,-89.843750
7498,-85.937500
7499,-82.031250
7500,-78.125000
7501,-74.218750
7502,-70.312500
7503,-66.406250
7504,-66.406250
7505,-58.593750
7506,-54.687500
7507,-50.781250
7508,-50.781250
7509,-42.968750
7510,-39.062500
7511,-35.156250
7512,-35.156250
7513,-27.343750
7514,-23.437500
7515,-19.531250
7516,-15.625000
7517,-11.718750
7518,-11.718750
7519,-7.812500
7520,-3.906250
7521,0.000000
7522,3.906250
7523,7.812500
7524,11.718750
7525,15.625000
7526,19.531250
7527,23.437500
7528,27.343750
7529,27.343750
7530,31.250000
7531,35.156250
7532,39.062500
7533,42.968750
7534,46.875000
7535,46.875000
7536,50.781250
7537,54.687500
7538,58.593750
7539,62.500000
7540,62.500000
7541,66.406250
7542,70.312500
7543,74.218750
7544,78.125000
7545,78.125000
7546,82.031250
7547,85.937500
7548,89.843750
7549,89.843750
7550,93.750000
7551,93.750000
7552,97.656250
7553,101.562500
7554,101.562500
7555,105.468750
7556,109.375000
7557,109.375000
7558,113.281250
7559,113.281250
7560,117.187500
7561,117.187500
7562,121.093750
7563,121.093750
7564,125.000000
7565,128.906250
7566,128.906250
7567,132.812500
7568,132.812500
7569,136.718750
7570,136.718750
7571,140.625000
7572,140.625000
7573,140.625000
7574,144.531250
7575,144.531250
7576,144.531250
7577,148.437500
7578,148.437500
7579,152.343750
7580,152.343750
7581,152.343750
7582,156.250000
7583,156.250000
7584,156.250000
7585,160.156250
7586,164.062500
7587,160.156250
7588,160.156250
7589,164.062500
7590,164.062500
7591,164.062500
7592,164.062500
7593,167.968750
7594,167.968750
7595,164.062500
7596,167.968750
7597,167.968750
7598,167.968750
7599,171.875000
7600,171.875000
7601,171.875000
7602,171.875000
7603,171.875000
7604,171.875000
7605,171.875000
7606,171.875000
7607,171.875000
7608,175.781250
7609,175.781250
7610,175.781250
7611,175.781250
7612,175.781250
7613,175.781250
7614,175.781250
7615,175.781250
7616,175.781250
7617,175.781250
7618,175.781250
7619,175.781250
7620,175.781250
7621,175.781250
7622,175.781250
7623,171.875000
7624,171.875000
7625,171.875000
7626,171.875000
7627,175.781250
7628,171.875000
7629,171.875000
7630,171.875000
7631,171.875000
7632,167.968750
7633,167.968750
7634,167.968750
7635,167.968750
7636,167.968750
7637,167.968750
7638,164.062500
7639,164.062500
7640,164.062500
7641,164.062500
7642,164.062500
7643,160.156250
7644,160.156250
7645,160.156250
7646,160.156250
7647,156.250000
7648,156.250000
7649,156.250000
7650,156.250000
7651,152.343750
7652,152.343750
7653,148.437500
7654,148.437500
7655,148.437500
7656,144.531250
7657,148.437500
7658,144.531250
7659,140.625000
7660,140.625000
7661,136.718750
7662,136.718750
7663,132.812500
7664,132.812500
7665,132.812500
7666,128.906250
7667,125.000000
7668,125.000000
7669,125.000000
7670,121.093750
7671,121.093750
7672,117.187500
7673,113.281250
7674,113.281250
7675,109.375000
7676,109.375000
7677,105.468750
7678,101.562500
7679,101.562500
7680,97.656250
7681,93.750000
7682,93.750000
7683,89.843750
7684,85.937500
7685,85.937500
7686,82.031250
7687,78.125000
7688,78.125000
7689,74.218750
7690,70.312500
7691,66.406250
7692,62.500000
7693,62.500000
7694,58.593750
7695,54.687500
7696,50.781250
7697,50.781250
7698,46.875000
7699,42.968750
7700,39.062500
7701,35.156250
7702,31.250000
7703,31.250000
7704,27.343750
7705,23.437500
7706,19.531250
7707,15.625000
7708,11.718750
7709,7.812500
7710,3.906250
7711,0.000000
7712,-3.906250
7713,-7.812500
7714,-11.718750
7715,-15.625000
7716,-19.531250
7717,-19.531250
7718,-27.343750
7719,-27.343750
7720,-31.250000
7721,-35.156250
7722,-39.062500
7723,-42.968750
7724,-46.875000
7725,-50.781250
7726,-54.687500
7727,-62.500000
7728,-62.500000
7729,-66.406250
7730,-70.312500
7731,-74.218750
7732,-82.031250
7733,-85.937500
7734,-85.937500
7735,-93.750000
7736,-97.656250
7737,-97.656250
7738,-105.468750
7739,-105.468750
7740,-109.375000
7741,-117.187500
7742,-117.187500
7743,-121.093750
7744,-125.000000
7745,-128.906250
7746,-132.812500
7747,-136.718750
7748,-140.625000
7749,-144.531250
7750,-148.437500
7751,-152.343750
7752,-156.250000
7753,-160.156250
7754,-164.062500
7755,-167.968750
7756,-171.875000
7757,-175.781250
7758,-175.781250
7759,-183.593750
7760,-183.593750
7761,-187.500000
7762,-191.406250
7763,-195.312500
7764,-199.218750
7765,-203.125000
7766,-203.125000
7767,-207.031250
7768,-210.937500
7769,-214.843750
7770,-218.750000
7771,-222.656250
7772,-222.656250
7773,-226.562500
7774,-230.468750
7775,-230.468750
7776,-234.375000
7777,-238.281250
7778,-242.187500
7779,-242.187500
7780,-246.093750
7781,-250.000000
7782,-250.000000
7783,-253.906250
7784,-253.906250
7785,-257.812500
7786,-261.718750
7787,-261.718750
7788,-265.625000
7789,-265.625000
7790,-269.531250
7791,-273.437500
7792,-273.437500
7793,-277.343750
7794,-277.343750
7795,-277.343750
7796,-281.250000
7797,-281.250000
7798,-285.156250
7799,-285.156250
7800,-289.062500
7801,-289.062500
7802,-289.062500
7803,-292.968750
7804,-292.968750
7805,-292.968750
7806,-296.875000
7807,-296.875000
7808,-296.875000
7809,-300.781250
7810,-300.781250
7811,-300.781250
7812,-300.781250
7813,-300.781250
7814,-304.687500
7815,-304.687500
7816,-304.687500
7817,-304.687500
7818,-304.687500
7819,-304.687500
7820,-304.687500
7821,-304.687500
7822,-304.687500
7823,-308.593750
7824,-308.593750
7825,-304.687500
7826,-304.687500
7827,-304.687500
7828,-304.687500
7829,-304.687500
7830,-304.687500
7831,-304.687500
7832,-304.687500
7833,-304.687500
7834,-304.687500
7835,-304.687500
7836,-304.687500
7837,-300.781250
7838,-300.781250
7839,-300.781250
7840,-300.781250
7841,-296.875000
7842,-296.875000
7843,-296.875000
7844,-292.968750
7845,-292.968750
7846,-292.968750
7847,-292.968750
7848,-289.062500
7849,-289.062500
7850,-285.156250
7851,-285.156250
7852,-285.156250
7853,-281.250000
7854,-281.250000
7855,-277.343750
7856,-277.343750
7857,-273.437500
7858,-273.437500
7859,-269.531250
7860,-269.531250
7861,-265.625000
7862,-265.625000
7863,-261.718750
7864,-257.812500
7865,-257.812500
7866,-253.906250
7867,-250.000000
7868,-250.000000
7869,-246.093750
7870,-246.093750
7871,-242.187500
7872,-238.281250
7873,-234.375000
7874,-234.375000
7875,-230.468750
7876,-226.562500
7877,-222.656250
7878,-222.656250
7879,-218.750000
7880,-214.843750
7881,-210.937500
7882,-210.937500
7883,-207.031250
7884,-203.125000
7885,-199.218750
7886,-195.312500
7887,-191.406250
7888,-187.500000
7889,-183.593750
7890,-183.593750
7891,-179.687500
7892,-175.781250
7893,-171.875000
7894,-167.968750
7895,-164.062500
7896,-160.156250
7897,-156.250000
7898,-152.343750
7899,-148.437500
7900,-144.531250
7901,-140.625000
7902,-136.718750
7903,-132.812500
7904,-128.906250
7905,-125.000000
7906,-121.093750
7907,-117.187500
7908,-113.281250
7909,-109.375000
7910,-105.468750
7911,-101.562500
7912,-97.656250
7913,-93.750000
7914,-89.843750
7915,-85.937500
7916,-82.031250
7917,-78.125000
7918,-74.218750
7919,-70.312500
7920,-66.406250
7921,-62.500000
7922,-58.593750
7923,-54.687500
7924,-50.781250
7925,-46.875000
7926,-42.968750
7927,-39.062500
7928,-35.156250
7929,-31.250000
7930,-27.343750
7931,-23.437500
7932,-19.531250
7933,-15.625000
7934,-15.625000
7935,-7.812500
7936,-3.906250
7937,-3.906250
7938,0.000000
7939,3.906250
7940,7.812500
7941,11.718750
7942,15.625000
7943,19.531250
7944,23.437500
7945,27.343750
7946,27.343750
7947,31.250000
7948,35.156250
7949,39.062500
7950,42.968750
7951,46.875000
7952,46.875000
7953,54.687500
7954,54.687500
7955,58.593750
7956,62.500000
7957,66.406250
7958,66.406250
7959,70.312500
7960,74.218750
7961,78.125000
7962,78.125000
7963,82.031250
7964,85.937500
7965,85.937500
7966,89.843750
7967,93.750000
7968,97.656250
7969,97.656250
7970,101.562500
7971,101.562500
7972,105.468750
7973,109.375000
7974,109.375000
7975,113.281250
7976,113.281250
7977,117.187500
7978,117.187500
7979,121.093750
7980,125.000000
7981,125.000000
7982,128.906250
7983,128.906250
7984,132.812500
7985,132.812500
7986,136.718750
7987,136.718750
7988,136.718750
7989,140.625000
7990,140.625000
7991,144.531250
7992,144.531250
7993,144.531250
7994,148.437500
7995,148.437500
7996,152.343750
7997,152.343750
7998,152.343750
7999,152.343750
8000,156.250000
8001,156.250000
8002,156.250000
8003,160.156250
8004,160.156250
8005,160.156250
8006,160.156250
8007,164.062500
8008,164.062500
8009,164.062500
8010,164.062500
8011,167.968750
8012,167.968750
8013,167.968750
8014,167.968750
8015,167.968750
8016,167.968750
8017,167.968750
8018,171.875000
8019,171.875000
8020,171.875000
8021,171.875000
8022,171.875000
8023,171.875000
8024,175.781250
8025,171.875000
8026,171.875000
8027,171.875000
8028,175.781250
8029,175.781250
8030,175.781250
8031,175.781250
8032,175.781250
8033,175.781250
8034,175.781250
8035,175.781250
8036,175.781250
8037,171.875000
8038,171.875000
8039,175.781250
8040,171.875000
8041,171.875000
8042,171.875000
8043,171.875000
8044,171.875000
8045,171.875000
8046,171.875000
8047,171.875000
8048,171.875000
8049,171.875000
8050,167.968750
8051,167.968750
8052,167.968750
8053,167.968750
8054,164.062500
8055,167.968750
8056,164.062500
8057,164.062500
8058,164.062500
8059,160.156250
8060,160.156250
8061,160.156250
8062,160.156250
8063,160.156250
8064,156.250000
8065,156.250000
8066,152.343750
8067,152.343750
8068,152.343750
8069,152.343750
8070,148.437500
8071,148.437500
8072,148.437500
8073,144.531250
8074,144.531250
8075,140.625000
8076,140.625000
8077,140.625000
8078,136.718750
8079,136.718750
8080,132.812500
8081,132.812500
8082,128.906250
8083,128.906250
8084,125.000000
8085,125.000000
8086,121.093750
8087,121.093750
8088,117.187500
8089,117.187500
8090,113.281250
8091,109.375000
8092,109.375000
8093,105.468750
8094,105.468750
8095,101.562500
8096,97.656250
8097,97.656250
8098,93.750000
8099,89.843750
8100,89.843750
8101,85.937500
8102,82.031250
8103,82.031250
8104,78.125000
8105,74.218750
8106,70.312500
8107,70.312500
8108,66.406250
8109,62.500000
8110,62.500000
8111,58.593750
8112,54.687500
8113,50.781250
8114,46.875000
8115,42.968750
8116,39.062500
8117,39.062500
8118,35.156250
8119,31.250000
8120,27.343750
8121,23.437500
8122,19.531250
8123,19.531250
8124,11.718750
8125,11.718750
8126,7.812500
8127,3.906250
8128,0.000000
8129,-3.906250
8130,-7.812500
8131,-11.718750
8132,-15.625000
8133,-19.531250
8134,-23.437500
8135,-27.343750
8136,-31.250000
8137,-35.156250
8138,-39.062500
8139,-42.968750
8140,-46.875000
8141,-50.781250
8142,-54.687500
8143,-58.593750
8144,-62.500000
8145,-62.500000
8146,-70.312500
8147,-74.218750
8148,-78.125000
8149,-78.125000
8150,-82.031250
8151,-85.937500
8152,-93.750000
8153,-97.656250
8154,-97.656250
8155,-101.562500
8156,-109.375000
8157,-113.281250
8158,-113.281250
8159,-121.093750
8160,-121.093750
8161,-125.000000
8162,-128.906250
8163,-132.812500
8164,-136.718750
8165,-140.625000
8166,-144.531250
8167,-148.437500
8168,-152.343750
8169,-156.250000
8170,-160.156250
8171,-164.062500
8172,-167.968750
8173,-171.875000
8174,-175.781250
8175,-179.687500
8176,-183.593750
8177,-187.500000
8178,-187.500000
8179,-191.406250
8180,-195.312500
8181,-199.218750
8182,-203.125000
8183,-203.125000
8184,-210.937500
8185,-210.937500
8186,-214.843750
8187,-218.750000
8188,-222.656250
8189,-222.656250
8190,-226.562500
8191,-230.468750
8192,-234.375000
8193,-234.375000
8194,-238.281250
8195,-242.187500
8196,-242.187500
8197,-246.093750
8198,-250.000000
8199,-250.000000
8200,-253.906250
8201,-257.812500
8202,-257.812500
8203,-261.718750
8204,-265.625000
8205,-265.625000
8206,-269.531250
8207,-269.531250
8208,-269.531250
8209,-273.437500
8210,-277.343750
8211,-277.343750
8212,-281.250000
8213,-281.250000
8214,-285.156250
8215,-285.156250
8216,-285.156250
8217,-289.062500
8218,-289.062500
8219,-292.968750
8220,-292.968750
8221,-292.968750
8222,-296.875000
8223,-296.875000
8224,-296.875000
8225,-296.875000
8226,-296.875000
8227,-300.781250
8228,-300.781250
8229,-300.781250
8230,-300.781250
8231,-304.687500
8232,-304.687500
8233,-304.687500
8234,-304.687500
8235,-304.687500
8236,-304.687500
8237,-304.687500
8238,-304.687500
8239,-304.687500
8240,-308.593750
8241,-308.593750
8242,-304.687500
8243,-308.593750
8244,-308.593750
8245,-304.687500
8246,-304.687500
8247,-304.687500
8248,-304.687500
8249,-304.687500
8250,-304.687500
8251,-304.687500
8252,-304.687500
8253,-300.781250
8254,-300.781250
8255,-300.781250
8256,-300.781250
8257,-300.781250
8258,-296.875000
8259,-296.875000
8260,-296.875000
8261,-296.875000
8262,-292.968750
8263,-292.968750
8264,-292.968750
8265,-289.062500
8266,-289.062500
8267,-289.062500
8268,-285.156250
8269,-285.156250
8270,-281.250000
8271,-281.250000
8272,-277.343750
8273,-277.343750
8274,-273.437500
8275,-273.437500
8276,-269.531250
8277,-269.531250
8278,-265.625000
8279,-261.718750
8280,-261.718750
8281,-257.812500
8282,-257.812500
8283,-253.906250
8284,-250.000000
8285,-250.000000
8286,-246.093750
8287,-242.187500
8288,-242.187500
8289,-238.281250
8290,-234.375000
8291,-234.375000
8292,-230.468750
8293,-226.562500
8294,-222.656250
8295,-222.656250
8296,-214.843750
8297,-214.843750
8298,-210.937500
8299,-207.031250
8300,-207.031250
8301,-199.218750
8302,-199.218750
8303,-195.312500
8304,-191.406250
8305,-187.500000
8306,-183.593750
8307,-179.687500
8308,-179.687500
8309,-175.781250
8310,-171.875000
8311,-167.968750
8312,-164.062500
8313,-160.156250
8314,-156.250000
8315,-152.343750
8316,-148.437500
8317,-144.531250
8318,-140.625000
8319,-136.718750
8320,-132.812500
8321,-128.906250
8322,-125.000000
8323,-121.093750
8324,-117.187500
8325,-113.281250
8326,-109.375000
8327,-105.468750
8328,-101.562500
8329,-97.656250
8330,-93.750000
8331,-89.843750
8332,-85.937500
8333,-82.031250
8334,-78.125000
8335,-74.218750
8336,-70.312500
8337,-66.406250
8338,-62.500000
8339,-58.593750
8340,-54.687500
8341,-50.781250
8342,-46.875000
8343,-42.968750
8344,-39.062500
8345,-35.156250
8346,-31.250000
8347,-27.343750
8348,-23.437500
8349,-19.531250
8350,-15.625000
8351,-11.718750
8352,-7.812500
8353,-3.906250
8354,0.000000
8355,3.906250
8356,7.812500
8357,7.812500
8358,11.718750
8359,15.625000
8360,19.531250
8361,23.437500
8362,27.343750
8363,31.250000
8364,35.156250
8365,39.062500
8366,39.062500
8367,42.968750
8368,46.875000
8369,50.781250
8370,54.687500
8371,54.687500
8372,62.500000
8373,62.500000
8374,66.406250
8375,70.312500
8376,70.312500
8377,74.218750
8378,78.125000
8379,82.031250
8380,82.031250
8381,85.937500
8382,85.937500
8383,89.843750
8384,93.750000
8385,97.656250
8386,97.656250
8387,101.562500
8388,101.562500
8389,105.468750
8390,109.375000
8391,109.375000
8392,113.281250
8393,113.281250
8394,117.187500
8395,121.093750
8396,121.093750
8397,125.000000
8398,125.000000
8399,128.906250
8400,128.906250
8401,132.812500
8402,132.812500
8403,136.718750
8404,136.718750
8405,136.718750
8406,140.625000
8407,140.625000
8408,144.531250
8409,144.531250
8410,148.437500
8411,148.437500
8412,148.437500
8413,152.343750
8414,152.343750
8415,152.343750
8416,152.343750
8417,156.250000
8418,156.250000
8419,156.250000
8420,160.156250
8421,160.156250
8422,160.156250
8423,164.062500
8424,164.062500
8425,164.062500
8426,164.062500
8427,164.062500
8428,164.062500
8429,167.968750
8430,167.968750
8431,167.968750
8432,167.968750
8433,167.968750
8434,171.875000
8435,171.875000
8436,171.875000
8437,171.875000
8438,171.875000
8439,171.875000
8440,171.875000
8441,171.875000
8442,171.875000
8443,175.781250
8444,175.781250
8445,175.781250
8446,175.781250
8447,175.781250
8448,175.781250
8449,175.781250
8450,171.875000
8451,175.781250
8452,175.781250
8453,175.781250
8454,175.781250
8455,171.875000
8456,171.875000
8457,171.875000
8458,171.875000
8459,171.875000
8460,171.875000
8461,171.875000
8462,171.875000
8463,171.875000
8464,171.875000
8465,171.875000
8466,167.968750
8467,167.968750
8468,167.968750
8469,167.968750
8470,167.968750
8471,167.968750
8472,167.968750
8473,164.062500
8474,164.062500
8475,164.062500
8476,164.062500
8477,164.062500
8478,160.156250
8479,160.156250
8480,156.250000
8481,156.250000
8482,156.250000
8483,156.250000
8484,152.343750
8485,152.343750
8486,152.343750
8487,148.437500
8488,148.437500
8489,148.437500
8490,144.531250
8491,144.531250
8492,140.625000
8493,140.625000
8494,140.625000
8495,136.718750
8496,136.718750
8497,132.812500
8498,132.812500
8499,128.906250
8500,128.906250
8501,125.000000
8502,125.000000
8503,121.093750
8504,121.093750
8505,117.187500
8506,113.281250
8507,113.281250
8508,113.281250
8509,109.375000
8510,105.468750
8511,105.468750
8512,101.562500
8513,97.656250
8514,97.656250
8515,93.750000
8516,89.843750
8517,89.843750
8518,85.937500
8519,82.031250
8520,82.031250
8521,78.125000
8522,74.218750
8523,70.312500
8524,66.406250
8525,66.406250
8526,62.500000
8527,58.593750
8528,58.593750
8529,54.687500
8530,50.781250
8531,46.875000
8532,42.968750
8533,42.968750
8534,39.062500
8535,35.156250
8536,31.250000
8537,27.343750
8538,23.437500
8539,19.531250
8540,15.625000
8541,11.718750
8542,11.718750
8543,7.812500
8544,3.906250
8545,0.000000
8546,-3.906250
8547,-7.812500
8548,-11.718750
8549,-11.718750
8550,-19.531250
8551,-23.437500
8552,-27.343750
8553,-31.250000
8554,-35.156250
8555,-39.062500
8556,-42.968750
8557,-46.875000
8558,-50.781250
8559,-54.687500
8560,-58.593750
8561,-62.500000
8562,-66.406250
8563,-70.312500
8564,-74.218750
8565,-78.125000
8566,-82.031250
8567,-85.937500
8568,-89.843750
8569,-93.750000
8570,-97.656250
8571,-101.562500
8572,-105.468750
8573,-109.375000
8574,-113.281250
8575,-117.187500
8576,-121.093750
8577,-125.000000
8578,-128.906250
8579,-132.812500
8580,-136.718750
8581,-140.625000
8582,-144.531250
8583,-148.437500
8584,-152.343750
8585,-152.343750
8586,-156.250000
8587,-164.062500
8588,-164.062500
8589,-167.968750
8590,-171.875000
8591,-175.781250
8592,-179.687500
8593,-183.593750
8594,-187.500000
8595,-191.406250
8596,-191.406250
8597,-195.312500
8598,-199.218750
8599,-203.125000
8600,-207.031250
8601,-210.937500
8602,-214.843750
8603,-214.843750
8604,-218.750000
8605,-222.656250
8606,-226.562500
8607,-230.468750
8608,-230.468750
8609,-234.375000
8610,-234.375000
8611,-238.281250
8612,-242.187500
8613,-246.093750
8614,-246.093750
8615,-250.000000
8616,-253.906250
8617,-253.906250
8618,-257.812500
8619,-257.812500
8620,-261.718750
8621,-265.625000
8622,-265.625000
8623,-269.531250
8624,-269.531250
8625,-273.437500
8626,-277.343750
8627,-277.343750
8628,-277.343750
8629,-281.250000
8630,-281.250000
8631,-285.156250
8632,-285.156250
8633,-289.062500
8634,-289.062500
8635,-289.062500
8636,-292.968750
8637,-292.968750
8638,-296.875000
8639,-296.875000
8640,-296.875000
8641,-296.875000
8642,-300.781250
8643,-300.781250
8644,-300.781250
8645,-300.781250
8646,-300.781250
8647,-304.687500
8648,-304.687500
8649,-304.687500
8650,-304.687500
8651,-304.687500
8652,-304.687500
8653,-304.687500
8654,-308.593750
8655,-308.593750
8656,-304.687500
8657,-308.593750
8658,-308.593750
8659,-308.593750
8660,-308.593750
8661,-308.593750
8662,-304.687500
8663,-308.593750
8664,-304.687500
8665,-304.687500
8666,-304.687500
8667,-304.687500
8668,-304.687500
8669,-304.687500
8670,-300.781250
8671,-300.781250
8672,-300.781250
8673,-300.781250
8674,-300.781250
8675,-296.875000
8676,-296.875000
8677,-296.875000
8678,-292.968750
8679,-292.968750
8680,-289.062500
8681,-289.062500
8682,-289.062500
8683,-289.062500
8684,-285.156250
8685,-285.156250
8686,-281.250000
8687,-281.250000
8688,-281.250000
8689,-277.343750
8690,-277.343750
8691,-273.437500
8692,-273.437500
8693,-269.531250
8694,-269.531250
8695,-265.625000
8696,-261.718750
8697,-261.718750
8698,-257.812500
8699,-257.812500
8700,-253.906250
8701,-253.906250
8702,-250.000000
8703,-246.093750
8704,-242.187500
8705,-242.187500
8706,-238.281250
8707,-234.375000
8708,-234.375000
8709,-230.468750
8710,-226.562500
8711,-222.656250
8712,-218.750000
8713,-218.750000
8714,-214.843750
8715,-210.937500
8716,-207.031250
8717,-203.125000
8718,-199.218750
8719,-199.218750
8720,-195.312500
8721,-191.406250
8722,-187.500000
8723,-183.593750
8724,-179.687500
8725,-175.781250
8726,-171.875000
8727,-167.968750
8728,-167.968750
8729,-160.156250
8730,-160.156250
8731,-156.250000
8732,-148.437500
8733,-148.437500
8734,-144.531250
8735,-140.625000
8736,-136.718750
8737,-132.812500
8738,-128.906250
8739,-125.000000
8740,-117.187500
8741,-117.187500
8742,-113.281250
8743,-109.375000
8744,-105.468750
8745,-101.562500
8746,-97.656250
8747,-93.750000
8748,-89.843750
8749,-85.937500
8750,-82.031250
8751,-78.125000
8752,-74.218750
8753,-70.312500
8754,-66.406250
8755,-62.500000
8756,-58.593750
8757,-50.781250
8758,-50.781250
8759,-46.875000
8760,-42.968750
8761,-39.062500
8762,-35.156250
8763,-31.250000
8764,-27.343750
8765,-23.437500
8766,-19.531250
8767,-15.625000
8768,-11.718750
8769,-7.812500
8770,-3.906250
8771,0.000000
8772,3.906250
8773,7.812500
8774,11.718750
8775,11.718750
8776,15.625000
8777,19.531250
8778,23.437500
8779,27.343750
8780,31.250000
8781,35.156250
8782,39.062500
8783,39.062500
8784,46.875000
8785,46.875000
8786,50.781250
8787,54.687500
8788,58.593750
8789,62.500000
8790,62.500000
8791,66.406250
8792,70.312500
8793,74.218750
8794,74.218750
8795,78.125000
8796,82.031250
8797,85.937500
8798,85.937500
8799,89.843750
8800,93.750000
8801,93.750000
8802,97.656250
8803,101.562500
8804,101.562500
8805,105.468750
8806,105.468750
8807,109.375000
8808,113.281250
8809,113.281250
8810,117.187500
8811,117.187500
8812,121.093750
8813,121.093750
8814,125.000000
8815,125.000000
8816,128.906250
8817,132.812500
8818,132.812500
8819,132.812500
8820,136.718750
8821,136.718750
8822,140.625000
8823,140.625000
8824,140.625000
8825,144.531250
8826,144.531250
8827,148.437500
8828,148.437500
8829,148.437500
8830,152.343750
8831,152.343750
8832,152.343750
8833,156.250000
8834,156.250000
8835,156.250000
8836,160.156250
8837,160.156250
8838,160.156250
8839,160.156250
8840,164.062500
8841,164.062500
8842,164.062500
8843,164.062500
8844,167.968750
8845,167.968750
8846,167.968750
8847,167.968750
8848,167.968750
8849,167.968750
8850,167.968750
8851,171.875000
8852,171.875000
8853,171.875000
8854,171.875000
8855,171.875000
8856,171.875000
8857,171.875000
8858,171.875000
8859,171.875000
8860,171.875000
8861,175.781250
8862,171.875000
8863,175.781250
8864,175.781250
8865,175.781250
8866,171.875000
8867,175.781250
8868,175.781250
8869,175.781250
8870,175.781250
8871,171.875000
8872,171.875000
8873,175.781250
8874,175.781250
8875,171.875000
8876,171.875000
8877,171.875000
8878,171.875000
8879,171.875000
8880,171.875000
8881,171.875000
8882,167.968750
8883,167.968750
8884,167.968750
8885,167.968750
8886,167.968750
8887,167.968750
8888,164.062500
8889,164.062500
8890,164.062500
8891,164.062500
8892,164.062500
8893,164.062500
8894,160.156250
8895,160.156250
8896,160.156250
8897,156.250000
8898,156.250000
8899,156.250000
8900,152.343750
8901,152.343750
8902,152.343750
8903,148.437500
8904,148.437500
8905,148.437500
8906,148.437500
8907,144.531250
8908,144.531250
8909,140.625000
8910,140.625000
8911,136.718750
8912,136.718750
8913,132.812500
8914,132.812500
8915,132.812500
8916,128.906250
8917,128.906250
8918,125.000000
8919,125.000000
8920,121.093750
8921,117.187500
8922,117.187500
8923,117.187500
8924,113.281250
8925,109.375000
8926,109.375000
8927,105.468750
8928,105.468750
8929,101.562500
8930,97.656250
8931,93.750000
8932,93.750000
8933,89.843750
8934,89.843750
8935,85.937500
8936,82.031250
8937,82.031250
8938,78.125000
8939,74.218750
8940,70.312500
8941,66.406250
8942,66.406250
8943,62.500000
8944,58.593750
8945,54.687500
8946,54.687500
8947,50.781250
8948,46.875000
8949,42.968750
8950,39.062500
8951,39.062500
8952,31.250000
8953,31.250000
8954,27.343750
8955,23.437500
8956,19.531250
8957,15.625000
8958,11.718750
8959,7.812500
8960,3.906250
8961,3.906250
8962,-3.906250
8963,-3.906250
8964,-7.812500
8965,-11.718750
8966,-15.625000
8967,-19.531250
8968,-23.437500
8969,-27.343750
8970,-31.250000
8971,-35.156250
8972,-39.062500
8973,-42.968750
8974,-46.875000
8975,-50.781250
8976,-54.687500
8977,-58.593750
8978,-62.500000
8979,-66.406250
8980,-70.312500
8981,-74.218750
8982,-78.125000
8983,-82.031250
8984,-85.937500
8985,-89.843750
8986,-93.750000
8987,-97.656250
8988,-101.562500
8989,-105.468750
8990,-109.375000
8991,-109.375000
8992,-117.187500
8993,-121.093750
8994,-125.000000
8995,-128.906250
8996,-132.812500
8997,-136.718750
8998,-140.625000
8999,-144.531250
9000,-148.437500
9001,-152.343750
9002,-152.343750
9003,-160.156250
9004,-160.156250
9005,-164.062500
9006,-167.968750
9007,-171.875000
9008,-175.781250
9009,-179.687500
9010,-183.593750
9011,-187.500000
9012,-191.406250
9013,-191.406250
9014,-195.312500
9015,-199.218750
9016,-207.031250
9017,-207.031250
9018,-210.937500
9019,-210.937500
9020,-214.843750
9021,-218.750000
9022,-222.656250
9023,-222.656250
9024,-230.468750
9025,-230.468750
9026,-234.375000
9027,-234.375000
9028,-238.281250
9029,-242.187500
9030,-246.093750
9031,-246.093750
9032,-250.000000
9033,-253.906250
9034,-253.906250
9035,-257.812500
9036,-257.812500
9037,-261.718750
9038,-265.625000
9039,-265.625000
9040,-269.531250
9041,-269.531250
9042,-273.437500
9043,-273.437500
9044,-277.343750
9045,-277.343750
9046,-281.250000
9047,-281.250000
9048,-285.156250
9049,-285.156250
9050,-285.156250
9051,-289.062500
9052,-289.062500
9053,-292.968750
9054,-292.968750
9055,-292.968750
9056,-296.875000
9057,-296.875000
9058,-296.875000
9059,-296.875000
9060,-300.781250
9061,-300.781250
9062,-300.781250
9063,-300.781250
9064,-304.687500
9065,-304.687500
9066,-304.687500
9067,-304.687500
9068,-304.687500
9069,-304.687500
9070,-304.687500
9071,-304.687500
9072,-304.687500
9073,-308.593750
9074,-304.687500
9075,-304.687500
9076,-304.687500
9077,-304.687500
9078,-304.687500
9079,-304.687500
9080,-304.687500
9081,-304.687500
9082,-304.687500
9083,-304.687500
9084,-304.687500
9085,-300.781250
9086,-304.687500
9087,-300.781250
9088,-300.781250
9089,-300.781250
9090,-300.781250
9091,-296.875000
9092,-296.875000
9093,-296.875000
9094,-296.875000
9095,-292.968750
9096,-292.968750
9097,-292.968750
9098,-289.062500
9099,-289.062500
9100,-285.156250
9101,-285.156250
9102,-285.156250
9103,-281.250000
9104,-281.250000
9105,-281.250000
9106,-277.343750
9107,-277.343750
9108,-273.437500
9109,-273.437500
9110,-269.531250
9111,-265.625000
9112,-265.625000
9113,-261.718750
9114,-257.812500
9115,-257.812500
9116,-253.906250
9117,-253.906250
9118,-250.000000
9119,-246.093750
9120,-246.093750
9121,-242.187500
9122,-238.281250
9123,-238.281250
9124,-234.375000
9125,-230.468750
9126,-230.468750
9127,-226.562500
9128,-222.656250
9129,-218.750000
9130,-214.843750
9131,-210.937500
9132,-210.937500
9133,-207.031250
9134,-203.125000
9135,-199.218750
9136,-199.218750
9137,-191.406250
9138,-191.406250
9139,-187.500000
9140,-183.593750
9141,-179.687500
9142,-175.781250
9143,-171.875000
9144,-167.968750
9145,-164.062500
9146,-164.062500
9147,-156.250000
9148,-156.250000
9149,-152.343750
9150,-144.531250
9151,-144.531250
9152,-140.625000
9153,-136.718750
9154,-128.906250
9155,-128.906250
9156,-125.000000
9157,-121.093750
9158,-117.187500
9159,-113.281250
9160,-109.375000
9161,-105.468750
9162,-101.562500
9163,-97.656250
9164,-93.750000
9165,-89.843750
9166,-85.937500
9167,-78.125000
9168,-78.125000
9169,-74.218750
9170,-70.312500
9171,-66.406250
9172,-62.500000
9173,-54.687500
9174,-54.687500
9175,-46.875000
9176,-46.875000
9177,-42.968750
9178,-39.062500
9179,-35.156250
9180,-31.250000
9181,-27.343750
9182,-23.437500
9183,-19.531250
9184,-15.625000
9185,-11.718750
9186,-7.812500
9187,-3.906250
9188,0.000000
9189,3.906250
9190,7.812500
9191,11.718750
9192,15.625000
9193,19.531250
9194,23.437500
9195,23.437500
9196,27.343750
9197,31.250000
9198,35.156250
9199,39.062500
9200,42.968750
9201,42.968750
9202,46.875000
9203,50.781250
9204,54.687500
9205,58.593750
9206,58.593750
9207,62.500000
9208,66.406250
9209,70.312500
9210,74.218750
9211,74.218750
9212,78.125000
9213,82.031250
9214,82.031250
9215,85.937500
9216,89.843750
9217,89.843750
9218,93.750000
9219,97.656250
9220,97.656250
9221,101.562500
9222,105.468750
9223,109.375000
9224,109.375000
9225,109.375000
9226,113.281250
9227,117.187500
9228,117.187500
9229,121.093750
9230,121.093750
9231,125.000000
9232,125.000000
9233,128.906250
9234,132.812500
9235,132.812500
9236,132.812500
9237,136.718750
9238,136.718750
9239,140.625000
9240,140.625000
9241,144.531250
9242,144.531250
9243,144.531250
9244,148.437500
9245,148.437500
9246,148.437500
9247,152.343750
9248,152.343750
9249,152.343750
9250,156.250000
9251,156.250000
9252,156.250000
9253,160.156250
9254,160.156250
9255,160.156250
9256,160.156250
9257,164.062500
9258,164.062500
9259,164.062500
9260,167.968750
9261,167.968750
9262,167.968750
9263,167.968750
9264,167.968750
9265,167.968750
9266,171.875000
9267,171.875000
9268,171.875000
9269,171.875000
9270,171.875000
9271,171.875000
9272,171.875000
9273,171.875000
9274,171.875000
9275,171.875000
9276,171.875000
9277,171.875000
9278,171.875000
9279,175.781250
9280,175.781250
9281,175.781250
9282,171.875000
9283,175.781250
9284,175.781250
9285,175.781250
9286,175.781250
9287,171.875000
9288,175.781250
9289,175.781250
9290,171.875000
9291,171.875000
9292,171.875000
9293,171.875000
9294,171.875000
9295,171.875000
9296,171.875000
9297,171.875000
9298,171.875000
9299,171.875000
9300,167.968750
9301,167.968750
9302,167.968750
9303,167.968750
9304,167.968750
9305,167.968750
9306,164.062500
9307,164.062500
9308,164.062500
9309,164.062500
9310,164.062500
9311,160.156250
9312,160.156250
9313,160.156250
9314,156.250000
9315,156.250000
9316,156.250000
9317,156.250000
9318,152.343750
9319,152.343750
9320,152.343750
9321,148.437500
9322,148.437500
9323,148.437500
9324,144.531250
9325,144.531250
9326,140.625000
9327,140.625000
9328,140.625000
9329,136.718750
9330,136.718750
9331,132.812500
9332,128.906250
9333,128.906250
9334,128.906250
9335,125.000000
9336,125.000000
9337,121.093750
9338,121.093750
9339,117.187500
9340,113.281250
9341,113.281250
9342,109.375000
9343,101.562500
9344,105.468750
9345,101.562500
9346,101.562500
9347,97.656250
9348,93.750000
9349,93.750000
9350,89.843750
9351,85.937500
9352,85.937500
9353,82.031250
9354,78.125000
9355,74.218750
9356,74.218750
9357,70.312500
9358,70.312500
9359,62.500000
9360,62.500000
9361,58.593750
9362,54.687500
9363,50.781250
9364,50.781250
9365,46.875000
9366,42.968750
9367,39.062500
9368,35.156250
9369,31.250000
9370,31.250000
9371,27.343750
9372,23.437500
9373,19.531250
9374,15.625000
9375,11.718750
9376,7.812500
9377,3.906250
9378,0.000000
9379,-3.906250
9380,-7.812500
9381,-11.718750
9382,-11.718750
9383,-15.625000
9384,-19.531250
9385,-23.437500
9386,-27.343750
9387,-31.250000
9388,-35.156250
9389,-39.062500
9390,-42.968750
9391,-46.875000
9392,-50.781250
9393,-54.687500
9394,-58.593750
9395,-62.500000
9396,-66.406250
9397,-70.312500
9398,-74.218750
9399,-78.125000
9400,-82.031250
9401,-85.937500
9402,-89.843750
9403,-93.750000
9404,-97.656250
9405,-101.562500
9406,-105.468750
9407,-109.375000
9408,-113.281250
9409,-117.187500
9410,-121.093750
9411,-125.000000
9412,-128.906250
9413,-132.812500
9414,-136.718750
9415,-140.625000
9416,-144.531250
9417,-148.437500
9418,-152.343750
9419,-156.250000
9420,-160.156250
9421,-164.062500
9422,-167.968750
9423,-171.875000
9424,-175.781250
9425,-175.781250
9426,-179.687500
9427,-183.593750
9428,-187.500000
9429,-191.406250
9430,-195.312500
9431,-199.218750
9432,-199.218750
9433,-203.125000
9434,-207.031250
9435,-210.937500
9436,-214.843750
9437,-218.750000
9438,-218.750000
9439,-222.656250
9440,-226.562500
9441,-230.468750
9442,-230.468750
9443,-234.375000
9444,-238.281250
9445,-242.187500
9446,-242.187500
9447,-246.093750
9448,-246.093750
9449,-250.000000
9450,-253.906250
9451,-257.812500
9452,-257.812500
9453,-261.718750
9454,-261.718750
9455,-265.625000
9456,-265.625000
9457,-269.531250
9458,-269.531250
9459,-273.437500
9460,-277.343750
9461,-277.343750
9462,-277.343750
9463,-281.250000
9464,-281.250000
9465,-285.156250
9466,-285.156250
9467,-289.062500
9468,-289.062500
9469,-292.968750
9470,-292.968750
9471,-292.968750
9472,-296.875000
9473,-296.875000
9474,-296.875000
9475,-296.875000
9476,-300.781250
9477,-300.781250
9478,-300.781250
9479,-300.781250
9480,-304.687500
9481,-304.687500
9482,-304.687500
9483,-304.687500
9484,-304.687500
9485,-304.687500
9486,-308.593750
9487,-304.687500
9488,-308.593750
9489,-308.593750
9490,-308.593750
9491,-308.593750
9492,-308.593750
9493,-308.593750
9494,-308.593750
9495,-308.593750
9496,-304.687500
9497,-308.593750
9498,-304.687500
9499,-304.687500
9500,-304.687500
9501,-304.687500
9502,-304.687500
9503,-304.687500
9504,-304.687500
9505,-300.781250
9506,-300.781250
9507,-300.781250
9508,-296.875000
9509,-296.875000
9510,-296.875000
9511,-296.875000
9512,-296.875000
9513,-292.968750
9514,-292.968750
9515,-289.062500
9516,-289.062500
9517,-289.062500
9518,-285.156250
9519,-285.156250
9520,-281.250000
9521,-281.250000
9522,-277.343750
9523,-277.343750
9524,-273.437500
9525,-273.437500
9526,-269.531250
9527,-269.531250
9528,-265.625000
9529,-265.625000
9530,-261.718750
9531,-261.718750
9532,-257.812500
9533,-253.906250
9534,-253.906250
9535,-250.000000
9536,-250.000000
9537,-246.093750
9538,-242.187500
9539,-238.281250
9540,-238.281250
9541,-234.375000
9542,-230.468750
9543,-230.468750
9544,-230.468750
9545,-222.656250
9546,-218.750000
9547,-214.843750
9548,-210.937500
9549,-210.937500
9550,-207.031250
9551,-203.125000
9552,-199.218750
9553,-195.312500
9554,-195.312500
9555,-187.500000
9556,-183.593750
9557,-179.687500
9558,-179.687500
9559,-175.781250
9560,-171.875000
9561,-167.968750
9562,-164.062500
9563,-160.156250
9564,-156.250000
9565,-152.343750
9566,-148.437500
9567,-144.531250
9568,-140.625000
9569,-136.718750
9570,-132.812500
9571,-128.906250
9572,-125.000000
9573,-121.093750
9574,-117.187500
9575,-117.187500
9576,-109.375000
9577,-109.375000
9578,-101.562500
9579,-97.656250
9580,-93.750000
9581,-89.843750
9582,-85.937500
9583,-82.031250
9584,-78.125000
9585,-74.218750
9586,-70.312500
9587,-66.406250
9588,-62.500000
9589,-58.593750
9590,-54.687500
9591,-50.781250
9592,-46.875000
9593,-42.968750
9594,-39.062500
9595,-35.156250
9596,-31.250000
9597,-31.250000
9598,-23.437500
9599,-19.531250
9600,-19.531250
9601,-11.718750
9602,-11.718750
9603,-7.812500
9604,0.000000
9605,0.000000
9606,3.906250
9607,7.812500
9608,11.718750
9609,15.625000
9610,19.531250
9611,23.437500
9612,23.437500
9613,27.343750
9614,31.250000
9615,35.156250
9616,39.062500
9617,42.968750
9618,46.875000
9619,46.875000
9620,50.781250
9621,54.687500
9622,58.593750
9623,62.500000
9624,66.406250
9625,66.406250
9626,70.312500
9627,74.218750
9628,74.218750
9629,78.125000
9630,82.031250
9631,85.937500
9632,85.937500
9633,89.843750
9634,93.750000
9635,97.656250
9636,97.656250
9637,101.562500
9638,101.562500
9639,105.468750
9640,105.468750
9641,109.375000
9642,113.281250
9643,113.281250
9644,117.187500
9645,113.281250
9646,121.093750
9647,125.000000
9648,125.000000
9649,128.906250
9650,128.906250
9651,132.812500
9652,132.812500
9653,136.718750
9654,136.718750
9655,136.718750
9656,140.625000
9657,140.625000
9658,144.531250
9659,144.531250
9660,144.531250
9661,148.437500
9662,148.437500
9663,152.343750
9664,152.343750
9665,152.343750
9666,152.343750
9667,156.250000
9668,156.250000
9669,156.250000
9670,160.156250
9671,160.156250
9672,160.156250
9673,164.062500
9674,164.062500
9675,164.062500
9676,164.062500
9677,164.062500
9678,167.968750
9679,167.968750
9680,167.968750
9681,167.968750
9682,167.968750
9683,167.968750
9684,171.875000
9685,171.875000
9686,171.875000
9687,171.875000
9688,171.875000
9689,171.875000
9690,171.875000
9691,175.781250
9692,171.875000
9693,175.781250
9694,171.875000
9695,175.781250
9696,171.875000
9697,175.781250
9698,175.781250
9699,175.781250
9700,175.781250
9701,175.781250
9702,175.781250
9703,175.781250
9704,175.781250
9705,175.781250
9706,175.781250
9707,171.875000
9708,175.781250
9709,171.875000
9710,171.875000
9711,171.875000
9712,171.875000
9713,171.875000
9714,171.875000
9715,171.875000
9716,167.968750
9717,171.875000
9718,167.968750
9719,167.968750
9720,167.968750
9721,167.968750
9722,167.968750
9723,164.062500
9724,164.062500
9725,164.062500
9726,164.062500
9727,164.062500
9728,160.156250
9729,164.062500
9730,160.156250
9731,156.250000
9732,156.250000
9733,156.250000
9734,152.343750
9735,152.343750
9736,152.343750
9737,148.437500
9738,148.437500
9739,148.437500
9740,144.531250
9741,144.531250
9742,140.625000
9743,140.625000
9744,140.625000
9745,136.718750
9746,136.718750
9747,132.812500
9748,132.812500
9749,128.906250
9750,128.906250
9751,125.000000
9752,125.000000
9753,121.093750
9754,121.093750
9755,117.187500
9756,113.281250
9757,113.281250
9758,113.281250
9759,109.375000
9760,105.468750
9761,105.468750
9762,101.562500
9763,101.562500
9764,97.656250
9765,93.750000
9766,93.750000
9767,89.843750
9768,85.937500
9769,85.937500
9770,82.031250
9771,78.125000
9772,74.218750
9773,74.218750
9774,70.312500
9775,66.406250
9776,62.500000
9777,58.593750
9778,58.593750
9779,54.687500
9780,50.781250
9781,46.875000
9782,46.875000
9783,42.968750
9784,39.062500
9785,35.156250
9786,31.250000
9787,31.250000
9788,23.437500
9789,19.531250
9790,19.531250
9791,11.718750
9792,11.718750
9793,7.812500
9794,3.906250
9795,0.000000
9796,-3.906250
9797,-7.812500
9798,-11.718750
9799,-15.625000
9800,-19.531250
9801,-23.437500
9802,-27.343750
9803,-31.250000
9804,-35.156250
9805,-35.156250
9806,-39.062500
9807,-46.875000
9808,-50.781250
9809,-54.687500
9810,-54.687500
9811,-58.593750
9812,-66.406250
9813,-66.406250
9814,-70.312500
9815,-74.218750
9816,-78.125000
9817,-82.031250
9818,-85.937500
9819,-89.843750
9820,-93.750000
9821,-97.656250
9822,-105.468750
9823,-105.468750
9824,-109.375000
9825,-113.281250
9826,-117.187500
9827,-121.093750
9828,-125.000000
9829,-128.906250
9830,-132.812500
9831,-136.718750
9832,-140.625000
9833,-144.531250
9834,-148.437500
9835,-152.343750
9836,-156.250000
9837,-160.156250
9838,-164.062500
9839,-167.968750
9840,-171.875000
9841,-171.875000
9842,-175.781250
9843,-179.687500
9844,-183.593750
9845,-187.500000
9846,-195.312500
9847,-195.312500
9848,-199.218750
9849,-203.125000
9850,-203.125000
9851,-207.031250
9852,-210.937500
9853,-214.843750
9854,-218.750000
9855,-218.750000
9856,-222.656250
9857,-226.562500
9858,-230.468750
9859,-230.468750
9860,-234.375000
9861,-238.281250
9862,-242.187500
9863,-242.187500
9864,-246.093750
9865,-250.000000
9866,-250.000000
9867,-253.906250
9868,-257.812500
9869,-257.812500
9870,-261.718750
9871,-261.718750
9872,-265.625000
9873,-269.531250
9874,-269.531250
9875,-269.531250
9876,-273.437500
9877,-277.343750
9878,-277.343750
9879,-277.343750
9880,-281.250000
9881,-281.250000
9882,-285.156250
9883,-285.156250
9884,-289.062500
9885,-289.062500
9886,-289.062500
9887,-292.968750
9888,-292.968750
9889,-292.968750
9890,-296.875000
9891,-296.875000
9892,-296.875000
9893,-296.875000
9894,-300.781250
9895,-300.781250
9896,-300.781250
9897,-300.781250
9898,-304.687500
9899,-304.687500
9900,-304.687500
9901,-304.687500
9902,-304.687500
9903,-304.687500
9904,-304.687500
9905,-304.687500
9906,-304.687500
9907,-304.687500
9908,-308.593750
9909,-304.687500
9910,-304.687500
9911,-304.687500
9912,-304.687500
9913,-304.687500
9914,-304.687500
9915,-304.687500
9916,-304.687500
9917,-304.687500
9918,-304.687500
9919,-304.687500
9920,-300.781250
9921,-300.781250
9922,-300.781250
9923,-300.781250
9924,-300.781250
9925,-296.875000
9926,-296.875000
9927,-296.875000
9928,-292.968750
9929,-292.968750
9930,-292.968750
9931,-292.968750
9932,-289.062500
9933,-289.062500
9934,-285.156250
9935,-285.156250
9936,-285.156250
9937,-281.250000
9938,-281.250000
9939,-277.343750
9940,-277.343750
9941,-273.437500
9942,-273.437500
9943,-269.531250
9944,-269.531250
9945,-265.625000
9946,-261.718750
9947,-261.718750
9948,-261.718750
9949,-257.812500
9950,-253.906250
9951,-250.000000
9952,-250.000000
9953,-246.093750
9954,-246.093750
9955,-242.187500
9956,-238.281250
9957,-238.281250
9958,-234.375000
9959,-230.468750
9960,-226.562500
9961,-226.562500
9962,-222.656250
9963,-218.750000
9964,-214.843750
9965,-210.937500
9966,-207.031250
9967,-207.031250
9968,-203.125000
9969,-199.218750
9970,-195.312500
9971,-191.406250
9972,-187.500000
9973,-183.593750
9974,-183.593750
9975,-179.687500
9976,-175.781250
9977,-171.875000
9978,-167.968750
9979,-164.062500
9980,-160.156250
9981,-156.250000
9982,-152.343750
9983,-148.437500
9984,-144.531250
9985,-140.625000
9986,-136.718750
9987,-132.812500
9988,-128.906250
9989,-125.000000
9990,-121.093750
9991,-117.187500
9992,-113.281250
9993,-109.375000
9994,-105.468750
9995,-101.562500
9996,-97.656250
9997,-93.750000
9998,-89.843750
9999,-85.937500
10000,-82.031250
