Channel              :,CH1
Frequency            :,1.200kHz
Period               :,0.833ms
PK-PK                :,476.6mV
Probe attenuation    :,1X
Voltage per ADC value:,0.244141mV
Time interval        :,2.00000us

index,CH1_Voltage(mV)
1,-62.500000
2,-62.500000
3,-58.593750
4,-50.781250
5,-50.781250
6,-46.875000
7,-42.968750
8,-39.062500
9,-35.156250
10,-31.250000
11,-27.343750
12,-23.437500
13,-19.531250
14,-15.625000
15,-11.718750
16,-7.812500
17,-3.906250
18,-3.906250
19,0.000000
20,3.906250
21,7.812500
22,11.718750
23,15.625000
24,19.531250
25,23.437500
26,23.437500
27,27.343750
28,31.250000
29,35.156250
30,39.062500
31,39.062500
32,42.968750
33,46.875000
34,46.875000
35,50.781250
36,54.687500
37,58.593750
38,58.593750
39,62.500000
40,66.406250
41,70.312500
42,70.312500
43,74.218750
44,74.218750
45,78.125000
46,82.031250
47,85.937500
48,85.937500
49,89.843750
50,89.843750
51,93.750000
52,93.750000
53,97.656250
54,101.562500
55,101.562500
56,101.562500
57,105.468750
58,105.468750
59,109.375000
60,113.281250
61,113.281250
62,117.187500
63,117.187500
64,117.187500
65,121.093750
66,121.093750
67,125.000000
68,125.000000
69,128.906250
70,128.906250
71,128.906250
72,128.906250
73,132.812500
74,132.812500
75,136.718750
76,136.718750
77,136.718750
78,140.625000
79,140.625000
80,140.625000
81,140.625000
82,144.531250
83,144.531250
84,144.531250
85,144.531250
86,148.437500
87,148.437500
88,148.437500
89,148.437500
90,148.437500
91,152.343750
92,152.343750
93,152.343750
94,152.343750
95,152.343750
96,152.343750
97,152.343750
98,156.250000
99,152.343750
100,156.250000
101,156.250000
102,156.250000
103,156.250000
104,156.250000
105,156.250000
106,156.250000
107,156.250000
108,156.250000
109,156.250000
110,156.250000
111,156.250000
112,156.250000
113,156.250000
114,156.250000
115,156.250000
116,156.250000
117,156.250000
118,156.250000
119,156.250000
120,152.343750
121,156.250000
122,152.343750
123,156.250000
124,152.343750
125,152.343750
126,152.343750
127,152.343750
128,152.343750
129,148.437500
130,148.437500
131,148.437500
132,148.437500
133,148.437500
134,144.531250
135,144.531250
136,144.531250
137,144.531250
138,140.625000
139,140.625000
140,140.625000
141,140.625000
142,140.625000
143,136.718750
144,136.718750
145,136.718750
146,132.812500
147,132.812500
148,132.812500
149,128.906250
150,125.000000
151,125.000000
152,125.000000
153,125.000000
154,121.093750
155,121.093750
156,117.187500
157,117.187500
158,117.187500
159,113.281250
160,109.375000
161,109.375000
162,105.468750
163,105.468750
164,105.468750
165,101.562500
166,97.656250
167,97.656250
168,93.750000
169,93.750000
170,89.843750
171,85.937500
172,85.937500
173,82.031250
174,82.031250
175,78.125000
176,74.218750
177,74.218750
178,70.312500
179,66.406250
180,66.406250
181,62.500000
182,58.593750
183,58.593750
184,54.687500
185,50.781250
186,46.875000
187,42.968750
188,42.968750
189,39.062500
190,35.156250
191,31.250000
192,27.343750
193,27.343750
194,23.437500
195,19.531250
196,15.625000
197,11.718750
198,7.812500
199,7.812500
200,3.906250
201,0.000000
202,-3.906250
203,-7.812500
204,-11.718750
205,-15.625000
206,-15.625000
207,-23.437500
208,-23.437500
209,-31.250000
210,-31.250000
211,-35.156250
212,-39.062500
213,-42.968750
214,-46.875000
215,-50.781250
216,-54.687500
217,-58.593750
218,-62.500000
219,-66.406250
220,-70.312500
221,-74.218750
222,-78.125000
223,-82.031250
224,-85.937500
225,-89.843750
226,-93.750000
227,-97.656250
228,-101.562500
229,-105.468750
230,-109.375000
231,-113.281250
232,-117.187500
233,-121.093750
234,-125.000000
235,-128.906250
236,-128.906250
237,-136.718750
238,-136.718750
239,-140.625000
240,-148.437500
241,-148.437500
242,-152.343750
243,-156.250000
244,-160.156250
245,-164.062500
246,-167.968750
247,-171.875000
248,-175.781250
249,-179.687500
250,-183.593750
251,-183.593750
252,-187.500000
253,-191.406250
254,-195.312500
255,-199.218750
256,-203.125000
257,-207.031250
258,-210.937500
259,-214.843750
260,-214.843750
261,-218.750000
262,-222.656250
263,-226.562500
264,-230.468750
265,-230.468750
266,-234.375000
267,-234.375000
268,-238.281250
269,-242.187500
270,-242.187500
271,-246.093750
272,-250.000000
273,-253.906250
274,-261.718750
275,-257.812500
276,-261.718750
277,-261.718750
278,-265.625000
279,-269.531250
280,-269.531250
281,-273.437500
282,-273.437500
283,-277.343750
284,-277.343750
285,-281.250000
286,-281.250000
287,-285.156250
288,-285.156250
289,-289.062500
290,-289.062500
291,-289.062500
292,-292.968750
293,-296.875000
294,-296.875000
295,-296.875000
296,-300.781250
297,-300.781250
298,-300.781250
299,-304.687500
300,-304.687500
301,-304.687500
302,-304.687500
303,-308.593750
304,-308.593750
305,-308.593750
306,-308.593750
307,-308.593750
308,-312.500000
309,-312.500000
310,-312.500000
311,-312.500000
312,-312.500000
313,-312.500000
314,-312.500000
315,-316.406250
316,-316.406250
317,-316.406250
318,-316.406250
319,-316.406250
320,-312.500000
321,-316.406250
322,-316.406250
323,-312.500000
324,-312.500000
325,-312.500000
326,-312.500000
327,-312.500000
328,-312.500000
329,-312.500000
330,-312.500000
331,-308.593750
332,-308.593750
333,-308.593750
334,-308.593750
335,-304.687500
336,-304.687500
337,-304.687500
338,-304.687500
339,-300.781250
340,-300.781250
341,-300.781250
342,-296.875000
343,-292.968750
344,-292.968750
345,-292.968750
346,-292.968750
347,-289.062500
348,-285.156250
349,-285.156250
350,-285.156250
351,-281.250000
352,-281.250000
353,-277.343750
354,-277.343750
355,-273.437500
356,-269.531250
357,-269.531250
358,-265.625000
359,-265.625000
360,-261.718750
361,-257.812500
362,-257.812500
363,-253.906250
364,-250.000000
365,-250.000000
366,-246.093750
367,-242.187500
368,-242.187500
369,-238.281250
370,-234.375000
371,-230.468750
372,-230.468750
373,-226.562500
374,-222.656250
375,-218.750000
376,-214.843750
377,-214.843750
378,-210.937500
379,-207.031250
380,-203.125000
381,-199.218750
382,-195.312500
383,-195.312500
384,-191.406250
385,-187.500000
386,-183.593750
387,-179.687500
388,-175.781250
389,-171.875000
390,-167.968750
391,-164.062500
392,-160.156250
393,-156.250000
394,-152.343750
395,-148.437500
396,-148.437500
397,-144.531250
398,-136.718750
399,-136.718750
400,-132.812500
401,-128.906250
402,-125.000000
403,-121.093750
404,-117.187500
405,-113.281250
406,-109.375000
407,-105.468750
408,-101.562500
409,-97.656250
410,-93.750000
411,-89.843750
412,-85.937500
413,-82.031250
414,-78.125000
415,-74.218750
416,-70.312500
417,-66.406250
418,-62.500000
419,-58.593750
420,-54.687500
421,-50.781250
422,-46.875000
423,-42.968750
424,-39.062500
425,-35.156250
426,-31.250000
427,-31.250000
428,-27.343750
429,-19.531250
430,-19.531250
431,-15.625000
432,-11.718750
433,-7.812500
434,-3.906250
435,0.000000
436,3.906250
437,7.812500
438,7.812500
439,11.718750
440,15.625000
441,19.531250
442,23.437500
443,27.343750
444,31.250000
445,31.250000
446,35.156250
447,39.062500
448,39.062500
449,42.968750
450,46.875000
451,50.781250
452,54.687500
453,54.687500
454,58.593750
455,62.500000
456,62.500000
457,66.406250
458,70.312500
459,74.218750
460,74.218750
461,78.125000
462,78.125000
463,82.031250
464,85.937500
465,85.937500
466,89.843750
467,89.843750
468,93.750000
469,97.656250
470,97.656250
471,101.562500
472,101.562500
473,105.468750
474,105.468750
475,109.375000
476,109.375000
477,113.281250
478,113.281250
479,117.187500
480,117.187500
481,121.093750
482,121.093750
483,121.093750
484,125.000000
485,125.000000
486,128.906250
487,128.906250
488,128.906250
489,132.812500
490,132.812500
491,132.812500
492,136.718750
493,136.718750
494,136.718750
495,140.625000
496,140.625000
497,140.625000
498,140.625000
499,140.625000
500,144.531250
501,144.531250
502,144.531250
503,148.437500
504,144.531250
505,148.437500
506,148.437500
507,148.437500
508,152.343750
509,152.343750
510,152.343750
511,152.343750
512,152.343750
513,152.343750
514,152.343750
515,152.343750
516,156.250000
517,156.250000
518,156.250000
519,156.250000
520,156.250000
521,156.250000
522,156.250000
523,156.250000
524,156.250000
525,156.250000
526,156.250000
527,156.250000
528,156.250000
529,156.250000
530,156.250000
531,156.250000
532,156.250000
533,156.250000
534,156.250000
535,156.250000
536,156.250000
537,156.250000
538,152.343750
539,152.343750
540,152.343750
541,152.343750
542,152.343750
543,152.343750
544,152.343750
545,152.343750
546,148.437500
547,148.437500
548,148.437500
549,148.437500
550,144.531250
551,144.531250
552,144.531250
553,144.531250
554,144.531250
555,140.625000
556,140.625000
557,140.625000
558,136.718750
559,136.718750
560,136.718750
561,136.718750
562,132.812500
563,132.812500
564,128.906250
565,128.906250
566,128.906250
567,125.000000
568,125.000000
569,125.000000
570,121.093750
571,121.093750
572,121.093750
573,117.187500
574,117.187500
575,113.281250
576,113.281250
577,109.375000
578,109.375000
579,105.468750
580,105.468750
581,101.562500
582,101.562500
583,97.656250
584,97.656250
585,93.750000
586,89.843750
587,89.843750
588,85.937500
589,82.031250
590,82.031250
591,82.031250
592,78.125000
593,74.218750
594,74.218750
595,70.312500
596,66.406250
597,62.500000
598,62.500000
599,58.593750
600,54.687500
601,50.781250
602,50.781250
603,46.875000
604,42.968750
605,39.062500
606,39.062500
607,35.156250
608,31.250000
609,27.343750
610,23.437500
611,23.437500
612,19.531250
613,15.625000
614,11.718750
615,7.812500
616,3.906250
617,0.000000
618,0.000000
619,-3.906250
620,-7.812500
621,-11.718750
622,-15.625000
623,-19.531250
624,-23.437500
625,-27.343750
626,-31.250000
627,-35.156250
628,-39.062500
629,-42.968750
630,-46.875000
631,-50.781250
632,-50.781250
633,-54.687500
634,-62.500000
635,-62.500000
636,-66.406250
637,-70.312500
638,-74.218750
639,-78.125000
640,-85.937500
641,-85.937500
642,-89.843750
643,-93.750000
644,-97.656250
645,-101.562500
646,-105.468750
647,-109.375000
648,-113.281250
649,-117.187500
650,-121.093750
651,-125.000000
652,-128.906250
653,-132.812500
654,-136.718750
655,-140.625000
656,-144.531250
657,-148.437500
658,-148.437500
659,-152.343750
660,-160.156250
661,-160.156250
662,-164.062500
663,-167.968750
664,-171.875000
665,-175.781250
666,-179.687500
667,-183.593750
668,-187.500000
669,-191.406250
670,-191.406250
671,-195.312500
672,-203.125000
673,-203.125000
674,-207.031250
675,-210.937500
676,-214.843750
677,-218.750000
678,-218.750000
679,-222.656250
680,-226.562500
681,-230.468750
682,-230.468750
683,-234.375000
684,-238.281250
685,-242.187500
686,-242.187500
687,-246.093750
688,-250.000000
689,-250.000000
690,-253.906250
691,-257.812500
692,-257.812500
693,-261.718750
694,-265.625000
695,-265.625000
696,-269.531250
697,-273.437500
698,-273.437500
699,-277.343750
700,-277.343750
701,-277.343750
702,-281.250000
703,-285.156250
704,-285.156250
705,-285.156250
706,-289.062500
707,-292.968750
708,-292.968750
709,-292.968750
710,-296.875000
711,-296.875000
712,-296.875000
713,-300.781250
714,-300.781250
715,-304.687500
716,-304.687500
717,-304.687500
718,-304.687500
719,-308.593750
720,-308.593750
721,-308.593750
722,-308.593750
723,-312.500000
724,-312.500000
725,-312.500000
726,-312.500000
727,-312.500000
728,-312.500000
729,-312.500000
730,-312.500000
731,-312.500000
732,-312.500000
733,-312.500000
734,-316.406250
735,-312.500000
736,-312.500000
737,-312.500000
738,-312.500000
739,-312.500000
740,-312.500000
741,-312.500000
742,-312.500000
743,-312.500000
744,-312.500000
745,-312.500000
746,-308.593750
747,-308.593750
748,-308.593750
749,-308.593750
750,-308.593750
751,-304.687500
752,-304.687500
753,-304.687500
754,-304.687500
755,-300.781250
756,-300.781250
757,-300.781250
758,-296.875000
759,-296.875000
760,-292.968750
761,-292.968750
762,-292.968750
763,-289.062500
764,-289.062500
765,-289.062500
766,-285.156250
767,-285.156250
768,-281.250000
769,-281.250000
770,-277.343750
771,-273.437500
772,-273.437500
773,-269.531250
774,-269.531250
775,-265.625000
776,-265.625000
777,-261.718750
778,-257.812500
779,-257.812500
780,-253.906250
781,-250.000000
782,-250.000000
783,-246.093750
784,-242.187500
785,-238.281250
786,-238.281250
787,-234.375000
788,-230.468750
789,-226.562500
790,-222.656250
791,-222.656250
792,-218.750000
793,-214.843750
794,-210.937500
795,-207.031250
796,-207.031250
797,-203.125000
798,-199.218750
799,-195.312500
800,-191.406250
801,-187.500000
802,-183.593750
803,-179.687500
804,-179.687500
805,-175.781250
806,-171.875000
807,-167.968750
808,-164.062500
809,-160.156250
810,-156.250000
811,-152.343750
812,-148.437500
813,-144.531250
814,-144.531250
815,-136.718750
816,-132.812500
817,-128.906250
818,-128.906250
819,-121.093750
820,-121.093750
821,-117.187500
822,-113.281250
823,-105.468750
824,-105.468750
825,-101.562500
826,-97.656250
827,-93.750000
828,-89.843750
829,-85.937500
830,-82.031250
831,-78.125000
832,-74.218750
833,-70.312500
834,-66.406250
835,-62.500000
836,-58.593750
837,-54.687500
838,-50.781250
839,-46.875000
840,-42.968750
841,-39.062500
842,-35.156250
843,-27.343750
844,-27.343750
845,-23.437500
846,-19.531250
847,-19.531250
848,-15.625000
849,-11.718750
850,-7.812500
851,-3.906250
852,0.000000
853,3.906250
854,7.812500
855,11.718750
856,11.718750
857,15.625000
858,19.531250
859,23.437500
860,27.343750
861,31.250000
862,31.250000
863,35.156250
864,39.062500
865,39.062500
866,46.875000
867,46.875000
868,50.781250
869,54.687500
870,54.687500
871,58.593750
872,62.500000
873,66.406250
874,66.406250
875,70.312500
876,74.218750
877,74.218750
878,78.125000
879,82.031250
880,82.031250
881,85.937500
882,85.937500
883,89.843750
884,93.750000
885,97.656250
886,97.656250
887,97.656250
888,101.562500
889,101.562500
890,105.468750
891,105.468750
892,109.375000
893,109.375000
894,113.281250
895,113.281250
896,117.187500
897,117.187500
898,121.093750
899,121.093750
900,121.093750
901,125.000000
902,125.000000
903,128.906250
904,128.906250
905,128.906250
906,132.812500
907,132.812500
908,132.812500
909,136.718750
910,136.718750
911,140.625000
912,140.625000
913,140.625000
914,140.625000
915,140.625000
916,144.531250
917,144.531250
918,144.531250
919,144.531250
920,148.437500
921,148.437500
922,148.437500
923,148.437500
924,148.437500
925,152.343750
926,152.343750
927,152.343750
928,152.343750
929,152.343750
930,152.343750
931,152.343750
932,152.343750
933,156.250000
934,156.250000
935,156.250000
936,156.250000
937,156.250000
938,156.250000
939,156.250000
940,156.250000
941,156.250000
942,156.250000
943,156.250000
944,156.250000
945,156.250000
946,156.250000
947,156.250000
948,156.250000
949,156.250000
950,156.250000
951,156.250000
952,156.250000
953,156.250000
954,152.343750
955,152.343750
956,148.437500
957,152.343750
958,152.343750
959,152.343750
960,152.343750
961,148.437500
962,148.437500
963,148.437500
964,148.437500
965,148.437500
966,148.437500
967,144.531250
968,144.531250
969,144.531250
970,144.531250
971,144.531250
972,140.625000
973,140.625000
974,140.625000
975,140.625000
976,136.718750
977,136.718750
978,136.718750
979,132.812500
980,132.812500
981,132.812500
982,128.906250
983,128.906250
984,128.906250
985,125.000000
986,125.000000
987,121.093750
988,121.093750
989,121.093750
990,117.187500
991,117.187500
992,113.281250
993,113.281250
994,109.375000
995,109.375000
996,105.468750
997,105.468750
998,101.562500
999,101.562500
1000,97.656250
1001,93.750000
1002,93.750000
1003,89.843750
1004,89.843750
1005,85.937500
1006,85.937500
1007,82.031250
1008,78.125000
1009,78.125000
1010,74.218750
1011,70.312500
1012,66.406250
1013,66.406250
1014,62.500000
1015,58.593750
1016,58.593750
1017,54.687500
1018,50.781250
1019,46.875000
1020,46.875000
1021,42.968750
1022,39.062500
1023,35.156250
1024,35.156250
1025,31.250000
1026,27.343750
1027,23.437500
1028,15.625000
1029,19.531250
1030,15.625000
1031,11.718750
1032,7.812500
1033,3.906250
1034,0.000000
1035,-3.906250
1036,-7.812500
1037,-7.812500
1038,-11.718750
1039,-15.625000
1040,-19.531250
1041,-23.437500
1042,-27.343750
1043,-31.250000
1044,-35.156250
1045,-39.062500
1046,-42.968750
1047,-46.875000
1048,-50.781250
1049,-54.687500
1050,-58.593750
1051,-62.500000
1052,-62.500000
1053,-70.312500
1054,-74.218750
1055,-74.218750
1056,-78.125000
1057,-82.031250
1058,-85.937500
1059,-93.750000
1060,-93.750000
1061,-97.656250
1062,-101.562500
1063,-105.468750
1064,-109.375000
1065,-113.281250
1066,-117.187500
1067,-121.093750
1068,-125.000000
1069,-128.906250
1070,-132.812500
1071,-136.718750
1072,-140.625000
1073,-144.531250
1074,-148.437500
1075,-152.343750
1076,-156.250000
1077,-160.156250
1078,-164.062500
1079,-167.968750
1080,-171.875000
1081,-175.781250
1082,-175.781250
1083,-179.687500
1084,-183.593750
1085,-187.500000
1086,-191.406250
1087,-195.312500
1088,-199.218750
1089,-199.218750
1090,-203.125000
1091,-207.031250
1092,-210.937500
1093,-214.843750
1094,-210.937500
1095,-222.656250
1096,-226.562500
1097,-226.562500
1098,-230.468750
1099,-234.375000
1100,-234.375000
1101,-238.281250
1102,-242.187500
1103,-246.093750
1104,-246.093750
1105,-250.000000
1106,-253.906250
1107,-253.906250
1108,-257.812500
1109,-257.812500
1110,-261.718750
1111,-265.625000
1112,-265.625000
1113,-269.531250
1114,-269.531250
1115,-273.437500
1116,-273.437500
1117,-277.343750
1118,-281.250000
1119,-281.250000
1120,-285.156250
1121,-285.156250
1122,-289.062500
1123,-289.062500
1124,-289.062500
1125,-292.968750
1126,-292.968750
1127,-296.875000
1128,-296.875000
1129,-296.875000
1130,-300.781250
1131,-300.781250
1132,-300.781250
1133,-304.687500
1134,-304.687500
1135,-304.687500
1136,-308.593750
1137,-308.593750
1138,-308.593750
1139,-308.593750
1140,-308.593750
1141,-312.500000
1142,-312.500000
1143,-312.500000
1144,-312.500000
1145,-312.500000
1146,-316.406250
1147,-312.500000
1148,-312.500000
1149,-316.406250
1150,-312.500000
1151,-312.500000
1152,-316.406250
1153,-316.406250
1154,-312.500000
1155,-316.406250
1156,-312.500000
1157,-312.500000
1158,-312.500000
1159,-312.500000
1160,-312.500000
1161,-312.500000
1162,-312.500000
1163,-312.500000
1164,-308.593750
1165,-308.593750
1166,-308.593750
1167,-304.687500
1168,-304.687500
1169,-304.687500
1170,-304.687500
1171,-304.687500
1172,-300.781250
1173,-300.781250
1174,-296.875000
1175,-296.875000
1176,-296.875000
1177,-296.875000
1178,-292.968750
1179,-292.968750
1180,-289.062500
1181,-285.156250
1182,-285.156250
1183,-285.156250
1184,-281.250000
1185,-281.250000
1186,-277.343750
1187,-277.343750
1188,-273.437500
1189,-277.343750
1190,-269.531250
1191,-265.625000
1192,-265.625000
1193,-261.718750
1194,-261.718750
1195,-257.812500
1196,-253.906250
1197,-253.906250
1198,-250.000000
1199,-246.093750
1200,-246.093750
1201,-242.187500
1202,-238.281250
1203,-234.375000
1204,-234.375000
1205,-230.468750
1206,-226.562500
1207,-222.656250
1208,-218.750000
1209,-218.750000
1210,-214.843750
1211,-210.937500
1212,-207.031250
1213,-203.125000
1214,-203.125000
1215,-199.218750
1216,-195.312500
1217,-191.406250
1218,-187.500000
1219,-183.593750
1220,-179.687500
1221,-175.781250
1222,-171.875000
1223,-171.875000
1224,-167.968750
1225,-164.062500
1226,-160.156250
1227,-156.250000
1228,-152.343750
1229,-148.437500
1230,-144.531250
1231,-140.625000
1232,-136.718750
1233,-132.812500
1234,-128.906250
1235,-125.000000
1236,-121.093750
1237,-117.187500
1238,-113.281250
1239,-109.375000
1240,-105.468750
1241,-101.562500
1242,-97.656250
1243,-93.750000
1244,-89.843750
1245,-85.937500
1246,-82.031250
1247,-78.125000
1248,-74.218750
1249,-70.312500
1250,-70.312500
1251,-62.500000
1252,-58.593750
1253,-54.687500
1254,-50.781250
1255,-50.781250
1256,-46.875000
1257,-42.968750
1258,-39.062500
1259,-35.156250
1260,-31.250000
1261,-27.343750
1262,-23.437500
1263,-19.531250
1264,-15.625000
1265,-11.718750
1266,-7.812500
1267,-3.906250
1268,0.000000
1269,0.000000
1270,3.906250
1271,7.812500
1272,11.718750
1273,15.625000
1274,19.531250
1275,19.531250
1276,23.437500
1277,27.343750
1278,31.250000
1279,31.250000
1280,35.156250
1281,39.062500
1282,42.968750
1283,46.875000
1284,50.781250
1285,50.781250
1286,54.687500
1287,58.593750
1288,58.593750
1289,62.500000
1290,66.406250
1291,70.312500
1292,70.312500
1293,74.218750
1294,74.218750
1295,78.125000
1296,82.031250
1297,82.031250
1298,85.937500
1299,89.843750
1300,89.843750
1301,93.750000
1302,93.750000
1303,97.656250
1304,97.656250
1305,101.562500
1306,105.468750
1307,105.468750
1308,109.375000
1309,109.375000
1310,113.281250
1311,113.281250
1312,117.187500
1313,117.187500
1314,121.093750
1315,121.093750
1316,125.000000
1317,125.000000
1318,125.000000
1319,125.000000
1320,128.906250
1321,128.906250
1322,132.812500
1323,132.812500
1324,132.812500
1325,136.718750
1326,136.718750
1327,136.718750
1328,140.625000
1329,140.625000
1330,140.625000
1331,140.625000
1332,140.625000
1333,144.531250
1334,144.531250
1335,144.531250
1336,148.437500
1337,148.437500
1338,148.437500
1339,148.437500
1340,148.437500
1341,148.437500
1342,152.343750
1343,152.343750
1344,152.343750
1345,152.343750
1346,152.343750
1347,152.343750
1348,156.250000
1349,152.343750
1350,152.343750
1351,156.250000
1352,156.250000
1353,156.250000
1354,156.250000
1355,156.250000
1356,156.250000
1357,156.250000
1358,156.250000
1359,156.250000
1360,156.250000
1361,156.250000
1362,156.250000
1363,156.250000
1364,156.250000
1365,156.250000
1366,156.250000
1367,156.250000
1368,156.250000
1369,156.250000
1370,156.250000
1371,152.343750
1372,152.343750
1373,152.343750
1374,152.343750
1375,152.343750
1376,152.343750
1377,152.343750
1378,152.343750
1379,148.437500
1380,148.437500
1381,152.343750
1382,148.437500
1383,148.437500
1384,144.531250
1385,148.437500
1386,144.531250
1387,144.531250
1388,144.531250
1389,144.531250
1390,140.625000
1391,140.625000
1392,136.718750
1393,136.718750
1394,136.718750
1395,136.718750
1396,132.812500
1397,132.812500
1398,128.906250
1399,128.906250
1400,128.906250
1401,125.000000
1402,125.000000
1403,125.000000
1404,121.093750
1405,121.093750
1406,117.187500
1407,117.187500
1408,117.187500
1409,113.281250
1410,113.281250
1411,109.375000
1412,105.468750
1413,105.468750
1414,101.562500
1415,101.562500
1416,101.562500
1417,97.656250
1418,93.750000
1419,93.750000
1420,89.843750
1421,85.937500
1422,85.937500
1423,82.031250
1424,82.031250
1425,78.125000
1426,74.218750
1427,74.218750
1428,66.406250
1429,70.312500
1430,66.406250
1431,62.500000
1432,58.593750
1433,54.687500
1434,54.687500
1435,50.781250
1436,46.875000
1437,46.875000
1438,42.968750
1439,39.062500
1440,35.156250
1441,31.250000
1442,31.250000
1443,27.343750
1444,23.437500
1445,19.531250
1446,15.625000
1447,11.718750
1448,11.718750
1449,7.812500
1450,3.906250
1451,0.000000
1452,-3.906250
1453,-7.812500
1454,-11.718750
1455,-15.625000
1456,-15.625000
1457,-23.437500
1458,-27.343750
1459,-27.343750
1460,-31.250000
1461,-35.156250
1462,-39.062500
1463,-42.968750
1464,-46.875000
1465,-50.781250
1466,-54.687500
1467,-58.593750
1468,-62.500000
1469,-66.406250
1470,-70.312500
1471,-74.218750
1472,-78.125000
1473,-82.031250
1474,-85.937500
1475,-89.843750
1476,-93.750000
1477,-97.656250
1478,-101.562500
1479,-105.468750
1480,-109.375000
1481,-113.281250
1482,-117.187500
1483,-121.093750
1484,-125.000000
1485,-128.906250
1486,-128.906250
1487,-132.812500
1488,-136.718750
1489,-140.625000
1490,-144.531250
1491,-148.437500
1492,-152.343750
1493,-156.250000
1494,-160.156250
1495,-164.062500
1496,-167.968750
1497,-171.875000
1498,-175.781250
1499,-175.781250
1500,-179.687500
1501,-183.593750
1502,-187.500000
1503,-191.406250
1504,-195.312500
1505,-199.218750
1506,-203.125000
1507,-207.031250
1508,-210.937500
1509,-210.937500
1510,-214.843750
1511,-218.750000
1512,-222.656250
1513,-222.656250
1514,-226.562500
1515,-230.468750
1516,-234.375000
1517,-238.281250
1518,-242.187500
1519,-242.187500
1520,-246.093750
1521,-246.093750
1522,-250.000000
1523,-253.906250
1524,-253.906250
1525,-257.812500
1526,-261.718750
1527,-261.718750
1528,-265.625000
1529,-265.625000
1530,-269.531250
1531,-273.437500
1532,-273.437500
1533,-277.343750
1534,-281.250000
1535,-281.250000
1536,-281.250000
1537,-285.156250
1538,-285.156250
1539,-289.062500
1540,-289.062500
1541,-292.968750
1542,-292.968750
1543,-296.875000
1544,-296.875000
1545,-296.875000
1546,-300.781250
1547,-300.781250
1548,-300.781250
1549,-304.687500
1550,-304.687500
1551,-304.687500
1552,-308.593750
1553,-308.593750
1554,-308.593750
1555,-308.593750
1556,-308.593750
1557,-312.500000
1558,-312.500000
1559,-312.500000
1560,-312.500000
1561,-312.500000
1562,-312.500000
1563,-312.500000
1564,-312.500000
1565,-316.406250
1566,-316.406250
1567,-312.500000
1568,-312.500000
1569,-316.406250
1570,-316.406250
1571,-312.500000
1572,-312.500000
1573,-312.500000
1574,-312.500000
1575,-312.500000
1576,-312.500000
1577,-312.500000
1578,-312.500000
1579,-312.500000
1580,-312.500000
1581,-308.593750
1582,-308.593750
1583,-308.593750
1584,-308.593750
1585,-304.687500
1586,-304.687500
1587,-304.687500
1588,-300.781250
1589,-300.781250
1590,-300.781250
1591,-300.781250
1592,-296.875000
1593,-292.968750
1594,-296.875000
1595,-292.968750
1596,-292.968750
1597,-289.062500
1598,-289.062500
1599,-285.156250
1600,-285.156250
1601,-281.250000
1602,-281.250000
1603,-277.343750
1604,-277.343750
1605,-277.343750
1606,-269.531250
1607,-269.531250
1608,-265.625000
1609,-261.718750
1610,-261.718750
1611,-261.718750
1612,-257.812500
1613,-253.906250
1614,-250.000000
1615,-250.000000
1616,-246.093750
1617,-242.187500
1618,-242.187500
1619,-238.281250
1620,-234.375000
1621,-234.375000
1622,-230.468750
1623,-226.562500
1624,-222.656250
1625,-218.750000
1626,-214.843750
1627,-214.843750
1628,-210.937500
1629,-207.031250
1630,-203.125000
1631,-199.218750
1632,-195.312500
1633,-191.406250
1634,-191.406250
1635,-187.500000
1636,-183.593750
1637,-179.687500
1638,-175.781250
1639,-171.875000
1640,-167.968750
1641,-164.062500
1642,-160.156250
1643,-156.250000
1644,-156.250000
1645,-152.343750
1646,-148.437500
1647,-144.531250
1648,-140.625000
1649,-136.718750
1650,-132.812500
1651,-128.906250
1652,-125.000000
1653,-121.093750
1654,-117.187500
1655,-113.281250
1656,-109.375000
1657,-105.468750
1658,-101.562500
1659,-97.656250
1660,-93.750000
1661,-89.843750
1662,-85.937500
1663,-82.031250
1664,-78.125000
1665,-74.218750
1666,-70.312500
1667,-66.406250
1668,-62.500000
1669,-58.593750
1670,-54.687500
1671,-50.781250
1672,-46.875000
1673,-42.968750
1674,-39.062500
1675,-35.156250
1676,-35.156250
1677,-31.250000
1678,-27.343750
1679,-23.437500
1680,-19.531250
1681,-15.625000
1682,-11.718750
1683,-7.812500
1684,-3.906250
1685,0.000000
1686,3.906250
1687,3.906250
1688,7.812500
1689,11.718750
1690,15.625000
1691,19.531250
1692,23.437500
1693,23.437500
1694,27.343750
1695,31.250000
1696,35.156250
1697,39.062500
1698,42.968750
1699,42.968750
1700,46.875000
1701,50.781250
1702,54.687500
1703,54.687500
1704,58.593750
1705,62.500000
1706,62.500000
1707,66.406250
1708,70.312500
1709,70.312500
1710,74.218750
1711,78.125000
1712,78.125000
1713,82.031250
1714,85.937500
1715,85.937500
1716,89.843750
1717,89.843750
1718,93.750000
1719,97.656250
1720,97.656250
1721,101.562500
1722,101.562500
1723,105.468750
1724,105.468750
1725,109.375000
1726,109.375000
1727,113.281250
1728,113.281250
1729,113.281250
1730,117.187500
1731,121.093750
1732,121.093750
1733,121.093750
1734,125.000000
1735,125.000000
1736,125.000000
1737,128.906250
1738,128.906250
1739,132.812500
1740,132.812500
1741,132.812500
1742,136.718750
1743,136.718750
1744,136.718750
1745,140.625000
1746,140.625000
1747,140.625000
1748,140.625000
1749,140.625000
1750,144.531250
1751,144.531250
1752,144.531250
1753,148.437500
1754,148.437500
1755,148.437500
1756,148.437500
1757,148.437500
1758,148.437500
1759,152.343750
1760,152.343750
1761,152.343750
1762,152.343750
1763,152.343750
1764,156.250000
1765,152.343750
1766,152.343750
1767,156.250000
1768,156.250000
1769,156.250000
1770,156.250000
1771,156.250000
1772,156.250000
1773,156.250000
1774,156.250000
1775,156.250000
1776,156.250000
1777,156.250000
1778,156.250000
1779,156.250000
1780,156.250000
1781,156.250000
1782,156.250000
1783,156.250000
1784,156.250000
1785,156.250000
1786,156.250000
1787,156.250000
1788,156.250000
1789,152.343750
1790,152.343750
1791,156.250000
1792,152.343750
1793,152.343750
1794,152.343750
1795,148.437500
1796,152.343750
1797,148.437500
1798,148.437500
1799,148.437500
1800,148.437500
1801,144.531250
1802,144.531250
1803,144.531250
1804,144.531250
1805,144.531250
1806,140.625000
1807,140.625000
1808,140.625000
1809,136.718750
1810,136.718750
1811,136.718750
1812,136.718750
1813,132.812500
1814,132.812500
1815,128.906250
1816,125.000000
1817,128.906250
1818,125.000000
1819,125.000000
1820,125.000000
1821,121.093750
1822,121.093750
1823,117.187500
1824,117.187500
1825,117.187500
1826,113.281250
1827,109.375000
1828,109.375000
1829,109.375000
1830,105.468750
1831,105.468750
1832,101.562500
1833,97.656250
1834,97.656250
1835,93.750000
1836,93.750000
1837,89.843750
1838,85.937500
1839,85.937500
1840,82.031250
1841,82.031250
1842,78.125000
1843,74.218750
1844,74.218750
1845,70.312500
1846,66.406250
1847,62.500000
1848,62.500000
1849,58.593750
1850,54.687500
1851,54.687500
1852,50.781250
1853,46.875000
1854,42.968750
1855,42.968750
1856,35.156250
1857,35.156250
1858,31.250000
1859,27.343750
1860,23.437500
1861,23.437500
1862,19.531250
1863,15.625000
1864,11.718750
1865,11.718750
1866,3.906250
1867,3.906250
1868,0.000000
1869,-3.906250
1870,-7.812500
1871,-11.718750
1872,-15.625000
1873,-19.531250
1874,-23.437500
1875,-27.343750
1876,-31.250000
1877,-35.156250
1878,-39.062500
1879,-39.062500
1880,-42.968750
1881,-46.875000
1882,-50.781250
1883,-54.687500
1884,-58.593750
1885,-62.500000
1886,-66.406250
1887,-70.312500
1888,-74.218750
1889,-78.125000
1890,-82.031250
1891,-85.937500
1892,-89.843750
1893,-93.750000
1894,-97.656250
1895,-101.562500
1896,-105.468750
1897,-109.375000
1898,-113.281250
1899,-117.187500
1900,-121.093750
1901,-125.000000
1902,-128.906250
1903,-132.812500
1904,-136.718750
1905,-140.625000
1906,-144.531250
1907,-144.531250
1908,-148.437500
1909,-156.250000
1910,-156.250000
1911,-160.156250
1912,-164.062500
1913,-167.968750
1914,-171.875000
1915,-175.781250
1916,-179.687500
1917,-179.687500
1918,-187.500000
1919,-187.500000
1920,-191.406250
1921,-195.312500
1922,-199.218750
1923,-203.125000
1924,-207.031250
1925,-210.937500
1926,-214.843750
1927,-214.843750
1928,-218.750000
1929,-222.656250
1930,-226.562500
1931,-230.468750
1932,-230.468750
1933,-234.375000
1934,-238.281250
1935,-238.281250
1936,-242.187500
1937,-246.093750
1938,-250.000000
1939,-250.000000
1940,-253.906250
1941,-257.812500
1942,-257.812500
1943,-261.718750
1944,-265.625000
1945,-265.625000
1946,-269.531250
1947,-269.531250
1948,-273.437500
1949,-277.343750
1950,-277.343750
1951,-277.343750
1952,-281.250000
1953,-281.250000
1954,-285.156250
1955,-285.156250
1956,-289.062500
1957,-289.062500
1958,-292.968750
1959,-292.968750
1960,-296.875000
1961,-296.875000
1962,-296.875000
1963,-300.781250
1964,-300.781250
1965,-300.781250
1966,-300.781250
1967,-304.687500
1968,-304.687500
1969,-304.687500
1970,-308.593750
1971,-308.593750
1972,-308.593750
1973,-312.500000
1974,-308.593750
1975,-312.500000
1976,-312.500000
1977,-312.500000
1978,-312.500000
1979,-312.500000
1980,-312.500000
1981,-312.500000
1982,-316.406250
1983,-312.500000
1984,-316.406250
1985,-316.406250
1986,-316.406250
1987,-312.500000
1988,-316.406250
1989,-316.406250
1990,-312.500000
1991,-312.500000
1992,-312.500000
1993,-312.500000
1994,-312.500000
1995,-312.500000
1996,-312.500000
1997,-308.593750
1998,-308.593750
1999,-308.593750
2000,-308.593750
2001,-308.593750
2002,-304.687500
2003,-304.687500
2004,-304.687500
2005,-304.687500
2006,-300.781250
2007,-300.781250
2008,-300.781250
2009,-296.875000
2010,-296.875000
2011,-292.968750
2012,-292.968750
2013,-289.062500
2014,-289.062500
2015,-289.062500
2016,-285.156250
2017,-285.156250
2018,-281.250000
2019,-281.250000
2020,-277.343750
2021,-273.437500
2022,-273.437500
2023,-265.625000
2024,-269.531250
2025,-265.625000
2026,-261.718750
2027,-261.718750
2028,-257.812500
2029,-257.812500
2030,-253.906250
2031,-250.000000
2032,-250.000000
2033,-246.093750
2034,-242.187500
2035,-242.187500
2036,-238.281250
2037,-234.375000
2038,-234.375000
2039,-230.468750
2040,-226.562500
2041,-222.656250
2042,-218.750000
2043,-214.843750
2044,-214.843750
2045,-210.937500
2046,-207.031250
2047,-203.125000
2048,-199.218750
2049,-195.312500
2050,-195.312500
2051,-191.406250
2052,-187.500000
2053,-183.593750
2054,-179.687500
2055,-175.781250
2056,-171.875000
2057,-167.968750
2058,-164.062500
2059,-160.156250
2060,-156.250000
2061,-148.437500
2062,-148.437500
2063,-148.437500
2064,-144.531250
2065,-140.625000
2066,-136.718750
2067,-132.812500
2068,-128.906250
2069,-125.000000
2070,-121.093750
2071,-117.187500
2072,-113.281250
2073,-109.375000
2074,-105.468750
2075,-101.562500
2076,-97.656250
2077,-93.750000
2078,-89.843750
2079,-85.937500
2080,-82.031250
2081,-78.125000
2082,-74.218750
2083,-70.312500
2084,-66.406250
2085,-62.500000
2086,-58.593750
2087,-54.687500
2088,-50.781250
2089,-50.781250
2090,-42.968750
2091,-39.062500
2092,-35.156250
2093,-31.250000
2094,-27.343750
2095,-23.437500
2096,-19.531250
2097,-19.531250
2098,-15.625000
2099,-11.718750
2100,-7.812500
2101,-3.906250
2102,0.000000
2103,3.906250
2104,7.812500
2105,11.718750
2106,11.718750
2107,15.625000
2108,19.531250
2109,23.437500
2110,27.343750
2111,27.343750
2112,31.250000
2113,35.156250
2114,39.062500
2115,42.968750
2116,42.968750
2117,46.875000
2118,50.781250
2119,54.687500
2120,54.687500
2121,58.593750
2122,62.500000
2123,62.500000
2124,66.406250
2125,70.312500
2126,70.312500
2127,74.218750
2128,78.125000
2129,78.125000
2130,82.031250
2131,82.031250
2132,85.937500
2133,89.843750
2134,89.843750
2135,93.750000
2136,97.656250
2137,97.656250
2138,101.562500
2139,101.562500
2140,105.468750
2141,105.468750
2142,109.375000
2143,109.375000
2144,113.281250
2145,113.281250
2146,117.187500
2147,117.187500
2148,121.093750
2149,121.093750
2150,125.000000
2151,125.000000
2152,128.906250
2153,128.906250
2154,128.906250
2155,128.906250
2156,132.812500
2157,132.812500
2158,132.812500
2159,136.718750
2160,136.718750
2161,136.718750
2162,140.625000
2163,140.625000
2164,140.625000
2165,144.531250
2166,144.531250
2167,144.531250
2168,144.531250
2169,148.437500
2170,148.437500
2171,148.437500
2172,148.437500
2173,148.437500
2174,148.437500
2175,152.343750
2176,152.343750
2177,152.343750
2178,152.343750
2179,152.343750
2180,152.343750
2181,152.343750
2182,152.343750
2183,156.250000
2184,156.250000
2185,152.343750
2186,156.250000
2187,156.250000
2188,156.250000
2189,156.250000
2190,156.250000
2191,156.250000
2192,156.250000
2193,156.250000
2194,156.250000
2195,156.250000
2196,156.250000
2197,156.250000
2198,156.250000
2199,156.250000
2200,156.250000
2201,156.250000
2202,160.156250
2203,156.250000
2204,156.250000
2205,152.343750
2206,152.343750
2207,152.343750
2208,152.343750
2209,152.343750
2210,152.343750
2211,152.343750
2212,152.343750
2213,148.437500
2214,148.437500
2215,148.437500
2216,148.437500
2217,148.437500
2218,144.531250
2219,144.531250
2220,144.531250
2221,144.531250
2222,140.625000
2223,140.625000
2224,140.625000
2225,140.625000
2226,136.718750
2227,136.718750
2228,136.718750
2229,132.812500
2230,132.812500
2231,128.906250
2232,128.906250
2233,128.906250
2234,128.906250
2235,128.906250
2236,125.000000
2237,121.093750
2238,121.093750
2239,117.187500
2240,117.187500
2241,117.187500
2242,113.281250
2243,113.281250
2244,109.375000
2245,109.375000
2246,105.468750
2247,105.468750
2248,101.562500
2249,101.562500
2250,97.656250
2251,97.656250
2252,93.750000
2253,89.843750
2254,89.843750
2255,85.937500
2256,82.031250
2257,82.031250
2258,78.125000
2259,74.218750
2260,74.218750
2261,70.312500
2262,70.312500
2263,66.406250
2264,62.500000
2265,58.593750
2266,58.593750
2267,54.687500
2268,54.687500
2269,50.781250
2270,46.875000
2271,42.968750
2272,39.062500
2273,35.156250
2274,35.156250
2275,31.250000
2276,27.343750
2277,23.437500
2278,23.437500
2279,19.531250
2280,15.625000
2281,11.718750
2282,7.812500
2283,3.906250
2284,0.000000
2285,0.000000
2286,-3.906250
2287,-7.812500
2288,-11.718750
2289,-15.625000
2290,-19.531250
2291,-23.437500
2292,-27.343750
2293,-31.250000
2294,-35.156250
2295,-39.062500
2296,-42.968750
2297,-46.875000
2298,-50.781250
2299,-54.687500
2300,-58.593750
2301,-58.593750
2302,-66.406250
2303,-70.312500
2304,-70.312500
2305,-74.218750
2306,-78.125000
2307,-85.937500
2308,-85.937500
2309,-89.843750
2310,-93.750000
2311,-97.656250
2312,-101.562500
2313,-105.468750
2314,-109.375000
2315,-113.281250
2316,-117.187500
2317,-121.093750
2318,-125.000000
2319,-128.906250
2320,-132.812500
2321,-136.718750
2322,-140.625000
2323,-144.531250
2324,-148.437500
2325,-152.343750
2326,-156.250000
2327,-160.156250
2328,-164.062500
2329,-167.968750
2330,-167.968750
2331,-171.875000
2332,-175.781250
2333,-179.687500
2334,-183.593750
2335,-187.500000
2336,-191.406250
2337,-191.406250
2338,-195.312500
2339,-199.218750
2340,-207.031250
2341,-207.031250
2342,-210.937500
2343,-214.843750
2344,-218.750000
2345,-218.750000
2346,-222.656250
2347,-226.562500
2348,-226.562500
2349,-234.375000
2350,-234.375000
2351,-238.281250
2352,-242.187500
2353,-242.187500
2354,-246.093750
2355,-250.000000
2356,-250.000000
2357,-253.906250
2358,-257.812500
2359,-257.812500
2360,-261.718750
2361,-261.718750
2362,-265.625000
2363,-269.531250
2364,-269.531250
2365,-273.437500
2366,-277.343750
2367,-277.343750
2368,-281.250000
2369,-281.250000
2370,-285.156250
2371,-285.156250
2372,-289.062500
2373,-289.062500
2374,-292.968750
2375,-292.968750
2376,-292.968750
2377,-296.875000
2378,-296.875000
2379,-296.875000
2380,-300.781250
2381,-300.781250
2382,-304.687500
2383,-308.593750
2384,-304.687500
2385,-304.687500
2386,-304.687500
2387,-308.593750
2388,-312.500000
2389,-312.500000
2390,-308.593750
2391,-308.593750
2392,-312.500000
2393,-312.500000
2394,-316.406250
2395,-312.500000
2396,-316.406250
2397,-312.500000
2398,-312.500000
2399,-312.500000
2400,-316.406250
2401,-316.406250
2402,-312.500000
2403,-312.500000
2404,-316.406250
2405,-312.500000
2406,-312.500000
2407,-312.500000
2408,-312.500000
2409,-312.500000
2410,-312.500000
2411,-312.500000
2412,-312.500000
2413,-312.500000
2414,-308.593750
2415,-308.593750
2416,-308.593750
2417,-308.593750
2418,-304.687500
2419,-304.687500
2420,-304.687500
2421,-304.687500
2422,-300.781250
2423,-300.781250
2424,-300.781250
2425,-296.875000
2426,-296.875000
2427,-296.875000
2428,-292.968750
2429,-289.062500
2430,-289.062500
2431,-289.062500
2432,-289.062500
2433,-285.156250
2434,-281.250000
2435,-285.156250
2436,-281.250000
2437,-277.343750
2438,-277.343750
2439,-273.437500
2440,-269.531250
2441,-269.531250
2442,-265.625000
2443,-261.718750
2444,-261.718750
2445,-261.718750
2446,-257.812500
2447,-253.906250
2448,-250.000000
2449,-250.000000
2450,-246.093750
2451,-242.187500
2452,-238.281250
2453,-234.375000
2454,-234.375000
2455,-230.468750
2456,-226.562500
2457,-226.562500
2458,-222.656250
2459,-218.750000
2460,-214.843750
2461,-210.937500
2462,-207.031250
2463,-207.031250
2464,-203.125000
2465,-199.218750
2466,-195.312500
2467,-191.406250
2468,-187.500000
2469,-187.500000
2470,-179.687500
2471,-175.781250
2472,-175.781250
2473,-171.875000
2474,-167.968750
2475,-164.062500
2476,-160.156250
2477,-156.250000
2478,-152.343750
2479,-148.437500
2480,-144.531250
2481,-140.625000
2482,-136.718750
2483,-132.812500
2484,-128.906250
2485,-128.906250
2486,-121.093750
2487,-117.187500
2488,-117.187500
2489,-109.375000
2490,-109.375000
2491,-101.562500
2492,-101.562500
2493,-93.750000
2494,-93.750000
2495,-85.937500
2496,-85.937500
2497,-82.031250
2498,-78.125000
2499,-74.218750
2500,-70.312500
2501,-66.406250
2502,-62.500000
2503,-58.593750
2504,-54.687500
2505,-50.781250
2506,-46.875000
2507,-42.968750
2508,-39.062500
2509,-35.156250
2510,-31.250000
2511,-31.250000
2512,-23.437500
2513,-19.531250
2514,-19.531250
2515,-15.625000
2516,-11.718750
2517,-7.812500
2518,-3.906250
2519,0.000000
2520,3.906250
2521,7.812500
2522,11.718750
2523,11.718750
2524,15.625000
2525,19.531250
2526,23.437500
2527,27.343750
2528,31.250000
2529,35.156250
2530,35.156250
2531,39.062500
2532,42.968750
2533,46.875000
2534,50.781250
2535,50.781250
2536,54.687500
2537,58.593750
2538,58.593750
2539,62.500000
2540,66.406250
2541,66.406250
2542,70.312500
2543,74.218750
2544,74.218750
2545,78.125000
2546,82.031250
2547,82.031250
2548,85.937500
2549,89.843750
2550,89.843750
2551,93.750000
2552,93.750000
2553,97.656250
2554,97.656250
2555,101.562500
2556,101.562500
2557,105.468750
2558,105.468750
2559,109.375000
2560,109.375000
2561,113.281250
2562,113.281250
2563,117.187500
2564,117.187500
2565,121.093750
2566,121.093750
2567,121.093750
2568,125.000000
2569,125.000000
2570,125.000000
2571,128.906250
2572,128.906250
2573,132.812500
2574,132.812500
2575,136.718750
2576,136.718750
2577,136.718750
2578,136.718750
2579,140.625000
2580,140.625000
2581,140.625000
2582,140.625000
2583,144.531250
2584,144.531250
2585,144.531250
2586,148.437500
2587,148.437500
2588,148.437500
2589,148.437500
2590,148.437500
2591,148.437500
2592,152.343750
2593,152.343750
2594,152.343750
2595,152.343750
2596,152.343750
2597,152.343750
2598,152.343750
2599,152.343750
2600,156.250000
2601,156.250000
2602,156.250000
2603,156.250000
2604,156.250000
2605,156.250000
2606,156.250000
2607,156.250000
2608,156.250000
2609,156.250000
2610,156.250000
2611,156.250000
2612,156.250000
2613,156.250000
2614,156.250000
2615,156.250000
2616,156.250000
2617,152.343750
2618,156.250000
2619,156.250000
2620,156.250000
2621,152.343750
2622,152.343750
2623,152.343750
2624,152.343750
2625,152.343750
2626,156.250000
2627,152.343750
2628,152.343750
2629,148.437500
2630,148.437500
2631,148.437500
2632,148.437500
2633,148.437500
2634,148.437500
2635,144.531250
2636,144.531250
2637,144.531250
2638,140.625000
2639,140.625000
2640,140.625000
2641,140.625000
2642,136.718750
2643,136.718750
2644,136.718750
2645,136.718750
2646,132.812500
2647,132.812500
2648,132.812500
2649,128.906250
2650,128.906250
2651,128.906250
2652,125.000000
2653,128.906250
2654,121.093750
2655,121.093750
2656,117.187500
2657,117.187500
2658,113.281250
2659,113.281250
2660,113.281250
2661,109.375000
2662,109.375000
2663,105.468750
2664,105.468750
2665,101.562500
2666,101.562500
2667,97.656250
2668,93.750000
2669,89.843750
2670,89.843750
2671,89.843750
2672,85.937500
2673,82.031250
2674,82.031250
2675,78.125000
2676,78.125000
2677,74.218750
2678,70.312500
2679,70.312500
2680,66.406250
2681,62.500000
2682,58.593750
2683,58.593750
2684,54.687500
2685,50.781250
2686,46.875000
2687,46.875000
2688,42.968750
2689,39.062500
2690,35.156250
2691,35.156250
2692,31.250000
2693,27.343750
2694,23.437500
2695,19.531250
2696,15.625000
2697,15.625000
2698,11.718750
2699,7.812500
2700,3.906250
2701,0.000000
2702,0.000000
2703,-7.812500
2704,-11.718750
2705,-11.718750
2706,-15.625000
2707,-19.531250
2708,-23.437500
2709,-27.343750
2710,-31.250000
2711,-35.156250
2712,-39.062500
2713,-42.968750
2714,-46.875000
2715,-50.781250
2716,-54.687500
2717,-58.593750
2718,-62.500000
2719,-66.406250
2720,-70.312500
2721,-74.218750
2722,-74.218750
2723,-82.031250
2724,-85.937500
2725,-85.937500
2726,-89.843750
2727,-93.750000
2728,-97.656250
2729,-101.562500
2730,-105.468750
2731,-109.375000
2732,-113.281250
2733,-117.187500
2734,-121.093750
2735,-125.000000
2736,-128.906250
2737,-132.812500
2738,-136.718750
2739,-140.625000
2740,-144.531250
2741,-148.437500
2742,-152.343750
2743,-156.250000
2744,-160.156250
2745,-164.062500
2746,-167.968750
2747,-167.968750
2748,-175.781250
2749,-175.781250
2750,-179.687500
2751,-183.593750
2752,-187.500000
2753,-191.406250
2754,-195.312500
2755,-199.218750
2756,-199.218750
2757,-207.031250
2758,-207.031250
2759,-207.031250
2760,-214.843750
2761,-218.750000
2762,-222.656250
2763,-222.656250
2764,-226.562500
2765,-230.468750
2766,-234.375000
2767,-234.375000
2768,-238.281250
2769,-242.187500
2770,-246.093750
2771,-246.093750
2772,-250.000000
2773,-253.906250
2774,-257.812500
2775,-257.812500
2776,-261.718750
2777,-261.718750
2778,-265.625000
2779,-265.625000
2780,-269.531250
2781,-269.531250
2782,-273.437500
2783,-277.343750
2784,-277.343750
2785,-281.250000
2786,-281.250000
2787,-281.250000
2788,-285.156250
2789,-289.062500
2790,-289.062500
2791,-289.062500
2792,-292.968750
2793,-292.968750
2794,-296.875000
2795,-296.875000
2796,-300.781250
2797,-300.781250
2798,-300.781250
2799,-300.781250
2800,-304.687500
2801,-304.687500
2802,-304.687500
2803,-308.593750
2804,-308.593750
2805,-308.593750
2806,-308.593750
2807,-312.500000
2808,-312.500000
2809,-312.500000
2810,-312.500000
2811,-312.500000
2812,-312.500000
2813,-312.500000
2814,-312.500000
2815,-312.500000
2816,-312.500000
2817,-316.406250
2818,-316.406250
2819,-312.500000
2820,-316.406250
2821,-312.500000
2822,-312.500000
2823,-312.500000
2824,-312.500000
2825,-312.500000
2826,-312.500000
2827,-312.500000
2828,-312.500000
2829,-312.500000
2830,-312.500000
2831,-308.593750
2832,-308.593750
2833,-308.593750
2834,-308.593750
2835,-308.593750
2836,-304.687500
2837,-304.687500
2838,-300.781250
2839,-300.781250
2840,-300.781250
2841,-300.781250
2842,-296.875000
2843,-296.875000
2844,-292.968750
2845,-292.968750
2846,-292.968750
2847,-289.062500
2848,-289.062500
2849,-285.156250
2850,-285.156250
2851,-281.250000
2852,-281.250000
2853,-277.343750
2854,-277.343750
2855,-273.437500
2856,-273.437500
2857,-269.531250
2858,-265.625000
2859,-265.625000
2860,-261.718750
2861,-261.718750
2862,-257.812500
2863,-253.906250
2864,-253.906250
2865,-250.000000
2866,-246.093750
2867,-246.093750
2868,-242.187500
2869,-238.281250
2870,-238.281250
2871,-234.375000
2872,-230.468750
2873,-226.562500
2874,-222.656250
2875,-218.750000
2876,-218.750000
2877,-214.843750
2878,-210.937500
2879,-207.031250
2880,-207.031250
2881,-203.125000
2882,-199.218750
2883,-195.312500
2884,-191.406250
2885,-187.500000
2886,-183.593750
2887,-179.687500
2888,-175.781250
2889,-175.781250
2890,-171.875000
2891,-167.968750
2892,-164.062500
2893,-160.156250
2894,-156.250000
2895,-152.343750
2896,-148.437500
2897,-144.531250
2898,-140.625000
2899,-136.718750
2900,-132.812500
2901,-128.906250
2902,-125.000000
2903,-121.093750
2904,-117.187500
2905,-113.281250
2906,-109.375000
2907,-105.468750
2908,-101.562500
2909,-97.656250
2910,-93.750000
2911,-89.843750
2912,-85.937500
2913,-85.937500
2914,-78.125000
2915,-74.218750
2916,-70.312500
2917,-66.406250
2918,-62.500000
2919,-58.593750
2920,-58.593750
2921,-50.781250
2922,-50.781250
2923,-46.875000
2924,-42.968750
2925,-39.062500
2926,-35.156250
2927,-31.250000
2928,-27.343750
2929,-23.437500
2930,-19.531250
2931,-15.625000
2932,-11.718750
2933,-7.812500
2934,-7.812500
2935,-3.906250
2936,0.000000
2937,3.906250
2938,7.812500
2939,11.718750
2940,15.625000
2941,19.531250
2942,19.531250
2943,23.437500
2944,27.343750
2945,31.250000
2946,35.156250
2947,39.062500
2948,39.062500
2949,42.968750
2950,46.875000
2951,46.875000
2952,50.781250
2953,54.687500
2954,58.593750
2955,58.593750
2956,62.500000
2957,70.312500
2958,66.406250
2959,70.312500
2960,74.218750
2961,74.218750
2962,78.125000
2963,82.031250
2964,82.031250
2965,85.937500
2966,89.843750
2967,89.843750
2968,93.750000
2969,93.750000
2970,97.656250
2971,101.562500
2972,101.562500
2973,105.468750
2974,105.468750
2975,105.468750
2976,109.375000
2977,109.375000
2978,113.281250
2979,113.281250
2980,117.187500
2981,117.187500
2982,117.187500
2983,121.093750
2984,125.000000
2985,125.000000
2986,125.000000
2987,128.906250
2988,128.906250
2989,128.906250
2990,132.812500
2991,132.812500
2992,136.718750
2993,136.718750
2994,136.718750
2995,136.718750
2996,140.625000
2997,140.625000
2998,144.531250
2999,140.625000
3000,144.531250
3001,144.531250
3002,144.531250
3003,144.531250
3004,148.437500
3005,148.437500
3006,148.437500
3007,148.437500
3008,148.437500
3009,156.250000
3010,152.343750
3011,152.343750
3012,152.343750
3013,152.343750
3014,152.343750
3015,152.343750
3016,152.343750
3017,152.343750
3018,156.250000
3019,156.250000
3020,156.250000
3021,156.250000
3022,156.250000
3023,156.250000
3024,156.250000
3025,156.250000
3026,156.250000
3027,156.250000
3028,156.250000
3029,156.250000
3030,156.250000
3031,156.250000
3032,156.250000
3033,156.250000
3034,156.250000
3035,156.250000
3036,156.250000
3037,156.250000
3038,152.343750
3039,152.343750
3040,152.343750
3041,152.343750
3042,152.343750
3043,152.343750
3044,152.343750
3045,148.437500
3046,148.437500
3047,148.437500
3048,148.437500
3049,148.437500
3050,148.437500
3051,144.531250
3052,144.531250
3053,144.531250
3054,144.531250
3055,144.531250
3056,140.625000
3057,140.625000
3058,140.625000
3059,140.625000
3060,136.718750
3061,136.718750
3062,136.718750
3063,132.812500
3064,132.812500
3065,128.906250
3066,128.906250
3067,128.906250
3068,125.000000
3069,125.000000
3070,125.000000
3071,121.093750
3072,121.093750
3073,121.093750
3074,117.187500
3075,113.281250
3076,113.281250
3077,113.281250
3078,109.375000
3079,105.468750
3080,105.468750
3081,105.468750
3082,101.562500
3083,97.656250
3084,97.656250
3085,93.750000
3086,93.750000
3087,89.843750
3088,85.937500
3089,85.937500
3090,82.031250
3091,82.031250
3092,78.125000
3093,74.218750
3094,74.218750
3095,70.312500
3096,66.406250
3097,62.500000
3098,62.500000
3099,58.593750
3100,54.687500
3101,54.687500
3102,50.781250
3103,46.875000
3104,42.968750
3105,42.968750
3106,39.062500
3107,35.156250
3108,31.250000
3109,31.250000
3110,27.343750
3111,23.437500
3112,19.531250
3113,15.625000
3114,11.718750
3115,11.718750
3116,7.812500
3117,3.906250
3118,0.000000
3119,-3.906250
3120,-7.812500
3121,-11.718750
3122,-15.625000
3123,-19.531250
3124,-23.437500
3125,-23.437500
3126,-27.343750
3127,-31.250000
3128,-35.156250
3129,-39.062500
3130,-42.968750
3131,-46.875000
3132,-50.781250
3133,-54.687500
3134,-58.593750
3135,-62.500000
3136,-66.406250
3137,-70.312500
3138,-74.218750
3139,-78.125000
3140,-82.031250
3141,-85.937500
3142,-89.843750
3143,-93.750000
3144,-97.656250
3145,-101.562500
3146,-105.468750
3147,-109.375000
3148,-113.281250
3149,-117.187500
3150,-121.093750
3151,-125.000000
3152,-128.906250
3153,-132.812500
3154,-136.718750
3155,-140.625000
3156,-140.625000
3157,-144.531250
3158,-148.437500
3159,-152.343750
3160,-156.250000
3161,-160.156250
3162,-164.062500
3163,-167.968750
3164,-171.875000
3165,-175.781250
3166,-179.687500
3167,-187.500000
3168,-191.406250
3169,-187.500000
3170,-191.406250
3171,-195.312500
3172,-199.218750
3173,-203.125000
3174,-210.937500
3175,-210.937500
3176,-210.937500
3177,-214.843750
3178,-218.750000
3179,-222.656250
3180,-222.656250
3181,-230.468750
3182,-230.468750
3183,-234.375000
3184,-238.281250
3185,-238.281250
3186,-242.187500
3187,-242.187500
3188,-246.093750
3189,-250.000000
3190,-253.906250
3191,-253.906250
3192,-257.812500
3193,-261.718750
3194,-261.718750
3195,-265.625000
3196,-265.625000
3197,-269.531250
3198,-273.437500
3199,-273.437500
3200,-277.343750
3201,-277.343750
3202,-281.250000
3203,-281.250000
3204,-285.156250
3205,-285.156250
3206,-289.062500
3207,-289.062500
3208,-292.968750
3209,-292.968750
3210,-296.875000
3211,-296.875000
3212,-296.875000
3213,-300.781250
3214,-300.781250
3215,-300.781250
3216,-304.687500
3217,-304.687500
3218,-304.687500
3219,-304.687500
3220,-308.593750
3221,-308.593750
3222,-308.593750
3223,-312.500000
3224,-312.500000
3225,-312.500000
3226,-312.500000
3227,-312.500000
3228,-312.500000
3229,-312.500000
3230,-312.500000
3231,-316.406250
3232,-316.406250
3233,-316.406250
3234,-316.406250
3235,-316.406250
3236,-312.500000
3237,-312.500000
3238,-316.406250
3239,-316.406250
3240,-312.500000
3241,-312.500000
3242,-312.500000
3243,-312.500000
3244,-312.500000
3245,-312.500000
3246,-312.500000
3247,-308.593750
3248,-308.593750
3249,-308.593750
3250,-308.593750
3251,-308.593750
3252,-304.687500
3253,-304.687500
3254,-304.687500
3255,-300.781250
3256,-300.781250
3257,-300.781250
3258,-300.781250
3259,-296.875000
3260,-296.875000
3261,-292.968750
3262,-292.968750
3263,-289.062500
3264,-289.062500
3265,-289.062500
3266,-285.156250
3267,-285.156250
3268,-281.250000
3269,-281.250000
3270,-277.343750
3271,-277.343750
3272,-273.437500
3273,-273.437500
3274,-269.531250
3275,-265.625000
3276,-265.625000
3277,-261.718750
3278,-257.812500
3279,-257.812500
3280,-253.906250
3281,-250.000000
3282,-250.000000
3283,-246.093750
3284,-242.187500
3285,-242.187500
3286,-238.281250
3287,-234.375000
3288,-234.375000
3289,-230.468750
3290,-226.562500
3291,-222.656250
3292,-218.750000
3293,-218.750000
3294,-214.843750
3295,-210.937500
3296,-207.031250
3297,-203.125000
3298,-199.218750
3299,-195.312500
3300,-191.406250
3301,-191.406250
3302,-187.500000
3303,-183.593750
3304,-179.687500
3305,-175.781250
3306,-171.875000
3307,-167.968750
3308,-164.062500
3309,-160.156250
3310,-160.156250
3311,-156.250000
3312,-152.343750
3313,-144.531250
3314,-144.531250
3315,-140.625000
3316,-136.718750
3317,-132.812500
3318,-128.906250
3319,-125.000000
3320,-121.093750
3321,-117.187500
3322,-113.281250
3323,-109.375000
3324,-105.468750
3325,-101.562500
3326,-97.656250
3327,-93.750000
3328,-89.843750
3329,-85.937500
3330,-82.031250
3331,-78.125000
3332,-74.218750
3333,-70.312500
3334,-66.406250
3335,-66.406250
3336,-58.593750
3337,-54.687500
3338,-50.781250
3339,-46.875000
3340,-46.875000
3341,-39.062500
3342,-39.062500
3343,-35.156250
3344,-31.250000
3345,-27.343750
3346,-23.437500
3347,-19.531250
3348,-15.625000
3349,-11.718750
3350,-7.812500
3351,-3.906250
3352,-3.906250
3353,0.000000
3354,3.906250
3355,7.812500
3356,11.718750
3357,15.625000
3358,19.531250
3359,23.437500
3360,27.343750
3361,27.343750
3362,31.250000
3363,35.156250
3364,39.062500
3365,42.968750
3366,42.968750
3367,46.875000
3368,50.781250
3369,50.781250
3370,54.687500
3371,58.593750
3372,62.500000
3373,66.406250
3374,66.406250
3375,70.312500
3376,74.218750
3377,74.218750
3378,78.125000
3379,78.125000
3380,82.031250
3381,85.937500
3382,85.937500
3383,89.843750
3384,89.843750
3385,93.750000
3386,93.750000
3387,97.656250
3388,101.562500
3389,101.562500
3390,105.468750
3391,105.468750
3392,109.375000
3393,109.375000
3394,109.375000
3395,113.281250
3396,117.187500
3397,117.187500
3398,121.093750
3399,121.093750
3400,121.093750
3401,125.000000
3402,125.000000
3403,125.000000
3404,128.906250
3405,128.906250
3406,128.906250
3407,132.812500
3408,132.812500
3409,132.812500
3410,140.625000
3411,136.718750
3412,136.718750
3413,140.625000
3414,140.625000
3415,140.625000
3416,144.531250
3417,144.531250
3418,144.531250
3419,144.531250
3420,148.437500
3421,148.437500
3422,148.437500
3423,148.437500
3424,148.437500
3425,148.437500
3426,152.343750
3427,152.343750
3428,152.343750
3429,152.343750
3430,152.343750
3431,152.343750
3432,156.250000
3433,156.250000
3434,156.250000
3435,156.250000
3436,156.250000
3437,156.250000
3438,156.250000
3439,156.250000
3440,156.250000
3441,156.250000
3442,156.250000
3443,156.250000
3444,156.250000
3445,156.250000
3446,156.250000
3447,156.250000
3448,156.250000
3449,156.250000
3450,156.250000
3451,156.250000
3452,156.250000
3453,156.250000
3454,152.343750
3455,156.250000
3456,152.343750
3457,152.343750
3458,152.343750
3459,152.343750
3460,152.343750
3461,152.343750
3462,148.437500
3463,148.437500
3464,148.437500
3465,148.437500
3466,148.437500
3467,144.531250
3468,144.531250
3469,144.531250
3470,144.531250
3471,144.531250
3472,140.625000
3473,140.625000
3474,140.625000
3475,140.625000
3476,136.718750
3477,136.718750
3478,136.718750
3479,132.812500
3480,132.812500
3481,132.812500
3482,128.906250
3483,128.906250
3484,128.906250
3485,125.000000
3486,125.000000
3487,121.093750
3488,121.093750
3489,121.093750
3490,117.187500
3491,117.187500
3492,117.187500
3493,113.281250
3494,109.375000
3495,109.375000
3496,105.468750
3497,105.468750
3498,101.562500
3499,101.562500
3500,97.656250
3501,97.656250
3502,93.750000
3503,93.750000
3504,89.843750
3505,89.843750
3506,85.937500
3507,82.031250
3508,82.031250
3509,78.125000
3510,74.218750
3511,74.218750
3512,70.312500
3513,70.312500
3514,66.406250
3515,62.500000
3516,58.593750
3517,54.687500
3518,54.687500
3519,50.781250
3520,46.875000
3521,42.968750
3522,42.968750
3523,39.062500
3524,35.156250
3525,31.250000
3526,27.343750
3527,23.437500
3528,23.437500
3529,19.531250
3530,15.625000
3531,11.718750
3532,7.812500
3533,3.906250
3534,3.906250
3535,0.000000
3536,-3.906250
3537,-7.812500
3538,-11.718750
3539,-15.625000
3540,-19.531250
3541,-23.437500
3542,-27.343750
3543,-31.250000
3544,-35.156250
3545,-39.062500
3546,-39.062500
3547,-46.875000
3548,-46.875000
3549,-50.781250
3550,-54.687500
3551,-58.593750
3552,-66.406250
3553,-66.406250
3554,-70.312500
3555,-74.218750
3556,-78.125000
3557,-82.031250
3558,-85.937500
3559,-89.843750
3560,-93.750000
3561,-97.656250
3562,-101.562500
3563,-105.468750
3564,-109.375000
3565,-113.281250
3566,-117.187500
3567,-121.093750
3568,-125.000000
3569,-128.906250
3570,-132.812500
3571,-136.718750
3572,-140.625000
3573,-144.531250
3574,-144.531250
3575,-148.437500
3576,-152.343750
3577,-156.250000
3578,-160.156250
3579,-164.062500
3580,-167.968750
3581,-171.875000
3582,-175.781250
3583,-179.687500
3584,-183.593750
3585,-187.500000
3586,-191.406250
3587,-191.406250
3588,-195.312500
3589,-199.218750
3590,-203.125000
3591,-207.031250
3592,-210.937500
3593,-214.843750
3594,-214.843750
3595,-218.750000
3596,-222.656250
3597,-226.562500
3598,-230.468750
3599,-234.375000
3600,-234.375000
3601,-238.281250
3602,-242.187500
3603,-242.187500
3604,-246.093750
3605,-250.000000
3606,-250.000000
3607,-253.906250
3608,-257.812500
3609,-257.812500
3610,-261.718750
3611,-265.625000
3612,-265.625000
3613,-269.531250
3614,-269.531250
3615,-273.437500
3616,-277.343750
3617,-277.343750
3618,-281.250000
3619,-281.250000
3620,-285.156250
3621,-285.156250
3622,-289.062500
3623,-289.062500
3624,-289.062500
3625,-292.968750
3626,-292.968750
3627,-296.875000
3628,-296.875000
3629,-296.875000
3630,-300.781250
3631,-300.781250
3632,-304.687500
3633,-304.687500
3634,-304.687500
3635,-304.687500
3636,-308.593750
3637,-308.593750
3638,-308.593750
3639,-308.593750
3640,-308.593750
3641,-312.500000
3642,-312.500000
3643,-312.500000
3644,-312.500000
3645,-312.500000
3646,-312.500000
3647,-312.500000
3648,-312.500000
3649,-316.406250
3650,-316.406250
3651,-316.406250
3652,-312.500000
3653,-312.500000
3654,-316.406250
3655,-312.500000
3656,-316.406250
3657,-312.500000
3658,-312.500000
3659,-312.500000
3660,-312.500000
3661,-312.500000
3662,-312.500000
3663,-312.500000
3664,-308.593750
3665,-308.593750
3666,-308.593750
3667,-308.593750
3668,-308.593750
3669,-304.687500
3670,-304.687500
3671,-304.687500
3672,-304.687500
3673,-300.781250
3674,-300.781250
3675,-296.875000
3676,-296.875000
3677,-296.875000
3678,-292.968750
3679,-292.968750
3680,-289.062500
3681,-289.062500
3682,-289.062500
3683,-285.156250
3684,-285.156250
3685,-281.250000
3686,-277.343750
3687,-277.343750
3688,-273.437500
3689,-273.437500
3690,-269.531250
3691,-269.531250
3692,-265.625000
3693,-261.718750
3694,-261.718750
3695,-257.812500
3696,-253.906250
3697,-253.906250
3698,-250.000000
3699,-250.000000
3700,-246.093750
3701,-242.187500
3702,-238.281250
3703,-238.281250
3704,-234.375000
3705,-230.468750
3706,-226.562500
3707,-226.562500
3708,-222.656250
3709,-218.750000
3710,-214.843750
3711,-214.843750
3712,-210.937500
3713,-207.031250
3714,-203.125000
3715,-199.218750
3716,-195.312500
3717,-191.406250
3718,-191.406250
3719,-187.500000
3720,-183.593750
3721,-179.687500
3722,-175.781250
3723,-171.875000
3724,-167.968750
3725,-164.062500
3726,-160.156250
3727,-156.250000
3728,-152.343750
3729,-148.437500
3730,-148.437500
3731,-144.531250
3732,-136.718750
3733,-132.812500
3734,-132.812500
3735,-128.906250
3736,-125.000000
3737,-121.093750
3738,-113.281250
3739,-113.281250
3740,-109.375000
3741,-105.468750
3742,-101.562500
3743,-97.656250
3744,-93.750000
3745,-89.843750
3746,-85.937500
3747,-82.031250
3748,-78.125000
3749,-74.218750
3750,-70.312500
3751,-66.406250
3752,-62.500000
3753,-58.593750
3754,-54.687500
3755,-50.781250
3756,-46.875000
3757,-42.968750
3758,-39.062500
3759,-35.156250
3760,-31.250000
3761,-27.343750
3762,-23.437500
3763,-19.531250
3764,-19.531250
3765,-15.625000
3766,-11.718750
3767,-7.812500
3768,-3.906250
3769,0.000000
3770,3.906250
3771,7.812500
3772,11.718750
3773,11.718750
3774,15.625000
3775,19.531250
3776,23.437500
3777,23.437500
3778,31.250000
3779,31.250000
3780,35.156250
3781,39.062500
3782,42.968750
3783,46.875000
3784,46.875000
3785,50.781250
3786,54.687500
3787,54.687500
3788,58.593750
3789,66.406250
3790,66.406250
3791,66.406250
3792,70.312500
3793,74.218750
3794,74.218750
3795,78.125000
3796,82.031250
3797,82.031250
3798,85.937500
3799,85.937500
3800,89.843750
3801,93.750000
3802,93.750000
3803,97.656250
3804,97.656250
3805,101.562500
3806,101.562500
3807,105.468750
3808,105.468750
3809,109.375000
3810,109.375000
3811,113.281250
3812,113.281250
3813,117.187500
3814,117.187500
3815,121.093750
3816,121.093750
3817,121.093750
3818,125.000000
3819,125.000000
3820,128.906250
3821,128.906250
3822,128.906250
3823,132.812500
3824,132.812500
3825,132.812500
3826,136.718750
3827,136.718750
3828,136.718750
3829,140.625000
3830,140.625000
3831,140.625000
3832,140.625000
3833,144.531250
3834,144.531250
3835,144.531250
3836,148.437500
3837,148.437500
3838,148.437500
3839,148.437500
3840,148.437500
3841,152.343750
3842,152.343750
3843,152.343750
3844,152.343750
3845,152.343750
3846,152.343750
3847,152.343750
3848,152.343750
3849,152.343750
3850,152.343750
3851,152.343750
3852,156.250000
3853,156.250000
3854,156.250000
3855,156.250000
3856,156.250000
3857,156.250000
3858,156.250000
3859,156.250000
3860,156.250000
3861,156.250000
3862,156.250000
3863,156.250000
3864,156.250000
3865,156.250000
3866,156.250000
3867,156.250000
3868,156.250000
3869,156.250000
3870,156.250000
3871,156.250000
3872,156.250000
3873,152.343750
3874,152.343750
3875,152.343750
3876,152.343750
3877,152.343750
3878,152.343750
3879,152.343750
3880,148.437500
3881,148.437500
3882,148.437500
3883,148.437500
3884,148.437500
3885,144.531250
3886,144.531250
3887,144.531250
3888,144.531250
3889,140.625000
3890,140.625000
3891,140.625000
3892,140.625000
3893,140.625000
3894,136.718750
3895,136.718750
3896,132.812500
3897,132.812500
3898,132.812500
3899,128.906250
3900,128.906250
3901,128.906250
3902,125.000000
3903,125.000000
3904,121.093750
3905,121.093750
3906,117.187500
3907,117.187500
3908,117.187500
3909,113.281250
3910,113.281250
3911,109.375000
3912,109.375000
3913,105.468750
3914,105.468750
3915,101.562500
3916,101.562500
3917,97.656250
3918,93.750000
3919,93.750000
3920,89.843750
3921,89.843750
3922,85.937500
3923,85.937500
3924,82.031250
3925,78.125000
3926,78.125000
3927,74.218750
3928,70.312500
3929,70.312500
3930,66.406250
3931,62.500000
3932,58.593750
3933,58.593750
3934,54.687500
3935,50.781250
3936,50.781250
3937,46.875000
3938,42.968750
3939,39.062500
3940,35.156250
3941,35.156250
3942,31.250000
3943,27.343750
3944,23.437500
3945,23.437500
3946,19.531250
3947,15.625000
3948,11.718750
3949,7.812500
3950,3.906250
3951,0.000000
3952,-3.906250
3953,-3.906250
3954,-7.812500
3955,-11.718750
3956,-15.625000
3957,-19.531250
3958,-23.437500
3959,-27.343750
3960,-31.250000
3961,-35.156250
3962,-39.062500
3963,-39.062500
3964,-46.875000
3965,-50.781250
3966,-54.687500
3967,-54.687500
3968,-62.500000
3969,-62.500000
3970,-66.406250
3971,-70.312500
3972,-74.218750
3973,-82.031250
3974,-82.031250
3975,-85.937500
3976,-89.843750
3977,-93.750000
3978,-97.656250
3979,-105.468750
3980,-105.468750
3981,-109.375000
3982,-109.375000
3983,-117.187500
3984,-121.093750
3985,-125.000000
3986,-128.906250
3987,-132.812500
3988,-136.718750
3989,-140.625000
3990,-144.531250
3991,-148.437500
3992,-148.437500
3993,-156.250000
3994,-160.156250
3995,-164.062500
3996,-164.062500
3997,-171.875000
3998,-171.875000
3999,-175.781250
4000,-179.687500
4001,-183.593750
4002,-187.500000
4003,-191.406250
4004,-195.312500
4005,-195.312500
4006,-203.125000
4007,-203.125000
4008,-207.031250
4009,-210.937500
4010,-214.843750
4011,-218.750000
4012,-218.750000
4013,-222.656250
4014,-226.562500
4015,-230.468750
4016,-230.468750
4017,-234.375000
4018,-238.281250
4019,-242.187500
4020,-242.187500
4021,-246.093750
4022,-250.000000
4023,-250.000000
4024,-253.906250
4025,-257.812500
4026,-257.812500
4027,-261.718750
4028,-261.718750
4029,-265.625000
4030,-269.531250
4031,-269.531250
4032,-273.437500
4033,-277.343750
4034,-277.343750
4035,-281.250000
4036,-281.250000
4037,-285.156250
4038,-285.156250
4039,-289.062500
4040,-289.062500
4041,-289.062500
4042,-292.968750
4043,-292.968750
4044,-296.875000
4045,-296.875000
4046,-300.781250
4047,-300.781250
4048,-300.781250
4049,-300.781250
4050,-300.781250
4051,-304.687500
4052,-308.593750
4053,-308.593750
4054,-308.593750
4055,-308.593750
4056,-308.593750
4057,-308.593750
4058,-312.500000
4059,-312.500000
4060,-312.500000
4061,-312.500000
4062,-312.500000
4063,-316.406250
4064,-312.500000
4065,-312.500000
4066,-316.406250
4067,-312.500000
4068,-316.406250
4069,-312.500000
4070,-316.406250
4071,-316.406250
4072,-312.500000
4073,-312.500000
4074,-312.500000
4075,-312.500000
4076,-312.500000
4077,-312.500000
4078,-312.500000
4079,-312.500000
4080,-308.593750
4081,-308.593750
4082,-308.593750
4083,-308.593750
4084,-308.593750
4085,-304.687500
4086,-304.687500
4087,-304.687500
4088,-300.781250
4089,-300.781250
4090,-300.781250
4091,-296.875000
4092,-296.875000
4093,-296.875000
4094,-296.875000
4095,-292.968750
4096,-292.968750
4097,-289.062500
4098,-289.062500
4099,-285.156250
4100,-285.156250
4101,-281.250000
4102,-281.250000
4103,-277.343750
4104,-277.343750
4105,-273.437500
4106,-273.437500
4107,-269.531250
4108,-269.531250
4109,-265.625000
4110,-261.718750
4111,-261.718750
4112,-257.812500
4113,-257.812500
4114,-253.906250
4115,-250.000000
4116,-246.093750
4117,-250.000000
4118,-242.187500
4119,-238.281250
4120,-238.281250
4121,-234.375000
4122,-230.468750
4123,-226.562500
4124,-222.656250
4125,-222.656250
4126,-218.750000
4127,-214.843750
4128,-210.937500
4129,-207.031250
4130,-203.125000
4131,-203.125000
4132,-199.218750
4133,-195.312500
4134,-191.406250
4135,-187.500000
4136,-183.593750
4137,-179.687500
4138,-179.687500
4139,-175.781250
4140,-167.968750
4141,-167.968750
4142,-164.062500
4143,-160.156250
4144,-156.250000
4145,-152.343750
4146,-148.437500
4147,-144.531250
4148,-140.625000
4149,-136.718750
4150,-132.812500
4151,-128.906250
4152,-125.000000
4153,-121.093750
4154,-117.187500
4155,-113.281250
4156,-109.375000
4157,-105.468750
4158,-101.562500
4159,-97.656250
4160,-93.750000
4161,-89.843750
4162,-85.937500
4163,-85.937500
4164,-82.031250
4165,-74.218750
4166,-74.218750
4167,-70.312500
4168,-62.500000
4169,-62.500000
4170,-58.593750
4171,-54.687500
4172,-50.781250
4173,-46.875000
4174,-42.968750
4175,-39.062500
4176,-35.156250
4177,-31.250000
4178,-27.343750
4179,-23.437500
4180,-19.531250
4181,-15.625000
4182,-11.718750
4183,-11.718750
4184,-7.812500
4185,-3.906250
4186,0.000000
4187,3.906250
4188,7.812500
4189,11.718750
4190,15.625000
4191,15.625000
4192,19.531250
4193,23.437500
4194,27.343750
4195,31.250000
4196,31.250000
4197,35.156250
4198,39.062500
4199,42.968750
4200,46.875000
4201,50.781250
4202,50.781250
4203,54.687500
4204,58.593750
4205,58.593750
4206,62.500000
4207,66.406250
4208,66.406250
4209,70.312500
4210,74.218750
4211,78.125000
4212,78.125000
4213,82.031250
4214,82.031250
4215,85.937500
4216,89.843750
4217,89.843750
4218,93.750000
4219,93.750000
4220,97.656250
4221,97.656250
4222,101.562500
4223,105.468750
4224,105.468750
4225,105.468750
4226,109.375000
4227,109.375000
4228,113.281250
4229,113.281250
4230,117.187500
4231,117.187500
4232,121.093750
4233,121.093750
4234,125.000000
4235,125.000000
4236,125.000000
4237,128.906250
4238,128.906250
4239,132.812500
4240,132.812500
4241,132.812500
4242,132.812500
4243,136.718750
4244,136.718750
4245,136.718750
4246,136.718750
4247,140.625000
4248,140.625000
4249,140.625000
4250,144.531250
4251,144.531250
4252,144.531250
4253,144.531250
4254,148.437500
4255,148.437500
4256,148.437500
4257,148.437500
4258,148.437500
4259,148.437500
4260,152.343750
4261,152.343750
4262,152.343750
4263,152.343750
4264,152.343750
4265,152.343750
4266,156.250000
4267,156.250000
4268,156.250000
4269,156.250000
4270,156.250000
4271,156.250000
4272,156.250000
4273,156.250000
4274,156.250000
4275,156.250000
4276,156.250000
4277,156.250000
4278,156.250000
4279,156.250000
4280,156.250000
4281,156.250000
4282,156.250000
4283,156.250000
4284,156.250000
4285,156.250000
4286,156.250000
4287,156.250000
4288,152.343750
4289,152.343750
4290,152.343750
4291,152.343750
4292,152.343750
4293,152.343750
4294,152.343750
4295,152.343750
4296,148.437500
4297,148.437500
4298,148.437500
4299,148.437500
4300,148.437500
4301,148.437500
4302,144.531250
4303,144.531250
4304,144.531250
4305,140.625000
4306,140.625000
4307,140.625000
4308,140.625000
4309,136.718750
4310,136.718750
4311,136.718750
4312,136.718750
4313,132.812500
4314,132.812500
4315,132.812500
4316,128.906250
4317,128.906250
4318,125.000000
4319,125.000000
4320,125.000000
4321,121.093750
4322,121.093750
4323,117.187500
4324,117.187500
4325,113.281250
4326,113.281250
4327,109.375000
4328,109.375000
4329,109.375000
4330,105.468750
4331,101.562500
4332,101.562500
4333,101.562500
4334,97.656250
4335,93.750000
4336,93.750000
4337,89.843750
4338,85.937500
4339,85.937500
4340,82.031250
4341,82.031250
4342,78.125000
4343,78.125000
4344,74.218750
4345,70.312500
4346,66.406250
4347,62.500000
4348,62.500000
4349,58.593750
4350,58.593750
4351,54.687500
4352,50.781250
4353,46.875000
4354,46.875000
4355,42.968750
4356,39.062500
4357,35.156250
4358,35.156250
4359,31.250000
4360,27.343750
4361,19.531250
4362,19.531250
4363,15.625000
4364,15.625000
4365,11.718750
4366,7.812500
4367,3.906250
4368,0.000000
4369,-3.906250
4370,-7.812500
4371,-11.718750
4372,-15.625000
4373,-19.531250
4374,-19.531250
4375,-23.437500
4376,-27.343750
4377,-31.250000
4378,-35.156250
4379,-39.062500
4380,-42.968750
4381,-46.875000
4382,-50.781250
4383,-54.687500
4384,-58.593750
4385,-62.500000
4386,-66.406250
4387,-70.312500
4388,-70.312500
4389,-78.125000
4390,-82.031250
4391,-85.937500
4392,-89.843750
4393,-93.750000
4394,-93.750000
4395,-97.656250
4396,-101.562500
4397,-105.468750
4398,-109.375000
4399,-113.281250
4400,-117.187500
4401,-121.093750
4402,-125.000000
4403,-128.906250
4404,-132.812500
4405,-136.718750
4406,-140.625000
4407,-144.531250
4408,-148.437500
4409,-152.343750
4410,-156.250000
4411,-160.156250
4412,-164.062500
4413,-167.968750
4414,-167.968750
4415,-171.875000
4416,-175.781250
4417,-179.687500
4418,-183.593750
4419,-187.500000
4420,-191.406250
4421,-195.312500
4422,-199.218750
4423,-203.125000
4424,-207.031250
4425,-207.031250
4426,-210.937500
4427,-214.843750
4428,-218.750000
4429,-218.750000
4430,-222.656250
4431,-226.562500
4432,-230.468750
4433,-230.468750
4434,-234.375000
4435,-238.281250
4436,-242.187500
4437,-246.093750
4438,-246.093750
4439,-250.000000
4440,-253.906250
4441,-253.906250
4442,-257.812500
4443,-261.718750
4444,-261.718750
4445,-265.625000
4446,-273.437500
4447,-269.531250
4448,-273.437500
4449,-273.437500
4450,-277.343750
4451,-277.343750
4452,-281.250000
4453,-281.250000
4454,-285.156250
4455,-285.156250
4456,-289.062500
4457,-289.062500
4458,-292.968750
4459,-292.968750
4460,-292.968750
4461,-296.875000
4462,-296.875000
4463,-296.875000
4464,-300.781250
4465,-300.781250
4466,-300.781250
4467,-304.687500
4468,-304.687500
4469,-304.687500
4470,-304.687500
4471,-308.593750
4472,-308.593750
4473,-308.593750
4474,-312.500000
4475,-308.593750
4476,-312.500000
4477,-312.500000
4478,-312.500000
4479,-312.500000
4480,-312.500000
4481,-312.500000
4482,-312.500000
4483,-312.500000
4484,-316.406250
4485,-316.406250
4486,-316.406250
4487,-316.406250
4488,-312.500000
4489,-312.500000
4490,-312.500000
4491,-312.500000
4492,-312.500000
4493,-312.500000
4494,-312.500000
4495,-312.500000
4496,-312.500000
4497,-308.593750
4498,-308.593750
4499,-308.593750
4500,-308.593750
4501,-308.593750
4502,-304.687500
4503,-304.687500
4504,-304.687500
4505,-304.687500
4506,-300.781250
4507,-300.781250
4508,-296.875000
4509,-296.875000
4510,-296.875000
4511,-292.968750
4512,-292.968750
4513,-292.968750
4514,-289.062500
4515,-292.968750
4516,-285.156250
4517,-285.156250
4518,-281.250000
4519,-281.250000
4520,-277.343750
4521,-277.343750
4522,-273.437500
4523,-273.437500
4524,-269.531250
4525,-265.625000
4526,-265.625000
4527,-261.718750
4528,-261.718750
4529,-257.812500
4530,-253.906250
4531,-253.906250
4532,-250.000000
4533,-246.093750
4534,-242.187500
4535,-242.187500
4536,-238.281250
4537,-234.375000
4538,-230.468750
4539,-230.468750
4540,-226.562500
4541,-222.656250
4542,-218.750000
4543,-218.750000
4544,-214.843750
4545,-210.937500
4546,-207.031250
4547,-203.125000
4548,-203.125000
4549,-199.218750
4550,-195.312500
4551,-191.406250
4552,-187.500000
4553,-183.593750
4554,-179.687500
4555,-175.781250
4556,-171.875000
4557,-171.875000
4558,-167.968750
4559,-164.062500
4560,-160.156250
4561,-156.250000
4562,-152.343750
4563,-148.437500
4564,-144.531250
4565,-140.625000
4566,-136.718750
4567,-132.812500
4568,-128.906250
4569,-125.000000
4570,-121.093750
4571,-117.187500
4572,-117.187500
4573,-109.375000
4574,-105.468750
4575,-101.562500
4576,-97.656250
4577,-93.750000
4578,-89.843750
4579,-85.937500
4580,-82.031250
4581,-78.125000
4582,-74.218750
4583,-70.312500
4584,-70.312500
4585,-62.500000
4586,-58.593750
4587,-54.687500
4588,-54.687500
4589,-46.875000
4590,-46.875000
4591,-42.968750
4592,-39.062500
4593,-35.156250
4594,-31.250000
4595,-27.343750
4596,-23.437500
4597,-19.531250
4598,-15.625000
4599,-11.718750
4600,-7.812500
4601,-3.906250
4602,0.000000
4603,0.000000
4604,3.906250
4605,7.812500
4606,11.718750
4607,15.625000
4608,19.531250
4609,19.531250
4610,23.437500
4611,27.343750
4612,31.250000
4613,35.156250
4614,35.156250
4615,39.062500
4616,42.968750
4617,46.875000
4618,50.781250
4619,50.781250
4620,54.687500
4621,58.593750
4622,62.500000
4623,62.500000
4624,66.406250
4625,70.312500
4626,70.312500
4627,74.218750
4628,78.125000
4629,78.125000
4630,82.031250
4631,82.031250
4632,85.937500
4633,89.843750
4634,89.843750
4635,93.750000
4636,97.656250
4637,97.656250
4638,97.656250
4639,101.562500
4640,101.562500
4641,105.468750
4642,109.375000
4643,109.375000
4644,113.281250
4645,113.281250
4646,113.281250
4647,117.187500
4648,117.187500
4649,121.093750
4650,125.000000
4651,125.000000
4652,125.000000
4653,128.906250
4654,128.906250
4655,128.906250
4656,132.812500
4657,132.812500
4658,132.812500
4659,136.718750
4660,136.718750
4661,136.718750
4662,140.625000
4663,140.625000
4664,140.625000
4665,140.625000
4666,144.531250
4667,144.531250
4668,144.531250
4669,144.531250
4670,144.531250
4671,148.437500
4672,152.343750
4673,148.437500
4674,148.437500
4675,148.437500
4676,152.343750
4677,152.343750
4678,152.343750
4679,152.343750
4680,156.250000
4681,152.343750
4682,152.343750
4683,156.250000
4684,156.250000
4685,156.250000
4686,156.250000
4687,156.250000
4688,156.250000
4689,156.250000
4690,156.250000
4691,156.250000
4692,156.250000
4693,156.250000
4694,156.250000
4695,156.250000
4696,156.250000
4697,156.250000
4698,156.250000
4699,156.250000
4700,156.250000
4701,156.250000
4702,156.250000
4703,156.250000
4704,152.343750
4705,156.250000
4706,152.343750
4707,152.343750
4708,152.343750
4709,152.343750
4710,152.343750
4711,152.343750
4712,148.437500
4713,148.437500
4714,148.437500
4715,148.437500
4716,148.437500
4717,148.437500
4718,148.437500
4719,144.531250
4720,144.531250
4721,140.625000
4722,144.531250
4723,140.625000
4724,140.625000
4725,140.625000
4726,140.625000
4727,136.718750
4728,136.718750
4729,136.718750
4730,132.812500
4731,132.812500
4732,128.906250
4733,128.906250
4734,128.906250
4735,125.000000
4736,125.000000
4737,125.000000
4738,121.093750
4739,121.093750
4740,117.187500
4741,117.187500
4742,113.281250
4743,113.281250
4744,109.375000
4745,109.375000
4746,109.375000
4747,105.468750
4748,101.562500
4749,101.562500
4750,97.656250
4751,97.656250
4752,93.750000
4753,89.843750
4754,89.843750
4755,85.937500
4756,85.937500
4757,82.031250
4758,78.125000
4759,78.125000
4760,74.218750
4761,74.218750
4762,70.312500
4763,66.406250
4764,62.500000
4765,62.500000
4766,58.593750
4767,54.687500
4768,50.781250
4769,50.781250
4770,46.875000
4771,46.875000
4772,42.968750
4773,39.062500
4774,35.156250
4775,31.250000
4776,27.343750
4777,23.437500
4778,23.437500
4779,19.531250
4780,15.625000
4781,11.718750
4782,7.812500
4783,7.812500
4784,3.906250
4785,0.000000
4786,-3.906250
4787,-7.812500
4788,-11.718750
4789,-15.625000
4790,-19.531250
4791,-23.437500
4792,-23.437500
4793,-27.343750
4794,-35.156250
4795,-35.156250
4796,-39.062500
4797,-42.968750
4798,-46.875000
4799,-50.781250
4800,-54.687500
4801,-58.593750
4802,-62.500000
4803,-66.406250
4804,-70.312500
4805,-74.218750
4806,-78.125000
4807,-82.031250
4808,-85.937500
4809,-89.843750
4810,-93.750000
4811,-97.656250
4812,-101.562500
4813,-105.468750
4814,-109.375000
4815,-113.281250
4816,-117.187500
4817,-121.093750
4818,-125.000000
4819,-128.906250
4820,-132.812500
4821,-136.718750
4822,-140.625000
4823,-140.625000
4824,-148.437500
4825,-148.437500
4826,-152.343750
4827,-156.250000
4828,-160.156250
4829,-164.062500
4830,-167.968750
4831,-171.875000
4832,-175.781250
4833,-179.687500
4834,-183.593750
4835,-187.500000
4836,-187.500000
4837,-191.406250
4838,-195.312500
4839,-199.218750
4840,-203.125000
4841,-207.031250
4842,-210.937500
4843,-210.937500
4844,-214.843750
4845,-218.750000
4846,-222.656250
4847,-226.562500
4848,-226.562500
4849,-230.468750
4850,-234.375000
4851,-238.281250
4852,-238.281250
4853,-242.187500
4854,-246.093750
4855,-250.000000
4856,-250.000000
4857,-253.906250
4858,-253.906250
4859,-257.812500
4860,-261.718750
4861,-261.718750
4862,-265.625000
4863,-265.625000
4864,-269.531250
4865,-273.437500
4866,-273.437500
4867,-277.343750
4868,-277.343750
4869,-281.250000
4870,-281.250000
4871,-285.156250
4872,-285.156250
4873,-289.062500
4874,-289.062500
4875,-292.968750
4876,-292.968750
4877,-292.968750
4878,-296.875000
4879,-296.875000
4880,-300.781250
4881,-300.781250
4882,-300.781250
4883,-304.687500
4884,-304.687500
4885,-304.687500
4886,-304.687500
4887,-308.593750
4888,-308.593750
4889,-308.593750
4890,-308.593750
4891,-312.500000
4892,-312.500000
4893,-312.500000
4894,-312.500000
4895,-312.500000
4896,-312.500000
4897,-316.406250
4898,-312.500000
4899,-312.500000
4900,-312.500000
4901,-312.500000
4902,-316.406250
4903,-312.500000
4904,-312.500000
4905,-316.406250
4906,-312.500000
4907,-312.500000
4908,-312.500000
4909,-312.500000
4910,-312.500000
4911,-312.500000
4912,-312.500000
4913,-312.500000
4914,-308.593750
4915,-308.593750
4916,-308.593750
4917,-308.593750
4918,-304.687500
4919,-304.687500
4920,-304.687500
4921,-300.781250
4922,-300.781250
4923,-300.781250
4924,-300.781250
4925,-296.875000
4926,-296.875000
4927,-296.875000
4928,-292.968750
4929,-292.968750
4930,-289.062500
4931,-289.062500
4932,-285.156250
4933,-285.156250
4934,-281.250000
4935,-281.250000
4936,-277.343750
4937,-277.343750
4938,-273.437500
4939,-273.437500
4940,-269.531250
4941,-269.531250
4942,-265.625000
4943,-265.625000
4944,-261.718750
4945,-257.812500
4946,-253.906250
4947,-253.906250
4948,-250.000000
4949,-250.000000
4950,-246.093750
4951,-242.187500
4952,-242.187500
4953,-238.281250
4954,-234.375000
4955,-230.468750
4956,-226.562500
4957,-226.562500
4958,-222.656250
4959,-218.750000
4960,-218.750000
4961,-214.843750
4962,-210.937500
4963,-207.031250
4964,-203.125000
4965,-199.218750
4966,-195.312500
4967,-191.406250
4968,-191.406250
4969,-187.500000
4970,-183.593750
4971,-179.687500
4972,-175.781250
4973,-171.875000
4974,-167.968750
4975,-164.062500
4976,-160.156250
4977,-156.250000
4978,-152.343750
4979,-152.343750
4980,-148.437500
4981,-144.531250
4982,-140.625000
4983,-132.812500
4984,-132.812500
4985,-128.906250
4986,-125.000000
4987,-121.093750
4988,-117.187500
4989,-113.281250
4990,-109.375000
4991,-105.468750
4992,-101.562500
4993,-97.656250
4994,-93.750000
4995,-89.843750
4996,-85.937500
4997,-82.031250
4998,-78.125000
4999,-74.218750
5000,-70.312500
5001,-66.406250
5002,-62.500000
5003,-58.593750
5004,-54.687500
5005,-50.781250
5006,-46.875000
5007,-46.875000
5008,-42.968750
5009,-39.062500
5010,-31.250000
5011,-31.250000
5012,-27.343750
5013,-23.437500
5014,-19.531250
5015,-15.625000
5016,-11.718750
5017,-7.812500
5018,-3.906250
5019,0.000000
5020,3.906250
5021,3.906250
5022,7.812500
5023,11.718750
5024,15.625000
5025,19.531250
5026,23.437500
5027,23.437500
5028,27.343750
5029,31.250000
5030,35.156250
5031,39.062500
5032,42.968750
5033,42.968750
5034,46.875000
5035,50.781250
5036,54.687500
5037,54.687500
5038,58.593750
5039,62.500000
5040,62.500000
5041,66.406250
5042,70.312500
5043,74.218750
5044,74.218750
5045,78.125000
5046,78.125000
5047,82.031250
5048,85.937500
5049,85.937500
5050,89.843750
5051,93.750000
5052,93.750000
5053,97.656250
5054,97.656250
5055,101.562500
5056,101.562500
5057,105.468750
5058,105.468750
5059,109.375000
5060,109.375000
5061,113.281250
5062,113.281250
5063,117.187500
5064,117.187500
5065,121.093750
5066,121.093750
5067,121.093750
5068,125.000000
5069,125.000000
5070,128.906250
5071,128.906250
5072,128.906250
5073,132.812500
5074,132.812500
5075,132.812500
5076,132.812500
5077,136.718750
5078,136.718750
5079,140.625000
5080,140.625000
5081,140.625000
5082,140.625000
5083,140.625000
5084,144.531250
5085,144.531250
5086,144.531250
5087,144.531250
5088,148.437500
5089,148.437500
5090,148.437500
5091,148.437500
5092,148.437500
5093,152.343750
5094,152.343750
5095,152.343750
5096,152.343750
5097,152.343750
5098,152.343750
5099,152.343750
5100,156.250000
5101,156.250000
5102,156.250000
5103,156.250000
5104,156.250000
5105,156.250000
5106,156.250000
5107,156.250000
5108,156.250000
5109,156.250000
5110,156.250000
5111,156.250000
5112,156.250000
5113,156.250000
5114,156.250000
5115,156.250000
5116,156.250000
5117,156.250000
5118,156.250000
5119,156.250000
5120,156.250000
5121,156.250000
5122,156.250000
5123,152.343750
5124,152.343750
5125,152.343750
5126,152.343750
5127,152.343750
5128,152.343750
5129,152.343750
5130,148.437500
5131,148.437500
5132,148.437500
5133,148.437500
5134,144.531250
5135,144.531250
5136,144.531250
5137,144.531250
5138,144.531250
5139,140.625000
5140,140.625000
5141,140.625000
5142,136.718750
5143,136.718750
5144,136.718750
5145,136.718750
5146,132.812500
5147,132.812500
5148,132.812500
5149,128.906250
5150,128.906250
5151,125.000000
5152,125.000000
5153,125.000000
5154,121.093750
5155,121.093750
5156,117.187500
5157,117.187500
5158,117.187500
5159,113.281250
5160,113.281250
5161,109.375000
5162,109.375000
5163,105.468750
5164,105.468750
5165,101.562500
5166,101.562500
5167,97.656250
5168,97.656250
5169,93.750000
5170,89.843750
5171,89.843750
5172,85.937500
5173,85.937500
5174,82.031250
5175,78.125000
5176,78.125000
5177,74.218750
5178,70.312500
5179,70.312500
5180,66.406250
5181,62.500000
5182,62.500000
5183,58.593750
5184,54.687500
5185,50.781250
5186,50.781250
5187,46.875000
5188,42.968750
5189,39.062500
5190,39.062500
5191,31.250000
5192,31.250000
5193,27.343750
5194,23.437500
5195,23.437500
5196,19.531250
5197,15.625000
5198,11.718750
5199,7.812500
5200,3.906250
5201,0.000000
5202,-3.906250
5203,-3.906250
5204,-7.812500
5205,-11.718750
5206,-15.625000
5207,-19.531250
5208,-23.437500
5209,-27.343750
5210,-31.250000
5211,-35.156250
5212,-39.062500
5213,-42.968750
5214,-46.875000
5215,-50.781250
5216,-50.781250
5217,-54.687500
5218,-58.593750
5219,-62.500000
5220,-66.406250
5221,-70.312500
5222,-74.218750
5223,-78.125000
5224,-82.031250
5225,-85.937500
5226,-89.843750
5227,-93.750000
5228,-97.656250
5229,-101.562500
5230,-105.468750
5231,-109.375000
5232,-113.281250
5233,-117.187500
5234,-121.093750
5235,-125.000000
5236,-128.906250
5237,-132.812500
5238,-136.718750
5239,-140.625000
5240,-144.531250
5241,-148.437500
5242,-152.343750
5243,-156.250000
5244,-156.250000
5245,-160.156250
5246,-164.062500
5247,-167.968750
5248,-171.875000
5249,-175.781250
5250,-179.687500
5251,-183.593750
5252,-187.500000
5253,-191.406250
5254,-191.406250
5255,-195.312500
5256,-199.218750
5257,-203.125000
5258,-207.031250
5259,-210.937500
5260,-214.843750
5261,-214.843750
5262,-218.750000
5263,-222.656250
5264,-226.562500
5265,-230.468750
5266,-230.468750
5267,-234.375000
5268,-238.281250
5269,-242.187500
5270,-242.187500
5271,-246.093750
5272,-250.000000
5273,-250.000000
5274,-253.906250
5275,-257.812500
5276,-257.812500
5277,-261.718750
5278,-265.625000
5279,-265.625000
5280,-269.531250
5281,-269.531250
5282,-273.437500
5283,-273.437500
5284,-277.343750
5285,-281.250000
5286,-281.250000
5287,-285.156250
5288,-285.156250
5289,-285.156250
5290,-289.062500
5291,-289.062500
5292,-292.968750
5293,-292.968750
5294,-296.875000
5295,-296.875000
5296,-300.781250
5297,-300.781250
5298,-300.781250
5299,-300.781250
5300,-304.687500
5301,-304.687500
5302,-304.687500
5303,-308.593750
5304,-308.593750
5305,-308.593750
5306,-308.593750
5307,-308.593750
5308,-312.500000
5309,-312.500000
5310,-312.500000
5311,-312.500000
5312,-312.500000
5313,-312.500000
5314,-312.500000
5315,-312.500000
5316,-312.500000
5317,-312.500000
5318,-312.500000
5319,-316.406250
5320,-316.406250
5321,-316.406250
5322,-316.406250
5323,-312.500000
5324,-312.500000
5325,-312.500000
5326,-312.500000
5327,-312.500000
5328,-312.500000
5329,-312.500000
5330,-308.593750
5331,-312.500000
5332,-308.593750
5333,-308.593750
5334,-308.593750
5335,-304.687500
5336,-304.687500
5337,-304.687500
5338,-304.687500
5339,-300.781250
5340,-300.781250
5341,-300.781250
5342,-296.875000
5343,-296.875000
5344,-296.875000
5345,-292.968750
5346,-292.968750
5347,-289.062500
5348,-289.062500
5349,-285.156250
5350,-285.156250
5351,-285.156250
5352,-281.250000
5353,-277.343750
5354,-277.343750
5355,-273.437500
5356,-273.437500
5357,-269.531250
5358,-269.531250
5359,-265.625000
5360,-261.718750
5361,-261.718750
5362,-257.812500
5363,-253.906250
5364,-253.906250
5365,-250.000000
5366,-250.000000
5367,-246.093750
5368,-242.187500
5369,-238.281250
5370,-238.281250
5371,-234.375000
5372,-230.468750
5373,-226.562500
5374,-226.562500
5375,-222.656250
5376,-214.843750
5377,-214.843750
5378,-210.937500
5379,-207.031250
5380,-207.031250
5381,-203.125000
5382,-199.218750
5383,-195.312500
5384,-191.406250
5385,-187.500000
5386,-183.593750
5387,-183.593750
5388,-179.687500
5389,-175.781250
5390,-171.875000
5391,-167.968750
5392,-164.062500
5393,-160.156250
5394,-156.250000
5395,-152.343750
5396,-148.437500
5397,-144.531250
5398,-140.625000
5399,-136.718750
5400,-132.812500
5401,-132.812500
5402,-125.000000
5403,-125.000000
5404,-121.093750
5405,-117.187500
5406,-113.281250
5407,-105.468750
5408,-101.562500
5409,-101.562500
5410,-97.656250
5411,-93.750000
5412,-89.843750
5413,-85.937500
5414,-82.031250
5415,-78.125000
5416,-74.218750
5417,-70.312500
5418,-66.406250
5419,-62.500000
5420,-58.593750
5421,-54.687500
5422,-50.781250
5423,-46.875000
5424,-42.968750
5425,-39.062500
5426,-35.156250
5427,-31.250000
5428,-27.343750
5429,-23.437500
5430,-23.437500
5431,-19.531250
5432,-15.625000
5433,-11.718750
5434,-7.812500
5435,-3.906250
5436,0.000000
5437,3.906250
5438,7.812500
5439,11.718750
5440,15.625000
5441,15.625000
5442,19.531250
5443,23.437500
5444,27.343750
5445,31.250000
5446,35.156250
5447,35.156250
5448,39.062500
5449,42.968750
5450,46.875000
5451,46.875000
5452,50.781250
5453,54.687500
5454,58.593750
5455,58.593750
5456,62.500000
5457,66.406250
5458,66.406250
5459,70.312500
5460,74.218750
5461,74.218750
5462,78.125000
5463,78.125000
5464,82.031250
5465,85.937500
5466,89.843750
5467,89.843750
5468,89.843750
5469,93.750000
5470,97.656250
5471,97.656250
5472,101.562500
5473,105.468750
5474,105.468750
5475,105.468750
5476,109.375000
5477,109.375000
5478,113.281250
5479,113.281250
5480,117.187500
5481,117.187500
5482,121.093750
5483,121.093750
5484,125.000000
5485,125.000000
5486,125.000000
5487,128.906250
5488,128.906250
5489,128.906250
5490,132.812500
5491,132.812500
5492,132.812500
5493,136.718750
5494,136.718750
5495,136.718750
5496,140.625000
5497,140.625000
5498,140.625000
5499,140.625000
5500,144.531250
5501,144.531250
5502,144.531250
5503,144.531250
5504,144.531250
5505,148.437500
5506,148.437500
5507,148.437500
5508,148.437500
5509,152.343750
5510,152.343750
5511,152.343750
5512,152.343750
5513,152.343750
5514,152.343750
5515,152.343750
5516,152.343750
5517,156.250000
5518,156.250000
5519,156.250000
5520,156.250000
5521,156.250000
5522,156.250000
5523,156.250000
5524,160.156250
5525,156.250000
5526,156.250000
5527,156.250000
5528,156.250000
5529,156.250000
5530,156.250000
5531,156.250000
5532,156.250000
5533,156.250000
5534,156.250000
5535,156.250000
5536,152.343750
5537,156.250000
5538,152.343750
5539,152.343750
5540,152.343750
5541,152.343750
5542,152.343750
5543,152.343750
5544,152.343750
5545,148.437500
5546,148.437500
5547,148.437500
5548,148.437500
5549,148.437500
5550,148.437500
5551,148.437500
5552,144.531250
5553,144.531250
5554,144.531250
5555,140.625000
5556,140.625000
5557,140.625000
5558,140.625000
5559,140.625000
5560,136.718750
5561,136.718750
5562,136.718750
5563,132.812500
5564,132.812500
5565,132.812500
5566,128.906250
5567,128.906250
5568,128.906250
5569,125.000000
5570,125.000000
5571,121.093750
5572,121.093750
5573,117.187500
5574,117.187500
5575,117.187500
5576,113.281250
5577,113.281250
5578,109.375000
5579,109.375000
5580,105.468750
5581,105.468750
5582,101.562500
5583,97.656250
5584,97.656250
5585,93.750000
5586,93.750000
5587,89.843750
5588,89.843750
5589,85.937500
5590,85.937500
5591,82.031250
5592,78.125000
5593,74.218750
5594,74.218750
5595,70.312500
5596,66.406250
5597,66.406250
5598,62.500000
5599,58.593750
5600,54.687500
5601,54.687500
5602,50.781250
5603,46.875000
5604,46.875000
5605,42.968750
5606,39.062500
5607,35.156250
5608,31.250000
5609,31.250000
5610,27.343750
5611,23.437500
5612,19.531250
5613,15.625000
5614,15.625000
5615,11.718750
5616,7.812500
5617,3.906250
5618,0.000000
5619,-3.906250
5620,-7.812500
5621,-11.718750
5622,-15.625000
5623,-19.531250
5624,-19.531250
5625,-23.437500
5626,-27.343750
5627,-31.250000
5628,-35.156250
5629,-39.062500
5630,-42.968750
5631,-46.875000
5632,-50.781250
5633,-54.687500
5634,-58.593750
5635,-62.500000
5636,-66.406250
5637,-70.312500
5638,-70.312500
5639,-78.125000
5640,-78.125000
5641,-82.031250
5642,-85.937500
5643,-93.750000
5644,-93.750000
5645,-97.656250
5646,-101.562500
5647,-105.468750
5648,-113.281250
5649,-113.281250
5650,-117.187500
5651,-121.093750
5652,-125.000000
5653,-128.906250
5654,-132.812500
5655,-136.718750
5656,-140.625000
5657,-144.531250
5658,-148.437500
5659,-152.343750
5660,-156.250000
5661,-160.156250
5662,-164.062500
5663,-167.968750
5664,-171.875000
5665,-175.781250
5666,-179.687500
5667,-179.687500
5668,-183.593750
5669,-187.500000
5670,-191.406250
5671,-195.312500
5672,-199.218750
5673,-199.218750
5674,-207.031250
5675,-207.031250
5676,-210.937500
5677,-214.843750
5678,-218.750000
5679,-218.750000
5680,-222.656250
5681,-226.562500
5682,-230.468750
5683,-234.375000
5684,-234.375000
5685,-238.281250
5686,-242.187500
5687,-246.093750
5688,-246.093750
5689,-250.000000
5690,-253.906250
5691,-253.906250
5692,-257.812500
5693,-261.718750
5694,-261.718750
5695,-265.625000
5696,-265.625000
5697,-269.531250
5698,-273.437500
5699,-273.437500
5700,-273.437500
5701,-277.343750
5702,-281.250000
5703,-281.250000
5704,-285.156250
5705,-285.156250
5706,-289.062500
5707,-289.062500
5708,-289.062500
5709,-292.968750
5710,-292.968750
5711,-296.875000
5712,-296.875000
5713,-296.875000
5714,-300.781250
5715,-300.781250
5716,-304.687500
5717,-304.687500
5718,-304.687500
5719,-304.687500
5720,-304.687500
5721,-308.593750
5722,-308.593750
5723,-312.500000
5724,-308.593750
5725,-312.500000
5726,-312.500000
5727,-312.500000
5728,-312.500000
5729,-312.500000
5730,-312.500000
5731,-316.406250
5732,-312.500000
5733,-316.406250
5734,-312.500000
5735,-316.406250
5736,-316.406250
5737,-312.500000
5738,-316.406250
5739,-312.500000
5740,-316.406250
5741,-312.500000
5742,-312.500000
5743,-312.500000
5744,-312.500000
5745,-312.500000
5746,-312.500000
5747,-308.593750
5748,-308.593750
5749,-308.593750
5750,-308.593750
5751,-308.593750
5752,-304.687500
5753,-304.687500
5754,-300.781250
5755,-300.781250
5756,-300.781250
5757,-304.687500
5758,-296.875000
5759,-296.875000
5760,-296.875000
5761,-292.968750
5762,-292.968750
5763,-289.062500
5764,-289.062500
5765,-289.062500
5766,-285.156250
5767,-285.156250
5768,-281.250000
5769,-281.250000
5770,-277.343750
5771,-273.437500
5772,-273.437500
5773,-269.531250
5774,-269.531250
5775,-265.625000
5776,-265.625000
5777,-261.718750
5778,-257.812500
5779,-257.812500
5780,-253.906250
5781,-253.906250
5782,-250.000000
5783,-250.000000
5784,-246.093750
5785,-242.187500
5786,-238.281250
5787,-234.375000
5788,-230.468750
5789,-230.468750
5790,-226.562500
5791,-222.656250
5792,-218.750000
5793,-218.750000
5794,-214.843750
5795,-210.937500
5796,-207.031250
5797,-203.125000
5798,-203.125000
5799,-199.218750
5800,-195.312500
5801,-191.406250
5802,-187.500000
5803,-183.593750
5804,-179.687500
5805,-175.781250
5806,-175.781250
5807,-171.875000
5808,-167.968750
5809,-164.062500
5810,-160.156250
5811,-156.250000
5812,-152.343750
5813,-148.437500
5814,-144.531250
5815,-140.625000
5816,-136.718750
5817,-132.812500
5818,-128.906250
5819,-125.000000
5820,-121.093750
5821,-117.187500
5822,-113.281250
5823,-109.375000
5824,-105.468750
5825,-101.562500
5826,-97.656250
5827,-93.750000
5828,-89.843750
5829,-85.937500
5830,-82.031250
5831,-78.125000
5832,-74.218750
5833,-70.312500
5834,-66.406250
5835,-62.500000
5836,-62.500000
5837,-58.593750
5838,-54.687500
5839,-50.781250
5840,-46.875000
5841,-42.968750
5842,-39.062500
5843,-35.156250
5844,-31.250000
5845,-27.343750
5846,-23.437500
5847,-19.531250
5848,-15.625000
5849,-11.718750
5850,-11.718750
5851,-7.812500
5852,-3.906250
5853,0.000000
5854,3.906250
5855,7.812500
5856,11.718750
5857,15.625000
5858,15.625000
5859,23.437500
5860,23.437500
5861,27.343750
5862,31.250000
5863,31.250000
5864,35.156250
5865,39.062500
5866,42.968750
5867,46.875000
5868,46.875000
5869,50.781250
5870,54.687500
5871,58.593750
5872,58.593750
5873,62.500000
5874,66.406250
5875,66.406250
5876,70.312500
5877,74.218750
5878,74.218750
5879,78.125000
5880,82.031250
5881,82.031250
5882,85.937500
5883,89.843750
5884,89.843750
5885,93.750000
5886,93.750000
5887,97.656250
5888,97.656250
5889,101.562500
5890,105.468750
5891,105.468750
5892,105.468750
5893,109.375000
5894,113.281250
5895,113.281250
5896,113.281250
5897,117.187500
5898,117.187500
5899,121.093750
5900,121.093750
5901,125.000000
5902,117.187500
5903,125.000000
5904,128.906250
5905,128.906250
5906,128.906250
5907,132.812500
5908,132.812500
5909,136.718750
5910,136.718750
5911,136.718750
5912,136.718750
5913,140.625000
5914,140.625000
5915,140.625000
5916,140.625000
5917,144.531250
5918,144.531250
5919,144.531250
5920,144.531250
5921,144.531250
5922,148.437500
5923,148.437500
5924,148.437500
5925,148.437500
5926,148.437500
5927,152.343750
5928,152.343750
5929,152.343750
5930,152.343750
5931,152.343750
5932,152.343750
5933,152.343750
5934,152.343750
5935,152.343750
5936,156.250000
5937,156.250000
5938,156.250000
5939,156.250000
5940,160.156250
5941,156.250000
5942,156.250000
5943,156.250000
5944,156.250000
5945,156.250000
5946,156.250000
5947,156.250000
5948,156.250000
5949,156.250000
5950,156.250000
5951,156.250000
5952,156.250000
5953,156.250000
5954,156.250000
5955,156.250000
5956,152.343750
5957,152.343750
5958,152.343750
5959,152.343750
5960,152.343750
5961,152.343750
5962,148.437500
5963,148.437500
5964,148.437500
5965,148.437500
5966,148.437500
5967,148.437500
5968,144.531250
5969,144.531250
5970,144.531250
5971,144.531250
5972,140.625000
5973,140.625000
5974,140.625000
5975,140.625000
5976,136.718750
5977,136.718750
5978,136.718750
5979,132.812500
5980,132.812500
5981,132.812500
5982,128.906250
5983,128.906250
5984,128.906250
5985,125.000000
5986,125.000000
5987,125.000000
5988,121.093750
5989,121.093750
5990,117.187500
5991,117.187500
5992,113.281250
5993,113.281250
5994,113.281250
5995,109.375000
5996,105.468750
5997,105.468750
5998,105.468750
5999,101.562500
6000,97.656250
6001,97.656250
6002,93.750000
6003,89.843750
6004,89.843750
6005,85.937500
6006,85.937500
6007,82.031250
6008,82.031250
6009,78.125000
6010,74.218750
6011,70.312500
6012,70.312500
6013,66.406250
6014,66.406250
6015,62.500000
6016,58.593750
6017,54.687500
6018,54.687500
6019,50.781250
6020,46.875000
6021,42.968750
6022,42.968750
6023,39.062500
6024,35.156250
6025,31.250000
6026,31.250000
6027,23.437500
6028,23.437500
6029,23.437500
6030,15.625000
6031,11.718750
6032,7.812500
6033,7.812500
6034,3.906250
6035,0.000000
6036,-3.906250
6037,-7.812500
6038,-11.718750
6039,-15.625000
6040,-15.625000
6041,-23.437500
6042,-23.437500
6043,-31.250000
6044,-31.250000
6045,-35.156250
6046,-42.968750
6047,-42.968750
6048,-46.875000
6049,-50.781250
6050,-54.687500
6051,-58.593750
6052,-66.406250
6053,-66.406250
6054,-70.312500
6055,-74.218750
6056,-78.125000
6057,-82.031250
6058,-85.937500
6059,-89.843750
6060,-93.750000
6061,-97.656250
6062,-101.562500
6063,-105.468750
6064,-109.375000
6065,-113.281250
6066,-113.281250
6067,-121.093750
6068,-121.093750
6069,-125.000000
6070,-132.812500
6071,-136.718750
6072,-136.718750
6073,-140.625000
6074,-144.531250
6075,-148.437500
6076,-152.343750
6077,-156.250000
6078,-160.156250
6079,-164.062500
6080,-167.968750
6081,-171.875000
6082,-175.781250
6083,-175.781250
6084,-183.593750
6085,-187.500000
6086,-187.500000
6087,-191.406250
6088,-195.312500
6089,-199.218750
6090,-203.125000
6091,-207.031250
6092,-207.031250
6093,-210.937500
6094,-214.843750
6095,-218.750000
6096,-222.656250
6097,-222.656250
6098,-226.562500
6099,-230.468750
6100,-234.375000
6101,-234.375000
6102,-238.281250
6103,-242.187500
6104,-246.093750
6105,-250.000000
6106,-250.000000
6107,-253.906250
6108,-257.812500
6109,-257.812500
6110,-261.718750
6111,-261.718750
6112,-265.625000
6113,-269.531250
6114,-269.531250
6115,-273.437500
6116,-273.437500
6117,-277.343750
6118,-277.343750
6119,-281.250000
6120,-281.250000
6121,-285.156250
6122,-285.156250
6123,-289.062500
6124,-289.062500
6125,-292.968750
6126,-292.968750
6127,-296.875000
6128,-296.875000
6129,-296.875000
6130,-300.781250
6131,-300.781250
6132,-300.781250
6133,-304.687500
6134,-304.687500
6135,-304.687500
6136,-304.687500
6137,-308.593750
6138,-308.593750
6139,-308.593750
6140,-308.593750
6141,-312.500000
6142,-312.500000
6143,-312.500000
6144,-312.500000
6145,-312.500000
6146,-312.500000
6147,-312.500000
6148,-312.500000
6149,-312.500000
6150,-316.406250
6151,-312.500000
6152,-312.500000
6153,-316.406250
6154,-312.500000
6155,-312.500000
6156,-312.500000
6157,-312.500000
6158,-312.500000
6159,-312.500000
6160,-312.500000
6161,-312.500000
6162,-312.500000
6163,-308.593750
6164,-308.593750
6165,-308.593750
6166,-308.593750
6167,-308.593750
6168,-308.593750
6169,-304.687500
6170,-304.687500
6171,-304.687500
6172,-300.781250
6173,-300.781250
6174,-300.781250
6175,-300.781250
6176,-296.875000
6177,-296.875000
6178,-292.968750
6179,-292.968750
6180,-289.062500
6181,-289.062500
6182,-289.062500
6183,-285.156250
6184,-285.156250
6185,-281.250000
6186,-281.250000
6187,-277.343750
6188,-277.343750
6189,-273.437500
6190,-273.437500
6191,-269.531250
6192,-265.625000
6193,-265.625000
6194,-261.718750
6195,-257.812500
6196,-257.812500
6197,-253.906250
6198,-250.000000
6199,-250.000000
6200,-246.093750
6201,-242.187500
6202,-238.281250
6203,-238.281250
6204,-234.375000
6205,-230.468750
6206,-230.468750
6207,-226.562500
6208,-222.656250
6209,-218.750000
6210,-214.843750
6211,-214.843750
6212,-207.031250
6213,-207.031250
6214,-203.125000
6215,-199.218750
6216,-195.312500
6217,-195.312500
6218,-187.500000
6219,-187.500000
6220,-183.593750
6221,-179.687500
6222,-175.781250
6223,-171.875000
6224,-167.968750
6225,-164.062500
6226,-160.156250
6227,-156.250000
6228,-156.250000
6229,-152.343750
6230,-148.437500
6231,-144.531250
6232,-140.625000
6233,-136.718750
6234,-132.812500
6235,-128.906250
6236,-125.000000
6237,-121.093750
6238,-117.187500
6239,-113.281250
6240,-109.375000
6241,-105.468750
6242,-101.562500
6243,-97.656250
6244,-93.750000
6245,-89.843750
6246,-93.750000
6247,-82.031250
6248,-78.125000
6249,-74.218750
6250,-70.312500
6251,-66.406250
6252,-62.500000
6253,-58.593750
6254,-54.687500
6255,-50.781250
6256,-50.781250
6257,-46.875000
6258,-39.062500
6259,-35.156250
6260,-31.250000
6261,-31.250000
6262,-27.343750
6263,-23.437500
6264,-19.531250
6265,-15.625000
6266,-11.718750
6267,-7.812500
6268,-7.812500
6269,0.000000
6270,3.906250
6271,3.906250
6272,7.812500
6273,11.718750
6274,15.625000
6275,19.531250
6276,23.437500
6277,27.343750
6278,31.250000
6279,31.250000
6280,35.156250
6281,39.062500
6282,39.062500
6283,42.968750
6284,46.875000
6285,50.781250
6286,54.687500
6287,54.687500
6288,58.593750
6289,58.593750
6290,62.500000
6291,66.406250
6292,70.312500
6293,74.218750
6294,74.218750
6295,78.125000
6296,78.125000
6297,82.031250
6298,82.031250
6299,85.937500
6300,89.843750
6301,89.843750
6302,93.750000
6303,93.750000
6304,97.656250
6305,97.656250
6306,101.562500
6307,105.468750
6308,105.468750
6309,109.375000
6310,109.375000
6311,113.281250
6312,113.281250
6313,117.187500
6314,117.187500
6315,121.093750
6316,121.093750
6317,121.093750
6318,125.000000
6319,125.000000
6320,125.000000
6321,128.906250
6322,128.906250
6323,132.812500
6324,132.812500
6325,132.812500
6326,136.718750
6327,136.718750
6328,136.718750
6329,136.718750
6330,140.625000
6331,140.625000
6332,140.625000
6333,144.531250
6334,144.531250
6335,144.531250
6336,144.531250
6337,144.531250
6338,148.437500
6339,148.437500
6340,148.437500
6341,148.437500
6342,148.437500
6343,148.437500
6344,152.343750
6345,152.343750
6346,152.343750
6347,152.343750
6348,152.343750
6349,152.343750
6350,156.250000
6351,156.250000
6352,156.250000
6353,156.250000
6354,156.250000
6355,156.250000
6356,156.250000
6357,156.250000
6358,160.156250
6359,156.250000
6360,156.250000
6361,156.250000
6362,156.250000
6363,156.250000
6364,156.250000
6365,156.250000
6366,156.250000
6367,156.250000
6368,156.250000
6369,152.343750
6370,156.250000
6371,152.343750
6372,152.343750
6373,152.343750
6374,152.343750
6375,152.343750
6376,152.343750
6377,152.343750
6378,152.343750
6379,148.437500
6380,148.437500
6381,148.437500
6382,148.437500
6383,148.437500
6384,144.531250
6385,144.531250
6386,144.531250
6387,144.531250
6388,144.531250
6389,140.625000
6390,144.531250
6391,140.625000
6392,136.718750
6393,136.718750
6394,136.718750
6395,136.718750
6396,132.812500
6397,132.812500
6398,132.812500
6399,128.906250
6400,128.906250
6401,128.906250
6402,125.000000
6403,125.000000
6404,125.000000
6405,121.093750
6406,121.093750
6407,117.187500
6408,117.187500
6409,113.281250
6410,113.281250
6411,109.375000
6412,109.375000
6413,105.468750
6414,105.468750
6415,101.562500
6416,101.562500
6417,97.656250
6418,97.656250
6419,93.750000
6420,93.750000
6421,89.843750
6422,85.937500
6423,85.937500
6424,82.031250
6425,78.125000
6426,78.125000
6427,74.218750
6428,74.218750
6429,70.312500
6430,66.406250
6431,62.500000
6432,62.500000
6433,58.593750
6434,54.687500
6435,54.687500
6436,54.687500
6437,46.875000
6438,42.968750
6439,39.062500
6440,35.156250
6441,35.156250
6442,31.250000
6443,31.250000
6444,23.437500
6445,23.437500
6446,19.531250
6447,15.625000
6448,15.625000
6449,7.812500
6450,3.906250
6451,0.000000
6452,0.000000
6453,-3.906250
6454,-7.812500
6455,-11.718750
6456,-15.625000
6457,-19.531250
6458,-23.437500
6459,-27.343750
6460,-31.250000
6461,-35.156250
6462,-39.062500
6463,-42.968750
6464,-42.968750
6465,-46.875000
6466,-50.781250
6467,-54.687500
6468,-58.593750
6469,-62.500000
6470,-66.406250
6471,-70.312500
6472,-74.218750
6473,-78.125000
6474,-82.031250
6475,-85.937500
6476,-89.843750
6477,-93.750000
6478,-97.656250
6479,-101.562500
6480,-105.468750
6481,-109.375000
6482,-113.281250
6483,-117.187500
6484,-121.093750
6485,-125.000000
6486,-128.906250
6487,-132.812500
6488,-136.718750
6489,-140.625000
6490,-144.531250
6491,-148.437500
6492,-152.343750
6493,-156.250000
6494,-160.156250
6495,-164.062500
6496,-164.062500
6497,-167.968750
6498,-171.875000
6499,-175.781250
6500,-179.687500
6501,-183.593750
6502,-187.500000
6503,-191.406250
6504,-195.312500
6505,-195.312500
6506,-199.218750
6507,-203.125000
6508,-207.031250
6509,-210.937500
6510,-214.843750
6511,-214.843750
6512,-218.750000
6513,-222.656250
6514,-226.562500
6515,-230.468750
6516,-230.468750
6517,-238.281250
6518,-238.281250
6519,-238.281250
6520,-242.187500
6521,-246.093750
6522,-250.000000
6523,-253.906250
6524,-253.906250
6525,-253.906250
6526,-257.812500
6527,-261.718750
6528,-265.625000
6529,-265.625000
6530,-269.531250
6531,-269.531250
6532,-273.437500
6533,-273.437500
6534,-277.343750
6535,-277.343750
6536,-281.250000
6537,-285.156250
6538,-285.156250
6539,-285.156250
6540,-289.062500
6541,-289.062500
6542,-292.968750
6543,-292.968750
6544,-296.875000
6545,-296.875000
6546,-296.875000
6547,-300.781250
6548,-300.781250
6549,-300.781250
6550,-304.687500
6551,-304.687500
6552,-304.687500
6553,-308.593750
6554,-308.593750
6555,-308.593750
6556,-308.593750
6557,-308.593750
6558,-308.593750
6559,-312.500000
6560,-312.500000
6561,-312.500000
6562,-312.500000
6563,-312.500000
6564,-312.500000
6565,-316.406250
6566,-316.406250
6567,-316.406250
6568,-312.500000
6569,-316.406250
6570,-316.406250
6571,-316.406250
6572,-312.500000
6573,-316.406250
6574,-312.500000
6575,-312.500000
6576,-312.500000
6577,-312.500000
6578,-312.500000
6579,-312.500000
6580,-312.500000
6581,-308.593750
6582,-308.593750
6583,-308.593750
6584,-308.593750
6585,-304.687500
6586,-304.687500
6587,-304.687500
6588,-304.687500
6589,-300.781250
6590,-300.781250
6591,-300.781250
6592,-296.875000
6593,-296.875000
6594,-296.875000
6595,-292.968750
6596,-292.968750
6597,-289.062500
6598,-289.062500
6599,-285.156250
6600,-285.156250
6601,-285.156250
6602,-281.250000
6603,-277.343750
6604,-277.343750
6605,-273.437500
6606,-273.437500
6607,-269.531250
6608,-269.531250
6609,-265.625000
6610,-261.718750
6611,-261.718750
6612,-257.812500
6613,-253.906250
6614,-253.906250
6615,-250.000000
6616,-250.000000
6617,-246.093750
6618,-242.187500
6619,-242.187500
6620,-238.281250
6621,-234.375000
6622,-230.468750
6623,-226.562500
6624,-226.562500
6625,-222.656250
6626,-218.750000
6627,-214.843750
6628,-210.937500
6629,-210.937500
6630,-207.031250
6631,-203.125000
6632,-199.218750
6633,-195.312500
6634,-191.406250
6635,-187.500000
6636,-187.500000
6637,-183.593750
6638,-179.687500
6639,-175.781250
6640,-171.875000
6641,-167.968750
6642,-164.062500
6643,-160.156250
6644,-156.250000
6645,-152.343750
6646,-148.437500
6647,-148.437500
6648,-140.625000
6649,-136.718750
6650,-132.812500
6651,-128.906250
6652,-128.906250
6653,-121.093750
6654,-121.093750
6655,-117.187500
6656,-113.281250
6657,-109.375000
6658,-105.468750
6659,-101.562500
6660,-97.656250
6661,-93.750000
6662,-85.937500
6663,-85.937500
6664,-82.031250
6665,-78.125000
6666,-74.218750
6667,-70.312500
6668,-66.406250
6669,-62.500000
6670,-58.593750
6671,-54.687500
6672,-50.781250
6673,-46.875000
6674,-42.968750
6675,-39.062500
6676,-35.156250
6677,-31.250000
6678,-27.343750
6679,-23.437500
6680,-23.437500
6681,-19.531250
6682,-15.625000
6683,-11.718750
6684,-7.812500
6685,-3.906250
6686,0.000000
6687,3.906250
6688,7.812500
6689,11.718750
6690,11.718750
6691,15.625000
6692,19.531250
6693,23.437500
6694,27.343750
6695,31.250000
6696,31.250000
6697,35.156250
6698,39.062500
6699,42.968750
6700,42.968750
6701,46.875000
6702,50.781250
6703,54.687500
6704,54.687500
6705,58.593750
6706,62.500000
6707,62.500000
6708,66.406250
6709,70.312500
6710,74.218750
6711,74.218750
6712,78.125000
6713,78.125000
6714,82.031250
6715,85.937500
6716,85.937500
6717,89.843750
6718,89.843750
6719,93.750000
6720,97.656250
6721,97.656250
6722,101.562500
6723,101.562500
6724,105.468750
6725,105.468750
6726,109.375000
6727,109.375000
6728,113.281250
6729,113.281250
6730,117.187500
6731,117.187500
6732,117.187500
6733,121.093750
6734,121.093750
6735,125.000000
6736,125.000000
6737,125.000000
6738,128.906250
6739,128.906250
6740,132.812500
6741,132.812500
6742,132.812500
6743,136.718750
6744,136.718750
6745,136.718750
6746,136.718750
6747,140.625000
6748,140.625000
6749,144.531250
6750,140.625000
6751,144.531250
6752,144.531250
6753,148.437500
6754,148.437500
6755,148.437500
6756,148.437500
6757,148.437500
6758,148.437500
6759,148.437500
6760,152.343750
6761,152.343750
6762,152.343750
6763,152.343750
6764,152.343750
6765,152.343750
6766,152.343750
6767,156.250000
6768,156.250000
6769,156.250000
6770,156.250000
6771,156.250000
6772,156.250000
6773,156.250000
6774,156.250000
6775,156.250000
6776,156.250000
6777,156.250000
6778,156.250000
6779,156.250000
6780,156.250000
6781,156.250000
6782,156.250000
6783,156.250000
6784,156.250000
6785,156.250000
6786,156.250000
6787,152.343750
6788,156.250000
6789,152.343750
6790,152.343750
6791,152.343750
6792,152.343750
6793,152.343750
6794,152.343750
6795,152.343750
6796,148.437500
6797,148.437500
6798,148.437500
6799,148.437500
6800,148.437500
6801,148.437500
6802,144.531250
6803,144.531250
6804,144.531250
6805,144.531250
6806,140.625000
6807,140.625000
6808,140.625000
6809,140.625000
6810,136.718750
6811,136.718750
6812,132.812500
6813,132.812500
6814,132.812500
6815,132.812500
6816,128.906250
6817,128.906250
6818,128.906250
6819,125.000000
6820,121.093750
6821,121.093750
6822,121.093750
6823,121.093750
6824,117.187500
6825,117.187500
6826,113.281250
6827,113.281250
6828,109.375000
6829,109.375000
6830,105.468750
6831,105.468750
6832,101.562500
6833,101.562500
6834,97.656250
6835,93.750000
6836,93.750000
6837,89.843750
6838,89.843750
6839,85.937500
6840,82.031250
6841,82.031250
6842,78.125000
6843,78.125000
6844,74.218750
6845,70.312500
6846,70.312500
6847,66.406250
6848,62.500000
6849,58.593750
6850,58.593750
6851,50.781250
6852,50.781250
6853,50.781250
6854,46.875000
6855,42.968750
6856,39.062500
6857,39.062500
6858,35.156250
6859,31.250000
6860,27.343750
6861,23.437500
6862,23.437500
6863,19.531250
6864,11.718750
6865,11.718750
6866,7.812500
6867,3.906250
6868,0.000000
6869,-3.906250
6870,-7.812500
6871,-7.812500
6872,-11.718750
6873,-15.625000
6874,-19.531250
6875,-23.437500
6876,-27.343750
6877,-31.250000
6878,-35.156250
6879,-39.062500
6880,-42.968750
6881,-46.875000
6882,-50.781250
6883,-54.687500
6884,-58.593750
6885,-58.593750
6886,-66.406250
6887,-66.406250
6888,-74.218750
6889,-78.125000
6890,-78.125000
6891,-85.937500
6892,-85.937500
6893,-93.750000
6894,-93.750000
6895,-97.656250
6896,-105.468750
6897,-109.375000
6898,-109.375000
6899,-113.281250
6900,-117.187500
6901,-121.093750
6902,-125.000000
6903,-128.906250
6904,-132.812500
6905,-136.718750
6906,-140.625000
6907,-144.531250
6908,-148.437500
6909,-152.343750
6910,-156.250000
6911,-160.156250
6912,-164.062500
6913,-164.062500
6914,-171.875000
6915,-171.875000
6916,-179.687500
6917,-179.687500
6918,-183.593750
6919,-187.500000
6920,-191.406250
6921,-195.312500
6922,-195.312500
6923,-199.218750
6924,-203.125000
6925,-207.031250
6926,-210.937500
6927,-214.843750
6928,-218.750000
6929,-218.750000
6930,-222.656250
6931,-226.562500
6932,-230.468750
6933,-234.375000
6934,-234.375000
6935,-238.281250
6936,-242.187500
6937,-246.093750
6938,-246.093750
6939,-250.000000
6940,-250.000000
6941,-253.906250
6942,-257.812500
6943,-257.812500
6944,-261.718750
6945,-265.625000
6946,-265.625000
6947,-269.531250
6948,-273.437500
6949,-273.437500
6950,-277.343750
6951,-277.343750
6952,-277.343750
6953,-281.250000
6954,-285.156250
6955,-285.156250
6956,-289.062500
6957,-289.062500
6958,-292.968750
6959,-292.968750
6960,-292.968750
6961,-296.875000
6962,-296.875000
6963,-296.875000
6964,-300.781250
6965,-300.781250
6966,-304.687500
6967,-304.687500
6968,-304.687500
6969,-304.687500
6970,-308.593750
6971,-308.593750
6972,-308.593750
6973,-308.593750
6974,-308.593750
6975,-312.500000
6976,-312.500000
6977,-312.500000
6978,-312.500000
6979,-312.500000
6980,-312.500000
6981,-312.500000
6982,-312.500000
6983,-312.500000
6984,-316.406250
6985,-312.500000
6986,-316.406250
6987,-316.406250
6988,-312.500000
6989,-312.500000
6990,-312.500000
6991,-312.500000
6992,-312.500000
6993,-312.500000
6994,-312.500000
6995,-312.500000
6996,-312.500000
6997,-312.500000
6998,-308.593750
6999,-308.593750
7000,-308.593750
7001,-308.593750
7002,-304.687500
7003,-304.687500
7004,-304.687500
7005,-300.781250
7006,-300.781250
7007,-300.781250
7008,-300.781250
7009,-296.875000
7010,-296.875000
7011,-292.968750
7012,-292.968750
7013,-292.968750
7014,-289.062500
7015,-289.062500
7016,-285.156250
7017,-285.156250
7018,-285.156250
7019,-281.250000
7020,-277.343750
7021,-277.343750
7022,-273.437500
7023,-273.437500
7024,-269.531250
7025,-269.531250
7026,-265.625000
7027,-261.718750
7028,-261.718750
7029,-257.812500
7030,-253.906250
7031,-253.906250
7032,-250.000000
7033,-250.000000
7034,-246.093750
7035,-242.187500
7036,-238.281250
7037,-238.281250
7038,-234.375000
7039,-230.468750
7040,-226.562500
7041,-222.656250
7042,-222.656250
7043,-218.750000
7044,-214.843750
7045,-210.937500
7046,-207.031250
7047,-207.031250
7048,-203.125000
7049,-199.218750
7050,-195.312500
7051,-191.406250
7052,-187.500000
7053,-183.593750
7054,-179.687500
7055,-175.781250
7056,-175.781250
7057,-171.875000
7058,-167.968750
7059,-164.062500
7060,-160.156250
7061,-156.250000
7062,-152.343750
7063,-148.437500
7064,-144.531250
7065,-140.625000
7066,-136.718750
7067,-132.812500
7068,-128.906250
7069,-125.000000
7070,-121.093750
7071,-117.187500
7072,-113.281250
7073,-109.375000
7074,-105.468750
7075,-101.562500
7076,-97.656250
7077,-93.750000
7078,-89.843750
7079,-85.937500
7080,-82.031250
7081,-82.031250
7082,-74.218750
7083,-74.218750
7084,-66.406250
7085,-66.406250
7086,-62.500000
7087,-58.593750
7088,-54.687500
7089,-50.781250
7090,-46.875000
7091,-42.968750
7092,-39.062500
7093,-35.156250
7094,-31.250000
7095,-27.343750
7096,-23.437500
7097,-19.531250
7098,-15.625000
7099,-11.718750
7100,-11.718750
7101,-3.906250
7102,-3.906250
7103,0.000000
7104,3.906250
7105,7.812500
7106,11.718750
7107,15.625000
7108,15.625000
7109,23.437500
7110,23.437500
7111,27.343750
7112,31.250000
7113,31.250000
7114,39.062500
7115,39.062500
7116,42.968750
7117,46.875000
7118,50.781250
7119,50.781250
7120,54.687500
7121,58.593750
7122,58.593750
7123,62.500000
7124,66.406250
7125,66.406250
7126,70.312500
7127,74.218750
7128,78.125000
7129,78.125000
7130,82.031250
7131,82.031250
7132,85.937500
7133,89.843750
7134,89.843750
7135,93.750000
7136,93.750000
7137,97.656250
7138,101.562500
7139,101.562500
7140,101.562500
7141,105.468750
7142,109.375000
7143,109.375000
7144,109.375000
7145,113.281250
7146,117.187500
7147,117.187500
7148,117.187500
7149,121.093750
7150,121.093750
7151,121.093750
7152,125.000000
7153,125.000000
7154,128.906250
7155,128.906250
7156,128.906250
7157,132.812500
7158,132.812500
7159,136.718750
7160,136.718750
7161,136.718750
7162,136.718750
7163,140.625000
7164,140.625000
7165,140.625000
7166,140.625000
7167,144.531250
7168,144.531250
7169,144.531250
7170,144.531250
7171,148.437500
7172,148.437500
7173,148.437500
7174,148.437500
7175,148.437500
7176,152.343750
7177,152.343750
7178,152.343750
7179,152.343750
7180,152.343750
7181,152.343750
7182,156.250000
7183,152.343750
7184,156.250000
7185,156.250000
7186,156.250000
7187,156.250000
7188,156.250000
7189,156.250000
7190,156.250000
7191,156.250000
7192,156.250000
7193,156.250000
7194,156.250000
7195,156.250000
7196,156.250000
7197,156.250000
7198,156.250000
7199,156.250000
7200,156.250000
7201,156.250000
7202,156.250000
7203,156.250000
7204,156.250000
7205,152.343750
7206,152.343750
7207,152.343750
7208,152.343750
7209,152.343750
7210,152.343750
7211,152.343750
7212,152.343750
7213,148.437500
7214,148.437500
7215,148.437500
7216,148.437500
7217,148.437500
7218,148.437500
7219,144.531250
7220,144.531250
7221,144.531250
7222,144.531250
7223,144.531250
7224,140.625000
7225,140.625000
7226,140.625000
7227,136.718750
7228,136.718750
7229,136.718750
7230,132.812500
7231,132.812500
7232,128.906250
7233,128.906250
7234,128.906250
7235,125.000000
7236,125.000000
7237,125.000000
7238,121.093750
7239,121.093750
7240,117.187500
7241,117.187500
7242,117.187500
7243,113.281250
7244,113.281250
7245,109.375000
7246,109.375000
7247,105.468750
7248,105.468750
7249,101.562500
7250,101.562500
7251,97.656250
7252,93.750000
7253,93.750000
7254,89.843750
7255,89.843750
7256,85.937500
7257,82.031250
7258,82.031250
7259,78.125000
7260,78.125000
7261,74.218750
7262,70.312500
7263,66.406250
7264,66.406250
7265,62.500000
7266,58.593750
7267,58.593750
7268,54.687500
7269,50.781250
7270,46.875000
7271,46.875000
7272,42.968750
7273,39.062500
7274,35.156250
7275,31.250000
7276,31.250000
7277,27.343750
7278,23.437500
7279,19.531250
7280,15.625000
7281,11.718750
7282,11.718750
7283,7.812500
7284,3.906250
7285,0.000000
7286,-3.906250
7287,-7.812500
7288,-11.718750
7289,-15.625000
7290,-19.531250
7291,-23.437500
7292,-23.437500
7293,-27.343750
7294,-31.250000
7295,-35.156250
7296,-39.062500
7297,-42.968750
7298,-46.875000
7299,-50.781250
7300,-54.687500
7301,-58.593750
7302,-62.500000
7303,-66.406250
7304,-70.312500
7305,-74.218750
7306,-78.125000
7307,-82.031250
7308,-85.937500
7309,-89.843750
7310,-93.750000
7311,-93.750000
7312,-97.656250
7313,-101.562500
7314,-105.468750
7315,-109.375000
7316,-113.281250
7317,-117.187500
7318,-121.093750
7319,-125.000000
7320,-128.906250
7321,-132.812500
7322,-136.718750
7323,-140.625000
7324,-144.531250
7325,-148.437500
7326,-152.343750
7327,-156.250000
7328,-160.156250
7329,-164.062500
7330,-167.968750
7331,-171.875000
7332,-175.781250
7333,-179.687500
7334,-183.593750
7335,-183.593750
7336,-187.500000
7337,-191.406250
7338,-195.312500
7339,-199.218750
7340,-203.125000
7341,-207.031250
7342,-207.031250
7343,-210.937500
7344,-214.843750
7345,-218.750000
7346,-222.656250
7347,-222.656250
7348,-226.562500
7349,-230.468750
7350,-234.375000
7351,-238.281250
7352,-238.281250
7353,-242.187500
7354,-246.093750
7355,-246.093750
7356,-250.000000
7357,-253.906250
7358,-253.906250
7359,-257.812500
7360,-261.718750
7361,-261.718750
7362,-265.625000
7363,-265.625000
7364,-269.531250
7365,-273.437500
7366,-273.437500
7367,-277.343750
7368,-277.343750
7369,-281.250000
7370,-281.250000
7371,-285.156250
7372,-285.156250
7373,-289.062500
7374,-289.062500
7375,-292.968750
7376,-292.968750
7377,-296.875000
7378,-296.875000
7379,-296.875000
7380,-300.781250
7381,-300.781250
7382,-300.781250
7383,-300.781250
7384,-304.687500
7385,-304.687500
7386,-304.687500
7387,-308.593750
7388,-308.593750
7389,-308.593750
7390,-308.593750
7391,-312.500000
7392,-312.500000
7393,-312.500000
7394,-312.500000
7395,-312.500000
7396,-312.500000
7397,-312.500000
7398,-312.500000
7399,-316.406250
7400,-316.406250
7401,-316.406250
7402,-316.406250
7403,-312.500000
7404,-316.406250
7405,-316.406250
7406,-316.406250
7407,-316.406250
7408,-312.500000
7409,-312.500000
7410,-312.500000
7411,-312.500000
7412,-312.500000
7413,-312.500000
7414,-312.500000
7415,-312.500000
7416,-308.593750
7417,-308.593750
7418,-308.593750
7419,-304.687500
7420,-304.687500
7421,-304.687500
7422,-304.687500
7423,-300.781250
7424,-300.781250
7425,-300.781250
7426,-296.875000
7427,-296.875000
7428,-292.968750
7429,-292.968750
7430,-292.968750
7431,-289.062500
7432,-289.062500
7433,-285.156250
7434,-285.156250
7435,-281.250000
7436,-281.250000
7437,-277.343750
7438,-277.343750
7439,-273.437500
7440,-273.437500
7441,-269.531250
7442,-265.625000
7443,-265.625000
7444,-261.718750
7445,-261.718750
7446,-257.812500
7447,-253.906250
7448,-253.906250
7449,-250.000000
7450,-246.093750
7451,-242.187500
7452,-242.187500
7453,-238.281250
7454,-234.375000
7455,-234.375000
7456,-230.468750
7457,-226.562500
7458,-222.656250
7459,-222.656250
7460,-218.750000
7461,-214.843750
7462,-210.937500
7463,-207.031250
7464,-203.125000
7465,-199.218750
7466,-199.218750
7467,-195.312500
7468,-191.406250
7469,-187.500000
7470,-183.593750
7471,-179.687500
7472,-175.781250
7473,-171.875000
7474,-171.875000
7475,-167.968750
7476,-164.062500
7477,-160.156250
7478,-156.250000
7479,-152.343750
7480,-148.437500
7481,-144.531250
7482,-140.625000
7483,-136.718750
7484,-132.812500
7485,-128.906250
7486,-125.000000
7487,-121.093750
7488,-117.187500
7489,-113.281250
7490,-109.375000
7491,-105.468750
7492,-101.562500
7493,-97.656250
7494,-93.750000
7495,-89.843750
7496,-85.937500
7497,-82.031250
7498,-78.125000
7499,-74.218750
7500,-70.312500
7501,-66.406250
7502,-62.500000
7503,-62.500000
7504,-58.593750
7505,-50.781250
7506,-46.875000
7507,-42.968750
7508,-42.968750
7509,-39.062500
7510,-35.156250
7511,-31.250000
7512,-27.343750
7513,-23.437500
7514,-19.531250
7515,-15.625000
7516,-11.718750
7517,-7.812500
7518,-3.906250
7519,-3.906250
7520,0.000000
7521,3.906250
7522,7.812500
7523,11.718750
7524,15.625000
7525,19.531250
7526,19.531250
7527,23.437500
7528,27.343750
7529,31.250000
7530,35.156250
7531,35.156250
7532,39.062500
7533,42.968750
7534,46.875000
7535,50.781250
7536,50.781250
7537,54.687500
7538,58.593750
7539,58.593750
7540,62.500000
7541,66.406250
7542,66.406250
7543,70.312500
7544,74.218750
7545,78.125000
7546,78.125000
7547,82.031250
7548,82.031250
7549,85.937500
7550,89.843750
7551,89.843750
7552,93.750000
7553,93.750000
7554,97.656250
7555,101.562500
7556,101.562500
7557,105.468750
7558,105.468750
7559,109.375000
7560,109.375000
7561,113.281250
7562,113.281250
7563,113.281250
7564,117.187500
7565,121.093750
7566,121.093750
7567,121.093750
7568,125.000000
7569,125.000000
7570,128.906250
7571,128.906250
7572,128.906250
7573,132.812500
7574,132.812500
7575,132.812500
7576,136.718750
7577,136.718750
7578,136.718750
7579,136.718750
7580,140.625000
7581,140.625000
7582,140.625000
7583,140.625000
7584,144.531250
7585,144.531250
7586,144.531250
7587,148.437500
7588,148.437500
7589,148.437500
7590,148.437500
7591,148.437500
7592,152.343750
7593,152.343750
7594,152.343750
7595,152.343750
7596,152.343750
7597,152.343750
7598,152.343750
7599,152.343750
7600,152.343750
7601,152.343750
7602,156.250000
7603,156.250000
7604,156.250000
7605,156.250000
7606,156.250000
7607,156.250000
7608,156.250000
7609,156.250000
7610,156.250000
7611,156.250000
7612,156.250000
7613,156.250000
7614,156.250000
7615,156.250000
7616,156.250000
7617,156.250000
7618,156.250000
7619,156.250000
7620,156.250000
7621,152.343750
7622,152.343750
7623,152.343750
7624,152.343750
7625,152.343750
7626,152.343750
7627,152.343750
7628,152.343750
7629,148.437500
7630,148.437500
7631,152.343750
7632,148.437500
7633,148.437500
7634,148.437500
7635,144.531250
7636,144.531250
7637,144.531250
7638,144.531250
7639,140.625000
7640,140.625000
7641,140.625000
7642,140.625000
7643,140.625000
7644,136.718750
7645,136.718750
7646,136.718750
7647,132.812500
7648,132.812500
7649,128.906250
7650,128.906250
7651,128.906250
7652,125.000000
7653,125.000000
7654,125.000000
7655,121.093750
7656,117.187500
7657,121.093750
7658,117.187500
7659,113.281250
7660,113.281250
7661,109.375000
7662,109.375000
7663,105.468750
7664,105.468750
7665,101.562500
7666,101.562500
7667,97.656250
7668,97.656250
7669,97.656250
7670,93.750000
7671,89.843750
7672,85.937500
7673,85.937500
7674,82.031250
7675,82.031250
7676,78.125000
7677,74.218750
7678,70.312500
7679,70.312500
7680,66.406250
7681,66.406250
7682,62.500000
7683,58.593750
7684,54.687500
7685,54.687500
7686,50.781250
7687,46.875000
7688,46.875000
7689,42.968750
7690,39.062500
7691,35.156250
7692,31.250000
7693,27.343750
7694,27.343750
7695,23.437500
7696,19.531250
7697,15.625000
7698,11.718750
7699,7.812500
7700,3.906250
7701,3.906250
7702,0.000000
7703,-3.906250
7704,-7.812500
7705,-11.718750
7706,-15.625000
7707,-19.531250
7708,-23.437500
7709,-27.343750
7710,-31.250000
7711,-31.250000
7712,-35.156250
7713,-39.062500
7714,-42.968750
7715,-46.875000
7716,-50.781250
7717,-54.687500
7718,-58.593750
7719,-62.500000
7720,-66.406250
7721,-70.312500
7722,-74.218750
7723,-78.125000
7724,-82.031250
7725,-85.937500
7726,-89.843750
7727,-93.750000
7728,-97.656250
7729,-101.562500
7730,-105.468750
7731,-109.375000
7732,-113.281250
7733,-117.187500
7734,-121.093750
7735,-125.000000
7736,-128.906250
7737,-132.812500
7738,-136.718750
7739,-140.625000
7740,-144.531250
7741,-144.531250
7742,-152.343750
7743,-156.250000
7744,-156.250000
7745,-164.062500
7746,-164.062500
7747,-167.968750
7748,-171.875000
7749,-175.781250
7750,-179.687500
7751,-183.593750
7752,-187.500000
7753,-191.406250
7754,-191.406250
7755,-195.312500
7756,-199.218750
7757,-203.125000
7758,-207.031250
7759,-210.937500
7760,-214.843750
7761,-214.843750
7762,-218.750000
7763,-222.656250
7764,-226.562500
7765,-226.562500
7766,-230.468750
7767,-230.468750
7768,-238.281250
7769,-238.281250
7770,-242.187500
7771,-246.093750
7772,-246.093750
7773,-250.000000
7774,-253.906250
7775,-257.812500
7776,-257.812500
7777,-261.718750
7778,-265.625000
7779,-265.625000
7780,-269.531250
7781,-269.531250
7782,-273.437500
7783,-273.437500
7784,-277.343750
7785,-281.250000
7786,-281.250000
7787,-281.250000
7788,-285.156250
7789,-285.156250
7790,-289.062500
7791,-289.062500
7792,-292.968750
7793,-292.968750
7794,-296.875000
7795,-296.875000
7796,-296.875000
7797,-300.781250
7798,-300.781250
7799,-300.781250
7800,-304.687500
7801,-304.687500
7802,-304.687500
7803,-308.593750
7804,-308.593750
7805,-308.593750
7806,-308.593750
7807,-312.500000
7808,-312.500000
7809,-312.500000
7810,-312.500000
7811,-312.500000
7812,-312.500000
7813,-312.500000
7814,-312.500000
7815,-312.500000
7816,-316.406250
7817,-316.406250
7818,-312.500000
7819,-316.406250
7820,-316.406250
7821,-312.500000
7822,-312.500000
7823,-312.500000
7824,-312.500000
7825,-312.500000
7826,-312.500000
7827,-312.500000
7828,-312.500000
7829,-312.500000
7830,-308.593750
7831,-308.593750
7832,-308.593750
7833,-308.593750
7834,-308.593750
7835,-308.593750
7836,-304.687500
7837,-304.687500
7838,-300.781250
7839,-300.781250
7840,-300.781250
7841,-300.781250
7842,-296.875000
7843,-296.875000
7844,-296.875000
7845,-292.968750
7846,-292.968750
7847,-289.062500
7848,-289.062500
7849,-289.062500
7850,-285.156250
7851,-285.156250
7852,-281.250000
7853,-281.250000
7854,-277.343750
7855,-277.343750
7856,-273.437500
7857,-273.437500
7858,-269.531250
7859,-265.625000
7860,-265.625000
7861,-261.718750
7862,-257.812500
7863,-257.812500
7864,-253.906250
7865,-253.906250
7866,-250.000000
7867,-246.093750
7868,-242.187500
7869,-242.187500
7870,-238.281250
7871,-234.375000
7872,-234.375000
7873,-230.468750
7874,-226.562500
7875,-222.656250
7876,-218.750000
7877,-214.843750
7878,-214.843750
7879,-210.937500
7880,-207.031250
7881,-203.125000
7882,-199.218750
7883,-195.312500
7884,-195.312500
7885,-191.406250
7886,-187.500000
7887,-183.593750
7888,-179.687500
7889,-175.781250
7890,-171.875000
7891,-167.968750
7892,-164.062500
7893,-160.156250
7894,-156.250000
7895,-156.250000
7896,-152.343750
7897,-148.437500
7898,-140.625000
7899,-140.625000
7900,-136.718750
7901,-132.812500
7902,-128.906250
7903,-125.000000
7904,-121.093750
7905,-117.187500
7906,-113.281250
7907,-109.375000
7908,-105.468750
7909,-101.562500
7910,-97.656250
7911,-93.750000
7912,-89.843750
7913,-85.937500
7914,-82.031250
7915,-78.125000
7916,-74.218750
7917,-70.312500
7918,-66.406250
7919,-62.500000
7920,-58.593750
7921,-54.687500
7922,-50.781250
7923,-46.875000
7924,-46.875000
7925,-39.062500
7926,-39.062500
7927,-31.250000
7928,-31.250000
7929,-31.250000
7930,-23.437500
7931,-19.531250
7932,-15.625000
7933,-11.718750
7934,-7.812500
7935,-3.906250
7936,0.000000
7937,3.906250
7938,7.812500
7939,7.812500
7940,11.718750
7941,15.625000
7942,19.531250
7943,23.437500
7944,23.437500
7945,27.343750
7946,31.250000
7947,35.156250
7948,39.062500
7949,39.062500
7950,42.968750
7951,46.875000
7952,50.781250
7953,50.781250
7954,54.687500
7955,58.593750
7956,62.500000
7957,62.500000
7958,66.406250
7959,70.312500
7960,74.218750
7961,74.218750
7962,78.125000
7963,82.031250
7964,82.031250
7965,85.937500
7966,85.937500
7967,89.843750
7968,93.750000
7969,93.750000
7970,97.656250
7971,97.656250
7972,101.562500
7973,101.562500
7974,105.468750
7975,105.468750
7976,109.375000
7977,109.375000
7978,113.281250
7979,113.281250
7980,117.187500
7981,117.187500
7982,121.093750
7983,121.093750
7984,125.000000
7985,125.000000
7986,125.000000
7987,128.906250
7988,128.906250
7989,128.906250
7990,132.812500
7991,132.812500
7992,132.812500
7993,136.718750
7994,136.718750
7995,136.718750
7996,136.718750
7997,140.625000
7998,140.625000
7999,140.625000
8000,144.531250
8001,144.531250
8002,144.531250
8003,144.531250
8004,144.531250
8005,148.437500
8006,148.437500
8007,148.437500
8008,148.437500
8009,152.343750
8010,152.343750
8011,152.343750
8012,152.343750
8013,152.343750
8014,152.343750
8015,152.343750
8016,152.343750
8017,156.250000
8018,156.250000
8019,156.250000
8020,156.250000
8021,156.250000
8022,156.250000
8023,156.250000
8024,156.250000
8025,156.250000
8026,156.250000
8027,156.250000
8028,156.250000
8029,156.250000
8030,156.250000
8031,156.250000
8032,156.250000
8033,156.250000
8034,156.250000
8035,156.250000
8036,156.250000
8037,156.250000
8038,156.250000
8039,152.343750
8040,152.343750
8041,152.343750
8042,152.343750
8043,152.343750
8044,152.343750
8045,152.343750
8046,148.437500
8047,148.437500
8048,144.531250
8049,148.437500
8050,148.437500
8051,148.437500
8052,144.531250
8053,144.531250
8054,144.531250
8055,144.531250
8056,144.531250
8057,140.625000
8058,140.625000
8059,140.625000
8060,136.718750
8061,136.718750
8062,136.718750
8063,132.812500
8064,132.812500
8065,132.812500
8066,128.906250
8067,128.906250
8068,125.000000
8069,125.000000
8070,125.000000
8071,121.093750
8072,121.093750
8073,117.187500
8074,117.187500
8075,117.187500
8076,113.281250
8077,113.281250
8078,109.375000
8079,109.375000
8080,105.468750
8081,105.468750
8082,101.562500
8083,101.562500
8084,97.656250
8085,97.656250
8086,93.750000
8087,89.843750
8088,89.843750
8089,85.937500
8090,85.937500
8091,82.031250
8092,78.125000
8093,78.125000
8094,74.218750
8095,70.312500
8096,70.312500
8097,66.406250
8098,62.500000
8099,62.500000
8100,58.593750
8101,54.687500
8102,50.781250
8103,50.781250
8104,46.875000
8105,42.968750
8106,39.062500
8107,39.062500
8108,35.156250
8109,31.250000
8110,27.343750
8111,23.437500
8112,23.437500
8113,19.531250
8114,15.625000
8115,11.718750
8116,7.812500
8117,3.906250
8118,0.000000
8119,0.000000
8120,-3.906250
8121,-7.812500
8122,-11.718750
8123,-15.625000
8124,-19.531250
8125,-23.437500
8126,-27.343750
8127,-31.250000
8128,-35.156250
8129,-39.062500
8130,-39.062500
8131,-46.875000
8132,-50.781250
8133,-54.687500
8134,-54.687500
8135,-58.593750
8136,-62.500000
8137,-66.406250
8138,-70.312500
8139,-74.218750
8140,-78.125000
8141,-82.031250
8142,-85.937500
8143,-89.843750
8144,-93.750000
8145,-97.656250
8146,-101.562500
8147,-105.468750
8148,-109.375000
8149,-113.281250
8150,-117.187500
8151,-121.093750
8152,-125.000000
8153,-128.906250
8154,-132.812500
8155,-136.718750
8156,-140.625000
8157,-144.531250
8158,-148.437500
8159,-152.343750
8160,-156.250000
8161,-156.250000
8162,-160.156250
8163,-164.062500
8164,-167.968750
8165,-171.875000
8166,-175.781250
8167,-179.687500
8168,-183.593750
8169,-187.500000
8170,-191.406250
8171,-195.312500
8172,-195.312500
8173,-199.218750
8174,-203.125000
8175,-207.031250
8176,-210.937500
8177,-214.843750
8178,-214.843750
8179,-218.750000
8180,-222.656250
8181,-226.562500
8182,-230.468750
8183,-230.468750
8184,-234.375000
8185,-238.281250
8186,-242.187500
8187,-242.187500
8188,-246.093750
8189,-246.093750
8190,-250.000000
8191,-253.906250
8192,-257.812500
8193,-257.812500
8194,-261.718750
8195,-265.625000
8196,-265.625000
8197,-269.531250
8198,-273.437500
8199,-273.437500
8200,-273.437500
8201,-277.343750
8202,-281.250000
8203,-281.250000
8204,-281.250000
8205,-285.156250
8206,-289.062500
8207,-289.062500
8208,-292.968750
8209,-292.968750
8210,-292.968750
8211,-296.875000
8212,-296.875000
8213,-300.781250
8214,-300.781250
8215,-300.781250
8216,-300.781250
8217,-304.687500
8218,-304.687500
8219,-304.687500
8220,-304.687500
8221,-308.593750
8222,-308.593750
8223,-308.593750
8224,-308.593750
8225,-312.500000
8226,-312.500000
8227,-312.500000
8228,-312.500000
8229,-312.500000
8230,-312.500000
8231,-312.500000
8232,-312.500000
8233,-316.406250
8234,-312.500000
8235,-316.406250
8236,-316.406250
8237,-316.406250
8238,-316.406250
8239,-316.406250
8240,-312.500000
8241,-312.500000
8242,-312.500000
8243,-312.500000
8244,-312.500000
8245,-312.500000
8246,-312.500000
8247,-312.500000
8248,-308.593750
8249,-308.593750
8250,-308.593750
8251,-308.593750
8252,-308.593750
8253,-304.687500
8254,-304.687500
8255,-304.687500
8256,-304.687500
8257,-300.781250
8258,-300.781250
8259,-300.781250
8260,-296.875000
8261,-296.875000
8262,-292.968750
8263,-292.968750
8264,-292.968750
8265,-289.062500
8266,-285.156250
8267,-285.156250
8268,-285.156250
8269,-281.250000
8270,-277.343750
8271,-277.343750
8272,-277.343750
8273,-273.437500
8274,-269.531250
8275,-269.531250
8276,-265.625000
8277,-261.718750
8278,-261.718750
8279,-257.812500
8280,-257.812500
8281,-253.906250
8282,-250.000000
8283,-250.000000
8284,-246.093750
8285,-242.187500
8286,-238.281250
8287,-238.281250
8288,-234.375000
8289,-230.468750
8290,-226.562500
8291,-226.562500
8292,-222.656250
8293,-218.750000
8294,-214.843750
8295,-214.843750
8296,-207.031250
8297,-203.125000
8298,-203.125000
8299,-199.218750
8300,-195.312500
8301,-191.406250
8302,-187.500000
8303,-187.500000
8304,-179.687500
8305,-179.687500
8306,-175.781250
8307,-171.875000
8308,-167.968750
8309,-164.062500
8310,-160.156250
8311,-156.250000
8312,-152.343750
8313,-148.437500
8314,-148.437500
8315,-140.625000
8316,-140.625000
8317,-132.812500
8318,-128.906250
8319,-125.000000
8320,-125.000000
8321,-121.093750
8322,-117.187500
8323,-113.281250
8324,-109.375000
8325,-105.468750
8326,-101.562500
8327,-97.656250
8328,-93.750000
8329,-89.843750
8330,-85.937500
8331,-82.031250
8332,-78.125000
8333,-74.218750
8334,-70.312500
8335,-66.406250
8336,-62.500000
8337,-58.593750
8338,-54.687500
8339,-50.781250
8340,-46.875000
8341,-42.968750
8342,-39.062500
8343,-35.156250
8344,-31.250000
8345,-27.343750
8346,-23.437500
8347,-19.531250
8348,-15.625000
8349,-15.625000
8350,-11.718750
8351,-7.812500
8352,-3.906250
8353,0.000000
8354,3.906250
8355,7.812500
8356,11.718750
8357,11.718750
8358,15.625000
8359,19.531250
8360,23.437500
8361,27.343750
8362,31.250000
8363,31.250000
8364,35.156250
8365,39.062500
8366,42.968750
8367,42.968750
8368,46.875000
8369,50.781250
8370,54.687500
8371,54.687500
8372,58.593750
8373,62.500000
8374,66.406250
8375,66.406250
8376,70.312500
8377,74.218750
8378,74.218750
8379,78.125000
8380,82.031250
8381,82.031250
8382,85.937500
8383,85.937500
8384,89.843750
8385,93.750000
8386,93.750000
8387,97.656250
8388,97.656250
8389,101.562500
8390,101.562500
8391,105.468750
8392,105.468750
8393,109.375000
8394,109.375000
8395,113.281250
8396,117.187500
8397,117.187500
8398,121.093750
8399,121.093750
8400,121.093750
8401,125.000000
8402,125.000000
8403,125.000000
8404,128.906250
8405,128.906250
8406,128.906250
8407,132.812500
8408,132.812500
8409,136.718750
8410,136.718750
8411,136.718750
8412,136.718750
8413,140.625000
8414,140.625000
8415,140.625000
8416,140.625000
8417,144.531250
8418,144.531250
8419,148.437500
8420,148.437500
8421,148.437500
8422,148.437500
8423,148.437500
8424,148.437500
8425,148.437500
8426,152.343750
8427,152.343750
8428,152.343750
8429,152.343750
8430,152.343750
8431,152.343750
8432,152.343750
8433,152.343750
8434,156.250000
8435,156.250000
8436,156.250000
8437,156.250000
8438,156.250000
8439,156.250000
8440,156.250000
8441,156.250000
8442,156.250000
8443,156.250000
8444,156.250000
8445,156.250000
8446,156.250000
8447,156.250000
8448,156.250000
8449,156.250000
8450,156.250000
8451,156.250000
8452,156.250000
8453,156.250000
8454,152.343750
8455,152.343750
8456,152.343750
8457,152.343750
8458,152.343750
8459,152.343750
8460,152.343750
8461,152.343750
8462,152.343750
8463,148.437500
8464,148.437500
8465,148.437500
8466,148.437500
8467,148.437500
8468,148.437500
8469,144.531250
8470,144.531250
8471,144.531250
8472,144.531250
8473,140.625000
8474,140.625000
8475,140.625000
8476,140.625000
8477,136.718750
8478,136.718750
8479,136.718750
8480,132.812500
8481,132.812500
8482,132.812500
8483,128.906250
8484,128.906250
8485,128.906250
8486,125.000000
8487,125.000000
8488,121.093750
8489,121.093750
8490,121.093750
8491,117.187500
8492,117.187500
8493,113.281250
8494,113.281250
8495,109.375000
8496,109.375000
8497,105.468750
8498,105.468750
8499,101.562500
8500,101.562500
8501,97.656250
8502,93.750000
8503,93.750000
8504,89.843750
8505,89.843750
8506,85.937500
8507,82.031250
8508,82.031250
8509,78.125000
8510,74.218750
8511,74.218750
8512,70.312500
8513,70.312500
8514,66.406250
8515,62.500000
8516,62.500000
8517,58.593750
8518,54.687500
8519,50.781250
8520,46.875000
8521,46.875000
8522,42.968750
8523,39.062500
8524,39.062500
8525,31.250000
8526,31.250000
8527,27.343750
8528,23.437500
8529,23.437500
8530,15.625000
8531,11.718750
8532,11.718750
8533,7.812500
8534,3.906250
8535,0.000000
8536,-3.906250
8537,-3.906250
8538,-7.812500
8539,-11.718750
8540,-15.625000
8541,-19.531250
8542,-23.437500
8543,-27.343750
8544,-31.250000
8545,-35.156250
8546,-39.062500
8547,-42.968750
8548,-46.875000
8549,-50.781250
8550,-54.687500
8551,-54.687500
8552,-62.500000
8553,-66.406250
8554,-66.406250
8555,-70.312500
8556,-74.218750
8557,-82.031250
8558,-82.031250
8559,-85.937500
8560,-89.843750
8561,-93.750000
8562,-101.562500
8563,-101.562500
8564,-105.468750
8565,-109.375000
8566,-113.281250
8567,-121.093750
8568,-121.093750
8569,-125.000000
8570,-128.906250
8571,-132.812500
8572,-136.718750
8573,-140.625000
8574,-144.531250
8575,-148.437500
8576,-152.343750
8577,-156.250000
8578,-160.156250
8579,-164.062500
8580,-167.968750
8581,-171.875000
8582,-171.875000
8583,-175.781250
8584,-179.687500
8585,-183.593750
8586,-187.500000
8587,-191.406250
8588,-195.312500
8589,-199.218750
8590,-199.218750
8591,-203.125000
8592,-207.031250
8593,-210.937500
8594,-214.843750
8595,-214.843750
8596,-222.656250
8597,-222.656250
8598,-226.562500
8599,-230.468750
8600,-230.468750
8601,-234.375000
8602,-238.281250
8603,-242.187500
8604,-246.093750
8605,-246.093750
8606,-250.000000
8607,-253.906250
8608,-253.906250
8609,-257.812500
8610,-257.812500
8611,-261.718750
8612,-265.625000
8613,-265.625000
8614,-269.531250
8615,-269.531250
8616,-273.437500
8617,-277.343750
8618,-277.343750
8619,-281.250000
8620,-281.250000
8621,-285.156250
8622,-285.156250
8623,-289.062500
8624,-289.062500
8625,-292.968750
8626,-292.968750
8627,-292.968750
8628,-296.875000
8629,-296.875000
8630,-300.781250
8631,-300.781250
8632,-300.781250
8633,-304.687500
8634,-304.687500
8635,-304.687500
8636,-312.500000
8637,-308.593750
8638,-308.593750
8639,-308.593750
8640,-308.593750
8641,-308.593750
8642,-312.500000
8643,-312.500000
8644,-312.500000
8645,-312.500000
8646,-316.406250
8647,-312.500000
8648,-312.500000
8649,-316.406250
8650,-312.500000
8651,-316.406250
8652,-312.500000
8653,-312.500000
8654,-316.406250
8655,-316.406250
8656,-312.500000
8657,-312.500000
8658,-316.406250
8659,-312.500000
8660,-312.500000
8661,-312.500000
8662,-312.500000
8663,-312.500000
8664,-312.500000
8665,-308.593750
8666,-308.593750
8667,-308.593750
8668,-308.593750
8669,-304.687500
8670,-304.687500
8671,-304.687500
8672,-304.687500
8673,-300.781250
8674,-300.781250
8675,-296.875000
8676,-296.875000
8677,-296.875000
8678,-292.968750
8679,-292.968750
8680,-292.968750
8681,-289.062500
8682,-289.062500
8683,-285.156250
8684,-285.156250
8685,-281.250000
8686,-281.250000
8687,-277.343750
8688,-277.343750
8689,-273.437500
8690,-273.437500
8691,-269.531250
8692,-269.531250
8693,-265.625000
8694,-261.718750
8695,-261.718750
8696,-257.812500
8697,-257.812500
8698,-253.906250
8699,-250.000000
8700,-250.000000
8701,-246.093750
8702,-242.187500
8703,-238.281250
8704,-238.281250
8705,-234.375000
8706,-230.468750
8707,-226.562500
8708,-222.656250
8709,-222.656250
8710,-218.750000
8711,-214.843750
8712,-210.937500
8713,-207.031250
8714,-207.031250
8715,-203.125000
8716,-199.218750
8717,-195.312500
8718,-191.406250
8719,-187.500000
8720,-183.593750
8721,-179.687500
8722,-175.781250
8723,-175.781250
8724,-171.875000
8725,-167.968750
8726,-164.062500
8727,-160.156250
8728,-156.250000
8729,-152.343750
8730,-148.437500
8731,-144.531250
8732,-140.625000
8733,-136.718750
8734,-132.812500
8735,-128.906250
8736,-125.000000
8737,-121.093750
8738,-117.187500
8739,-113.281250
8740,-109.375000
8741,-105.468750
8742,-101.562500
8743,-97.656250
8744,-93.750000
8745,-89.843750
8746,-85.937500
8747,-82.031250
8748,-82.031250
8749,-78.125000
8750,-70.312500
8751,-66.406250
8752,-62.500000
8753,-62.500000
8754,-58.593750
8755,-54.687500
8756,-50.781250
8757,-46.875000
8758,-42.968750
8759,-39.062500
8760,-35.156250
8761,-31.250000
8762,-27.343750
8763,-23.437500
8764,-19.531250
8765,-15.625000
8766,-11.718750
8767,-11.718750
8768,-7.812500
8769,-3.906250
8770,0.000000
8771,3.906250
8772,7.812500
8773,11.718750
8774,15.625000
8775,15.625000
8776,19.531250
8777,23.437500
8778,27.343750
8779,27.343750
8780,31.250000
8781,39.062500
8782,39.062500
8783,42.968750
8784,46.875000
8785,50.781250
8786,50.781250
8787,54.687500
8788,58.593750
8789,58.593750
8790,62.500000
8791,66.406250
8792,66.406250
8793,70.312500
8794,74.218750
8795,74.218750
8796,78.125000
8797,82.031250
8798,82.031250
8799,85.937500
8800,89.843750
8801,89.843750
8802,93.750000
8803,93.750000
8804,97.656250
8805,97.656250
8806,101.562500
8807,101.562500
8808,105.468750
8809,109.375000
8810,109.375000
8811,113.281250
8812,113.281250
8813,113.281250
8814,117.187500
8815,117.187500
8816,121.093750
8817,121.093750
8818,121.093750
8819,125.000000
8820,125.000000
8821,128.906250
8822,128.906250
8823,128.906250
8824,132.812500
8825,132.812500
8826,132.812500
8827,136.718750
8828,136.718750
8829,136.718750
8830,140.625000
8831,140.625000
8832,140.625000
8833,144.531250
8834,144.531250
8835,144.531250
8836,144.531250
8837,148.437500
8838,144.531250
8839,148.437500
8840,148.437500
8841,148.437500
8842,148.437500
8843,148.437500
8844,152.343750
8845,152.343750
8846,152.343750
8847,152.343750
8848,152.343750
8849,156.250000
8850,152.343750
8851,156.250000
8852,152.343750
8853,156.250000
8854,156.250000
8855,156.250000
8856,156.250000
8857,156.250000
8858,156.250000
8859,156.250000
8860,156.250000
8861,156.250000
8862,156.250000
8863,156.250000
8864,156.250000
8865,156.250000
8866,156.250000
8867,156.250000
8868,156.250000
8869,156.250000
8870,156.250000
8871,156.250000
8872,152.343750
8873,152.343750
8874,152.343750
8875,152.343750
8876,152.343750
8877,152.343750
8878,152.343750
8879,152.343750
8880,148.437500
8881,148.437500
8882,148.437500
8883,148.437500
8884,148.437500
8885,148.437500
8886,144.531250
8887,144.531250
8888,144.531250
8889,144.531250
8890,140.625000
8891,140.625000
8892,140.625000
8893,140.625000
8894,136.718750
8895,136.718750
8896,136.718750
8897,132.812500
8898,132.812500
8899,128.906250
8900,128.906250
8901,128.906250
8902,125.000000
8903,125.000000
8904,125.000000
8905,121.093750
8906,121.093750
8907,117.187500
8908,117.187500
8909,117.187500
8910,113.281250
8911,109.375000
8912,109.375000
8913,109.375000
8914,105.468750
8915,105.468750
8916,101.562500
8917,97.656250
8918,97.656250
8919,93.750000
8920,93.750000
8921,89.843750
8922,89.843750
8923,85.937500
8924,82.031250
8925,82.031250
8926,78.125000
8927,74.218750
8928,74.218750
8929,70.312500
8930,70.312500
8931,66.406250
8932,62.500000
8933,58.593750
8934,58.593750
8935,54.687500
8936,50.781250
8937,46.875000
8938,42.968750
8939,42.968750
8940,39.062500
8941,35.156250
8942,31.250000
8943,31.250000
8944,27.343750
8945,23.437500
8946,19.531250
8947,15.625000
8948,11.718750
8949,11.718750
8950,7.812500
8951,3.906250
8952,0.000000
8953,-3.906250
8954,-7.812500
8955,-11.718750
8956,-15.625000
8957,-19.531250
8958,-19.531250
8959,-19.531250
8960,-27.343750
8961,-31.250000
8962,-35.156250
8963,-39.062500
8964,-42.968750
8965,-46.875000
8966,-50.781250
8967,-54.687500
8968,-58.593750
8969,-62.500000
8970,-66.406250
8971,-70.312500
8972,-74.218750
8973,-78.125000
8974,-82.031250
8975,-85.937500
8976,-89.843750
8977,-93.750000
8978,-97.656250
8979,-101.562500
8980,-105.468750
8981,-109.375000
8982,-113.281250
8983,-117.187500
8984,-117.187500
8985,-125.000000
8986,-125.000000
8987,-128.906250
8988,-132.812500
8989,-136.718750
8990,-140.625000
8991,-144.531250
8992,-148.437500
8993,-152.343750
8994,-156.250000
8995,-160.156250
8996,-164.062500
8997,-167.968750
8998,-171.875000
8999,-175.781250
9000,-179.687500
9001,-179.687500
9002,-183.593750
9003,-187.500000
9004,-191.406250
9005,-195.312500
9006,-199.218750
9007,-203.125000
9008,-203.125000
9009,-207.031250
9010,-214.843750
9011,-214.843750
9012,-218.750000
9013,-218.750000
9014,-222.656250
9015,-226.562500
9016,-230.468750
9017,-234.375000
9018,-234.375000
9019,-238.281250
9020,-242.187500
9021,-246.093750
9022,-246.093750
9023,-250.000000
9024,-253.906250
9025,-253.906250
9026,-257.812500
9027,-257.812500
9028,-261.718750
9029,-265.625000
9030,-269.531250
9031,-269.531250
9032,-273.437500
9033,-273.437500
9034,-277.343750
9035,-277.343750
9036,-281.250000
9037,-281.250000
9038,-285.156250
9039,-289.062500
9040,-289.062500
9041,-289.062500
9042,-292.968750
9043,-292.968750
9044,-292.968750
9045,-296.875000
9046,-296.875000
9047,-300.781250
9048,-300.781250
9049,-300.781250
9050,-300.781250
9051,-304.687500
9052,-304.687500
9053,-308.593750
9054,-308.593750
9055,-308.593750
9056,-308.593750
9057,-308.593750
9058,-308.593750
9059,-312.500000
9060,-312.500000
9061,-312.500000
9062,-312.500000
9063,-312.500000
9064,-312.500000
9065,-312.500000
9066,-312.500000
9067,-312.500000
9068,-312.500000
9069,-312.500000
9070,-316.406250
9071,-312.500000
9072,-312.500000
9073,-316.406250
9074,-312.500000
9075,-312.500000
9076,-312.500000
9077,-312.500000
9078,-312.500000
9079,-312.500000
9080,-312.500000
9081,-308.593750
9082,-308.593750
9083,-308.593750
9084,-308.593750
9085,-308.593750
9086,-304.687500
9087,-304.687500
9088,-304.687500
9089,-300.781250
9090,-300.781250
9091,-300.781250
9092,-296.875000
9093,-296.875000
9094,-296.875000
9095,-292.968750
9096,-292.968750
9097,-292.968750
9098,-289.062500
9099,-289.062500
9100,-285.156250
9101,-285.156250
9102,-281.250000
9103,-281.250000
9104,-277.343750
9105,-277.343750
9106,-273.437500
9107,-273.437500
9108,-269.531250
9109,-265.625000
9110,-265.625000
9111,-261.718750
9112,-261.718750
9113,-257.812500
9114,-253.906250
9115,-253.906250
9116,-250.000000
9117,-246.093750
9118,-246.093750
9119,-242.187500
9120,-238.281250
9121,-234.375000
9122,-234.375000
9123,-226.562500
9124,-226.562500
9125,-222.656250
9126,-218.750000
9127,-218.750000
9128,-214.843750
9129,-210.937500
9130,-207.031250
9131,-203.125000
9132,-199.218750
9133,-195.312500
9134,-195.312500
9135,-191.406250
9136,-187.500000
9137,-183.593750
9138,-179.687500
9139,-175.781250
9140,-171.875000
9141,-167.968750
9142,-164.062500
9143,-160.156250
9144,-156.250000
9145,-156.250000
9146,-152.343750
9147,-148.437500
9148,-144.531250
9149,-140.625000
9150,-136.718750
9151,-132.812500
9152,-128.906250
9153,-125.000000
9154,-121.093750
9155,-117.187500
9156,-113.281250
9157,-109.375000
9158,-105.468750
9159,-101.562500
9160,-97.656250
9161,-93.750000
9162,-89.843750
9163,-85.937500
9164,-82.031250
9165,-78.125000
9166,-74.218750
9167,-70.312500
9168,-66.406250
9169,-62.500000
9170,-58.593750
9171,-54.687500
9172,-50.781250
9173,-46.875000
9174,-46.875000
9175,-39.062500
9176,-35.156250
9177,-35.156250
9178,-31.250000
9179,-23.437500
9180,-23.437500
9181,-19.531250
9182,-15.625000
9183,-11.718750
9184,-7.812500
9185,-3.906250
9186,0.000000
9187,0.000000
9188,3.906250
9189,7.812500
9190,11.718750
9191,15.625000
9192,19.531250
9193,23.437500
9194,23.437500
9195,27.343750
9196,31.250000
9197,35.156250
9198,39.062500
9199,42.968750
9200,42.968750
9201,46.875000
9202,50.781250
9203,50.781250
9204,54.687500
9205,58.593750
9206,62.500000
9207,62.500000
9208,66.406250
9209,70.312500
9210,70.312500
9211,74.218750
9212,78.125000
9213,78.125000
9214,82.031250
9215,85.937500
9216,85.937500
9217,89.843750
9218,93.750000
9219,93.750000
9220,97.656250
9221,97.656250
9222,101.562500
9223,101.562500
9224,105.468750
9225,105.468750
9226,109.375000
9227,109.375000
9228,109.375000
9229,113.281250
9230,113.281250
9231,117.187500
9232,121.093750
9233,121.093750
9234,121.093750
9235,125.000000
9236,125.000000
9237,125.000000
9238,128.906250
9239,128.906250
9240,132.812500
9241,132.812500
9242,132.812500
9243,136.718750
9244,136.718750
9245,136.718750
9246,136.718750
9247,140.625000
9248,140.625000
9249,140.625000
9250,144.531250
9251,144.531250
9252,144.531250
9253,144.531250
9254,148.437500
9255,148.437500
9256,148.437500
9257,148.437500
9258,148.437500
9259,152.343750
9260,152.343750
9261,152.343750
9262,152.343750
9263,152.343750
9264,152.343750
9265,152.343750
9266,152.343750
9267,156.250000
9268,156.250000
9269,156.250000
9270,156.250000
9271,156.250000
9272,156.250000
9273,156.250000
9274,156.250000
9275,156.250000
9276,156.250000
9277,156.250000
9278,156.250000
9279,156.250000
9280,156.250000
9281,156.250000
9282,156.250000
9283,156.250000
9284,156.250000
9285,156.250000
9286,156.250000
9287,156.250000
9288,156.250000
9289,156.250000
9290,152.343750
9291,152.343750
9292,152.343750
9293,152.343750
9294,152.343750
9295,152.343750
9296,152.343750
9297,148.437500
9298,148.437500
9299,148.437500
9300,148.437500
9301,144.531250
9302,144.531250
9303,144.531250
9304,144.531250
9305,144.531250
9306,144.531250
9307,140.625000
9308,140.625000
9309,140.625000
9310,136.718750
9311,136.718750
9312,136.718750
9313,132.812500
9314,132.812500
9315,132.812500
9316,128.906250
9317,128.906250
9318,128.906250
9319,125.000000
9320,125.000000
9321,125.000000
9322,121.093750
9323,121.093750
9324,117.187500
9325,117.187500
9326,113.281250
9327,113.281250
9328,109.375000
9329,109.375000
9330,105.468750
9331,105.468750
9332,101.562500
9333,101.562500
9334,97.656250
9335,97.656250
9336,93.750000
9337,93.750000
9338,89.843750
9339,85.937500
9340,85.937500
9341,82.031250
9342,82.031250
9343,78.125000
9344,74.218750
9345,74.218750
9346,70.312500
9347,66.406250
9348,66.406250
9349,62.500000
9350,58.593750
9351,54.687500
9352,50.781250
9353,50.781250
9354,46.875000
9355,46.875000
9356,42.968750
9357,39.062500
9358,35.156250
9359,31.250000
9360,27.343750
9361,23.437500
9362,23.437500
9363,19.531250
9364,15.625000
9365,11.718750
9366,7.812500
9367,3.906250
9368,3.906250
9369,0.000000
9370,-3.906250
9371,-7.812500
9372,-11.718750
9373,-15.625000
9374,-19.531250
9375,-23.437500
9376,-27.343750
9377,-31.250000
9378,-31.250000
9379,-35.156250
9380,-39.062500
9381,-42.968750
9382,-46.875000
9383,-50.781250
9384,-54.687500
9385,-58.593750
9386,-62.500000
9387,-66.406250
9388,-70.312500
9389,-74.218750
9390,-78.125000
9391,-82.031250
9392,-85.937500
9393,-89.843750
9394,-93.750000
9395,-97.656250
9396,-101.562500
9397,-105.468750
9398,-109.375000
9399,-113.281250
9400,-117.187500
9401,-121.093750
9402,-125.000000
9403,-128.906250
9404,-132.812500
9405,-136.718750
9406,-140.625000
9407,-140.625000
9408,-144.531250
9409,-148.437500
9410,-156.250000
9411,-156.250000
9412,-160.156250
9413,-164.062500
9414,-167.968750
9415,-171.875000
9416,-175.781250
9417,-179.687500
9418,-183.593750
9419,-187.500000
9420,-191.406250
9421,-191.406250
9422,-195.312500
9423,-199.218750
9424,-203.125000
9425,-207.031250
9426,-210.937500
9427,-210.937500
9428,-214.843750
9429,-218.750000
9430,-222.656250
9431,-226.562500
9432,-230.468750
9433,-230.468750
9434,-234.375000
9435,-238.281250
9436,-238.281250
9437,-242.187500
9438,-246.093750
9439,-250.000000
9440,-250.000000
9441,-253.906250
9442,-257.812500
9443,-257.812500
9444,-261.718750
9445,-265.625000
9446,-265.625000
9447,-269.531250
9448,-269.531250
9449,-273.437500
9450,-273.437500
9451,-277.343750
9452,-277.343750
9453,-281.250000
9454,-281.250000
9455,-285.156250
9456,-285.156250
9457,-289.062500
9458,-289.062500
9459,-292.968750
9460,-292.968750
9461,-296.875000
9462,-296.875000
9463,-296.875000
9464,-296.875000
9465,-300.781250
9466,-300.781250
9467,-304.687500
9468,-304.687500
9469,-304.687500
9470,-304.687500
9471,-308.593750
9472,-308.593750
9473,-308.593750
9474,-308.593750
9475,-308.593750
9476,-312.500000
9477,-312.500000
9478,-312.500000
9479,-312.500000
9480,-312.500000
9481,-316.406250
9482,-312.500000
9483,-316.406250
9484,-316.406250
9485,-312.500000
9486,-312.500000
9487,-316.406250
9488,-312.500000
9489,-316.406250
9490,-312.500000
9491,-312.500000
9492,-312.500000
9493,-312.500000
9494,-312.500000
9495,-312.500000
9496,-308.593750
9497,-312.500000
9498,-308.593750
9499,-308.593750
9500,-308.593750
9501,-308.593750
9502,-304.687500
9503,-304.687500
9504,-304.687500
9505,-304.687500
9506,-300.781250
9507,-300.781250
9508,-300.781250
9509,-296.875000
9510,-296.875000
9511,-296.875000
9512,-292.968750
9513,-292.968750
9514,-289.062500
9515,-289.062500
9516,-289.062500
9517,-285.156250
9518,-281.250000
9519,-277.343750
9520,-277.343750
9521,-277.343750
9522,-277.343750
9523,-273.437500
9524,-273.437500
9525,-265.625000
9526,-265.625000
9527,-261.718750
9528,-261.718750
9529,-257.812500
9530,-257.812500
9531,-253.906250
9532,-250.000000
9533,-250.000000
9534,-246.093750
9535,-242.187500
9536,-242.187500
9537,-238.281250
9538,-234.375000
9539,-230.468750
9540,-230.468750
9541,-226.562500
9542,-222.656250
9543,-218.750000
9544,-214.843750
9545,-214.843750
9546,-210.937500
9547,-207.031250
9548,-203.125000
9549,-199.218750
9550,-195.312500
9551,-191.406250
9552,-191.406250
9553,-187.500000
9554,-183.593750
9555,-179.687500
9556,-175.781250
9557,-171.875000
9558,-167.968750
9559,-164.062500
9560,-160.156250
9561,-156.250000
9562,-152.343750
9563,-148.437500
9564,-144.531250
9565,-140.625000
9566,-140.625000
9567,-136.718750
9568,-132.812500
9569,-128.906250
9570,-121.093750
9571,-121.093750
9572,-117.187500
9573,-113.281250
9574,-109.375000
9575,-105.468750
9576,-101.562500
9577,-97.656250
9578,-93.750000
9579,-89.843750
9580,-85.937500
9581,-82.031250
9582,-78.125000
9583,-74.218750
9584,-70.312500
9585,-66.406250
9586,-62.500000
9587,-58.593750
9588,-50.781250
9589,-50.781250
9590,-46.875000
9591,-42.968750
9592,-39.062500
9593,-35.156250
9594,-31.250000
9595,-27.343750
9596,-23.437500
9597,-23.437500
9598,-19.531250
9599,-15.625000
9600,-11.718750
9601,-7.812500
9602,-3.906250
9603,0.000000
9604,3.906250
9605,3.906250
9606,7.812500
9607,11.718750
9608,15.625000
9609,19.531250
9610,23.437500
9611,27.343750
9612,27.343750
9613,31.250000
9614,35.156250
9615,39.062500
9616,42.968750
9617,42.968750
9618,46.875000
9619,50.781250
9620,54.687500
9621,54.687500
9622,58.593750
9623,62.500000
9624,62.500000
9625,66.406250
9626,70.312500
9627,70.312500
9628,74.218750
9629,78.125000
9630,78.125000
9631,82.031250
9632,85.937500
9633,89.843750
9634,89.843750
9635,93.750000
9636,93.750000
9637,97.656250
9638,101.562500
9639,101.562500
9640,101.562500
9641,105.468750
9642,105.468750
9643,109.375000
9644,109.375000
9645,113.281250
9646,113.281250
9647,117.187500
9648,117.187500
9649,117.187500
9650,121.093750
9651,121.093750
9652,125.000000
9653,125.000000
9654,128.906250
9655,128.906250
9656,128.906250
9657,132.812500
9658,132.812500
9659,132.812500
9660,136.718750
9661,136.718750
9662,136.718750
9663,140.625000
9664,140.625000
9665,140.625000
9666,140.625000
9667,144.531250
9668,144.531250
9669,144.531250
9670,144.531250
9671,144.531250
9672,148.437500
9673,148.437500
9674,148.437500
9675,148.437500
9676,152.343750
9677,152.343750
9678,152.343750
9679,152.343750
9680,152.343750
9681,152.343750
9682,152.343750
9683,156.250000
9684,152.343750
9685,156.250000
9686,152.343750
9687,156.250000
9688,156.250000
9689,156.250000
9690,156.250000
9691,156.250000
9692,156.250000
9693,156.250000
9694,156.250000
9695,156.250000
9696,156.250000
9697,160.156250
9698,156.250000
9699,156.250000
9700,156.250000
9701,156.250000
9702,156.250000
9703,156.250000
9704,156.250000
9705,156.250000
9706,156.250000
9707,152.343750
9708,152.343750
9709,152.343750
9710,152.343750
9711,152.343750
9712,152.343750
9713,152.343750
9714,148.437500
9715,148.437500
9716,148.437500
9717,148.437500
9718,148.437500
9719,144.531250
9720,144.531250
9721,144.531250
9722,144.531250
9723,140.625000
9724,140.625000
9725,140.625000
9726,140.625000
9727,136.718750
9728,136.718750
9729,136.718750
9730,136.718750
9731,132.812500
9732,132.812500
9733,128.906250
9734,128.906250
9735,125.000000
9736,125.000000
9737,125.000000
9738,121.093750
9739,121.093750
9740,121.093750
9741,117.187500
9742,117.187500
9743,113.281250
9744,113.281250
9745,109.375000
9746,109.375000
9747,105.468750
9748,105.468750
9749,101.562500
9750,101.562500
9751,97.656250
9752,93.750000
9753,93.750000
9754,89.843750
9755,89.843750
9756,85.937500
9757,85.937500
9758,82.031250
9759,78.125000
9760,78.125000
9761,74.218750
9762,70.312500
9763,70.312500
9764,66.406250
9765,62.500000
9766,62.500000
9767,58.593750
9768,54.687500
9769,54.687500
9770,50.781250
9771,46.875000
9772,42.968750
9773,39.062500
9774,39.062500
9775,35.156250
9776,31.250000
9777,27.343750
9778,23.437500
9779,23.437500
9780,19.531250
9781,15.625000
9782,11.718750
9783,7.812500
9784,3.906250
9785,0.000000
9786,0.000000
9787,-3.906250
9788,-7.812500
9789,-11.718750
9790,-15.625000
9791,-19.531250
9792,-23.437500
9793,-27.343750
9794,-31.250000
9795,-35.156250
9796,-39.062500
9797,-42.968750
9798,-46.875000
9799,-50.781250
9800,-50.781250
9801,-58.593750
9802,-58.593750
9803,-62.500000
9804,-66.406250
9805,-70.312500
9806,-74.218750
9807,-78.125000
9808,-85.937500
9809,-85.937500
9810,-89.843750
9811,-93.750000
9812,-97.656250
9813,-101.562500
9814,-105.468750
9815,-109.375000
9816,-113.281250
9817,-117.187500
9818,-121.093750
9819,-125.000000
9820,-128.906250
9821,-132.812500
9822,-136.718750
9823,-140.625000
9824,-144.531250
9825,-148.437500
9826,-152.343750
9827,-156.250000
9828,-160.156250
9829,-164.062500
9830,-164.062500
9831,-167.968750
9832,-171.875000
9833,-175.781250
9834,-179.687500
9835,-183.593750
9836,-187.500000
9837,-191.406250
9838,-195.312500
9839,-199.218750
9840,-199.218750
9841,-203.125000
9842,-207.031250
9843,-214.843750
9844,-210.937500
9845,-214.843750
9846,-218.750000
9847,-222.656250
9848,-226.562500
9849,-230.468750
9850,-230.468750
9851,-234.375000
9852,-238.281250
9853,-242.187500
9854,-242.187500
9855,-246.093750
9856,-250.000000
9857,-250.000000
9858,-253.906250
9859,-257.812500
9860,-257.812500
9861,-261.718750
9862,-265.625000
9863,-265.625000
9864,-269.531250
9865,-273.437500
9866,-273.437500
9867,-277.343750
9868,-277.343750
9869,-277.343750
9870,-281.250000
9871,-285.156250
9872,-285.156250
9873,-289.062500
9874,-289.062500
9875,-289.062500
9876,-292.968750
9877,-292.968750
9878,-296.875000
9879,-296.875000
9880,-296.875000
9881,-300.781250
9882,-300.781250
9883,-300.781250
9884,-304.687500
9885,-304.687500
9886,-304.687500
9887,-304.687500
9888,-308.593750
9889,-308.593750
9890,-308.593750
9891,-308.593750
9892,-308.593750
9893,-312.500000
9894,-312.500000
9895,-312.500000
9896,-312.500000
9897,-312.500000
9898,-312.500000
9899,-312.500000
9900,-312.500000
9901,-312.500000
9902,-312.500000
9903,-312.500000
9904,-312.500000
9905,-312.500000
9906,-312.500000
9907,-312.500000
9908,-312.500000
9909,-312.500000
9910,-312.500000
9911,-312.500000
9912,-312.500000
9913,-312.500000
9914,-312.500000
9915,-308.593750
9916,-308.593750
9917,-308.593750
9918,-308.593750
9919,-304.687500
9920,-304.687500
9921,-304.687500
9922,-304.687500
9923,-300.781250
9924,-300.781250
9925,-296.875000
9926,-296.875000
9927,-296.875000
9928,-296.875000
9929,-292.968750
9930,-292.968750
9931,-289.062500
9932,-289.062500
9933,-285.156250
9934,-285.156250
9935,-281.250000
9936,-281.250000
9937,-281.250000
9938,-277.343750
9939,-273.437500
9940,-273.437500
9941,-269.531250
9942,-269.531250
9943,-265.625000
9944,-261.718750
9945,-261.718750
9946,-257.812500
9947,-253.906250
9948,-253.906250
9949,-250.000000
9950,-246.093750
9951,-246.093750
9952,-242.187500
9953,-238.281250
9954,-238.281250
9955,-234.375000
9956,-230.468750
9957,-226.562500
9958,-222.656250
9959,-222.656250
9960,-218.750000
9961,-214.843750
9962,-210.937500
9963,-207.031250
9964,-203.125000
9965,-203.125000
9966,-199.218750
9967,-195.312500
9968,-191.406250
9969,-187.500000
9970,-183.593750
9971,-179.687500
9972,-175.781250
9973,-171.875000
9974,-171.875000
9975,-167.968750
9976,-164.062500
9977,-160.156250
9978,-156.250000
9979,-152.343750
9980,-148.437500
9981,-144.531250
9982,-140.625000
9983,-136.718750
9984,-136.718750
9985,-128.906250
9986,-125.000000
9987,-121.093750
9988,-117.187500
9989,-113.281250
9990,-109.375000
9991,-105.468750
9992,-101.562500
9993,-101.562500
9994,-97.656250
9995,-89.843750
9996,-85.937500
9997,-82.031250
9998,-78.125000
9999,-78.125000
10000,-74.218750
