Channel              :,CH1
Frequency            :,1.200kHz
Period               :,0.833ms
PK-PK                :,480.5mV
Probe attenuation    :,1X
Voltage per ADC value:,0.244141mV
Time interval        :,2.00000us

index,CH1_Voltage(mV)
1,-66.406250
2,-66.406250
3,-58.593750
4,-58.593750
5,-54.687500
6,-50.781250
7,-46.875000
8,-42.968750
9,-39.062500
10,-35.156250
11,-31.250000
12,-27.343750
13,-23.437500
14,-19.531250
15,-15.625000
16,-11.718750
17,-7.812500
18,-3.906250
19,0.000000
20,3.906250
21,7.812500
22,11.718750
23,11.718750
24,19.531250
25,19.531250
26,23.437500
27,27.343750
28,31.250000
29,35.156250
30,39.062500
31,42.968750
32,42.968750
33,46.875000
34,50.781250
35,54.687500
36,58.593750
37,62.500000
38,62.500000
39,70.312500
40,70.312500
41,74.218750
42,74.218750
43,78.125000
44,82.031250
45,82.031250
46,85.937500
47,89.843750
48,93.750000
49,93.750000
50,97.656250
51,101.562500
52,101.562500
53,105.468750
54,105.468750
55,109.375000
56,113.281250
57,113.281250
58,117.187500
59,121.093750
60,121.093750
61,125.000000
62,125.000000
63,125.000000
64,128.906250
65,132.812500
66,132.812500
67,136.718750
68,136.718750
69,136.718750
70,140.625000
71,144.531250
72,144.531250
73,144.531250
74,148.437500
75,148.437500
76,148.437500
77,152.343750
78,152.343750
79,156.250000
80,156.250000
81,156.250000
82,160.156250
83,160.156250
84,160.156250
85,164.062500
86,164.062500
87,164.062500
88,164.062500
89,167.968750
90,167.968750
91,167.968750
92,167.968750
93,171.875000
94,171.875000
95,171.875000
96,171.875000
97,171.875000
98,175.781250
99,175.781250
100,175.781250
101,175.781250
102,175.781250
103,175.781250
104,175.781250
105,175.781250
106,175.781250
107,175.781250
108,179.687500
109,179.687500
110,179.687500
111,179.687500
112,179.687500
113,179.687500
114,179.687500
115,179.687500
116,179.687500
117,179.687500
118,179.687500
119,179.687500
120,179.687500
121,179.687500
122,179.687500
123,179.687500
124,179.687500
125,179.687500
126,179.687500
127,175.781250
128,175.781250
129,175.781250
130,175.781250
131,175.781250
132,175.781250
133,171.875000
134,171.875000
135,171.875000
136,171.875000
137,171.875000
138,171.875000
139,171.875000
140,171.875000
141,167.968750
142,167.968750
143,167.968750
144,167.968750
145,164.062500
146,164.062500
147,164.062500
148,164.062500
149,164.062500
150,160.156250
151,160.156250
152,156.250000
153,156.250000
154,156.250000
155,152.343750
156,152.343750
157,148.437500
158,148.437500
159,148.437500
160,144.531250
161,144.531250
162,144.531250
163,140.625000
164,140.625000
165,136.718750
166,136.718750
167,132.812500
168,132.812500
169,128.906250
170,128.906250
171,125.000000
172,125.000000
173,121.093750
174,121.093750
175,117.187500
176,113.281250
177,109.375000
178,109.375000
179,109.375000
180,105.468750
181,101.562500
182,101.562500
183,97.656250
184,93.750000
185,89.843750
186,89.843750
187,85.937500
188,82.031250
189,82.031250
190,74.218750
191,74.218750
192,70.312500
193,70.312500
194,66.406250
195,62.500000
196,58.593750
197,58.593750
198,54.687500
199,50.781250
200,46.875000
201,42.968750
202,39.062500
203,39.062500
204,31.250000
205,31.250000
206,27.343750
207,23.437500
208,19.531250
209,15.625000
210,11.718750
211,7.812500
212,3.906250
213,0.000000
214,0.000000
215,-3.906250
216,-7.812500
217,-11.718750
218,-15.625000
219,-19.531250
220,-23.437500
221,-27.343750
222,-31.250000
223,-35.156250
224,-39.062500
225,-42.968750
226,-46.875000
227,-50.781250
228,-54.687500
229,-58.593750
230,-62.500000
231,-66.406250
232,-70.312500
233,-74.218750
234,-78.125000
235,-82.031250
236,-85.937500
237,-89.843750
238,-93.750000
239,-97.656250
240,-101.562500
241,-105.468750
242,-109.375000
243,-113.281250
244,-117.187500
245,-121.093750
246,-125.000000
247,-128.906250
248,-132.812500
249,-136.718750
250,-136.718750
251,-140.625000
252,-144.531250
253,-148.437500
254,-152.343750
255,-156.250000
256,-160.156250
257,-164.062500
258,-167.968750
259,-171.875000
260,-175.781250
261,-179.687500
262,-179.687500
263,-183.593750
264,-187.500000
265,-187.500000
266,-195.312500
267,-199.218750
268,-203.125000
269,-203.125000
270,-207.031250
271,-210.937500
272,-210.937500
273,-214.843750
274,-218.750000
275,-222.656250
276,-222.656250
277,-226.562500
278,-230.468750
279,-234.375000
280,-234.375000
281,-238.281250
282,-242.187500
283,-242.187500
284,-246.093750
285,-246.093750
286,-250.000000
287,-253.906250
288,-253.906250
289,-257.812500
290,-257.812500
291,-261.718750
292,-265.625000
293,-265.625000
294,-265.625000
295,-269.531250
296,-269.531250
297,-273.437500
298,-273.437500
299,-277.343750
300,-277.343750
301,-277.343750
302,-281.250000
303,-281.250000
304,-281.250000
305,-285.156250
306,-285.156250
307,-289.062500
308,-289.062500
309,-289.062500
310,-289.062500
311,-292.968750
312,-292.968750
313,-292.968750
314,-292.968750
315,-292.968750
316,-296.875000
317,-296.875000
318,-296.875000
319,-296.875000
320,-296.875000
321,-296.875000
322,-296.875000
323,-296.875000
324,-296.875000
325,-296.875000
326,-296.875000
327,-296.875000
328,-296.875000
329,-296.875000
330,-296.875000
331,-296.875000
332,-296.875000
333,-292.968750
334,-292.968750
335,-292.968750
336,-292.968750
337,-292.968750
338,-292.968750
339,-292.968750
340,-289.062500
341,-289.062500
342,-289.062500
343,-285.156250
344,-285.156250
345,-285.156250
346,-285.156250
347,-281.250000
348,-281.250000
349,-277.343750
350,-277.343750
351,-277.343750
352,-273.437500
353,-273.437500
354,-269.531250
355,-269.531250
356,-265.625000
357,-265.625000
358,-261.718750
359,-261.718750
360,-257.812500
361,-257.812500
362,-253.906250
363,-250.000000
364,-250.000000
365,-246.093750
366,-246.093750
367,-242.187500
368,-238.281250
369,-242.187500
370,-234.375000
371,-230.468750
372,-230.468750
373,-226.562500
374,-222.656250
375,-222.656250
376,-218.750000
377,-214.843750
378,-210.937500
379,-207.031250
380,-207.031250
381,-203.125000
382,-199.218750
383,-195.312500
384,-191.406250
385,-187.500000
386,-187.500000
387,-183.593750
388,-179.687500
389,-175.781250
390,-171.875000
391,-167.968750
392,-167.968750
393,-160.156250
394,-160.156250
395,-156.250000
396,-148.437500
397,-148.437500
398,-144.531250
399,-140.625000
400,-136.718750
401,-132.812500
402,-128.906250
403,-125.000000
404,-121.093750
405,-117.187500
406,-113.281250
407,-109.375000
408,-105.468750
409,-101.562500
410,-97.656250
411,-93.750000
412,-89.843750
413,-85.937500
414,-82.031250
415,-78.125000
416,-74.218750
417,-70.312500
418,-66.406250
419,-62.500000
420,-58.593750
421,-54.687500
422,-50.781250
423,-46.875000
424,-42.968750
425,-39.062500
426,-35.156250
427,-31.250000
428,-27.343750
429,-23.437500
430,-19.531250
431,-15.625000
432,-11.718750
433,-7.812500
434,-7.812500
435,-3.906250
436,3.906250
437,3.906250
438,7.812500
439,11.718750
440,15.625000
441,19.531250
442,23.437500
443,27.343750
444,31.250000
445,31.250000
446,35.156250
447,39.062500
448,42.968750
449,46.875000
450,50.781250
451,50.781250
452,54.687500
453,58.593750
454,62.500000
455,66.406250
456,66.406250
457,70.312500
458,74.218750
459,78.125000
460,78.125000
461,82.031250
462,85.937500
463,89.843750
464,89.843750
465,93.750000
466,97.656250
467,97.656250
468,101.562500
469,105.468750
470,105.468750
471,109.375000
472,113.281250
473,113.281250
474,117.187500
475,117.187500
476,121.093750
477,121.093750
478,125.000000
479,125.000000
480,128.906250
481,128.906250
482,132.812500
483,136.718750
484,136.718750
485,136.718750
486,140.625000
487,140.625000
488,144.531250
489,144.531250
490,148.437500
491,148.437500
492,148.437500
493,152.343750
494,152.343750
495,156.250000
496,156.250000
497,156.250000
498,160.156250
499,160.156250
500,160.156250
501,160.156250
502,164.062500
503,164.062500
504,164.062500
505,164.062500
506,167.968750
507,167.968750
508,167.968750
509,167.968750
510,171.875000
511,171.875000
512,171.875000
513,171.875000
514,171.875000
515,171.875000
516,175.781250
517,175.781250
518,175.781250
519,175.781250
520,175.781250
521,175.781250
522,175.781250
523,175.781250
524,179.687500
525,175.781250
526,179.687500
527,179.687500
528,179.687500
529,179.687500
530,179.687500
531,179.687500
532,179.687500
533,179.687500
534,179.687500
535,179.687500
536,179.687500
537,179.687500
538,179.687500
539,179.687500
540,179.687500
541,179.687500
542,179.687500
543,179.687500
544,175.781250
545,175.781250
546,175.781250
547,175.781250
548,175.781250
549,175.781250
550,171.875000
551,171.875000
552,171.875000
553,171.875000
554,171.875000
555,171.875000
556,171.875000
557,171.875000
558,167.968750
559,167.968750
560,167.968750
561,164.062500
562,164.062500
563,164.062500
564,164.062500
565,160.156250
566,160.156250
567,160.156250
568,156.250000
569,156.250000
570,156.250000
571,152.343750
572,152.343750
573,152.343750
574,148.437500
575,148.437500
576,144.531250
577,144.531250
578,144.531250
579,140.625000
580,140.625000
581,136.718750
582,136.718750
583,132.812500
584,132.812500
585,128.906250
586,128.906250
587,125.000000
588,125.000000
589,121.093750
590,121.093750
591,117.187500
592,117.187500
593,113.281250
594,109.375000
595,109.375000
596,105.468750
597,105.468750
598,101.562500
599,97.656250
600,97.656250
601,93.750000
602,89.843750
603,89.843750
604,85.937500
605,82.031250
606,82.031250
607,78.125000
608,74.218750
609,70.312500
610,70.312500
611,66.406250
612,62.500000
613,58.593750
614,54.687500
615,50.781250
616,50.781250
617,46.875000
618,42.968750
619,39.062500
620,39.062500
621,31.250000
622,31.250000
623,27.343750
624,23.437500
625,15.625000
626,15.625000
627,11.718750
628,7.812500
629,3.906250
630,0.000000
631,-3.906250
632,-7.812500
633,-7.812500
634,-11.718750
635,-19.531250
636,-19.531250
637,-23.437500
638,-27.343750
639,-31.250000
640,-35.156250
641,-39.062500
642,-42.968750
643,-46.875000
644,-50.781250
645,-54.687500
646,-58.593750
647,-62.500000
648,-66.406250
649,-70.312500
650,-74.218750
651,-78.125000
652,-82.031250
653,-85.937500
654,-89.843750
655,-93.750000
656,-97.656250
657,-101.562500
658,-105.468750
659,-109.375000
660,-113.281250
661,-117.187500
662,-121.093750
663,-125.000000
664,-128.906250
665,-132.812500
666,-136.718750
667,-140.625000
668,-144.531250
669,-144.531250
670,-152.343750
671,-152.343750
672,-156.250000
673,-160.156250
674,-164.062500
675,-167.968750
676,-171.875000
677,-175.781250
678,-175.781250
679,-179.687500
680,-183.593750
681,-187.500000
682,-191.406250
683,-195.312500
684,-199.218750
685,-199.218750
686,-203.125000
687,-207.031250
688,-210.937500
689,-214.843750
690,-214.843750
691,-218.750000
692,-222.656250
693,-226.562500
694,-226.562500
695,-230.468750
696,-234.375000
697,-234.375000
698,-238.281250
699,-242.187500
700,-246.093750
701,-246.093750
702,-250.000000
703,-250.000000
704,-253.906250
705,-253.906250
706,-257.812500
707,-261.718750
708,-261.718750
709,-265.625000
710,-265.625000
711,-269.531250
712,-269.531250
713,-273.437500
714,-273.437500
715,-273.437500
716,-277.343750
717,-277.343750
718,-281.250000
719,-281.250000
720,-281.250000
721,-285.156250
722,-285.156250
723,-285.156250
724,-289.062500
725,-289.062500
726,-289.062500
727,-289.062500
728,-292.968750
729,-292.968750
730,-292.968750
731,-292.968750
732,-292.968750
733,-296.875000
734,-296.875000
735,-296.875000
736,-296.875000
737,-296.875000
738,-296.875000
739,-296.875000
740,-296.875000
741,-296.875000
742,-296.875000
743,-296.875000
744,-296.875000
745,-296.875000
746,-296.875000
747,-296.875000
748,-296.875000
749,-296.875000
750,-296.875000
751,-292.968750
752,-292.968750
753,-292.968750
754,-292.968750
755,-289.062500
756,-289.062500
757,-289.062500
758,-289.062500
759,-289.062500
760,-285.156250
761,-285.156250
762,-285.156250
763,-281.250000
764,-281.250000
765,-281.250000
766,-281.250000
767,-277.343750
768,-273.437500
769,-273.437500
770,-273.437500
771,-269.531250
772,-269.531250
773,-265.625000
774,-265.625000
775,-261.718750
776,-261.718750
777,-257.812500
778,-257.812500
779,-253.906250
780,-250.000000
781,-250.000000
782,-246.093750
783,-246.093750
784,-242.187500
785,-238.281250
786,-238.281250
787,-234.375000
788,-230.468750
789,-226.562500
790,-226.562500
791,-222.656250
792,-218.750000
793,-214.843750
794,-214.843750
795,-210.937500
796,-207.031250
797,-207.031250
798,-203.125000
799,-199.218750
800,-195.312500
801,-191.406250
802,-187.500000
803,-183.593750
804,-183.593750
805,-179.687500
806,-175.781250
807,-171.875000
808,-167.968750
809,-164.062500
810,-160.156250
811,-156.250000
812,-152.343750
813,-148.437500
814,-148.437500
815,-140.625000
816,-140.625000
817,-136.718750
818,-132.812500
819,-128.906250
820,-125.000000
821,-121.093750
822,-117.187500
823,-113.281250
824,-109.375000
825,-105.468750
826,-101.562500
827,-97.656250
828,-93.750000
829,-89.843750
830,-85.937500
831,-82.031250
832,-78.125000
833,-74.218750
834,-70.312500
835,-66.406250
836,-62.500000
837,-58.593750
838,-54.687500
839,-50.781250
840,-46.875000
841,-42.968750
842,-39.062500
843,-35.156250
844,-31.250000
845,-27.343750
846,-23.437500
847,-19.531250
848,-15.625000
849,-11.718750
850,-7.812500
851,-3.906250
852,0.000000
853,3.906250
854,7.812500
855,11.718750
856,11.718750
857,15.625000
858,19.531250
859,23.437500
860,27.343750
861,31.250000
862,35.156250
863,35.156250
864,42.968750
865,46.875000
866,46.875000
867,50.781250
868,54.687500
869,58.593750
870,58.593750
871,62.500000
872,66.406250
873,70.312500
874,74.218750
875,74.218750
876,78.125000
877,82.031250
878,82.031250
879,85.937500
880,89.843750
881,93.750000
882,93.750000
883,97.656250
884,101.562500
885,101.562500
886,105.468750
887,105.468750
888,109.375000
889,113.281250
890,113.281250
891,117.187500
892,117.187500
893,121.093750
894,125.000000
895,125.000000
896,128.906250
897,128.906250
898,132.812500
899,132.812500
900,136.718750
901,136.718750
902,136.718750
903,140.625000
904,140.625000
905,144.531250
906,144.531250
907,148.437500
908,148.437500
909,152.343750
910,152.343750
911,152.343750
912,156.250000
913,156.250000
914,156.250000
915,160.156250
916,160.156250
917,160.156250
918,160.156250
919,164.062500
920,164.062500
921,164.062500
922,167.968750
923,167.968750
924,167.968750
925,167.968750
926,167.968750
927,171.875000
928,171.875000
929,171.875000
930,171.875000
931,175.781250
932,175.781250
933,175.781250
934,175.781250
935,175.781250
936,175.781250
937,175.781250
938,175.781250
939,179.687500
940,179.687500
941,179.687500
942,179.687500
943,179.687500
944,179.687500
945,179.687500
946,179.687500
947,179.687500
948,179.687500
949,179.687500
950,179.687500
951,179.687500
952,179.687500
953,179.687500
954,179.687500
955,179.687500
956,179.687500
957,179.687500
958,179.687500
959,175.781250
960,175.781250
961,175.781250
962,175.781250
963,175.781250
964,175.781250
965,175.781250
966,175.781250
967,175.781250
968,171.875000
969,175.781250
970,171.875000
971,171.875000
972,171.875000
973,171.875000
974,167.968750
975,167.968750
976,167.968750
977,167.968750
978,164.062500
979,164.062500
980,160.156250
981,160.156250
982,164.062500
983,160.156250
984,160.156250
985,160.156250
986,156.250000
987,156.250000
988,156.250000
989,152.343750
990,152.343750
991,148.437500
992,148.437500
993,144.531250
994,144.531250
995,144.531250
996,140.625000
997,140.625000
998,136.718750
999,136.718750
1000,132.812500
1001,132.812500
1002,128.906250
1003,128.906250
1004,128.906250
1005,125.000000
1006,121.093750
1007,121.093750
1008,117.187500
1009,117.187500
1010,113.281250
1011,109.375000
1012,109.375000
1013,105.468750
1014,101.562500
1015,101.562500
1016,97.656250
1017,93.750000
1018,93.750000
1019,89.843750
1020,85.937500
1021,85.937500
1022,82.031250
1023,78.125000
1024,74.218750
1025,74.218750
1026,70.312500
1027,66.406250
1028,62.500000
1029,62.500000
1030,58.593750
1031,54.687500
1032,50.781250
1033,46.875000
1034,46.875000
1035,42.968750
1036,39.062500
1037,35.156250
1038,31.250000
1039,27.343750
1040,23.437500
1041,19.531250
1042,19.531250
1043,15.625000
1044,11.718750
1045,7.812500
1046,3.906250
1047,0.000000
1048,-3.906250
1049,-7.812500
1050,-11.718750
1051,-11.718750
1052,-19.531250
1053,-23.437500
1054,-27.343750
1055,-31.250000
1056,-35.156250
1057,-39.062500
1058,-42.968750
1059,-46.875000
1060,-46.875000
1061,-50.781250
1062,-54.687500
1063,-58.593750
1064,-62.500000
1065,-66.406250
1066,-74.218750
1067,-78.125000
1068,-78.125000
1069,-82.031250
1070,-85.937500
1071,-89.843750
1072,-97.656250
1073,-97.656250
1074,-101.562500
1075,-105.468750
1076,-109.375000
1077,-113.281250
1078,-117.187500
1079,-121.093750
1080,-125.000000
1081,-128.906250
1082,-132.812500
1083,-132.812500
1084,-140.625000
1085,-144.531250
1086,-148.437500
1087,-152.343750
1088,-156.250000
1089,-160.156250
1090,-164.062500
1091,-167.968750
1092,-167.968750
1093,-171.875000
1094,-175.781250
1095,-179.687500
1096,-183.593750
1097,-187.500000
1098,-191.406250
1099,-195.312500
1100,-195.312500
1101,-199.218750
1102,-203.125000
1103,-207.031250
1104,-207.031250
1105,-210.937500
1106,-214.843750
1107,-218.750000
1108,-222.656250
1109,-222.656250
1110,-226.562500
1111,-230.468750
1112,-230.468750
1113,-234.375000
1114,-238.281250
1115,-242.187500
1116,-242.187500
1117,-246.093750
1118,-246.093750
1119,-253.906250
1120,-253.906250
1121,-253.906250
1122,-257.812500
1123,-257.812500
1124,-261.718750
1125,-261.718750
1126,-265.625000
1127,-265.625000
1128,-269.531250
1129,-269.531250
1130,-273.437500
1131,-273.437500
1132,-277.343750
1133,-277.343750
1134,-277.343750
1135,-281.250000
1136,-281.250000
1137,-285.156250
1138,-285.156250
1139,-285.156250
1140,-289.062500
1141,-289.062500
1142,-289.062500
1143,-289.062500
1144,-289.062500
1145,-292.968750
1146,-292.968750
1147,-292.968750
1148,-292.968750
1149,-292.968750
1150,-296.875000
1151,-296.875000
1152,-296.875000
1153,-296.875000
1154,-296.875000
1155,-296.875000
1156,-296.875000
1157,-296.875000
1158,-296.875000
1159,-296.875000
1160,-296.875000
1161,-296.875000
1162,-296.875000
1163,-296.875000
1164,-296.875000
1165,-296.875000
1166,-296.875000
1167,-296.875000
1168,-292.968750
1169,-292.968750
1170,-292.968750
1171,-292.968750
1172,-289.062500
1173,-292.968750
1174,-289.062500
1175,-289.062500
1176,-289.062500
1177,-285.156250
1178,-285.156250
1179,-285.156250
1180,-281.250000
1181,-281.250000
1182,-281.250000
1183,-277.343750
1184,-277.343750
1185,-273.437500
1186,-273.437500
1187,-269.531250
1188,-269.531250
1189,-265.625000
1190,-265.625000
1191,-261.718750
1192,-261.718750
1193,-257.812500
1194,-257.812500
1195,-253.906250
1196,-253.906250
1197,-250.000000
1198,-250.000000
1199,-246.093750
1200,-242.187500
1201,-242.187500
1202,-238.281250
1203,-234.375000
1204,-234.375000
1205,-230.468750
1206,-226.562500
1207,-222.656250
1208,-222.656250
1209,-218.750000
1210,-214.843750
1211,-210.937500
1212,-210.937500
1213,-207.031250
1214,-203.125000
1215,-199.218750
1216,-199.218750
1217,-195.312500
1218,-191.406250
1219,-187.500000
1220,-183.593750
1221,-179.687500
1222,-179.687500
1223,-175.781250
1224,-171.875000
1225,-167.968750
1226,-164.062500
1227,-160.156250
1228,-156.250000
1229,-152.343750
1230,-148.437500
1231,-144.531250
1232,-140.625000
1233,-140.625000
1234,-132.812500
1235,-128.906250
1236,-125.000000
1237,-121.093750
1238,-117.187500
1239,-117.187500
1240,-109.375000
1241,-105.468750
1242,-101.562500
1243,-101.562500
1244,-97.656250
1245,-93.750000
1246,-85.937500
1247,-82.031250
1248,-78.125000
1249,-74.218750
1250,-74.218750
1251,-66.406250
1252,-62.500000
1253,-58.593750
1254,-58.593750
1255,-50.781250
1256,-46.875000
1257,-42.968750
1258,-39.062500
1259,-39.062500
1260,-31.250000
1261,-31.250000
1262,-23.437500
1263,-19.531250
1264,-19.531250
1265,-15.625000
1266,-11.718750
1267,-7.812500
1268,-3.906250
1269,0.000000
1270,3.906250
1271,7.812500
1272,11.718750
1273,15.625000
1274,15.625000
1275,23.437500
1276,23.437500
1277,27.343750
1278,31.250000
1279,35.156250
1280,39.062500
1281,42.968750
1282,46.875000
1283,46.875000
1284,50.781250
1285,54.687500
1286,58.593750
1287,58.593750
1288,62.500000
1289,66.406250
1290,70.312500
1291,74.218750
1292,78.125000
1293,78.125000
1294,82.031250
1295,85.937500
1296,85.937500
1297,89.843750
1298,93.750000
1299,93.750000
1300,97.656250
1301,101.562500
1302,105.468750
1303,105.468750
1304,109.375000
1305,109.375000
1306,113.281250
1307,113.281250
1308,117.187500
1309,121.093750
1310,121.093750
1311,125.000000
1312,125.000000
1313,128.906250
1314,128.906250
1315,132.812500
1316,132.812500
1317,136.718750
1318,136.718750
1319,140.625000
1320,140.625000
1321,140.625000
1322,144.531250
1323,148.437500
1324,148.437500
1325,148.437500
1326,152.343750
1327,152.343750
1328,152.343750
1329,156.250000
1330,156.250000
1331,156.250000
1332,160.156250
1333,160.156250
1334,160.156250
1335,164.062500
1336,164.062500
1337,164.062500
1338,164.062500
1339,167.968750
1340,167.968750
1341,167.968750
1342,167.968750
1343,171.875000
1344,171.875000
1345,171.875000
1346,171.875000
1347,171.875000
1348,171.875000
1349,175.781250
1350,175.781250
1351,175.781250
1352,175.781250
1353,175.781250
1354,175.781250
1355,175.781250
1356,179.687500
1357,179.687500
1358,175.781250
1359,179.687500
1360,175.781250
1361,179.687500
1362,179.687500
1363,179.687500
1364,179.687500
1365,179.687500
1366,179.687500
1367,179.687500
1368,179.687500
1369,179.687500
1370,179.687500
1371,179.687500
1372,179.687500
1373,179.687500
1374,179.687500
1375,179.687500
1376,179.687500
1377,179.687500
1378,175.781250
1379,175.781250
1380,175.781250
1381,175.781250
1382,175.781250
1383,175.781250
1384,175.781250
1385,171.875000
1386,171.875000
1387,171.875000
1388,171.875000
1389,171.875000
1390,171.875000
1391,167.968750
1392,167.968750
1393,167.968750
1394,167.968750
1395,164.062500
1396,164.062500
1397,164.062500
1398,164.062500
1399,160.156250
1400,160.156250
1401,160.156250
1402,156.250000
1403,156.250000
1404,156.250000
1405,152.343750
1406,152.343750
1407,152.343750
1408,148.437500
1409,148.437500
1410,144.531250
1411,144.531250
1412,140.625000
1413,140.625000
1414,140.625000
1415,136.718750
1416,136.718750
1417,132.812500
1418,132.812500
1419,128.906250
1420,128.906250
1421,125.000000
1422,125.000000
1423,121.093750
1424,117.187500
1425,117.187500
1426,113.281250
1427,113.281250
1428,105.468750
1429,105.468750
1430,105.468750
1431,101.562500
1432,97.656250
1433,97.656250
1434,93.750000
1435,93.750000
1436,89.843750
1437,85.937500
1438,82.031250
1439,82.031250
1440,78.125000
1441,74.218750
1442,74.218750
1443,70.312500
1444,66.406250
1445,62.500000
1446,58.593750
1447,58.593750
1448,54.687500
1449,50.781250
1450,46.875000
1451,42.968750
1452,42.968750
1453,39.062500
1454,35.156250
1455,31.250000
1456,27.343750
1457,23.437500
1458,19.531250
1459,15.625000
1460,15.625000
1461,11.718750
1462,7.812500
1463,3.906250
1464,0.000000
1465,-3.906250
1466,-7.812500
1467,-11.718750
1468,-15.625000
1469,-19.531250
1470,-23.437500
1471,-27.343750
1472,-31.250000
1473,-35.156250
1474,-39.062500
1475,-42.968750
1476,-46.875000
1477,-50.781250
1478,-54.687500
1479,-58.593750
1480,-62.500000
1481,-66.406250
1482,-70.312500
1483,-74.218750
1484,-78.125000
1485,-82.031250
1486,-85.937500
1487,-89.843750
1488,-93.750000
1489,-97.656250
1490,-101.562500
1491,-105.468750
1492,-109.375000
1493,-113.281250
1494,-117.187500
1495,-117.187500
1496,-121.093750
1497,-125.000000
1498,-128.906250
1499,-136.718750
1500,-136.718750
1501,-140.625000
1502,-148.437500
1503,-148.437500
1504,-156.250000
1505,-156.250000
1506,-160.156250
1507,-164.062500
1508,-167.968750
1509,-167.968750
1510,-171.875000
1511,-175.781250
1512,-179.687500
1513,-183.593750
1514,-187.500000
1515,-191.406250
1516,-191.406250
1517,-195.312500
1518,-199.218750
1519,-203.125000
1520,-207.031250
1521,-210.937500
1522,-210.937500
1523,-214.843750
1524,-218.750000
1525,-222.656250
1526,-222.656250
1527,-226.562500
1528,-230.468750
1529,-234.375000
1530,-234.375000
1531,-238.281250
1532,-242.187500
1533,-242.187500
1534,-246.093750
1535,-246.093750
1536,-250.000000
1537,-253.906250
1538,-253.906250
1539,-257.812500
1540,-257.812500
1541,-261.718750
1542,-261.718750
1543,-265.625000
1544,-269.531250
1545,-269.531250
1546,-269.531250
1547,-273.437500
1548,-273.437500
1549,-277.343750
1550,-277.343750
1551,-281.250000
1552,-281.250000
1553,-281.250000
1554,-285.156250
1555,-285.156250
1556,-285.156250
1557,-289.062500
1558,-289.062500
1559,-289.062500
1560,-289.062500
1561,-292.968750
1562,-292.968750
1563,-292.968750
1564,-292.968750
1565,-292.968750
1566,-292.968750
1567,-292.968750
1568,-296.875000
1569,-296.875000
1570,-296.875000
1571,-296.875000
1572,-296.875000
1573,-296.875000
1574,-296.875000
1575,-296.875000
1576,-296.875000
1577,-296.875000
1578,-296.875000
1579,-296.875000
1580,-296.875000
1581,-296.875000
1582,-296.875000
1583,-296.875000
1584,-292.968750
1585,-292.968750
1586,-292.968750
1587,-292.968750
1588,-292.968750
1589,-289.062500
1590,-289.062500
1591,-289.062500
1592,-289.062500
1593,-289.062500
1594,-285.156250
1595,-285.156250
1596,-285.156250
1597,-281.250000
1598,-281.250000
1599,-281.250000
1600,-277.343750
1601,-277.343750
1602,-273.437500
1603,-273.437500
1604,-273.437500
1605,-269.531250
1606,-269.531250
1607,-265.625000
1608,-261.718750
1609,-261.718750
1610,-257.812500
1611,-257.812500
1612,-253.906250
1613,-253.906250
1614,-250.000000
1615,-250.000000
1616,-246.093750
1617,-242.187500
1618,-242.187500
1619,-238.281250
1620,-234.375000
1621,-234.375000
1622,-230.468750
1623,-226.562500
1624,-222.656250
1625,-222.656250
1626,-218.750000
1627,-214.843750
1628,-210.937500
1629,-210.937500
1630,-207.031250
1631,-203.125000
1632,-199.218750
1633,-195.312500
1634,-195.312500
1635,-191.406250
1636,-187.500000
1637,-183.593750
1638,-179.687500
1639,-175.781250
1640,-171.875000
1641,-167.968750
1642,-167.968750
1643,-160.156250
1644,-156.250000
1645,-156.250000
1646,-152.343750
1647,-148.437500
1648,-144.531250
1649,-140.625000
1650,-136.718750
1651,-132.812500
1652,-128.906250
1653,-125.000000
1654,-121.093750
1655,-117.187500
1656,-113.281250
1657,-109.375000
1658,-105.468750
1659,-101.562500
1660,-93.750000
1661,-93.750000
1662,-89.843750
1663,-85.937500
1664,-82.031250
1665,-78.125000
1666,-74.218750
1667,-70.312500
1668,-66.406250
1669,-62.500000
1670,-58.593750
1671,-54.687500
1672,-50.781250
1673,-46.875000
1674,-42.968750
1675,-39.062500
1676,-35.156250
1677,-31.250000
1678,-27.343750
1679,-23.437500
1680,-23.437500
1681,-15.625000
1682,-11.718750
1683,-11.718750
1684,-3.906250
1685,-3.906250
1686,0.000000
1687,3.906250
1688,7.812500
1689,11.718750
1690,15.625000
1691,19.531250
1692,23.437500
1693,27.343750
1694,31.250000
1695,31.250000
1696,35.156250
1697,39.062500
1698,42.968750
1699,46.875000
1700,50.781250
1701,50.781250
1702,54.687500
1703,58.593750
1704,62.500000
1705,66.406250
1706,70.312500
1707,70.312500
1708,74.218750
1709,78.125000
1710,82.031250
1711,85.937500
1712,85.937500
1713,89.843750
1714,93.750000
1715,93.750000
1716,97.656250
1717,97.656250
1718,101.562500
1719,105.468750
1720,105.468750
1721,109.375000
1722,109.375000
1723,113.281250
1724,117.187500
1725,117.187500
1726,121.093750
1727,121.093750
1728,125.000000
1729,125.000000
1730,128.906250
1731,128.906250
1732,132.812500
1733,132.812500
1734,136.718750
1735,136.718750
1736,140.625000
1737,140.625000
1738,140.625000
1739,144.531250
1740,148.437500
1741,148.437500
1742,148.437500
1743,152.343750
1744,152.343750
1745,152.343750
1746,156.250000
1747,156.250000
1748,156.250000
1749,160.156250
1750,160.156250
1751,160.156250
1752,160.156250
1753,164.062500
1754,164.062500
1755,164.062500
1756,167.968750
1757,167.968750
1758,167.968750
1759,167.968750
1760,167.968750
1761,171.875000
1762,171.875000
1763,171.875000
1764,171.875000
1765,175.781250
1766,171.875000
1767,175.781250
1768,175.781250
1769,175.781250
1770,175.781250
1771,175.781250
1772,175.781250
1773,179.687500
1774,175.781250
1775,179.687500
1776,179.687500
1777,179.687500
1778,179.687500
1779,179.687500
1780,179.687500
1781,179.687500
1782,179.687500
1783,179.687500
1784,179.687500
1785,179.687500
1786,179.687500
1787,179.687500
1788,179.687500
1789,179.687500
1790,179.687500
1791,179.687500
1792,179.687500
1793,179.687500
1794,179.687500
1795,175.781250
1796,175.781250
1797,175.781250
1798,175.781250
1799,175.781250
1800,175.781250
1801,175.781250
1802,171.875000
1803,171.875000
1804,171.875000
1805,171.875000
1806,171.875000
1807,167.968750
1808,167.968750
1809,167.968750
1810,167.968750
1811,167.968750
1812,164.062500
1813,164.062500
1814,164.062500
1815,160.156250
1816,160.156250
1817,160.156250
1818,160.156250
1819,156.250000
1820,156.250000
1821,156.250000
1822,152.343750
1823,152.343750
1824,148.437500
1825,148.437500
1826,148.437500
1827,144.531250
1828,144.531250
1829,140.625000
1830,140.625000
1831,136.718750
1832,136.718750
1833,136.718750
1834,132.812500
1835,128.906250
1836,128.906250
1837,128.906250
1838,125.000000
1839,125.000000
1840,121.093750
1841,117.187500
1842,117.187500
1843,113.281250
1844,113.281250
1845,109.375000
1846,105.468750
1847,105.468750
1848,101.562500
1849,97.656250
1850,97.656250
1851,93.750000
1852,89.843750
1853,89.843750
1854,85.937500
1855,82.031250
1856,82.031250
1857,78.125000
1858,74.218750
1859,70.312500
1860,70.312500
1861,66.406250
1862,62.500000
1863,58.593750
1864,54.687500
1865,54.687500
1866,50.781250
1867,46.875000
1868,42.968750
1869,39.062500
1870,35.156250
1871,31.250000
1872,31.250000
1873,27.343750
1874,23.437500
1875,19.531250
1876,15.625000
1877,11.718750
1878,7.812500
1879,3.906250
1880,3.906250
1881,-3.906250
1882,-7.812500
1883,-7.812500
1884,-11.718750
1885,-15.625000
1886,-19.531250
1887,-23.437500
1888,-27.343750
1889,-31.250000
1890,-35.156250
1891,-39.062500
1892,-42.968750
1893,-46.875000
1894,-50.781250
1895,-54.687500
1896,-58.593750
1897,-62.500000
1898,-66.406250
1899,-70.312500
1900,-74.218750
1901,-78.125000
1902,-82.031250
1903,-85.937500
1904,-89.843750
1905,-93.750000
1906,-97.656250
1907,-101.562500
1908,-105.468750
1909,-109.375000
1910,-113.281250
1911,-117.187500
1912,-121.093750
1913,-125.000000
1914,-128.906250
1915,-132.812500
1916,-136.718750
1917,-140.625000
1918,-144.531250
1919,-148.437500
1920,-152.343750
1921,-152.343750
1922,-156.250000
1923,-160.156250
1924,-164.062500
1925,-167.968750
1926,-171.875000
1927,-175.781250
1928,-179.687500
1929,-183.593750
1930,-187.500000
1931,-187.500000
1932,-191.406250
1933,-195.312500
1934,-199.218750
1935,-203.125000
1936,-203.125000
1937,-207.031250
1938,-210.937500
1939,-214.843750
1940,-218.750000
1941,-218.750000
1942,-222.656250
1943,-226.562500
1944,-230.468750
1945,-230.468750
1946,-234.375000
1947,-238.281250
1948,-238.281250
1949,-242.187500
1950,-246.093750
1951,-246.093750
1952,-250.000000
1953,-250.000000
1954,-253.906250
1955,-253.906250
1956,-257.812500
1957,-261.718750
1958,-261.718750
1959,-265.625000
1960,-265.625000
1961,-269.531250
1962,-269.531250
1963,-273.437500
1964,-273.437500
1965,-273.437500
1966,-277.343750
1967,-277.343750
1968,-281.250000
1969,-281.250000
1970,-285.156250
1971,-285.156250
1972,-285.156250
1973,-285.156250
1974,-289.062500
1975,-289.062500
1976,-289.062500
1977,-289.062500
1978,-292.968750
1979,-292.968750
1980,-292.968750
1981,-292.968750
1982,-296.875000
1983,-292.968750
1984,-296.875000
1985,-296.875000
1986,-296.875000
1987,-296.875000
1988,-296.875000
1989,-296.875000
1990,-296.875000
1991,-296.875000
1992,-296.875000
1993,-296.875000
1994,-296.875000
1995,-296.875000
1996,-296.875000
1997,-296.875000
1998,-296.875000
1999,-296.875000
2000,-296.875000
2001,-296.875000
2002,-296.875000
2003,-292.968750
2004,-292.968750
2005,-292.968750
2006,-292.968750
2007,-289.062500
2008,-289.062500
2009,-289.062500
2010,-289.062500
2011,-285.156250
2012,-285.156250
2013,-285.156250
2014,-281.250000
2015,-281.250000
2016,-277.343750
2017,-277.343750
2018,-273.437500
2019,-273.437500
2020,-273.437500
2021,-269.531250
2022,-269.531250
2023,-265.625000
2024,-265.625000
2025,-261.718750
2026,-261.718750
2027,-257.812500
2028,-257.812500
2029,-253.906250
2030,-253.906250
2031,-250.000000
2032,-246.093750
2033,-246.093750
2034,-242.187500
2035,-238.281250
2036,-238.281250
2037,-234.375000
2038,-230.468750
2039,-230.468750
2040,-226.562500
2041,-222.656250
2042,-222.656250
2043,-218.750000
2044,-214.843750
2045,-210.937500
2046,-207.031250
2047,-203.125000
2048,-199.218750
2049,-199.218750
2050,-195.312500
2051,-191.406250
2052,-187.500000
2053,-187.500000
2054,-179.687500
2055,-179.687500
2056,-175.781250
2057,-171.875000
2058,-167.968750
2059,-164.062500
2060,-160.156250
2061,-156.250000
2062,-156.250000
2063,-148.437500
2064,-148.437500
2065,-144.531250
2066,-136.718750
2067,-136.718750
2068,-132.812500
2069,-128.906250
2070,-125.000000
2071,-121.093750
2072,-117.187500
2073,-113.281250
2074,-109.375000
2075,-105.468750
2076,-101.562500
2077,-97.656250
2078,-93.750000
2079,-89.843750
2080,-85.937500
2081,-82.031250
2082,-78.125000
2083,-74.218750
2084,-70.312500
2085,-66.406250
2086,-62.500000
2087,-58.593750
2088,-54.687500
2089,-50.781250
2090,-46.875000
2091,-42.968750
2092,-39.062500
2093,-35.156250
2094,-31.250000
2095,-27.343750
2096,-23.437500
2097,-19.531250
2098,-15.625000
2099,-15.625000
2100,-7.812500
2101,-3.906250
2102,0.000000
2103,3.906250
2104,7.812500
2105,7.812500
2106,15.625000
2107,15.625000
2108,19.531250
2109,23.437500
2110,27.343750
2111,31.250000
2112,35.156250
2113,39.062500
2114,42.968750
2115,42.968750
2116,46.875000
2117,50.781250
2118,54.687500
2119,58.593750
2120,58.593750
2121,62.500000
2122,66.406250
2123,70.312500
2124,70.312500
2125,74.218750
2126,78.125000
2127,82.031250
2128,82.031250
2129,85.937500
2130,89.843750
2131,89.843750
2132,93.750000
2133,97.656250
2134,97.656250
2135,101.562500
2136,105.468750
2137,105.468750
2138,109.375000
2139,109.375000
2140,113.281250
2141,117.187500
2142,117.187500
2143,121.093750
2144,121.093750
2145,125.000000
2146,125.000000
2147,128.906250
2148,132.812500
2149,132.812500
2150,136.718750
2151,136.718750
2152,136.718750
2153,140.625000
2154,140.625000
2155,144.531250
2156,144.531250
2157,148.437500
2158,148.437500
2159,148.437500
2160,152.343750
2161,152.343750
2162,152.343750
2163,156.250000
2164,156.250000
2165,160.156250
2166,160.156250
2167,160.156250
2168,160.156250
2169,164.062500
2170,164.062500
2171,164.062500
2172,167.968750
2173,167.968750
2174,167.968750
2175,167.968750
2176,171.875000
2177,171.875000
2178,171.875000
2179,171.875000
2180,171.875000
2181,171.875000
2182,171.875000
2183,175.781250
2184,175.781250
2185,175.781250
2186,175.781250
2187,175.781250
2188,175.781250
2189,175.781250
2190,175.781250
2191,179.687500
2192,179.687500
2193,179.687500
2194,179.687500
2195,179.687500
2196,179.687500
2197,179.687500
2198,179.687500
2199,179.687500
2200,179.687500
2201,171.875000
2202,179.687500
2203,179.687500
2204,179.687500
2205,179.687500
2206,175.781250
2207,179.687500
2208,179.687500
2209,179.687500
2210,175.781250
2211,175.781250
2212,175.781250
2213,175.781250
2214,175.781250
2215,175.781250
2216,175.781250
2217,175.781250
2218,175.781250
2219,171.875000
2220,171.875000
2221,171.875000
2222,171.875000
2223,171.875000
2224,171.875000
2225,167.968750
2226,167.968750
2227,167.968750
2228,164.062500
2229,164.062500
2230,164.062500
2231,164.062500
2232,160.156250
2233,160.156250
2234,160.156250
2235,156.250000
2236,156.250000
2237,156.250000
2238,152.343750
2239,152.343750
2240,152.343750
2241,148.437500
2242,148.437500
2243,144.531250
2244,144.531250
2245,144.531250
2246,140.625000
2247,140.625000
2248,136.718750
2249,136.718750
2250,136.718750
2251,132.812500
2252,128.906250
2253,128.906250
2254,125.000000
2255,125.000000
2256,121.093750
2257,121.093750
2258,117.187500
2259,113.281250
2260,113.281250
2261,109.375000
2262,105.468750
2263,105.468750
2264,101.562500
2265,101.562500
2266,97.656250
2267,93.750000
2268,93.750000
2269,89.843750
2270,85.937500
2271,85.937500
2272,82.031250
2273,78.125000
2274,74.218750
2275,74.218750
2276,66.406250
2277,66.406250
2278,62.500000
2279,62.500000
2280,58.593750
2281,54.687500
2282,50.781250
2283,42.968750
2284,46.875000
2285,42.968750
2286,39.062500
2287,35.156250
2288,31.250000
2289,31.250000
2290,27.343750
2291,19.531250
2292,15.625000
2293,15.625000
2294,11.718750
2295,7.812500
2296,3.906250
2297,0.000000
2298,-3.906250
2299,-7.812500
2300,-11.718750
2301,-15.625000
2302,-19.531250
2303,-23.437500
2304,-27.343750
2305,-31.250000
2306,-35.156250
2307,-35.156250
2308,-39.062500
2309,-42.968750
2310,-50.781250
2311,-50.781250
2312,-54.687500
2313,-62.500000
2314,-66.406250
2315,-66.406250
2316,-70.312500
2317,-74.218750
2318,-82.031250
2319,-82.031250
2320,-85.937500
2321,-93.750000
2322,-97.656250
2323,-97.656250
2324,-101.562500
2325,-105.468750
2326,-109.375000
2327,-113.281250
2328,-117.187500
2329,-121.093750
2330,-125.000000
2331,-128.906250
2332,-132.812500
2333,-136.718750
2334,-140.625000
2335,-144.531250
2336,-148.437500
2337,-152.343750
2338,-156.250000
2339,-160.156250
2340,-164.062500
2341,-167.968750
2342,-167.968750
2343,-171.875000
2344,-175.781250
2345,-179.687500
2346,-183.593750
2347,-187.500000
2348,-191.406250
2349,-191.406250
2350,-195.312500
2351,-199.218750
2352,-203.125000
2353,-207.031250
2354,-207.031250
2355,-210.937500
2356,-214.843750
2357,-218.750000
2358,-218.750000
2359,-222.656250
2360,-226.562500
2361,-226.562500
2362,-230.468750
2363,-234.375000
2364,-238.281250
2365,-238.281250
2366,-242.187500
2367,-246.093750
2368,-246.093750
2369,-250.000000
2370,-250.000000
2371,-253.906250
2372,-257.812500
2373,-257.812500
2374,-261.718750
2375,-261.718750
2376,-265.625000
2377,-265.625000
2378,-269.531250
2379,-269.531250
2380,-273.437500
2381,-273.437500
2382,-273.437500
2383,-277.343750
2384,-277.343750
2385,-281.250000
2386,-281.250000
2387,-285.156250
2388,-285.156250
2389,-285.156250
2390,-285.156250
2391,-289.062500
2392,-289.062500
2393,-289.062500
2394,-292.968750
2395,-292.968750
2396,-292.968750
2397,-292.968750
2398,-292.968750
2399,-292.968750
2400,-296.875000
2401,-296.875000
2402,-296.875000
2403,-296.875000
2404,-296.875000
2405,-296.875000
2406,-296.875000
2407,-296.875000
2408,-296.875000
2409,-296.875000
2410,-296.875000
2411,-296.875000
2412,-296.875000
2413,-296.875000
2414,-296.875000
2415,-296.875000
2416,-292.968750
2417,-292.968750
2418,-292.968750
2419,-292.968750
2420,-292.968750
2421,-292.968750
2422,-292.968750
2423,-289.062500
2424,-289.062500
2425,-289.062500
2426,-285.156250
2427,-285.156250
2428,-289.062500
2429,-285.156250
2430,-281.250000
2431,-281.250000
2432,-281.250000
2433,-277.343750
2434,-277.343750
2435,-273.437500
2436,-273.437500
2437,-273.437500
2438,-269.531250
2439,-269.531250
2440,-265.625000
2441,-265.625000
2442,-261.718750
2443,-257.812500
2444,-257.812500
2445,-257.812500
2446,-253.906250
2447,-250.000000
2448,-250.000000
2449,-246.093750
2450,-242.187500
2451,-242.187500
2452,-238.281250
2453,-234.375000
2454,-234.375000
2455,-230.468750
2456,-226.562500
2457,-226.562500
2458,-222.656250
2459,-218.750000
2460,-218.750000
2461,-214.843750
2462,-210.937500
2463,-207.031250
2464,-203.125000
2465,-203.125000
2466,-199.218750
2467,-195.312500
2468,-191.406250
2469,-187.500000
2470,-183.593750
2471,-183.593750
2472,-179.687500
2473,-175.781250
2474,-171.875000
2475,-167.968750
2476,-164.062500
2477,-160.156250
2478,-156.250000
2479,-152.343750
2480,-148.437500
2481,-144.531250
2482,-140.625000
2483,-136.718750
2484,-132.812500
2485,-128.906250
2486,-128.906250
2487,-125.000000
2488,-121.093750
2489,-113.281250
2490,-113.281250
2491,-105.468750
2492,-105.468750
2493,-97.656250
2494,-97.656250
2495,-93.750000
2496,-89.843750
2497,-85.937500
2498,-78.125000
2499,-78.125000
2500,-74.218750
2501,-70.312500
2502,-66.406250
2503,-62.500000
2504,-58.593750
2505,-54.687500
2506,-50.781250
2507,-46.875000
2508,-42.968750
2509,-39.062500
2510,-35.156250
2511,-31.250000
2512,-27.343750
2513,-23.437500
2514,-19.531250
2515,-15.625000
2516,-11.718750
2517,-7.812500
2518,-3.906250
2519,0.000000
2520,3.906250
2521,7.812500
2522,11.718750
2523,15.625000
2524,15.625000
2525,19.531250
2526,23.437500
2527,27.343750
2528,31.250000
2529,35.156250
2530,39.062500
2531,42.968750
2532,42.968750
2533,46.875000
2534,50.781250
2535,54.687500
2536,58.593750
2537,58.593750
2538,62.500000
2539,66.406250
2540,70.312500
2541,74.218750
2542,74.218750
2543,78.125000
2544,85.937500
2545,82.031250
2546,89.843750
2547,89.843750
2548,93.750000
2549,93.750000
2550,97.656250
2551,101.562500
2552,101.562500
2553,105.468750
2554,109.375000
2555,109.375000
2556,113.281250
2557,113.281250
2558,117.187500
2559,121.093750
2560,121.093750
2561,121.093750
2562,125.000000
2563,128.906250
2564,128.906250
2565,132.812500
2566,132.812500
2567,136.718750
2568,136.718750
2569,140.625000
2570,140.625000
2571,140.625000
2572,144.531250
2573,144.531250
2574,148.437500
2575,148.437500
2576,152.343750
2577,152.343750
2578,156.250000
2579,156.250000
2580,156.250000
2581,156.250000
2582,160.156250
2583,160.156250
2584,160.156250
2585,164.062500
2586,164.062500
2587,164.062500
2588,164.062500
2589,167.968750
2590,167.968750
2591,167.968750
2592,167.968750
2593,171.875000
2594,171.875000
2595,171.875000
2596,171.875000
2597,171.875000
2598,175.781250
2599,175.781250
2600,175.781250
2601,175.781250
2602,175.781250
2603,175.781250
2604,175.781250
2605,175.781250
2606,175.781250
2607,179.687500
2608,179.687500
2609,179.687500
2610,179.687500
2611,179.687500
2612,179.687500
2613,179.687500
2614,179.687500
2615,179.687500
2616,179.687500
2617,179.687500
2618,179.687500
2619,179.687500
2620,179.687500
2621,179.687500
2622,179.687500
2623,179.687500
2624,179.687500
2625,179.687500
2626,179.687500
2627,175.781250
2628,175.781250
2629,175.781250
2630,175.781250
2631,175.781250
2632,175.781250
2633,175.781250
2634,175.781250
2635,171.875000
2636,171.875000
2637,171.875000
2638,171.875000
2639,171.875000
2640,171.875000
2641,167.968750
2642,167.968750
2643,167.968750
2644,164.062500
2645,164.062500
2646,164.062500
2647,164.062500
2648,160.156250
2649,160.156250
2650,160.156250
2651,160.156250
2652,156.250000
2653,156.250000
2654,156.250000
2655,152.343750
2656,152.343750
2657,152.343750
2658,148.437500
2659,148.437500
2660,144.531250
2661,144.531250
2662,140.625000
2663,136.718750
2664,136.718750
2665,136.718750
2666,136.718750
2667,132.812500
2668,132.812500
2669,128.906250
2670,128.906250
2671,125.000000
2672,125.000000
2673,121.093750
2674,121.093750
2675,117.187500
2676,113.281250
2677,113.281250
2678,109.375000
2679,109.375000
2680,105.468750
2681,101.562500
2682,101.562500
2683,97.656250
2684,93.750000
2685,93.750000
2686,89.843750
2687,85.937500
2688,82.031250
2689,82.031250
2690,78.125000
2691,74.218750
2692,74.218750
2693,70.312500
2694,66.406250
2695,66.406250
2696,62.500000
2697,58.593750
2698,54.687500
2699,50.781250
2700,46.875000
2701,42.968750
2702,42.968750
2703,39.062500
2704,35.156250
2705,31.250000
2706,27.343750
2707,23.437500
2708,19.531250
2709,15.625000
2710,15.625000
2711,11.718750
2712,7.812500
2713,3.906250
2714,-3.906250
2715,-3.906250
2716,-7.812500
2717,-11.718750
2718,-15.625000
2719,-19.531250
2720,-23.437500
2721,-27.343750
2722,-31.250000
2723,-35.156250
2724,-39.062500
2725,-42.968750
2726,-46.875000
2727,-50.781250
2728,-54.687500
2729,-58.593750
2730,-62.500000
2731,-66.406250
2732,-70.312500
2733,-74.218750
2734,-78.125000
2735,-82.031250
2736,-85.937500
2737,-89.843750
2738,-93.750000
2739,-93.750000
2740,-101.562500
2741,-101.562500
2742,-109.375000
2743,-113.281250
2744,-117.187500
2745,-117.187500
2746,-121.093750
2747,-125.000000
2748,-128.906250
2749,-132.812500
2750,-136.718750
2751,-140.625000
2752,-144.531250
2753,-148.437500
2754,-152.343750
2755,-156.250000
2756,-160.156250
2757,-164.062500
2758,-164.062500
2759,-171.875000
2760,-171.875000
2761,-175.781250
2762,-179.687500
2763,-183.593750
2764,-187.500000
2765,-191.406250
2766,-195.312500
2767,-195.312500
2768,-199.218750
2769,-203.125000
2770,-207.031250
2771,-210.937500
2772,-210.937500
2773,-214.843750
2774,-218.750000
2775,-222.656250
2776,-222.656250
2777,-226.562500
2778,-230.468750
2779,-234.375000
2780,-234.375000
2781,-238.281250
2782,-242.187500
2783,-242.187500
2784,-246.093750
2785,-250.000000
2786,-250.000000
2787,-253.906250
2788,-253.906250
2789,-257.812500
2790,-257.812500
2791,-261.718750
2792,-265.625000
2793,-265.625000
2794,-269.531250
2795,-269.531250
2796,-269.531250
2797,-273.437500
2798,-273.437500
2799,-277.343750
2800,-277.343750
2801,-277.343750
2802,-281.250000
2803,-281.250000
2804,-285.156250
2805,-285.156250
2806,-285.156250
2807,-285.156250
2808,-289.062500
2809,-289.062500
2810,-289.062500
2811,-289.062500
2812,-292.968750
2813,-292.968750
2814,-292.968750
2815,-292.968750
2816,-292.968750
2817,-296.875000
2818,-296.875000
2819,-296.875000
2820,-296.875000
2821,-296.875000
2822,-296.875000
2823,-296.875000
2824,-296.875000
2825,-296.875000
2826,-296.875000
2827,-296.875000
2828,-296.875000
2829,-296.875000
2830,-296.875000
2831,-296.875000
2832,-296.875000
2833,-296.875000
2834,-292.968750
2835,-292.968750
2836,-292.968750
2837,-292.968750
2838,-292.968750
2839,-292.968750
2840,-292.968750
2841,-289.062500
2842,-289.062500
2843,-289.062500
2844,-285.156250
2845,-285.156250
2846,-285.156250
2847,-281.250000
2848,-281.250000
2849,-281.250000
2850,-277.343750
2851,-277.343750
2852,-273.437500
2853,-273.437500
2854,-273.437500
2855,-269.531250
2856,-269.531250
2857,-265.625000
2858,-265.625000
2859,-261.718750
2860,-257.812500
2861,-257.812500
2862,-253.906250
2863,-253.906250
2864,-250.000000
2865,-246.093750
2866,-246.093750
2867,-242.187500
2868,-242.187500
2869,-238.281250
2870,-234.375000
2871,-234.375000
2872,-230.468750
2873,-226.562500
2874,-226.562500
2875,-222.656250
2876,-218.750000
2877,-214.843750
2878,-210.937500
2879,-207.031250
2880,-207.031250
2881,-203.125000
2882,-199.218750
2883,-195.312500
2884,-191.406250
2885,-191.406250
2886,-187.500000
2887,-183.593750
2888,-179.687500
2889,-175.781250
2890,-171.875000
2891,-167.968750
2892,-167.968750
2893,-164.062500
2894,-160.156250
2895,-152.343750
2896,-148.437500
2897,-148.437500
2898,-144.531250
2899,-136.718750
2900,-136.718750
2901,-132.812500
2902,-128.906250
2903,-125.000000
2904,-121.093750
2905,-117.187500
2906,-113.281250
2907,-109.375000
2908,-105.468750
2909,-101.562500
2910,-97.656250
2911,-93.750000
2912,-89.843750
2913,-85.937500
2914,-82.031250
2915,-78.125000
2916,-74.218750
2917,-70.312500
2918,-66.406250
2919,-62.500000
2920,-58.593750
2921,-54.687500
2922,-50.781250
2923,-46.875000
2924,-42.968750
2925,-39.062500
2926,-35.156250
2927,-35.156250
2928,-31.250000
2929,-23.437500
2930,-19.531250
2931,-15.625000
2932,-15.625000
2933,-11.718750
2934,-3.906250
2935,-3.906250
2936,0.000000
2937,3.906250
2938,7.812500
2939,11.718750
2940,15.625000
2941,19.531250
2942,23.437500
2943,27.343750
2944,31.250000
2945,35.156250
2946,35.156250
2947,39.062500
2948,42.968750
2949,46.875000
2950,50.781250
2951,54.687500
2952,54.687500
2953,58.593750
2954,62.500000
2955,62.500000
2956,70.312500
2957,70.312500
2958,74.218750
2959,78.125000
2960,82.031250
2961,82.031250
2962,85.937500
2963,89.843750
2964,89.843750
2965,93.750000
2966,97.656250
2967,97.656250
2968,101.562500
2969,105.468750
2970,105.468750
2971,109.375000
2972,113.281250
2973,113.281250
2974,113.281250
2975,117.187500
2976,121.093750
2977,121.093750
2978,125.000000
2979,125.000000
2980,128.906250
2981,128.906250
2982,132.812500
2983,132.812500
2984,136.718750
2985,136.718750
2986,140.625000
2987,140.625000
2988,144.531250
2989,144.531250
2990,148.437500
2991,148.437500
2992,148.437500
2993,152.343750
2994,152.343750
2995,152.343750
2996,156.250000
2997,156.250000
2998,156.250000
2999,160.156250
3000,160.156250
3001,164.062500
3002,164.062500
3003,164.062500
3004,164.062500
3005,164.062500
3006,167.968750
3007,167.968750
3008,167.968750
3009,167.968750
3010,171.875000
3011,171.875000
3012,171.875000
3013,171.875000
3014,171.875000
3015,171.875000
3016,171.875000
3017,175.781250
3018,175.781250
3019,175.781250
3020,175.781250
3021,175.781250
3022,175.781250
3023,175.781250
3024,179.687500
3025,179.687500
3026,179.687500
3027,179.687500
3028,179.687500
3029,179.687500
3030,179.687500
3031,179.687500
3032,179.687500
3033,179.687500
3034,179.687500
3035,179.687500
3036,179.687500
3037,179.687500
3038,179.687500
3039,179.687500
3040,179.687500
3041,175.781250
3042,179.687500
3043,175.781250
3044,179.687500
3045,175.781250
3046,175.781250
3047,175.781250
3048,175.781250
3049,171.875000
3050,171.875000
3051,171.875000
3052,171.875000
3053,171.875000
3054,171.875000
3055,171.875000
3056,171.875000
3057,167.968750
3058,167.968750
3059,167.968750
3060,167.968750
3061,167.968750
3062,164.062500
3063,164.062500
3064,164.062500
3065,164.062500
3066,160.156250
3067,160.156250
3068,156.250000
3069,156.250000
3070,156.250000
3071,156.250000
3072,152.343750
3073,152.343750
3074,148.437500
3075,148.437500
3076,148.437500
3077,144.531250
3078,144.531250
3079,140.625000
3080,140.625000
3081,140.625000
3082,136.718750
3083,136.718750
3084,132.812500
3085,128.906250
3086,128.906250
3087,125.000000
3088,125.000000
3089,125.000000
3090,121.093750
3091,117.187500
3092,113.281250
3093,113.281250
3094,113.281250
3095,109.375000
3096,105.468750
3097,101.562500
3098,101.562500
3099,97.656250
3100,97.656250
3101,93.750000
3102,89.843750
3103,89.843750
3104,85.937500
3105,82.031250
3106,82.031250
3107,78.125000
3108,74.218750
3109,70.312500
3110,70.312500
3111,66.406250
3112,62.500000
3113,58.593750
3114,54.687500
3115,54.687500
3116,50.781250
3117,46.875000
3118,42.968750
3119,39.062500
3120,39.062500
3121,31.250000
3122,27.343750
3123,27.343750
3124,23.437500
3125,19.531250
3126,15.625000
3127,11.718750
3128,7.812500
3129,3.906250
3130,0.000000
3131,-3.906250
3132,-7.812500
3133,-7.812500
3134,-11.718750
3135,-15.625000
3136,-19.531250
3137,-23.437500
3138,-27.343750
3139,-31.250000
3140,-35.156250
3141,-39.062500
3142,-42.968750
3143,-46.875000
3144,-50.781250
3145,-54.687500
3146,-58.593750
3147,-62.500000
3148,-66.406250
3149,-70.312500
3150,-74.218750
3151,-78.125000
3152,-82.031250
3153,-85.937500
3154,-89.843750
3155,-93.750000
3156,-97.656250
3157,-101.562500
3158,-105.468750
3159,-109.375000
3160,-113.281250
3161,-117.187500
3162,-121.093750
3163,-125.000000
3164,-128.906250
3165,-132.812500
3166,-136.718750
3167,-140.625000
3168,-144.531250
3169,-148.437500
3170,-148.437500
3171,-156.250000
3172,-156.250000
3173,-160.156250
3174,-164.062500
3175,-167.968750
3176,-171.875000
3177,-175.781250
3178,-175.781250
3179,-179.687500
3180,-183.593750
3181,-187.500000
3182,-191.406250
3183,-195.312500
3184,-199.218750
3185,-199.218750
3186,-203.125000
3187,-203.125000
3188,-210.937500
3189,-214.843750
3190,-214.843750
3191,-218.750000
3192,-222.656250
3193,-226.562500
3194,-226.562500
3195,-230.468750
3196,-234.375000
3197,-234.375000
3198,-238.281250
3199,-242.187500
3200,-242.187500
3201,-246.093750
3202,-250.000000
3203,-250.000000
3204,-253.906250
3205,-253.906250
3206,-257.812500
3207,-257.812500
3208,-261.718750
3209,-265.625000
3210,-265.625000
3211,-265.625000
3212,-269.531250
3213,-277.343750
3214,-273.437500
3215,-273.437500
3216,-277.343750
3217,-277.343750
3218,-281.250000
3219,-281.250000
3220,-281.250000
3221,-285.156250
3222,-285.156250
3223,-285.156250
3224,-289.062500
3225,-289.062500
3226,-289.062500
3227,-289.062500
3228,-292.968750
3229,-292.968750
3230,-292.968750
3231,-292.968750
3232,-292.968750
3233,-292.968750
3234,-296.875000
3235,-292.968750
3236,-296.875000
3237,-296.875000
3238,-296.875000
3239,-296.875000
3240,-296.875000
3241,-296.875000
3242,-296.875000
3243,-296.875000
3244,-296.875000
3245,-296.875000
3246,-296.875000
3247,-296.875000
3248,-296.875000
3249,-296.875000
3250,-292.968750
3251,-292.968750
3252,-292.968750
3253,-292.968750
3254,-292.968750
3255,-292.968750
3256,-289.062500
3257,-289.062500
3258,-289.062500
3259,-289.062500
3260,-285.156250
3261,-285.156250
3262,-285.156250
3263,-281.250000
3264,-281.250000
3265,-281.250000
3266,-277.343750
3267,-277.343750
3268,-273.437500
3269,-273.437500
3270,-273.437500
3271,-269.531250
3272,-269.531250
3273,-265.625000
3274,-265.625000
3275,-261.718750
3276,-261.718750
3277,-257.812500
3278,-257.812500
3279,-253.906250
3280,-250.000000
3281,-250.000000
3282,-246.093750
3283,-246.093750
3284,-242.187500
3285,-242.187500
3286,-238.281250
3287,-234.375000
3288,-230.468750
3289,-230.468750
3290,-226.562500
3291,-222.656250
3292,-222.656250
3293,-218.750000
3294,-214.843750
3295,-210.937500
3296,-207.031250
3297,-207.031250
3298,-203.125000
3299,-199.218750
3300,-195.312500
3301,-191.406250
3302,-191.406250
3303,-187.500000
3304,-183.593750
3305,-179.687500
3306,-175.781250
3307,-171.875000
3308,-167.968750
3309,-164.062500
3310,-160.156250
3311,-156.250000
3312,-156.250000
3313,-152.343750
3314,-148.437500
3315,-144.531250
3316,-140.625000
3317,-136.718750
3318,-128.906250
3319,-128.906250
3320,-125.000000
3321,-121.093750
3322,-117.187500
3323,-109.375000
3324,-109.375000
3325,-105.468750
3326,-101.562500
3327,-97.656250
3328,-93.750000
3329,-89.843750
3330,-85.937500
3331,-82.031250
3332,-78.125000
3333,-74.218750
3334,-70.312500
3335,-66.406250
3336,-62.500000
3337,-58.593750
3338,-54.687500
3339,-50.781250
3340,-46.875000
3341,-42.968750
3342,-39.062500
3343,-35.156250
3344,-31.250000
3345,-27.343750
3346,-23.437500
3347,-19.531250
3348,-15.625000
3349,-11.718750
3350,-11.718750
3351,-3.906250
3352,0.000000
3353,0.000000
3354,3.906250
3355,7.812500
3356,11.718750
3357,15.625000
3358,19.531250
3359,23.437500
3360,27.343750
3361,31.250000
3362,35.156250
3363,35.156250
3364,39.062500
3365,42.968750
3366,46.875000
3367,50.781250
3368,54.687500
3369,54.687500
3370,58.593750
3371,62.500000
3372,66.406250
3373,66.406250
3374,70.312500
3375,74.218750
3376,78.125000
3377,82.031250
3378,82.031250
3379,85.937500
3380,89.843750
3381,89.843750
3382,93.750000
3383,97.656250
3384,101.562500
3385,101.562500
3386,105.468750
3387,105.468750
3388,109.375000
3389,109.375000
3390,113.281250
3391,117.187500
3392,121.093750
3393,121.093750
3394,125.000000
3395,125.000000
3396,125.000000
3397,128.906250
3398,128.906250
3399,132.812500
3400,136.718750
3401,136.718750
3402,140.625000
3403,140.625000
3404,140.625000
3405,144.531250
3406,144.531250
3407,148.437500
3408,148.437500
3409,148.437500
3410,152.343750
3411,152.343750
3412,152.343750
3413,156.250000
3414,156.250000
3415,156.250000
3416,160.156250
3417,160.156250
3418,160.156250
3419,164.062500
3420,164.062500
3421,164.062500
3422,164.062500
3423,167.968750
3424,167.968750
3425,167.968750
3426,171.875000
3427,171.875000
3428,171.875000
3429,171.875000
3430,171.875000
3431,171.875000
3432,171.875000
3433,175.781250
3434,175.781250
3435,175.781250
3436,175.781250
3437,175.781250
3438,179.687500
3439,175.781250
3440,175.781250
3441,175.781250
3442,179.687500
3443,179.687500
3444,179.687500
3445,179.687500
3446,179.687500
3447,179.687500
3448,179.687500
3449,179.687500
3450,179.687500
3451,179.687500
3452,179.687500
3453,179.687500
3454,179.687500
3455,179.687500
3456,179.687500
3457,179.687500
3458,179.687500
3459,179.687500
3460,175.781250
3461,175.781250
3462,175.781250
3463,175.781250
3464,175.781250
3465,175.781250
3466,175.781250
3467,171.875000
3468,171.875000
3469,171.875000
3470,171.875000
3471,171.875000
3472,171.875000
3473,171.875000
3474,167.968750
3475,167.968750
3476,167.968750
3477,167.968750
3478,164.062500
3479,164.062500
3480,164.062500
3481,164.062500
3482,160.156250
3483,160.156250
3484,160.156250
3485,156.250000
3486,156.250000
3487,156.250000
3488,152.343750
3489,152.343750
3490,152.343750
3491,148.437500
3492,148.437500
3493,148.437500
3494,144.531250
3495,144.531250
3496,140.625000
3497,140.625000
3498,136.718750
3499,136.718750
3500,132.812500
3501,132.812500
3502,128.906250
3503,128.906250
3504,125.000000
3505,125.000000
3506,125.000000
3507,121.093750
3508,117.187500
3509,113.281250
3510,113.281250
3511,109.375000
3512,109.375000
3513,105.468750
3514,105.468750
3515,101.562500
3516,97.656250
3517,97.656250
3518,93.750000
3519,89.843750
3520,85.937500
3521,85.937500
3522,82.031250
3523,78.125000
3524,74.218750
3525,74.218750
3526,70.312500
3527,66.406250
3528,66.406250
3529,62.500000
3530,58.593750
3531,54.687500
3532,50.781250
3533,50.781250
3534,46.875000
3535,42.968750
3536,39.062500
3537,35.156250
3538,31.250000
3539,27.343750
3540,23.437500
3541,19.531250
3542,19.531250
3543,15.625000
3544,11.718750
3545,7.812500
3546,3.906250
3547,0.000000
3548,-3.906250
3549,-7.812500
3550,-11.718750
3551,-15.625000
3552,-19.531250
3553,-23.437500
3554,-27.343750
3555,-31.250000
3556,-35.156250
3557,-35.156250
3558,-39.062500
3559,-46.875000
3560,-50.781250
3561,-50.781250
3562,-54.687500
3563,-62.500000
3564,-62.500000
3565,-66.406250
3566,-70.312500
3567,-78.125000
3568,-78.125000
3569,-82.031250
3570,-89.843750
3571,-89.843750
3572,-93.750000
3573,-97.656250
3574,-101.562500
3575,-105.468750
3576,-109.375000
3577,-113.281250
3578,-117.187500
3579,-121.093750
3580,-125.000000
3581,-128.906250
3582,-132.812500
3583,-136.718750
3584,-140.625000
3585,-144.531250
3586,-148.437500
3587,-152.343750
3588,-156.250000
3589,-156.250000
3590,-164.062500
3591,-164.062500
3592,-167.968750
3593,-171.875000
3594,-175.781250
3595,-179.687500
3596,-183.593750
3597,-187.500000
3598,-187.500000
3599,-191.406250
3600,-195.312500
3601,-199.218750
3602,-199.218750
3603,-203.125000
3604,-207.031250
3605,-210.937500
3606,-214.843750
3607,-218.750000
3608,-218.750000
3609,-222.656250
3610,-226.562500
3611,-230.468750
3612,-230.468750
3613,-234.375000
3614,-238.281250
3615,-238.281250
3616,-242.187500
3617,-246.093750
3618,-246.093750
3619,-250.000000
3620,-250.000000
3621,-253.906250
3622,-257.812500
3623,-257.812500
3624,-261.718750
3625,-261.718750
3626,-265.625000
3627,-265.625000
3628,-269.531250
3629,-269.531250
3630,-273.437500
3631,-273.437500
3632,-273.437500
3633,-277.343750
3634,-281.250000
3635,-281.250000
3636,-281.250000
3637,-281.250000
3638,-289.062500
3639,-285.156250
3640,-285.156250
3641,-289.062500
3642,-289.062500
3643,-289.062500
3644,-289.062500
3645,-292.968750
3646,-292.968750
3647,-292.968750
3648,-292.968750
3649,-292.968750
3650,-296.875000
3651,-292.968750
3652,-296.875000
3653,-296.875000
3654,-296.875000
3655,-296.875000
3656,-296.875000
3657,-296.875000
3658,-296.875000
3659,-296.875000
3660,-296.875000
3661,-296.875000
3662,-296.875000
3663,-296.875000
3664,-296.875000
3665,-296.875000
3666,-296.875000
3667,-296.875000
3668,-292.968750
3669,-292.968750
3670,-292.968750
3671,-292.968750
3672,-292.968750
3673,-292.968750
3674,-289.062500
3675,-289.062500
3676,-289.062500
3677,-285.156250
3678,-285.156250
3679,-285.156250
3680,-281.250000
3681,-277.343750
3682,-281.250000
3683,-277.343750
3684,-277.343750
3685,-277.343750
3686,-273.437500
3687,-269.531250
3688,-269.531250
3689,-269.531250
3690,-265.625000
3691,-265.625000
3692,-261.718750
3693,-261.718750
3694,-257.812500
3695,-257.812500
3696,-253.906250
3697,-250.000000
3698,-250.000000
3699,-246.093750
3700,-242.187500
3701,-242.187500
3702,-238.281250
3703,-238.281250
3704,-234.375000
3705,-230.468750
3706,-226.562500
3707,-226.562500
3708,-222.656250
3709,-218.750000
3710,-214.843750
3711,-214.843750
3712,-210.937500
3713,-207.031250
3714,-203.125000
3715,-199.218750
3716,-199.218750
3717,-195.312500
3718,-191.406250
3719,-187.500000
3720,-183.593750
3721,-179.687500
3722,-179.687500
3723,-175.781250
3724,-171.875000
3725,-167.968750
3726,-164.062500
3727,-160.156250
3728,-156.250000
3729,-152.343750
3730,-148.437500
3731,-144.531250
3732,-140.625000
3733,-140.625000
3734,-132.812500
3735,-132.812500
3736,-128.906250
3737,-125.000000
3738,-121.093750
3739,-117.187500
3740,-113.281250
3741,-105.468750
3742,-105.468750
3743,-101.562500
3744,-93.750000
3745,-93.750000
3746,-89.843750
3747,-85.937500
3748,-82.031250
3749,-78.125000
3750,-74.218750
3751,-70.312500
3752,-66.406250
3753,-62.500000
3754,-58.593750
3755,-54.687500
3756,-50.781250
3757,-46.875000
3758,-42.968750
3759,-39.062500
3760,-35.156250
3761,-31.250000
3762,-27.343750
3763,-23.437500
3764,-19.531250
3765,-15.625000
3766,-11.718750
3767,-7.812500
3768,-3.906250
3769,0.000000
3770,3.906250
3771,7.812500
3772,11.718750
3773,15.625000
3774,19.531250
3775,19.531250
3776,23.437500
3777,27.343750
3778,31.250000
3779,35.156250
3780,39.062500
3781,42.968750
3782,42.968750
3783,46.875000
3784,50.781250
3785,54.687500
3786,58.593750
3787,62.500000
3788,62.500000
3789,66.406250
3790,70.312500
3791,74.218750
3792,74.218750
3793,78.125000
3794,82.031250
3795,85.937500
3796,85.937500
3797,89.843750
3798,93.750000
3799,93.750000
3800,97.656250
3801,101.562500
3802,101.562500
3803,105.468750
3804,105.468750
3805,109.375000
3806,113.281250
3807,113.281250
3808,117.187500
3809,117.187500
3810,121.093750
3811,125.000000
3812,125.000000
3813,125.000000
3814,128.906250
3815,132.812500
3816,132.812500
3817,136.718750
3818,136.718750
3819,140.625000
3820,140.625000
3821,144.531250
3822,144.531250
3823,144.531250
3824,148.437500
3825,148.437500
3826,152.343750
3827,152.343750
3828,152.343750
3829,156.250000
3830,152.343750
3831,156.250000
3832,160.156250
3833,160.156250
3834,160.156250
3835,164.062500
3836,164.062500
3837,164.062500
3838,164.062500
3839,167.968750
3840,167.968750
3841,167.968750
3842,167.968750
3843,171.875000
3844,171.875000
3845,171.875000
3846,171.875000
3847,171.875000
3848,171.875000
3849,175.781250
3850,175.781250
3851,175.781250
3852,175.781250
3853,175.781250
3854,175.781250
3855,175.781250
3856,175.781250
3857,175.781250
3858,175.781250
3859,179.687500
3860,179.687500
3861,179.687500
3862,179.687500
3863,179.687500
3864,179.687500
3865,179.687500
3866,179.687500
3867,179.687500
3868,179.687500
3869,179.687500
3870,179.687500
3871,179.687500
3872,179.687500
3873,179.687500
3874,179.687500
3875,179.687500
3876,179.687500
3877,175.781250
3878,175.781250
3879,175.781250
3880,175.781250
3881,175.781250
3882,171.875000
3883,175.781250
3884,171.875000
3885,175.781250
3886,171.875000
3887,171.875000
3888,171.875000
3889,171.875000
3890,167.968750
3891,167.968750
3892,167.968750
3893,167.968750
3894,164.062500
3895,164.062500
3896,164.062500
3897,164.062500
3898,164.062500
3899,160.156250
3900,160.156250
3901,160.156250
3902,156.250000
3903,156.250000
3904,156.250000
3905,152.343750
3906,152.343750
3907,148.437500
3908,148.437500
3909,148.437500
3910,148.437500
3911,144.531250
3912,140.625000
3913,140.625000
3914,140.625000
3915,136.718750
3916,136.718750
3917,132.812500
3918,128.906250
3919,128.906250
3920,128.906250
3921,125.000000
3922,125.000000
3923,121.093750
3924,117.187500
3925,117.187500
3926,113.281250
3927,113.281250
3928,109.375000
3929,109.375000
3930,105.468750
3931,101.562500
3932,97.656250
3933,97.656250
3934,93.750000
3935,93.750000
3936,89.843750
3937,85.937500
3938,82.031250
3939,82.031250
3940,78.125000
3941,74.218750
3942,74.218750
3943,70.312500
3944,66.406250
3945,62.500000
3946,58.593750
3947,54.687500
3948,54.687500
3949,50.781250
3950,42.968750
3951,42.968750
3952,42.968750
3953,39.062500
3954,35.156250
3955,31.250000
3956,27.343750
3957,23.437500
3958,19.531250
3959,15.625000
3960,15.625000
3961,11.718750
3962,7.812500
3963,3.906250
3964,0.000000
3965,-3.906250
3966,-7.812500
3967,-11.718750
3968,-15.625000
3969,-19.531250
3970,-23.437500
3971,-27.343750
3972,-31.250000
3973,-35.156250
3974,-39.062500
3975,-42.968750
3976,-46.875000
3977,-50.781250
3978,-54.687500
3979,-58.593750
3980,-62.500000
3981,-66.406250
3982,-70.312500
3983,-74.218750
3984,-78.125000
3985,-82.031250
3986,-85.937500
3987,-85.937500
3988,-89.843750
3989,-97.656250
3990,-101.562500
3991,-105.468750
3992,-105.468750
3993,-109.375000
3994,-117.187500
3995,-121.093750
3996,-121.093750
3997,-125.000000
3998,-128.906250
3999,-132.812500
4000,-136.718750
4001,-140.625000
4002,-144.531250
4003,-148.437500
4004,-152.343750
4005,-156.250000
4006,-160.156250
4007,-160.156250
4008,-167.968750
4009,-171.875000
4010,-171.875000
4011,-175.781250
4012,-179.687500
4013,-183.593750
4014,-187.500000
4015,-191.406250
4016,-195.312500
4017,-195.312500
4018,-199.218750
4019,-203.125000
4020,-207.031250
4021,-207.031250
4022,-210.937500
4023,-214.843750
4024,-218.750000
4025,-222.656250
4026,-222.656250
4027,-226.562500
4028,-230.468750
4029,-234.375000
4030,-234.375000
4031,-238.281250
4032,-238.281250
4033,-242.187500
4034,-246.093750
4035,-246.093750
4036,-250.000000
4037,-253.906250
4038,-253.906250
4039,-257.812500
4040,-257.812500
4041,-261.718750
4042,-261.718750
4043,-265.625000
4044,-265.625000
4045,-269.531250
4046,-269.531250
4047,-273.437500
4048,-273.437500
4049,-273.437500
4050,-277.343750
4051,-281.250000
4052,-281.250000
4053,-281.250000
4054,-281.250000
4055,-285.156250
4056,-285.156250
4057,-289.062500
4058,-289.062500
4059,-289.062500
4060,-289.062500
4061,-292.968750
4062,-289.062500
4063,-292.968750
4064,-289.062500
4065,-292.968750
4066,-292.968750
4067,-296.875000
4068,-296.875000
4069,-296.875000
4070,-296.875000
4071,-296.875000
4072,-296.875000
4073,-296.875000
4074,-296.875000
4075,-296.875000
4076,-296.875000
4077,-296.875000
4078,-296.875000
4079,-296.875000
4080,-296.875000
4081,-296.875000
4082,-296.875000
4083,-296.875000
4084,-296.875000
4085,-292.968750
4086,-292.968750
4087,-292.968750
4088,-292.968750
4089,-292.968750
4090,-289.062500
4091,-289.062500
4092,-289.062500
4093,-289.062500
4094,-285.156250
4095,-285.156250
4096,-285.156250
4097,-281.250000
4098,-281.250000
4099,-281.250000
4100,-277.343750
4101,-277.343750
4102,-273.437500
4103,-273.437500
4104,-269.531250
4105,-269.531250
4106,-265.625000
4107,-265.625000
4108,-261.718750
4109,-261.718750
4110,-257.812500
4111,-257.812500
4112,-253.906250
4113,-253.906250
4114,-250.000000
4115,-246.093750
4116,-246.093750
4117,-242.187500
4118,-242.187500
4119,-238.281250
4120,-234.375000
4121,-234.375000
4122,-230.468750
4123,-226.562500
4124,-222.656250
4125,-222.656250
4126,-218.750000
4127,-214.843750
4128,-210.937500
4129,-210.937500
4130,-207.031250
4131,-203.125000
4132,-199.218750
4133,-195.312500
4134,-191.406250
4135,-191.406250
4136,-187.500000
4137,-183.593750
4138,-179.687500
4139,-175.781250
4140,-175.781250
4141,-171.875000
4142,-167.968750
4143,-164.062500
4144,-160.156250
4145,-156.250000
4146,-152.343750
4147,-148.437500
4148,-144.531250
4149,-140.625000
4150,-136.718750
4151,-132.812500
4152,-128.906250
4153,-125.000000
4154,-121.093750
4155,-117.187500
4156,-113.281250
4157,-109.375000
4158,-105.468750
4159,-101.562500
4160,-97.656250
4161,-93.750000
4162,-89.843750
4163,-85.937500
4164,-82.031250
4165,-78.125000
4166,-74.218750
4167,-70.312500
4168,-66.406250
4169,-62.500000
4170,-58.593750
4171,-54.687500
4172,-50.781250
4173,-46.875000
4174,-46.875000
4175,-39.062500
4176,-39.062500
4177,-31.250000
4178,-27.343750
4179,-23.437500
4180,-23.437500
4181,-19.531250
4182,-15.625000
4183,-11.718750
4184,-7.812500
4185,-3.906250
4186,0.000000
4187,3.906250
4188,7.812500
4189,11.718750
4190,11.718750
4191,19.531250
4192,23.437500
4193,27.343750
4194,27.343750
4195,31.250000
4196,35.156250
4197,39.062500
4198,42.968750
4199,42.968750
4200,46.875000
4201,50.781250
4202,54.687500
4203,58.593750
4204,62.500000
4205,62.500000
4206,66.406250
4207,70.312500
4208,74.218750
4209,78.125000
4210,78.125000
4211,82.031250
4212,85.937500
4213,85.937500
4214,89.843750
4215,93.750000
4216,97.656250
4217,97.656250
4218,101.562500
4219,101.562500
4220,105.468750
4221,109.375000
4222,109.375000
4223,113.281250
4224,117.187500
4225,117.187500
4226,121.093750
4227,121.093750
4228,125.000000
4229,125.000000
4230,128.906250
4231,128.906250
4232,132.812500
4233,132.812500
4234,136.718750
4235,136.718750
4236,140.625000
4237,140.625000
4238,144.531250
4239,144.531250
4240,148.437500
4241,148.437500
4242,148.437500
4243,152.343750
4244,152.343750
4245,152.343750
4246,156.250000
4247,156.250000
4248,156.250000
4249,160.156250
4250,160.156250
4251,160.156250
4252,164.062500
4253,164.062500
4254,164.062500
4255,164.062500
4256,164.062500
4257,167.968750
4258,167.968750
4259,167.968750
4260,167.968750
4261,171.875000
4262,167.968750
4263,171.875000
4264,171.875000
4265,171.875000
4266,175.781250
4267,175.781250
4268,175.781250
4269,175.781250
4270,175.781250
4271,175.781250
4272,175.781250
4273,175.781250
4274,179.687500
4275,179.687500
4276,179.687500
4277,179.687500
4278,179.687500
4279,179.687500
4280,179.687500
4281,179.687500
4282,179.687500
4283,179.687500
4284,179.687500
4285,179.687500
4286,179.687500
4287,179.687500
4288,179.687500
4289,179.687500
4290,179.687500
4291,179.687500
4292,179.687500
4293,175.781250
4294,175.781250
4295,175.781250
4296,175.781250
4297,175.781250
4298,175.781250
4299,175.781250
4300,175.781250
4301,175.781250
4302,171.875000
4303,171.875000
4304,171.875000
4305,171.875000
4306,171.875000
4307,167.968750
4308,167.968750
4309,167.968750
4310,167.968750
4311,167.968750
4312,164.062500
4313,164.062500
4314,164.062500
4315,160.156250
4316,160.156250
4317,160.156250
4318,156.250000
4319,156.250000
4320,156.250000
4321,152.343750
4322,152.343750
4323,152.343750
4324,148.437500
4325,148.437500
4326,148.437500
4327,140.625000
4328,144.531250
4329,140.625000
4330,140.625000
4331,140.625000
4332,136.718750
4333,136.718750
4334,132.812500
4335,128.906250
4336,128.906250
4337,128.906250
4338,125.000000
4339,125.000000
4340,121.093750
4341,117.187500
4342,117.187500
4343,113.281250
4344,113.281250
4345,109.375000
4346,105.468750
4347,101.562500
4348,101.562500
4349,97.656250
4350,97.656250
4351,93.750000
4352,89.843750
4353,89.843750
4354,85.937500
4355,82.031250
4356,82.031250
4357,78.125000
4358,74.218750
4359,70.312500
4360,66.406250
4361,66.406250
4362,62.500000
4363,58.593750
4364,54.687500
4365,54.687500
4366,50.781250
4367,46.875000
4368,42.968750
4369,39.062500
4370,35.156250
4371,31.250000
4372,31.250000
4373,27.343750
4374,23.437500
4375,19.531250
4376,15.625000
4377,11.718750
4378,11.718750
4379,7.812500
4380,0.000000
4381,0.000000
4382,-7.812500
4383,-7.812500
4384,-11.718750
4385,-15.625000
4386,-19.531250
4387,-23.437500
4388,-27.343750
4389,-31.250000
4390,-35.156250
4391,-39.062500
4392,-42.968750
4393,-46.875000
4394,-50.781250
4395,-54.687500
4396,-58.593750
4397,-62.500000
4398,-66.406250
4399,-70.312500
4400,-74.218750
4401,-78.125000
4402,-82.031250
4403,-85.937500
4404,-89.843750
4405,-93.750000
4406,-97.656250
4407,-101.562500
4408,-105.468750
4409,-109.375000
4410,-113.281250
4411,-117.187500
4412,-121.093750
4413,-125.000000
4414,-128.906250
4415,-132.812500
4416,-136.718750
4417,-140.625000
4418,-144.531250
4419,-148.437500
4420,-148.437500
4421,-152.343750
4422,-156.250000
4423,-160.156250
4424,-164.062500
4425,-167.968750
4426,-171.875000
4427,-175.781250
4428,-179.687500
4429,-183.593750
4430,-183.593750
4431,-187.500000
4432,-191.406250
4433,-195.312500
4434,-199.218750
4435,-199.218750
4436,-203.125000
4437,-207.031250
4438,-210.937500
4439,-214.843750
4440,-214.843750
4441,-218.750000
4442,-222.656250
4443,-226.562500
4444,-226.562500
4445,-230.468750
4446,-234.375000
4447,-238.281250
4448,-238.281250
4449,-242.187500
4450,-242.187500
4451,-246.093750
4452,-250.000000
4453,-250.000000
4454,-253.906250
4455,-253.906250
4456,-257.812500
4457,-261.718750
4458,-261.718750
4459,-265.625000
4460,-265.625000
4461,-269.531250
4462,-269.531250
4463,-273.437500
4464,-273.437500
4465,-277.343750
4466,-277.343750
4467,-277.343750
4468,-281.250000
4469,-281.250000
4470,-281.250000
4471,-285.156250
4472,-285.156250
4473,-285.156250
4474,-285.156250
4475,-289.062500
4476,-289.062500
4477,-289.062500
4478,-289.062500
4479,-292.968750
4480,-292.968750
4481,-292.968750
4482,-292.968750
4483,-292.968750
4484,-292.968750
4485,-296.875000
4486,-296.875000
4487,-296.875000
4488,-296.875000
4489,-296.875000
4490,-296.875000
4491,-296.875000
4492,-296.875000
4493,-296.875000
4494,-296.875000
4495,-296.875000
4496,-296.875000
4497,-296.875000
4498,-296.875000
4499,-296.875000
4500,-292.968750
4501,-292.968750
4502,-292.968750
4503,-292.968750
4504,-292.968750
4505,-292.968750
4506,-289.062500
4507,-289.062500
4508,-289.062500
4509,-289.062500
4510,-289.062500
4511,-285.156250
4512,-285.156250
4513,-285.156250
4514,-281.250000
4515,-281.250000
4516,-277.343750
4517,-277.343750
4518,-277.343750
4519,-273.437500
4520,-273.437500
4521,-269.531250
4522,-269.531250
4523,-265.625000
4524,-265.625000
4525,-261.718750
4526,-261.718750
4527,-257.812500
4528,-257.812500
4529,-253.906250
4530,-253.906250
4531,-250.000000
4532,-246.093750
4533,-246.093750
4534,-242.187500
4535,-238.281250
4536,-238.281250
4537,-234.375000
4538,-230.468750
4539,-230.468750
4540,-226.562500
4541,-222.656250
4542,-218.750000
4543,-218.750000
4544,-214.843750
4545,-214.843750
4546,-207.031250
4547,-207.031250
4548,-203.125000
4549,-199.218750
4550,-195.312500
4551,-191.406250
4552,-191.406250
4553,-187.500000
4554,-183.593750
4555,-179.687500
4556,-175.781250
4557,-171.875000
4558,-167.968750
4559,-164.062500
4560,-164.062500
4561,-156.250000
4562,-152.343750
4563,-152.343750
4564,-148.437500
4565,-144.531250
4566,-140.625000
4567,-136.718750
4568,-132.812500
4569,-128.906250
4570,-125.000000
4571,-121.093750
4572,-117.187500
4573,-113.281250
4574,-109.375000
4575,-105.468750
4576,-101.562500
4577,-97.656250
4578,-93.750000
4579,-89.843750
4580,-85.937500
4581,-82.031250
4582,-78.125000
4583,-74.218750
4584,-74.218750
4585,-66.406250
4586,-62.500000
4587,-58.593750
4588,-54.687500
4589,-50.781250
4590,-46.875000
4591,-42.968750
4592,-39.062500
4593,-35.156250
4594,-35.156250
4595,-27.343750
4596,-23.437500
4597,-19.531250
4598,-15.625000
4599,-15.625000
4600,-7.812500
4601,-3.906250
4602,-3.906250
4603,0.000000
4604,3.906250
4605,7.812500
4606,11.718750
4607,15.625000
4608,19.531250
4609,19.531250
4610,27.343750
4611,27.343750
4612,35.156250
4613,35.156250
4614,39.062500
4615,42.968750
4616,46.875000
4617,50.781250
4618,54.687500
4619,58.593750
4620,58.593750
4621,62.500000
4622,66.406250
4623,70.312500
4624,70.312500
4625,74.218750
4626,78.125000
4627,82.031250
4628,82.031250
4629,85.937500
4630,89.843750
4631,89.843750
4632,93.750000
4633,97.656250
4634,97.656250
4635,101.562500
4636,105.468750
4637,105.468750
4638,109.375000
4639,109.375000
4640,113.281250
4641,117.187500
4642,117.187500
4643,121.093750
4644,125.000000
4645,125.000000
4646,125.000000
4647,128.906250
4648,128.906250
4649,132.812500
4650,132.812500
4651,136.718750
4652,136.718750
4653,140.625000
4654,140.625000
4655,144.531250
4656,144.531250
4657,148.437500
4658,148.437500
4659,148.437500
4660,152.343750
4661,152.343750
4662,152.343750
4663,156.250000
4664,156.250000
4665,160.156250
4666,160.156250
4667,160.156250
4668,160.156250
4669,164.062500
4670,164.062500
4671,164.062500
4672,164.062500
4673,167.968750
4674,167.968750
4675,167.968750
4676,167.968750
4677,171.875000
4678,171.875000
4679,171.875000
4680,171.875000
4681,171.875000
4682,175.781250
4683,175.781250
4684,175.781250
4685,175.781250
4686,175.781250
4687,175.781250
4688,179.687500
4689,175.781250
4690,175.781250
4691,179.687500
4692,179.687500
4693,179.687500
4694,179.687500
4695,179.687500
4696,179.687500
4697,179.687500
4698,179.687500
4699,179.687500
4700,179.687500
4701,179.687500
4702,179.687500
4703,179.687500
4704,179.687500
4705,179.687500
4706,179.687500
4707,179.687500
4708,179.687500
4709,175.781250
4710,175.781250
4711,175.781250
4712,175.781250
4713,175.781250
4714,175.781250
4715,175.781250
4716,175.781250
4717,175.781250
4718,175.781250
4719,171.875000
4720,171.875000
4721,171.875000
4722,171.875000
4723,167.968750
4724,167.968750
4725,167.968750
4726,167.968750
4727,167.968750
4728,164.062500
4729,164.062500
4730,164.062500
4731,164.062500
4732,160.156250
4733,160.156250
4734,160.156250
4735,160.156250
4736,156.250000
4737,152.343750
4738,156.250000
4739,152.343750
4740,144.531250
4741,148.437500
4742,148.437500
4743,144.531250
4744,144.531250
4745,144.531250
4746,140.625000
4747,140.625000
4748,140.625000
4749,136.718750
4750,132.812500
4751,132.812500
4752,132.812500
4753,128.906250
4754,125.000000
4755,125.000000
4756,121.093750
4757,121.093750
4758,117.187500
4759,117.187500
4760,113.281250
4761,109.375000
4762,109.375000
4763,105.468750
4764,105.468750
4765,101.562500
4766,97.656250
4767,97.656250
4768,93.750000
4769,89.843750
4770,85.937500
4771,85.937500
4772,82.031250
4773,78.125000
4774,78.125000
4775,74.218750
4776,70.312500
4777,66.406250
4778,66.406250
4779,62.500000
4780,58.593750
4781,54.687500
4782,50.781250
4783,50.781250
4784,42.968750
4785,42.968750
4786,39.062500
4787,35.156250
4788,31.250000
4789,27.343750
4790,27.343750
4791,23.437500
4792,19.531250
4793,15.625000
4794,11.718750
4795,7.812500
4796,3.906250
4797,0.000000
4798,-3.906250
4799,-7.812500
4800,-11.718750
4801,-15.625000
4802,-15.625000
4803,-23.437500
4804,-23.437500
4805,-27.343750
4806,-35.156250
4807,-35.156250
4808,-39.062500
4809,-42.968750
4810,-46.875000
4811,-50.781250
4812,-54.687500
4813,-58.593750
4814,-62.500000
4815,-66.406250
4816,-70.312500
4817,-74.218750
4818,-78.125000
4819,-82.031250
4820,-85.937500
4821,-89.843750
4822,-93.750000
4823,-97.656250
4824,-101.562500
4825,-105.468750
4826,-109.375000
4827,-113.281250
4828,-117.187500
4829,-121.093750
4830,-125.000000
4831,-128.906250
4832,-132.812500
4833,-136.718750
4834,-140.625000
4835,-144.531250
4836,-148.437500
4837,-152.343750
4838,-152.343750
4839,-160.156250
4840,-160.156250
4841,-167.968750
4842,-167.968750
4843,-171.875000
4844,-175.781250
4845,-179.687500
4846,-183.593750
4847,-187.500000
4848,-187.500000
4849,-191.406250
4850,-195.312500
4851,-199.218750
4852,-203.125000
4853,-207.031250
4854,-207.031250
4855,-210.937500
4856,-214.843750
4857,-218.750000
4858,-218.750000
4859,-222.656250
4860,-226.562500
4861,-230.468750
4862,-230.468750
4863,-234.375000
4864,-238.281250
4865,-238.281250
4866,-242.187500
4867,-242.187500
4868,-246.093750
4869,-250.000000
4870,-250.000000
4871,-253.906250
4872,-253.906250
4873,-257.812500
4874,-261.718750
4875,-261.718750
4876,-265.625000
4877,-265.625000
4878,-269.531250
4879,-269.531250
4880,-273.437500
4881,-273.437500
4882,-273.437500
4883,-277.343750
4884,-277.343750
4885,-281.250000
4886,-281.250000
4887,-281.250000
4888,-285.156250
4889,-285.156250
4890,-285.156250
4891,-289.062500
4892,-289.062500
4893,-289.062500
4894,-289.062500
4895,-292.968750
4896,-292.968750
4897,-292.968750
4898,-292.968750
4899,-296.875000
4900,-296.875000
4901,-296.875000
4902,-296.875000
4903,-296.875000
4904,-296.875000
4905,-296.875000
4906,-296.875000
4907,-296.875000
4908,-296.875000
4909,-296.875000
4910,-296.875000
4911,-296.875000
4912,-296.875000
4913,-296.875000
4914,-296.875000
4915,-296.875000
4916,-296.875000
4917,-296.875000
4918,-292.968750
4919,-292.968750
4920,-292.968750
4921,-292.968750
4922,-292.968750
4923,-289.062500
4924,-289.062500
4925,-289.062500
4926,-285.156250
4927,-285.156250
4928,-285.156250
4929,-285.156250
4930,-281.250000
4931,-281.250000
4932,-281.250000
4933,-277.343750
4934,-277.343750
4935,-273.437500
4936,-273.437500
4937,-273.437500
4938,-269.531250
4939,-269.531250
4940,-265.625000
4941,-265.625000
4942,-261.718750
4943,-257.812500
4944,-257.812500
4945,-253.906250
4946,-253.906250
4947,-250.000000
4948,-250.000000
4949,-246.093750
4950,-246.093750
4951,-242.187500
4952,-238.281250
4953,-238.281250
4954,-234.375000
4955,-230.468750
4956,-230.468750
4957,-226.562500
4958,-222.656250
4959,-218.750000
4960,-214.843750
4961,-214.843750
4962,-210.937500
4963,-207.031250
4964,-203.125000
4965,-199.218750
4966,-199.218750
4967,-195.312500
4968,-191.406250
4969,-187.500000
4970,-183.593750
4971,-179.687500
4972,-175.781250
4973,-175.781250
4974,-171.875000
4975,-167.968750
4976,-164.062500
4977,-160.156250
4978,-156.250000
4979,-152.343750
4980,-148.437500
4981,-148.437500
4982,-144.531250
4983,-136.718750
4984,-136.718750
4985,-128.906250
4986,-128.906250
4987,-125.000000
4988,-121.093750
4989,-117.187500
4990,-113.281250
4991,-109.375000
4992,-105.468750
4993,-101.562500
4994,-97.656250
4995,-93.750000
4996,-89.843750
4997,-85.937500
4998,-82.031250
4999,-78.125000
5000,-74.218750
5001,-70.312500
5002,-66.406250
5003,-62.500000
5004,-58.593750
5005,-54.687500
5006,-50.781250
5007,-46.875000
5008,-42.968750
5009,-39.062500
5010,-35.156250
5011,-31.250000
5012,-27.343750
5013,-23.437500
5014,-19.531250
5015,-15.625000
5016,-11.718750
5017,-7.812500
5018,-3.906250
5019,0.000000
5020,3.906250
5021,7.812500
5022,11.718750
5023,15.625000
5024,19.531250
5025,19.531250
5026,23.437500
5027,27.343750
5028,31.250000
5029,35.156250
5030,39.062500
5031,42.968750
5032,42.968750
5033,46.875000
5034,50.781250
5035,54.687500
5036,58.593750
5037,62.500000
5038,62.500000
5039,66.406250
5040,70.312500
5041,70.312500
5042,74.218750
5043,78.125000
5044,82.031250
5045,85.937500
5046,85.937500
5047,89.843750
5048,93.750000
5049,93.750000
5050,97.656250
5051,101.562500
5052,101.562500
5053,105.468750
5054,105.468750
5055,109.375000
5056,113.281250
5057,113.281250
5058,117.187500
5059,117.187500
5060,121.093750
5061,125.000000
5062,125.000000
5063,128.906250
5064,128.906250
5065,128.906250
5066,132.812500
5067,136.718750
5068,136.718750
5069,140.625000
5070,140.625000
5071,144.531250
5072,144.531250
5073,144.531250
5074,148.437500
5075,148.437500
5076,152.343750
5077,152.343750
5078,152.343750
5079,156.250000
5080,156.250000
5081,156.250000
5082,160.156250
5083,160.156250
5084,160.156250
5085,160.156250
5086,164.062500
5087,164.062500
5088,164.062500
5089,167.968750
5090,167.968750
5091,167.968750
5092,167.968750
5093,175.781250
5094,171.875000
5095,171.875000
5096,171.875000
5097,171.875000
5098,175.781250
5099,175.781250
5100,175.781250
5101,175.781250
5102,175.781250
5103,175.781250
5104,175.781250
5105,175.781250
5106,175.781250
5107,175.781250
5108,179.687500
5109,179.687500
5110,179.687500
5111,179.687500
5112,179.687500
5113,179.687500
5114,179.687500
5115,179.687500
5116,179.687500
5117,179.687500
5118,179.687500
5119,179.687500
5120,179.687500
5121,179.687500
5122,179.687500
5123,179.687500
5124,179.687500
5125,179.687500
5126,179.687500
5127,175.781250
5128,179.687500
5129,175.781250
5130,175.781250
5131,175.781250
5132,175.781250
5133,175.781250
5134,175.781250
5135,175.781250
5136,171.875000
5137,171.875000
5138,171.875000
5139,171.875000
5140,171.875000
5141,171.875000
5142,167.968750
5143,167.968750
5144,167.968750
5145,167.968750
5146,164.062500
5147,164.062500
5148,164.062500
5149,160.156250
5150,160.156250
5151,160.156250
5152,160.156250
5153,156.250000
5154,156.250000
5155,156.250000
5156,152.343750
5157,152.343750
5158,148.437500
5159,148.437500
5160,148.437500
5161,144.531250
5162,144.531250
5163,140.625000
5164,140.625000
5165,136.718750
5166,136.718750
5167,132.812500
5168,132.812500
5169,128.906250
5170,128.906250
5171,125.000000
5172,125.000000
5173,121.093750
5174,117.187500
5175,117.187500
5176,117.187500
5177,113.281250
5178,109.375000
5179,109.375000
5180,105.468750
5181,105.468750
5182,101.562500
5183,97.656250
5184,97.656250
5185,93.750000
5186,89.843750
5187,89.843750
5188,85.937500
5189,82.031250
5190,78.125000
5191,74.218750
5192,74.218750
5193,70.312500
5194,66.406250
5195,62.500000
5196,62.500000
5197,58.593750
5198,54.687500
5199,50.781250
5200,46.875000
5201,46.875000
5202,42.968750
5203,39.062500
5204,35.156250
5205,31.250000
5206,27.343750
5207,23.437500
5208,19.531250
5209,19.531250
5210,15.625000
5211,11.718750
5212,7.812500
5213,3.906250
5214,0.000000
5215,-3.906250
5216,-7.812500
5217,-11.718750
5218,-15.625000
5219,-19.531250
5220,-23.437500
5221,-27.343750
5222,-31.250000
5223,-39.062500
5224,-35.156250
5225,-39.062500
5226,-46.875000
5227,-50.781250
5228,-54.687500
5229,-54.687500
5230,-58.593750
5231,-66.406250
5232,-70.312500
5233,-74.218750
5234,-74.218750
5235,-78.125000
5236,-85.937500
5237,-89.843750
5238,-89.843750
5239,-93.750000
5240,-97.656250
5241,-105.468750
5242,-109.375000
5243,-109.375000
5244,-113.281250
5245,-117.187500
5246,-121.093750
5247,-125.000000
5248,-128.906250
5249,-132.812500
5250,-136.718750
5251,-140.625000
5252,-144.531250
5253,-148.437500
5254,-152.343750
5255,-156.250000
5256,-156.250000
5257,-164.062500
5258,-167.968750
5259,-167.968750
5260,-171.875000
5261,-175.781250
5262,-179.687500
5263,-183.593750
5264,-187.500000
5265,-187.500000
5266,-191.406250
5267,-195.312500
5268,-199.218750
5269,-203.125000
5270,-207.031250
5271,-207.031250
5272,-210.937500
5273,-214.843750
5274,-218.750000
5275,-218.750000
5276,-222.656250
5277,-226.562500
5278,-226.562500
5279,-230.468750
5280,-234.375000
5281,-238.281250
5282,-238.281250
5283,-242.187500
5284,-246.093750
5285,-246.093750
5286,-250.000000
5287,-250.000000
5288,-257.812500
5289,-257.812500
5290,-257.812500
5291,-261.718750
5292,-261.718750
5293,-265.625000
5294,-265.625000
5295,-269.531250
5296,-269.531250
5297,-273.437500
5298,-273.437500
5299,-273.437500
5300,-277.343750
5301,-277.343750
5302,-281.250000
5303,-281.250000
5304,-285.156250
5305,-285.156250
5306,-285.156250
5307,-285.156250
5308,-289.062500
5309,-289.062500
5310,-289.062500
5311,-292.968750
5312,-292.968750
5313,-292.968750
5314,-292.968750
5315,-292.968750
5316,-292.968750
5317,-292.968750
5318,-296.875000
5319,-296.875000
5320,-296.875000
5321,-296.875000
5322,-296.875000
5323,-296.875000
5324,-296.875000
5325,-296.875000
5326,-296.875000
5327,-296.875000
5328,-296.875000
5329,-296.875000
5330,-296.875000
5331,-296.875000
5332,-296.875000
5333,-296.875000
5334,-292.968750
5335,-292.968750
5336,-292.968750
5337,-292.968750
5338,-289.062500
5339,-289.062500
5340,-289.062500
5341,-289.062500
5342,-289.062500
5343,-285.156250
5344,-285.156250
5345,-285.156250
5346,-281.250000
5347,-285.156250
5348,-281.250000
5349,-281.250000
5350,-277.343750
5351,-277.343750
5352,-273.437500
5353,-273.437500
5354,-269.531250
5355,-269.531250
5356,-265.625000
5357,-265.625000
5358,-265.625000
5359,-261.718750
5360,-257.812500
5361,-257.812500
5362,-253.906250
5363,-253.906250
5364,-250.000000
5365,-250.000000
5366,-246.093750
5367,-242.187500
5368,-242.187500
5369,-238.281250
5370,-234.375000
5371,-230.468750
5372,-230.468750
5373,-226.562500
5374,-222.656250
5375,-222.656250
5376,-218.750000
5377,-214.843750
5378,-214.843750
5379,-210.937500
5380,-207.031250
5381,-203.125000
5382,-199.218750
5383,-195.312500
5384,-195.312500
5385,-191.406250
5386,-187.500000
5387,-183.593750
5388,-179.687500
5389,-175.781250
5390,-171.875000
5391,-171.875000
5392,-167.968750
5393,-164.062500
5394,-160.156250
5395,-156.250000
5396,-152.343750
5397,-148.437500
5398,-144.531250
5399,-140.625000
5400,-136.718750
5401,-132.812500
5402,-128.906250
5403,-125.000000
5404,-121.093750
5405,-117.187500
5406,-113.281250
5407,-109.375000
5408,-105.468750
5409,-101.562500
5410,-97.656250
5411,-93.750000
5412,-89.843750
5413,-89.843750
5414,-82.031250
5415,-78.125000
5416,-74.218750
5417,-70.312500
5418,-66.406250
5419,-62.500000
5420,-58.593750
5421,-54.687500
5422,-50.781250
5423,-46.875000
5424,-42.968750
5425,-42.968750
5426,-35.156250
5427,-35.156250
5428,-27.343750
5429,-27.343750
5430,-23.437500
5431,-15.625000
5432,-15.625000
5433,-11.718750
5434,-7.812500
5435,-3.906250
5436,0.000000
5437,3.906250
5438,7.812500
5439,11.718750
5440,15.625000
5441,19.531250
5442,23.437500
5443,27.343750
5444,31.250000
5445,31.250000
5446,35.156250
5447,39.062500
5448,42.968750
5449,46.875000
5450,46.875000
5451,54.687500
5452,54.687500
5453,58.593750
5454,62.500000
5455,66.406250
5456,66.406250
5457,70.312500
5458,74.218750
5459,74.218750
5460,78.125000
5461,82.031250
5462,85.937500
5463,85.937500
5464,89.843750
5465,93.750000
5466,97.656250
5467,97.656250
5468,101.562500
5469,105.468750
5470,105.468750
5471,109.375000
5472,109.375000
5473,113.281250
5474,113.281250
5475,117.187500
5476,121.093750
5477,121.093750
5478,125.000000
5479,125.000000
5480,128.906250
5481,128.906250
5482,132.812500
5483,136.718750
5484,136.718750
5485,136.718750
5486,140.625000
5487,140.625000
5488,144.531250
5489,144.531250
5490,148.437500
5491,148.437500
5492,148.437500
5493,152.343750
5494,152.343750
5495,156.250000
5496,156.250000
5497,156.250000
5498,160.156250
5499,160.156250
5500,160.156250
5501,160.156250
5502,160.156250
5503,164.062500
5504,164.062500
5505,164.062500
5506,167.968750
5507,167.968750
5508,167.968750
5509,167.968750
5510,167.968750
5511,171.875000
5512,171.875000
5513,171.875000
5514,171.875000
5515,175.781250
5516,175.781250
5517,175.781250
5518,175.781250
5519,175.781250
5520,175.781250
5521,175.781250
5522,175.781250
5523,179.687500
5524,179.687500
5525,179.687500
5526,179.687500
5527,179.687500
5528,179.687500
5529,179.687500
5530,179.687500
5531,179.687500
5532,179.687500
5533,179.687500
5534,179.687500
5535,179.687500
5536,179.687500
5537,179.687500
5538,179.687500
5539,179.687500
5540,179.687500
5541,179.687500
5542,175.781250
5543,179.687500
5544,179.687500
5545,179.687500
5546,175.781250
5547,175.781250
5548,175.781250
5549,175.781250
5550,175.781250
5551,175.781250
5552,175.781250
5553,171.875000
5554,171.875000
5555,171.875000
5556,171.875000
5557,171.875000
5558,171.875000
5559,167.968750
5560,167.968750
5561,167.968750
5562,164.062500
5563,164.062500
5564,164.062500
5565,164.062500
5566,160.156250
5567,160.156250
5568,160.156250
5569,160.156250
5570,160.156250
5571,156.250000
5572,152.343750
5573,152.343750
5574,152.343750
5575,148.437500
5576,148.437500
5577,148.437500
5578,144.531250
5579,144.531250
5580,140.625000
5581,140.625000
5582,136.718750
5583,136.718750
5584,136.718750
5585,132.812500
5586,128.906250
5587,128.906250
5588,125.000000
5589,125.000000
5590,121.093750
5591,117.187500
5592,117.187500
5593,113.281250
5594,113.281250
5595,109.375000
5596,105.468750
5597,105.468750
5598,101.562500
5599,101.562500
5600,97.656250
5601,93.750000
5602,93.750000
5603,89.843750
5604,85.937500
5605,85.937500
5606,82.031250
5607,78.125000
5608,74.218750
5609,74.218750
5610,70.312500
5611,66.406250
5612,62.500000
5613,58.593750
5614,58.593750
5615,54.687500
5616,50.781250
5617,42.968750
5618,42.968750
5619,42.968750
5620,35.156250
5621,35.156250
5622,31.250000
5623,27.343750
5624,23.437500
5625,19.531250
5626,15.625000
5627,11.718750
5628,7.812500
5629,3.906250
5630,3.906250
5631,0.000000
5632,-3.906250
5633,-7.812500
5634,-11.718750
5635,-15.625000
5636,-19.531250
5637,-23.437500
5638,-27.343750
5639,-31.250000
5640,-35.156250
5641,-39.062500
5642,-42.968750
5643,-46.875000
5644,-50.781250
5645,-54.687500
5646,-58.593750
5647,-62.500000
5648,-66.406250
5649,-70.312500
5650,-74.218750
5651,-78.125000
5652,-82.031250
5653,-85.937500
5654,-89.843750
5655,-93.750000
5656,-93.750000
5657,-101.562500
5658,-105.468750
5659,-109.375000
5660,-113.281250
5661,-113.281250
5662,-117.187500
5663,-121.093750
5664,-125.000000
5665,-128.906250
5666,-132.812500
5667,-136.718750
5668,-140.625000
5669,-144.531250
5670,-148.437500
5671,-152.343750
5672,-156.250000
5673,-160.156250
5674,-164.062500
5675,-167.968750
5676,-171.875000
5677,-175.781250
5678,-175.781250
5679,-179.687500
5680,-183.593750
5681,-187.500000
5682,-191.406250
5683,-195.312500
5684,-195.312500
5685,-199.218750
5686,-203.125000
5687,-207.031250
5688,-210.937500
5689,-214.843750
5690,-214.843750
5691,-218.750000
5692,-222.656250
5693,-222.656250
5694,-226.562500
5695,-230.468750
5696,-234.375000
5697,-234.375000
5698,-238.281250
5699,-242.187500
5700,-242.187500
5701,-246.093750
5702,-246.093750
5703,-250.000000
5704,-253.906250
5705,-253.906250
5706,-257.812500
5707,-257.812500
5708,-261.718750
5709,-261.718750
5710,-265.625000
5711,-265.625000
5712,-269.531250
5713,-269.531250
5714,-273.437500
5715,-273.437500
5716,-277.343750
5717,-277.343750
5718,-277.343750
5719,-281.250000
5720,-281.250000
5721,-281.250000
5722,-285.156250
5723,-285.156250
5724,-289.062500
5725,-289.062500
5726,-289.062500
5727,-289.062500
5728,-292.968750
5729,-289.062500
5730,-292.968750
5731,-292.968750
5732,-292.968750
5733,-292.968750
5734,-296.875000
5735,-296.875000
5736,-296.875000
5737,-296.875000
5738,-296.875000
5739,-296.875000
5740,-296.875000
5741,-296.875000
5742,-296.875000
5743,-296.875000
5744,-296.875000
5745,-296.875000
5746,-296.875000
5747,-296.875000
5748,-296.875000
5749,-296.875000
5750,-296.875000
5751,-292.968750
5752,-292.968750
5753,-292.968750
5754,-292.968750
5755,-292.968750
5756,-292.968750
5757,-289.062500
5758,-289.062500
5759,-289.062500
5760,-285.156250
5761,-285.156250
5762,-281.250000
5763,-285.156250
5764,-277.343750
5765,-281.250000
5766,-281.250000
5767,-277.343750
5768,-273.437500
5769,-273.437500
5770,-273.437500
5771,-269.531250
5772,-269.531250
5773,-269.531250
5774,-265.625000
5775,-261.718750
5776,-261.718750
5777,-257.812500
5778,-257.812500
5779,-253.906250
5780,-253.906250
5781,-250.000000
5782,-246.093750
5783,-250.000000
5784,-242.187500
5785,-238.281250
5786,-238.281250
5787,-234.375000
5788,-230.468750
5789,-230.468750
5790,-226.562500
5791,-222.656250
5792,-218.750000
5793,-218.750000
5794,-214.843750
5795,-210.937500
5796,-210.937500
5797,-207.031250
5798,-203.125000
5799,-199.218750
5800,-195.312500
5801,-191.406250
5802,-187.500000
5803,-187.500000
5804,-183.593750
5805,-179.687500
5806,-175.781250
5807,-171.875000
5808,-167.968750
5809,-164.062500
5810,-164.062500
5811,-156.250000
5812,-152.343750
5813,-156.250000
5814,-148.437500
5815,-144.531250
5816,-140.625000
5817,-132.812500
5818,-132.812500
5819,-128.906250
5820,-125.000000
5821,-121.093750
5822,-117.187500
5823,-113.281250
5824,-109.375000
5825,-105.468750
5826,-101.562500
5827,-97.656250
5828,-93.750000
5829,-89.843750
5830,-85.937500
5831,-82.031250
5832,-78.125000
5833,-74.218750
5834,-70.312500
5835,-66.406250
5836,-62.500000
5837,-58.593750
5838,-54.687500
5839,-50.781250
5840,-46.875000
5841,-42.968750
5842,-39.062500
5843,-35.156250
5844,-31.250000
5845,-27.343750
5846,-23.437500
5847,-19.531250
5848,-15.625000
5849,-11.718750
5850,-7.812500
5851,-3.906250
5852,-3.906250
5853,0.000000
5854,3.906250
5855,7.812500
5856,11.718750
5857,15.625000
5858,19.531250
5859,23.437500
5860,27.343750
5861,31.250000
5862,31.250000
5863,35.156250
5864,39.062500
5865,42.968750
5866,46.875000
5867,50.781250
5868,50.781250
5869,54.687500
5870,58.593750
5871,62.500000
5872,66.406250
5873,66.406250
5874,70.312500
5875,74.218750
5876,78.125000
5877,78.125000
5878,82.031250
5879,85.937500
5880,89.843750
5881,89.843750
5882,93.750000
5883,97.656250
5884,97.656250
5885,101.562500
5886,105.468750
5887,105.468750
5888,109.375000
5889,109.375000
5890,113.281250
5891,117.187500
5892,117.187500
5893,121.093750
5894,121.093750
5895,125.000000
5896,128.906250
5897,128.906250
5898,132.812500
5899,132.812500
5900,136.718750
5901,136.718750
5902,136.718750
5903,140.625000
5904,140.625000
5905,144.531250
5906,144.531250
5907,148.437500
5908,148.437500
5909,152.343750
5910,152.343750
5911,152.343750
5912,156.250000
5913,156.250000
5914,156.250000
5915,160.156250
5916,160.156250
5917,160.156250
5918,164.062500
5919,164.062500
5920,164.062500
5921,164.062500
5922,167.968750
5923,167.968750
5924,167.968750
5925,167.968750
5926,167.968750
5927,171.875000
5928,171.875000
5929,171.875000
5930,171.875000
5931,175.781250
5932,171.875000
5933,175.781250
5934,175.781250
5935,175.781250
5936,175.781250
5937,175.781250
5938,175.781250
5939,175.781250
5940,179.687500
5941,179.687500
5942,179.687500
5943,179.687500
5944,179.687500
5945,179.687500
5946,179.687500
5947,179.687500
5948,179.687500
5949,179.687500
5950,179.687500
5951,179.687500
5952,179.687500
5953,179.687500
5954,179.687500
5955,179.687500
5956,179.687500
5957,179.687500
5958,179.687500
5959,179.687500
5960,179.687500
5961,175.781250
5962,175.781250
5963,179.687500
5964,175.781250
5965,175.781250
5966,175.781250
5967,175.781250
5968,175.781250
5969,171.875000
5970,171.875000
5971,171.875000
5972,171.875000
5973,171.875000
5974,167.968750
5975,167.968750
5976,167.968750
5977,167.968750
5978,167.968750
5979,164.062500
5980,164.062500
5981,164.062500
5982,160.156250
5983,160.156250
5984,160.156250
5985,160.156250
5986,156.250000
5987,156.250000
5988,156.250000
5989,152.343750
5990,152.343750
5991,152.343750
5992,148.437500
5993,148.437500
5994,144.531250
5995,144.531250
5996,140.625000
5997,140.625000
5998,140.625000
5999,136.718750
6000,136.718750
6001,132.812500
6002,132.812500
6003,128.906250
6004,128.906250
6005,125.000000
6006,125.000000
6007,121.093750
6008,117.187500
6009,117.187500
6010,113.281250
6011,113.281250
6012,109.375000
6013,109.375000
6014,105.468750
6015,101.562500
6016,101.562500
6017,97.656250
6018,93.750000
6019,89.843750
6020,89.843750
6021,85.937500
6022,82.031250
6023,82.031250
6024,78.125000
6025,74.218750
6026,70.312500
6027,66.406250
6028,66.406250
6029,62.500000
6030,58.593750
6031,54.687500
6032,54.687500
6033,50.781250
6034,46.875000
6035,42.968750
6036,39.062500
6037,39.062500
6038,35.156250
6039,31.250000
6040,27.343750
6041,23.437500
6042,19.531250
6043,15.625000
6044,11.718750
6045,7.812500
6046,3.906250
6047,0.000000
6048,0.000000
6049,-7.812500
6050,-7.812500
6051,-11.718750
6052,-15.625000
6053,-19.531250
6054,-23.437500
6055,-27.343750
6056,-31.250000
6057,-35.156250
6058,-39.062500
6059,-42.968750
6060,-46.875000
6061,-50.781250
6062,-54.687500
6063,-58.593750
6064,-62.500000
6065,-66.406250
6066,-70.312500
6067,-74.218750
6068,-78.125000
6069,-82.031250
6070,-85.937500
6071,-89.843750
6072,-93.750000
6073,-97.656250
6074,-101.562500
6075,-105.468750
6076,-109.375000
6077,-113.281250
6078,-117.187500
6079,-121.093750
6080,-125.000000
6081,-128.906250
6082,-132.812500
6083,-136.718750
6084,-140.625000
6085,-144.531250
6086,-148.437500
6087,-152.343750
6088,-152.343750
6089,-156.250000
6090,-160.156250
6091,-164.062500
6092,-167.968750
6093,-171.875000
6094,-175.781250
6095,-179.687500
6096,-179.687500
6097,-183.593750
6098,-187.500000
6099,-191.406250
6100,-195.312500
6101,-199.218750
6102,-203.125000
6103,-203.125000
6104,-207.031250
6105,-207.031250
6106,-210.937500
6107,-214.843750
6108,-218.750000
6109,-222.656250
6110,-226.562500
6111,-226.562500
6112,-226.562500
6113,-234.375000
6114,-234.375000
6115,-238.281250
6116,-242.187500
6117,-246.093750
6118,-246.093750
6119,-250.000000
6120,-250.000000
6121,-253.906250
6122,-253.906250
6123,-257.812500
6124,-261.718750
6125,-261.718750
6126,-265.625000
6127,-265.625000
6128,-269.531250
6129,-269.531250
6130,-269.531250
6131,-273.437500
6132,-273.437500
6133,-277.343750
6134,-277.343750
6135,-281.250000
6136,-281.250000
6137,-281.250000
6138,-285.156250
6139,-285.156250
6140,-285.156250
6141,-289.062500
6142,-289.062500
6143,-289.062500
6144,-289.062500
6145,-292.968750
6146,-292.968750
6147,-292.968750
6148,-292.968750
6149,-296.875000
6150,-292.968750
6151,-296.875000
6152,-296.875000
6153,-296.875000
6154,-296.875000
6155,-296.875000
6156,-296.875000
6157,-296.875000
6158,-296.875000
6159,-296.875000
6160,-296.875000
6161,-296.875000
6162,-296.875000
6163,-296.875000
6164,-296.875000
6165,-296.875000
6166,-296.875000
6167,-292.968750
6168,-292.968750
6169,-292.968750
6170,-292.968750
6171,-292.968750
6172,-289.062500
6173,-289.062500
6174,-289.062500
6175,-289.062500
6176,-289.062500
6177,-285.156250
6178,-285.156250
6179,-285.156250
6180,-281.250000
6181,-281.250000
6182,-281.250000
6183,-277.343750
6184,-277.343750
6185,-273.437500
6186,-273.437500
6187,-273.437500
6188,-269.531250
6189,-269.531250
6190,-265.625000
6191,-265.625000
6192,-261.718750
6193,-261.718750
6194,-257.812500
6195,-257.812500
6196,-253.906250
6197,-250.000000
6198,-250.000000
6199,-250.000000
6200,-246.093750
6201,-242.187500
6202,-238.281250
6203,-238.281250
6204,-234.375000
6205,-230.468750
6206,-230.468750
6207,-226.562500
6208,-222.656250
6209,-218.750000
6210,-218.750000
6211,-214.843750
6212,-210.937500
6213,-207.031250
6214,-203.125000
6215,-203.125000
6216,-199.218750
6217,-195.312500
6218,-191.406250
6219,-187.500000
6220,-183.593750
6221,-183.593750
6222,-179.687500
6223,-175.781250
6224,-171.875000
6225,-167.968750
6226,-164.062500
6227,-160.156250
6228,-156.250000
6229,-152.343750
6230,-148.437500
6231,-144.531250
6232,-140.625000
6233,-140.625000
6234,-136.718750
6235,-132.812500
6236,-128.906250
6237,-125.000000
6238,-117.187500
6239,-117.187500
6240,-113.281250
6241,-109.375000
6242,-105.468750
6243,-101.562500
6244,-97.656250
6245,-93.750000
6246,-89.843750
6247,-85.937500
6248,-82.031250
6249,-78.125000
6250,-74.218750
6251,-70.312500
6252,-66.406250
6253,-62.500000
6254,-58.593750
6255,-54.687500
6256,-50.781250
6257,-46.875000
6258,-42.968750
6259,-39.062500
6260,-35.156250
6261,-31.250000
6262,-27.343750
6263,-23.437500
6264,-19.531250
6265,-15.625000
6266,-11.718750
6267,-7.812500
6268,-3.906250
6269,0.000000
6270,3.906250
6271,7.812500
6272,7.812500
6273,11.718750
6274,15.625000
6275,19.531250
6276,23.437500
6277,27.343750
6278,31.250000
6279,31.250000
6280,39.062500
6281,42.968750
6282,46.875000
6283,46.875000
6284,50.781250
6285,54.687500
6286,54.687500
6287,58.593750
6288,62.500000
6289,66.406250
6290,70.312500
6291,70.312500
6292,74.218750
6293,78.125000
6294,82.031250
6295,85.937500
6296,85.937500
6297,89.843750
6298,93.750000
6299,93.750000
6300,97.656250
6301,101.562500
6302,101.562500
6303,105.468750
6304,109.375000
6305,109.375000
6306,113.281250
6307,113.281250
6308,117.187500
6309,117.187500
6310,121.093750
6311,125.000000
6312,125.000000
6313,128.906250
6314,128.906250
6315,132.812500
6316,132.812500
6317,136.718750
6318,136.718750
6319,140.625000
6320,140.625000
6321,140.625000
6322,144.531250
6323,144.531250
6324,148.437500
6325,148.437500
6326,152.343750
6327,152.343750
6328,152.343750
6329,156.250000
6330,156.250000
6331,156.250000
6332,160.156250
6333,160.156250
6334,160.156250
6335,164.062500
6336,164.062500
6337,164.062500
6338,164.062500
6339,167.968750
6340,167.968750
6341,167.968750
6342,167.968750
6343,171.875000
6344,171.875000
6345,171.875000
6346,171.875000
6347,171.875000
6348,175.781250
6349,175.781250
6350,175.781250
6351,175.781250
6352,175.781250
6353,175.781250
6354,179.687500
6355,175.781250
6356,179.687500
6357,179.687500
6358,179.687500
6359,179.687500
6360,179.687500
6361,179.687500
6362,179.687500
6363,179.687500
6364,179.687500
6365,179.687500
6366,179.687500
6367,179.687500
6368,179.687500
6369,179.687500
6370,179.687500
6371,179.687500
6372,179.687500
6373,179.687500
6374,179.687500
6375,179.687500
6376,179.687500
6377,179.687500
6378,179.687500
6379,175.781250
6380,175.781250
6381,175.781250
6382,175.781250
6383,175.781250
6384,175.781250
6385,171.875000
6386,171.875000
6387,171.875000
6388,171.875000
6389,171.875000
6390,171.875000
6391,171.875000
6392,167.968750
6393,167.968750
6394,167.968750
6395,167.968750
6396,164.062500
6397,164.062500
6398,164.062500
6399,160.156250
6400,160.156250
6401,156.250000
6402,160.156250
6403,156.250000
6404,156.250000
6405,156.250000
6406,152.343750
6407,152.343750
6408,148.437500
6409,148.437500
6410,144.531250
6411,144.531250
6412,144.531250
6413,140.625000
6414,140.625000
6415,136.718750
6416,136.718750
6417,132.812500
6418,132.812500
6419,128.906250
6420,128.906250
6421,128.906250
6422,125.000000
6423,121.093750
6424,121.093750
6425,117.187500
6426,117.187500
6427,113.281250
6428,113.281250
6429,109.375000
6430,105.468750
6431,105.468750
6432,101.562500
6433,97.656250
6434,97.656250
6435,93.750000
6436,89.843750
6437,89.843750
6438,85.937500
6439,82.031250
6440,82.031250
6441,78.125000
6442,74.218750
6443,70.312500
6444,66.406250
6445,66.406250
6446,62.500000
6447,58.593750
6448,54.687500
6449,50.781250
6450,50.781250
6451,46.875000
6452,42.968750
6453,39.062500
6454,35.156250
6455,31.250000
6456,31.250000
6457,27.343750
6458,23.437500
6459,19.531250
6460,15.625000
6461,11.718750
6462,7.812500
6463,3.906250
6464,0.000000
6465,0.000000
6466,-7.812500
6467,-11.718750
6468,-15.625000
6469,-19.531250
6470,-19.531250
6471,-23.437500
6472,-27.343750
6473,-31.250000
6474,-35.156250
6475,-39.062500
6476,-42.968750
6477,-46.875000
6478,-50.781250
6479,-54.687500
6480,-58.593750
6481,-62.500000
6482,-66.406250
6483,-70.312500
6484,-74.218750
6485,-78.125000
6486,-82.031250
6487,-85.937500
6488,-89.843750
6489,-93.750000
6490,-97.656250
6491,-101.562500
6492,-105.468750
6493,-109.375000
6494,-113.281250
6495,-117.187500
6496,-121.093750
6497,-125.000000
6498,-128.906250
6499,-132.812500
6500,-136.718750
6501,-140.625000
6502,-140.625000
6503,-148.437500
6504,-152.343750
6505,-156.250000
6506,-156.250000
6507,-160.156250
6508,-164.062500
6509,-167.968750
6510,-171.875000
6511,-175.781250
6512,-179.687500
6513,-183.593750
6514,-187.500000
6515,-187.500000
6516,-191.406250
6517,-195.312500
6518,-199.218750
6519,-203.125000
6520,-203.125000
6521,-210.937500
6522,-210.937500
6523,-214.843750
6524,-218.750000
6525,-218.750000
6526,-222.656250
6527,-226.562500
6528,-230.468750
6529,-230.468750
6530,-234.375000
6531,-238.281250
6532,-238.281250
6533,-242.187500
6534,-246.093750
6535,-246.093750
6536,-250.000000
6537,-250.000000
6538,-253.906250
6539,-257.812500
6540,-257.812500
6541,-261.718750
6542,-261.718750
6543,-265.625000
6544,-265.625000
6545,-269.531250
6546,-269.531250
6547,-273.437500
6548,-273.437500
6549,-273.437500
6550,-277.343750
6551,-277.343750
6552,-281.250000
6553,-281.250000
6554,-281.250000
6555,-285.156250
6556,-285.156250
6557,-285.156250
6558,-289.062500
6559,-289.062500
6560,-289.062500
6561,-292.968750
6562,-292.968750
6563,-292.968750
6564,-292.968750
6565,-292.968750
6566,-292.968750
6567,-296.875000
6568,-296.875000
6569,-296.875000
6570,-296.875000
6571,-296.875000
6572,-296.875000
6573,-296.875000
6574,-296.875000
6575,-296.875000
6576,-296.875000
6577,-296.875000
6578,-296.875000
6579,-296.875000
6580,-296.875000
6581,-296.875000
6582,-296.875000
6583,-296.875000
6584,-296.875000
6585,-292.968750
6586,-292.968750
6587,-292.968750
6588,-292.968750
6589,-292.968750
6590,-292.968750
6591,-289.062500
6592,-289.062500
6593,-289.062500
6594,-285.156250
6595,-285.156250
6596,-285.156250
6597,-285.156250
6598,-281.250000
6599,-281.250000
6600,-277.343750
6601,-277.343750
6602,-277.343750
6603,-273.437500
6604,-273.437500
6605,-269.531250
6606,-269.531250
6607,-265.625000
6608,-265.625000
6609,-261.718750
6610,-261.718750
6611,-257.812500
6612,-253.906250
6613,-253.906250
6614,-250.000000
6615,-250.000000
6616,-246.093750
6617,-242.187500
6618,-242.187500
6619,-238.281250
6620,-234.375000
6621,-234.375000
6622,-230.468750
6623,-226.562500
6624,-226.562500
6625,-222.656250
6626,-218.750000
6627,-218.750000
6628,-214.843750
6629,-210.937500
6630,-207.031250
6631,-203.125000
6632,-199.218750
6633,-195.312500
6634,-195.312500
6635,-191.406250
6636,-187.500000
6637,-183.593750
6638,-179.687500
6639,-179.687500
6640,-175.781250
6641,-171.875000
6642,-167.968750
6643,-164.062500
6644,-160.156250
6645,-156.250000
6646,-152.343750
6647,-148.437500
6648,-144.531250
6649,-140.625000
6650,-136.718750
6651,-132.812500
6652,-128.906250
6653,-125.000000
6654,-121.093750
6655,-117.187500
6656,-113.281250
6657,-113.281250
6658,-105.468750
6659,-105.468750
6660,-101.562500
6661,-97.656250
6662,-93.750000
6663,-85.937500
6664,-82.031250
6665,-82.031250
6666,-78.125000
6667,-74.218750
6668,-70.312500
6669,-66.406250
6670,-62.500000
6671,-58.593750
6672,-50.781250
6673,-46.875000
6674,-46.875000
6675,-42.968750
6676,-35.156250
6677,-35.156250
6678,-31.250000
6679,-27.343750
6680,-23.437500
6681,-19.531250
6682,-15.625000
6683,-11.718750
6684,-7.812500
6685,-3.906250
6686,0.000000
6687,3.906250
6688,7.812500
6689,11.718750
6690,15.625000
6691,19.531250
6692,23.437500
6693,27.343750
6694,27.343750
6695,31.250000
6696,35.156250
6697,39.062500
6698,42.968750
6699,46.875000
6700,50.781250
6701,50.781250
6702,54.687500
6703,58.593750
6704,62.500000
6705,66.406250
6706,66.406250
6707,70.312500
6708,74.218750
6709,78.125000
6710,78.125000
6711,82.031250
6712,85.937500
6713,89.843750
6714,89.843750
6715,93.750000
6716,97.656250
6717,97.656250
6718,101.562500
6719,101.562500
6720,105.468750
6721,109.375000
6722,109.375000
6723,113.281250
6724,117.187500
6725,117.187500
6726,121.093750
6727,121.093750
6728,125.000000
6729,125.000000
6730,128.906250
6731,128.906250
6732,132.812500
6733,136.718750
6734,136.718750
6735,136.718750
6736,140.625000
6737,140.625000
6738,144.531250
6739,144.531250
6740,148.437500
6741,148.437500
6742,148.437500
6743,152.343750
6744,152.343750
6745,156.250000
6746,156.250000
6747,156.250000
6748,156.250000
6749,160.156250
6750,160.156250
6751,160.156250
6752,164.062500
6753,164.062500
6754,164.062500
6755,167.968750
6756,167.968750
6757,167.968750
6758,167.968750
6759,167.968750
6760,171.875000
6761,171.875000
6762,171.875000
6763,171.875000
6764,171.875000
6765,175.781250
6766,175.781250
6767,175.781250
6768,175.781250
6769,175.781250
6770,175.781250
6771,175.781250
6772,175.781250
6773,175.781250
6774,179.687500
6775,179.687500
6776,179.687500
6777,179.687500
6778,179.687500
6779,179.687500
6780,179.687500
6781,179.687500
6782,179.687500
6783,179.687500
6784,179.687500
6785,179.687500
6786,179.687500
6787,179.687500
6788,179.687500
6789,179.687500
6790,179.687500
6791,179.687500
6792,179.687500
6793,179.687500
6794,179.687500
6795,175.781250
6796,175.781250
6797,175.781250
6798,175.781250
6799,175.781250
6800,175.781250
6801,175.781250
6802,175.781250
6803,171.875000
6804,171.875000
6805,171.875000
6806,171.875000
6807,171.875000
6808,167.968750
6809,167.968750
6810,167.968750
6811,167.968750
6812,167.968750
6813,164.062500
6814,164.062500
6815,164.062500
6816,164.062500
6817,160.156250
6818,160.156250
6819,156.250000
6820,156.250000
6821,156.250000
6822,156.250000
6823,152.343750
6824,152.343750
6825,148.437500
6826,148.437500
6827,148.437500
6828,144.531250
6829,144.531250
6830,140.625000
6831,140.625000
6832,140.625000
6833,136.718750
6834,132.812500
6835,132.812500
6836,128.906250
6837,128.906250
6838,125.000000
6839,125.000000
6840,121.093750
6841,121.093750
6842,117.187500
6843,113.281250
6844,113.281250
6845,109.375000
6846,109.375000
6847,105.468750
6848,105.468750
6849,101.562500
6850,97.656250
6851,93.750000
6852,93.750000
6853,89.843750
6854,85.937500
6855,85.937500
6856,82.031250
6857,78.125000
6858,78.125000
6859,74.218750
6860,70.312500
6861,66.406250
6862,66.406250
6863,62.500000
6864,58.593750
6865,54.687500
6866,50.781250
6867,46.875000
6868,46.875000
6869,42.968750
6870,39.062500
6871,35.156250
6872,31.250000
6873,27.343750
6874,23.437500
6875,19.531250
6876,15.625000
6877,15.625000
6878,11.718750
6879,7.812500
6880,3.906250
6881,0.000000
6882,-3.906250
6883,-7.812500
6884,-11.718750
6885,-15.625000
6886,-19.531250
6887,-23.437500
6888,-27.343750
6889,-31.250000
6890,-35.156250
6891,-39.062500
6892,-42.968750
6893,-46.875000
6894,-50.781250
6895,-54.687500
6896,-58.593750
6897,-62.500000
6898,-62.500000
6899,-66.406250
6900,-74.218750
6901,-78.125000
6902,-82.031250
6903,-82.031250
6904,-89.843750
6905,-89.843750
6906,-93.750000
6907,-101.562500
6908,-101.562500
6909,-105.468750
6910,-109.375000
6911,-113.281250
6912,-117.187500
6913,-121.093750
6914,-125.000000
6915,-128.906250
6916,-136.718750
6917,-136.718750
6918,-140.625000
6919,-144.531250
6920,-148.437500
6921,-152.343750
6922,-156.250000
6923,-160.156250
6924,-164.062500
6925,-167.968750
6926,-167.968750
6927,-175.781250
6928,-175.781250
6929,-179.687500
6930,-183.593750
6931,-187.500000
6932,-191.406250
6933,-195.312500
6934,-195.312500
6935,-199.218750
6936,-203.125000
6937,-207.031250
6938,-210.937500
6939,-210.937500
6940,-214.843750
6941,-218.750000
6942,-222.656250
6943,-222.656250
6944,-226.562500
6945,-230.468750
6946,-234.375000
6947,-234.375000
6948,-238.281250
6949,-238.281250
6950,-242.187500
6951,-246.093750
6952,-246.093750
6953,-250.000000
6954,-253.906250
6955,-253.906250
6956,-257.812500
6957,-257.812500
6958,-261.718750
6959,-261.718750
6960,-265.625000
6961,-265.625000
6962,-269.531250
6963,-273.437500
6964,-273.437500
6965,-273.437500
6966,-277.343750
6967,-277.343750
6968,-281.250000
6969,-281.250000
6970,-281.250000
6971,-285.156250
6972,-285.156250
6973,-285.156250
6974,-289.062500
6975,-289.062500
6976,-289.062500
6977,-289.062500
6978,-292.968750
6979,-292.968750
6980,-292.968750
6981,-292.968750
6982,-292.968750
6983,-292.968750
6984,-296.875000
6985,-296.875000
6986,-296.875000
6987,-296.875000
6988,-296.875000
6989,-296.875000
6990,-296.875000
6991,-296.875000
6992,-296.875000
6993,-296.875000
6994,-296.875000
6995,-296.875000
6996,-296.875000
6997,-296.875000
6998,-296.875000
6999,-296.875000
7000,-296.875000
7001,-292.968750
7002,-292.968750
7003,-292.968750
7004,-292.968750
7005,-292.968750
7006,-292.968750
7007,-289.062500
7008,-289.062500
7009,-289.062500
7010,-285.156250
7011,-285.156250
7012,-285.156250
7013,-285.156250
7014,-285.156250
7015,-281.250000
7016,-281.250000
7017,-277.343750
7018,-277.343750
7019,-273.437500
7020,-273.437500
7021,-273.437500
7022,-269.531250
7023,-269.531250
7024,-265.625000
7025,-261.718750
7026,-261.718750
7027,-261.718750
7028,-257.812500
7029,-253.906250
7030,-253.906250
7031,-250.000000
7032,-250.000000
7033,-246.093750
7034,-242.187500
7035,-242.187500
7036,-238.281250
7037,-234.375000
7038,-234.375000
7039,-230.468750
7040,-226.562500
7041,-226.562500
7042,-222.656250
7043,-218.750000
7044,-214.843750
7045,-210.937500
7046,-210.937500
7047,-207.031250
7048,-203.125000
7049,-199.218750
7050,-195.312500
7051,-195.312500
7052,-191.406250
7053,-187.500000
7054,-179.687500
7055,-179.687500
7056,-175.781250
7057,-171.875000
7058,-167.968750
7059,-164.062500
7060,-160.156250
7061,-160.156250
7062,-156.250000
7063,-152.343750
7064,-148.437500
7065,-144.531250
7066,-140.625000
7067,-136.718750
7068,-132.812500
7069,-128.906250
7070,-125.000000
7071,-121.093750
7072,-117.187500
7073,-113.281250
7074,-109.375000
7075,-105.468750
7076,-101.562500
7077,-97.656250
7078,-93.750000
7079,-89.843750
7080,-85.937500
7081,-82.031250
7082,-78.125000
7083,-74.218750
7084,-70.312500
7085,-66.406250
7086,-62.500000
7087,-58.593750
7088,-54.687500
7089,-50.781250
7090,-46.875000
7091,-46.875000
7092,-39.062500
7093,-35.156250
7094,-31.250000
7095,-27.343750
7096,-27.343750
7097,-19.531250
7098,-15.625000
7099,-11.718750
7100,-11.718750
7101,-7.812500
7102,-3.906250
7103,0.000000
7104,3.906250
7105,7.812500
7106,11.718750
7107,15.625000
7108,19.531250
7109,23.437500
7110,27.343750
7111,27.343750
7112,31.250000
7113,35.156250
7114,39.062500
7115,42.968750
7116,46.875000
7117,50.781250
7118,50.781250
7119,54.687500
7120,58.593750
7121,62.500000
7122,66.406250
7123,66.406250
7124,70.312500
7125,74.218750
7126,78.125000
7127,82.031250
7128,82.031250
7129,85.937500
7130,89.843750
7131,89.843750
7132,93.750000
7133,97.656250
7134,97.656250
7135,101.562500
7136,105.468750
7137,109.375000
7138,109.375000
7139,113.281250
7140,113.281250
7141,117.187500
7142,117.187500
7143,121.093750
7144,121.093750
7145,125.000000
7146,125.000000
7147,128.906250
7148,132.812500
7149,132.812500
7150,136.718750
7151,136.718750
7152,140.625000
7153,140.625000
7154,140.625000
7155,144.531250
7156,144.531250
7157,148.437500
7158,148.437500
7159,148.437500
7160,152.343750
7161,152.343750
7162,152.343750
7163,156.250000
7164,156.250000
7165,156.250000
7166,160.156250
7167,160.156250
7168,160.156250
7169,164.062500
7170,164.062500
7171,164.062500
7172,167.968750
7173,167.968750
7174,167.968750
7175,167.968750
7176,167.968750
7177,171.875000
7178,171.875000
7179,171.875000
7180,171.875000
7181,171.875000
7182,175.781250
7183,175.781250
7184,175.781250
7185,175.781250
7186,175.781250
7187,175.781250
7188,175.781250
7189,175.781250
7190,179.687500
7191,179.687500
7192,179.687500
7193,179.687500
7194,179.687500
7195,179.687500
7196,179.687500
7197,179.687500
7198,179.687500
7199,179.687500
7200,179.687500
7201,179.687500
7202,179.687500
7203,179.687500
7204,179.687500
7205,179.687500
7206,179.687500
7207,179.687500
7208,179.687500
7209,179.687500
7210,179.687500
7211,179.687500
7212,175.781250
7213,175.781250
7214,175.781250
7215,175.781250
7216,175.781250
7217,175.781250
7218,171.875000
7219,171.875000
7220,175.781250
7221,171.875000
7222,171.875000
7223,167.968750
7224,171.875000
7225,167.968750
7226,167.968750
7227,167.968750
7228,167.968750
7229,164.062500
7230,164.062500
7231,164.062500
7232,164.062500
7233,160.156250
7234,160.156250
7235,160.156250
7236,160.156250
7237,156.250000
7238,156.250000
7239,152.343750
7240,152.343750
7241,152.343750
7242,148.437500
7243,148.437500
7244,144.531250
7245,144.531250
7246,144.531250
7247,140.625000
7248,140.625000
7249,136.718750
7250,136.718750
7251,132.812500
7252,132.812500
7253,128.906250
7254,128.906250
7255,125.000000
7256,125.000000
7257,121.093750
7258,117.187500
7259,117.187500
7260,113.281250
7261,113.281250
7262,109.375000
7263,105.468750
7264,105.468750
7265,101.562500
7266,101.562500
7267,97.656250
7268,93.750000
7269,93.750000
7270,89.843750
7271,85.937500
7272,82.031250
7273,82.031250
7274,78.125000
7275,74.218750
7276,74.218750
7277,70.312500
7278,66.406250
7279,62.500000
7280,58.593750
7281,58.593750
7282,54.687500
7283,50.781250
7284,46.875000
7285,42.968750
7286,39.062500
7287,39.062500
7288,35.156250
7289,31.250000
7290,27.343750
7291,23.437500
7292,19.531250
7293,15.625000
7294,11.718750
7295,7.812500
7296,7.812500
7297,0.000000
7298,-3.906250
7299,-3.906250
7300,-7.812500
7301,-11.718750
7302,-15.625000
7303,-19.531250
7304,-23.437500
7305,-27.343750
7306,-31.250000
7307,-35.156250
7308,-39.062500
7309,-42.968750
7310,-46.875000
7311,-50.781250
7312,-54.687500
7313,-58.593750
7314,-62.500000
7315,-66.406250
7316,-70.312500
7317,-74.218750
7318,-74.218750
7319,-82.031250
7320,-85.937500
7321,-89.843750
7322,-93.750000
7323,-97.656250
7324,-101.562500
7325,-105.468750
7326,-109.375000
7327,-113.281250
7328,-117.187500
7329,-121.093750
7330,-125.000000
7331,-128.906250
7332,-132.812500
7333,-132.812500
7334,-140.625000
7335,-140.625000
7336,-144.531250
7337,-148.437500
7338,-152.343750
7339,-156.250000
7340,-160.156250
7341,-164.062500
7342,-167.968750
7343,-171.875000
7344,-171.875000
7345,-179.687500
7346,-179.687500
7347,-183.593750
7348,-187.500000
7349,-191.406250
7350,-195.312500
7351,-199.218750
7352,-199.218750
7353,-203.125000
7354,-207.031250
7355,-207.031250
7356,-210.937500
7357,-214.843750
7358,-218.750000
7359,-222.656250
7360,-226.562500
7361,-226.562500
7362,-230.468750
7363,-234.375000
7364,-238.281250
7365,-238.281250
7366,-242.187500
7367,-242.187500
7368,-246.093750
7369,-250.000000
7370,-250.000000
7371,-253.906250
7372,-253.906250
7373,-257.812500
7374,-257.812500
7375,-261.718750
7376,-265.625000
7377,-265.625000
7378,-269.531250
7379,-269.531250
7380,-273.437500
7381,-273.437500
7382,-273.437500
7383,-277.343750
7384,-277.343750
7385,-281.250000
7386,-281.250000
7387,-281.250000
7388,-285.156250
7389,-285.156250
7390,-285.156250
7391,-289.062500
7392,-289.062500
7393,-289.062500
7394,-289.062500
7395,-292.968750
7396,-292.968750
7397,-292.968750
7398,-292.968750
7399,-292.968750
7400,-296.875000
7401,-296.875000
7402,-296.875000
7403,-296.875000
7404,-296.875000
7405,-296.875000
7406,-296.875000
7407,-296.875000
7408,-296.875000
7409,-300.781250
7410,-296.875000
7411,-296.875000
7412,-296.875000
7413,-296.875000
7414,-296.875000
7415,-296.875000
7416,-296.875000
7417,-296.875000
7418,-296.875000
7419,-292.968750
7420,-292.968750
7421,-292.968750
7422,-292.968750
7423,-292.968750
7424,-289.062500
7425,-289.062500
7426,-289.062500
7427,-289.062500
7428,-285.156250
7429,-285.156250
7430,-285.156250
7431,-285.156250
7432,-281.250000
7433,-281.250000
7434,-277.343750
7435,-277.343750
7436,-273.437500
7437,-273.437500
7438,-269.531250
7439,-269.531250
7440,-265.625000
7441,-265.625000
7442,-265.625000
7443,-261.718750
7444,-257.812500
7445,-257.812500
7446,-253.906250
7447,-253.906250
7448,-250.000000
7449,-250.000000
7450,-246.093750
7451,-242.187500
7452,-242.187500
7453,-238.281250
7454,-234.375000
7455,-234.375000
7456,-230.468750
7457,-226.562500
7458,-222.656250
7459,-222.656250
7460,-218.750000
7461,-214.843750
7462,-210.937500
7463,-207.031250
7464,-207.031250
7465,-203.125000
7466,-199.218750
7467,-195.312500
7468,-191.406250
7469,-187.500000
7470,-187.500000
7471,-183.593750
7472,-179.687500
7473,-175.781250
7474,-171.875000
7475,-167.968750
7476,-164.062500
7477,-164.062500
7478,-160.156250
7479,-156.250000
7480,-148.437500
7481,-148.437500
7482,-144.531250
7483,-140.625000
7484,-136.718750
7485,-132.812500
7486,-128.906250
7487,-125.000000
7488,-121.093750
7489,-117.187500
7490,-113.281250
7491,-109.375000
7492,-105.468750
7493,-101.562500
7494,-97.656250
7495,-93.750000
7496,-89.843750
7497,-85.937500
7498,-82.031250
7499,-78.125000
7500,-74.218750
7501,-70.312500
7502,-66.406250
7503,-62.500000
7504,-58.593750
7505,-54.687500
7506,-50.781250
7507,-46.875000
7508,-42.968750
7509,-39.062500
7510,-39.062500
7511,-31.250000
7512,-27.343750
7513,-23.437500
7514,-19.531250
7515,-15.625000
7516,-11.718750
7517,-7.812500
7518,-3.906250
7519,-3.906250
7520,0.000000
7521,3.906250
7522,11.718750
7523,11.718750
7524,15.625000
7525,19.531250
7526,23.437500
7527,27.343750
7528,31.250000
7529,35.156250
7530,39.062500
7531,39.062500
7532,42.968750
7533,46.875000
7534,50.781250
7535,54.687500
7536,54.687500
7537,62.500000
7538,62.500000
7539,66.406250
7540,70.312500
7541,74.218750
7542,74.218750
7543,78.125000
7544,82.031250
7545,85.937500
7546,89.843750
7547,89.843750
7548,93.750000
7549,93.750000
7550,97.656250
7551,97.656250
7552,101.562500
7553,101.562500
7554,105.468750
7555,109.375000
7556,113.281250
7557,113.281250
7558,117.187500
7559,117.187500
7560,121.093750
7561,125.000000
7562,125.000000
7563,128.906250
7564,128.906250
7565,132.812500
7566,132.812500
7567,136.718750
7568,136.718750
7569,140.625000
7570,140.625000
7571,140.625000
7572,144.531250
7573,144.531250
7574,148.437500
7575,148.437500
7576,148.437500
7577,152.343750
7578,152.343750
7579,156.250000
7580,156.250000
7581,156.250000
7582,160.156250
7583,160.156250
7584,160.156250
7585,164.062500
7586,164.062500
7587,164.062500
7588,164.062500
7589,167.968750
7590,167.968750
7591,167.968750
7592,167.968750
7593,167.968750
7594,171.875000
7595,171.875000
7596,171.875000
7597,171.875000
7598,175.781250
7599,171.875000
7600,175.781250
7601,175.781250
7602,175.781250
7603,175.781250
7604,175.781250
7605,175.781250
7606,179.687500
7607,179.687500
7608,179.687500
7609,179.687500
7610,179.687500
7611,179.687500
7612,179.687500
7613,179.687500
7614,179.687500
7615,179.687500
7616,179.687500
7617,179.687500
7618,179.687500
7619,179.687500
7620,179.687500
7621,179.687500
7622,179.687500
7623,179.687500
7624,179.687500
7625,179.687500
7626,179.687500
7627,179.687500
7628,179.687500
7629,175.781250
7630,175.781250
7631,175.781250
7632,175.781250
7633,175.781250
7634,175.781250
7635,175.781250
7636,171.875000
7637,171.875000
7638,171.875000
7639,171.875000
7640,171.875000
7641,167.968750
7642,167.968750
7643,167.968750
7644,167.968750
7645,167.968750
7646,167.968750
7647,164.062500
7648,164.062500
7649,160.156250
7650,160.156250
7651,160.156250
7652,160.156250
7653,156.250000
7654,156.250000
7655,156.250000
7656,152.343750
7657,152.343750
7658,152.343750
7659,148.437500
7660,148.437500
7661,144.531250
7662,144.531250
7663,140.625000
7664,140.625000
7665,140.625000
7666,136.718750
7667,136.718750
7668,132.812500
7669,132.812500
7670,128.906250
7671,128.906250
7672,125.000000
7673,121.093750
7674,121.093750
7675,117.187500
7676,117.187500
7677,113.281250
7678,113.281250
7679,109.375000
7680,109.375000
7681,105.468750
7682,101.562500
7683,97.656250
7684,97.656250
7685,93.750000
7686,89.843750
7687,89.843750
7688,85.937500
7689,82.031250
7690,78.125000
7691,78.125000
7692,74.218750
7693,70.312500
7694,70.312500
7695,66.406250
7696,62.500000
7697,58.593750
7698,54.687500
7699,50.781250
7700,50.781250
7701,46.875000
7702,42.968750
7703,39.062500
7704,35.156250
7705,35.156250
7706,31.250000
7707,27.343750
7708,23.437500
7709,19.531250
7710,15.625000
7711,11.718750
7712,7.812500
7713,3.906250
7714,0.000000
7715,-3.906250
7716,-7.812500
7717,-11.718750
7718,-11.718750
7719,-15.625000
7720,-19.531250
7721,-23.437500
7722,-31.250000
7723,-31.250000
7724,-35.156250
7725,-39.062500
7726,-42.968750
7727,-46.875000
7728,-50.781250
7729,-54.687500
7730,-58.593750
7731,-62.500000
7732,-66.406250
7733,-70.312500
7734,-74.218750
7735,-78.125000
7736,-82.031250
7737,-85.937500
7738,-89.843750
7739,-93.750000
7740,-97.656250
7741,-101.562500
7742,-105.468750
7743,-109.375000
7744,-113.281250
7745,-117.187500
7746,-121.093750
7747,-125.000000
7748,-128.906250
7749,-132.812500
7750,-132.812500
7751,-140.625000
7752,-144.531250
7753,-148.437500
7754,-152.343750
7755,-152.343750
7756,-160.156250
7757,-160.156250
7758,-164.062500
7759,-167.968750
7760,-171.875000
7761,-175.781250
7762,-179.687500
7763,-183.593750
7764,-183.593750
7765,-191.406250
7766,-191.406250
7767,-195.312500
7768,-199.218750
7769,-203.125000
7770,-207.031250
7771,-207.031250
7772,-210.937500
7773,-214.843750
7774,-218.750000
7775,-218.750000
7776,-222.656250
7777,-226.562500
7778,-226.562500
7779,-230.468750
7780,-234.375000
7781,-238.281250
7782,-242.187500
7783,-242.187500
7784,-246.093750
7785,-246.093750
7786,-250.000000
7787,-250.000000
7788,-253.906250
7789,-257.812500
7790,-257.812500
7791,-261.718750
7792,-261.718750
7793,-265.625000
7794,-265.625000
7795,-269.531250
7796,-269.531250
7797,-273.437500
7798,-273.437500
7799,-277.343750
7800,-277.343750
7801,-277.343750
7802,-281.250000
7803,-281.250000
7804,-285.156250
7805,-285.156250
7806,-285.156250
7807,-289.062500
7808,-289.062500
7809,-289.062500
7810,-289.062500
7811,-292.968750
7812,-292.968750
7813,-292.968750
7814,-292.968750
7815,-292.968750
7816,-296.875000
7817,-296.875000
7818,-296.875000
7819,-296.875000
7820,-296.875000
7821,-296.875000
7822,-296.875000
7823,-296.875000
7824,-296.875000
7825,-296.875000
7826,-296.875000
7827,-296.875000
7828,-296.875000
7829,-296.875000
7830,-296.875000
7831,-296.875000
7832,-296.875000
7833,-296.875000
7834,-296.875000
7835,-296.875000
7836,-292.968750
7837,-292.968750
7838,-292.968750
7839,-292.968750
7840,-292.968750
7841,-289.062500
7842,-289.062500
7843,-289.062500
7844,-289.062500
7845,-285.156250
7846,-285.156250
7847,-285.156250
7848,-285.156250
7849,-281.250000
7850,-277.343750
7851,-277.343750
7852,-273.437500
7853,-273.437500
7854,-273.437500
7855,-269.531250
7856,-269.531250
7857,-265.625000
7858,-265.625000
7859,-261.718750
7860,-261.718750
7861,-257.812500
7862,-257.812500
7863,-253.906250
7864,-253.906250
7865,-250.000000
7866,-246.093750
7867,-242.187500
7868,-242.187500
7869,-238.281250
7870,-238.281250
7871,-234.375000
7872,-230.468750
7873,-226.562500
7874,-226.562500
7875,-222.656250
7876,-218.750000
7877,-218.750000
7878,-214.843750
7879,-210.937500
7880,-207.031250
7881,-207.031250
7882,-203.125000
7883,-199.218750
7884,-195.312500
7885,-191.406250
7886,-187.500000
7887,-187.500000
7888,-183.593750
7889,-179.687500
7890,-175.781250
7891,-171.875000
7892,-167.968750
7893,-164.062500
7894,-160.156250
7895,-156.250000
7896,-152.343750
7897,-148.437500
7898,-148.437500
7899,-144.531250
7900,-140.625000
7901,-136.718750
7902,-128.906250
7903,-128.906250
7904,-125.000000
7905,-121.093750
7906,-117.187500
7907,-113.281250
7908,-109.375000
7909,-105.468750
7910,-101.562500
7911,-97.656250
7912,-93.750000
7913,-89.843750
7914,-85.937500
7915,-82.031250
7916,-78.125000
7917,-74.218750
7918,-70.312500
7919,-66.406250
7920,-62.500000
7921,-58.593750
7922,-54.687500
7923,-50.781250
7924,-46.875000
7925,-42.968750
7926,-39.062500
7927,-35.156250
7928,-31.250000
7929,-27.343750
7930,-23.437500
7931,-19.531250
7932,-15.625000
7933,-11.718750
7934,-7.812500
7935,-3.906250
7936,0.000000
7937,3.906250
7938,7.812500
7939,11.718750
7940,15.625000
7941,15.625000
7942,19.531250
7943,23.437500
7944,27.343750
7945,31.250000
7946,35.156250
7947,35.156250
7948,42.968750
7949,42.968750
7950,46.875000
7951,50.781250
7952,54.687500
7953,58.593750
7954,58.593750
7955,62.500000
7956,66.406250
7957,70.312500
7958,70.312500
7959,74.218750
7960,78.125000
7961,82.031250
7962,85.937500
7963,85.937500
7964,89.843750
7965,93.750000
7966,93.750000
7967,97.656250
7968,101.562500
7969,101.562500
7970,101.562500
7971,109.375000
7972,109.375000
7973,113.281250
7974,117.187500
7975,117.187500
7976,117.187500
7977,121.093750
7978,125.000000
7979,125.000000
7980,128.906250
7981,128.906250
7982,132.812500
7983,132.812500
7984,136.718750
7985,136.718750
7986,140.625000
7987,140.625000
7988,144.531250
7989,144.531250
7990,144.531250
7991,148.437500
7992,148.437500
7993,152.343750
7994,152.343750
7995,152.343750
7996,156.250000
7997,156.250000
7998,156.250000
7999,160.156250
8000,160.156250
8001,160.156250
8002,164.062500
8003,164.062500
8004,164.062500
8005,164.062500
8006,167.968750
8007,167.968750
8008,167.968750
8009,167.968750
8010,167.968750
8011,171.875000
8012,171.875000
8013,171.875000
8014,171.875000
8015,171.875000
8016,171.875000
8017,175.781250
8018,175.781250
8019,175.781250
8020,175.781250
8021,175.781250
8022,175.781250
8023,179.687500
8024,179.687500
8025,179.687500
8026,179.687500
8027,179.687500
8028,179.687500
8029,179.687500
8030,179.687500
8031,179.687500
8032,179.687500
8033,179.687500
8034,179.687500
8035,179.687500
8036,179.687500
8037,179.687500
8038,179.687500
8039,179.687500
8040,179.687500
8041,179.687500
8042,179.687500
8043,179.687500
8044,179.687500
8045,179.687500
8046,175.781250
8047,175.781250
8048,175.781250
8049,175.781250
8050,175.781250
8051,175.781250
8052,175.781250
8053,171.875000
8054,171.875000
8055,171.875000
8056,171.875000
8057,171.875000
8058,167.968750
8059,167.968750
8060,167.968750
8061,167.968750
8062,167.968750
8063,164.062500
8064,164.062500
8065,160.156250
8066,164.062500
8067,160.156250
8068,160.156250
8069,160.156250
8070,152.343750
8071,156.250000
8072,152.343750
8073,152.343750
8074,152.343750
8075,148.437500
8076,148.437500
8077,144.531250
8078,144.531250
8079,144.531250
8080,140.625000
8081,140.625000
8082,136.718750
8083,136.718750
8084,132.812500
8085,132.812500
8086,128.906250
8087,128.906250
8088,125.000000
8089,125.000000
8090,121.093750
8091,121.093750
8092,117.187500
8093,117.187500
8094,113.281250
8095,109.375000
8096,109.375000
8097,105.468750
8098,105.468750
8099,101.562500
8100,97.656250
8101,97.656250
8102,93.750000
8103,89.843750
8104,85.937500
8105,85.937500
8106,82.031250
8107,78.125000
8108,78.125000
8109,74.218750
8110,70.312500
8111,66.406250
8112,66.406250
8113,62.500000
8114,58.593750
8115,54.687500
8116,50.781250
8117,50.781250
8118,46.875000
8119,42.968750
8120,39.062500
8121,35.156250
8122,31.250000
8123,27.343750
8124,23.437500
8125,23.437500
8126,19.531250
8127,15.625000
8128,11.718750
8129,7.812500
8130,3.906250
8131,0.000000
8132,-3.906250
8133,-7.812500
8134,-11.718750
8135,-15.625000
8136,-19.531250
8137,-23.437500
8138,-27.343750
8139,-27.343750
8140,-35.156250
8141,-39.062500
8142,-42.968750
8143,-46.875000
8144,-50.781250
8145,-54.687500
8146,-58.593750
8147,-62.500000
8148,-66.406250
8149,-70.312500
8150,-74.218750
8151,-74.218750
8152,-78.125000
8153,-85.937500
8154,-85.937500
8155,-93.750000
8156,-97.656250
8157,-101.562500
8158,-105.468750
8159,-109.375000
8160,-109.375000
8161,-113.281250
8162,-117.187500
8163,-121.093750
8164,-128.906250
8165,-128.906250
8166,-132.812500
8167,-136.718750
8168,-140.625000
8169,-144.531250
8170,-148.437500
8171,-152.343750
8172,-156.250000
8173,-160.156250
8174,-164.062500
8175,-167.968750
8176,-167.968750
8177,-171.875000
8178,-175.781250
8179,-179.687500
8180,-183.593750
8181,-183.593750
8182,-191.406250
8183,-195.312500
8184,-199.218750
8185,-199.218750
8186,-203.125000
8187,-207.031250
8188,-210.937500
8189,-210.937500
8190,-214.843750
8191,-218.750000
8192,-222.656250
8193,-222.656250
8194,-226.562500
8195,-230.468750
8196,-234.375000
8197,-234.375000
8198,-238.281250
8199,-242.187500
8200,-242.187500
8201,-246.093750
8202,-250.000000
8203,-250.000000
8204,-253.906250
8205,-253.906250
8206,-257.812500
8207,-261.718750
8208,-261.718750
8209,-265.625000
8210,-265.625000
8211,-269.531250
8212,-269.531250
8213,-269.531250
8214,-273.437500
8215,-273.437500
8216,-277.343750
8217,-277.343750
8218,-281.250000
8219,-281.250000
8220,-281.250000
8221,-285.156250
8222,-285.156250
8223,-285.156250
8224,-285.156250
8225,-289.062500
8226,-289.062500
8227,-289.062500
8228,-292.968750
8229,-292.968750
8230,-292.968750
8231,-292.968750
8232,-292.968750
8233,-296.875000
8234,-296.875000
8235,-296.875000
8236,-296.875000
8237,-296.875000
8238,-296.875000
8239,-296.875000
8240,-296.875000
8241,-296.875000
8242,-296.875000
8243,-296.875000
8244,-296.875000
8245,-296.875000
8246,-296.875000
8247,-296.875000
8248,-296.875000
8249,-296.875000
8250,-296.875000
8251,-292.968750
8252,-292.968750
8253,-292.968750
8254,-292.968750
8255,-292.968750
8256,-292.968750
8257,-292.968750
8258,-289.062500
8259,-289.062500
8260,-289.062500
8261,-289.062500
8262,-285.156250
8263,-285.156250
8264,-285.156250
8265,-281.250000
8266,-281.250000
8267,-277.343750
8268,-277.343750
8269,-277.343750
8270,-273.437500
8271,-273.437500
8272,-269.531250
8273,-269.531250
8274,-265.625000
8275,-265.625000
8276,-261.718750
8277,-261.718750
8278,-257.812500
8279,-257.812500
8280,-253.906250
8281,-250.000000
8282,-250.000000
8283,-246.093750
8284,-242.187500
8285,-242.187500
8286,-238.281250
8287,-238.281250
8288,-234.375000
8289,-230.468750
8290,-226.562500
8291,-226.562500
8292,-222.656250
8293,-218.750000
8294,-218.750000
8295,-214.843750
8296,-210.937500
8297,-207.031250
8298,-203.125000
8299,-199.218750
8300,-199.218750
8301,-195.312500
8302,-191.406250
8303,-187.500000
8304,-183.593750
8305,-179.687500
8306,-179.687500
8307,-171.875000
8308,-171.875000
8309,-167.968750
8310,-164.062500
8311,-160.156250
8312,-156.250000
8313,-152.343750
8314,-148.437500
8315,-144.531250
8316,-140.625000
8317,-136.718750
8318,-132.812500
8319,-132.812500
8320,-128.906250
8321,-125.000000
8322,-117.187500
8323,-113.281250
8324,-109.375000
8325,-109.375000
8326,-105.468750
8327,-101.562500
8328,-93.750000
8329,-93.750000
8330,-89.843750
8331,-85.937500
8332,-82.031250
8333,-74.218750
8334,-70.312500
8335,-70.312500
8336,-66.406250
8337,-62.500000
8338,-54.687500
8339,-54.687500
8340,-50.781250
8341,-46.875000
8342,-42.968750
8343,-39.062500
8344,-35.156250
8345,-31.250000
8346,-27.343750
8347,-23.437500
8348,-19.531250
8349,-15.625000
8350,-11.718750
8351,-7.812500
8352,-3.906250
8353,0.000000
8354,3.906250
8355,7.812500
8356,11.718750
8357,15.625000
8358,19.531250
8359,23.437500
8360,23.437500
8361,31.250000
8362,31.250000
8363,35.156250
8364,39.062500
8365,42.968750
8366,46.875000
8367,50.781250
8368,50.781250
8369,54.687500
8370,58.593750
8371,62.500000
8372,66.406250
8373,66.406250
8374,70.312500
8375,74.218750
8376,78.125000
8377,78.125000
8378,82.031250
8379,85.937500
8380,85.937500
8381,89.843750
8382,93.750000
8383,97.656250
8384,97.656250
8385,101.562500
8386,101.562500
8387,105.468750
8388,109.375000
8389,109.375000
8390,113.281250
8391,117.187500
8392,117.187500
8393,121.093750
8394,125.000000
8395,125.000000
8396,125.000000
8397,128.906250
8398,128.906250
8399,132.812500
8400,136.718750
8401,136.718750
8402,136.718750
8403,140.625000
8404,140.625000
8405,144.531250
8406,144.531250
8407,144.531250
8408,148.437500
8409,148.437500
8410,152.343750
8411,152.343750
8412,152.343750
8413,156.250000
8414,156.250000
8415,160.156250
8416,160.156250
8417,160.156250
8418,164.062500
8419,164.062500
8420,164.062500
8421,164.062500
8422,164.062500
8423,167.968750
8424,167.968750
8425,167.968750
8426,171.875000
8427,171.875000
8428,171.875000
8429,171.875000
8430,171.875000
8431,175.781250
8432,175.781250
8433,175.781250
8434,175.781250
8435,175.781250
8436,175.781250
8437,175.781250
8438,179.687500
8439,179.687500
8440,179.687500
8441,179.687500
8442,179.687500
8443,179.687500
8444,179.687500
8445,179.687500
8446,179.687500
8447,179.687500
8448,179.687500
8449,179.687500
8450,179.687500
8451,179.687500
8452,179.687500
8453,179.687500
8454,179.687500
8455,179.687500
8456,179.687500
8457,179.687500
8458,179.687500
8459,179.687500
8460,179.687500
8461,179.687500
8462,175.781250
8463,175.781250
8464,175.781250
8465,175.781250
8466,175.781250
8467,175.781250
8468,175.781250
8469,175.781250
8470,171.875000
8471,171.875000
8472,171.875000
8473,171.875000
8474,171.875000
8475,167.968750
8476,167.968750
8477,167.968750
8478,167.968750
8479,164.062500
8480,164.062500
8481,164.062500
8482,164.062500
8483,160.156250
8484,160.156250
8485,160.156250
8486,156.250000
8487,156.250000
8488,156.250000
8489,152.343750
8490,152.343750
8491,152.343750
8492,148.437500
8493,148.437500
8494,144.531250
8495,144.531250
8496,144.531250
8497,140.625000
8498,140.625000
8499,136.718750
8500,136.718750
8501,132.812500
8502,132.812500
8503,128.906250
8504,128.906250
8505,125.000000
8506,125.000000
8507,121.093750
8508,121.093750
8509,117.187500
8510,113.281250
8511,113.281250
8512,109.375000
8513,105.468750
8514,105.468750
8515,101.562500
8516,101.562500
8517,97.656250
8518,93.750000
8519,93.750000
8520,89.843750
8521,85.937500
8522,85.937500
8523,82.031250
8524,78.125000
8525,74.218750
8526,74.218750
8527,70.312500
8528,70.312500
8529,62.500000
8530,62.500000
8531,58.593750
8532,54.687500
8533,50.781250
8534,46.875000
8535,42.968750
8536,42.968750
8537,39.062500
8538,35.156250
8539,31.250000
8540,27.343750
8541,23.437500
8542,19.531250
8543,15.625000
8544,15.625000
8545,7.812500
8546,7.812500
8547,0.000000
8548,0.000000
8549,-3.906250
8550,-7.812500
8551,-11.718750
8552,-15.625000
8553,-19.531250
8554,-23.437500
8555,-27.343750
8556,-31.250000
8557,-35.156250
8558,-39.062500
8559,-42.968750
8560,-46.875000
8561,-50.781250
8562,-54.687500
8563,-58.593750
8564,-62.500000
8565,-66.406250
8566,-70.312500
8567,-74.218750
8568,-78.125000
8569,-82.031250
8570,-85.937500
8571,-89.843750
8572,-93.750000
8573,-97.656250
8574,-101.562500
8575,-105.468750
8576,-109.375000
8577,-113.281250
8578,-117.187500
8579,-121.093750
8580,-121.093750
8581,-128.906250
8582,-132.812500
8583,-136.718750
8584,-136.718750
8585,-144.531250
8586,-148.437500
8587,-148.437500
8588,-152.343750
8589,-156.250000
8590,-160.156250
8591,-164.062500
8592,-167.968750
8593,-171.875000
8594,-175.781250
8595,-179.687500
8596,-179.687500
8597,-183.593750
8598,-187.500000
8599,-191.406250
8600,-195.312500
8601,-199.218750
8602,-199.218750
8603,-203.125000
8604,-207.031250
8605,-210.937500
8606,-214.843750
8607,-214.843750
8608,-218.750000
8609,-222.656250
8610,-226.562500
8611,-226.562500
8612,-230.468750
8613,-234.375000
8614,-234.375000
8615,-238.281250
8616,-242.187500
8617,-246.093750
8618,-246.093750
8619,-250.000000
8620,-253.906250
8621,-253.906250
8622,-257.812500
8623,-257.812500
8624,-261.718750
8625,-261.718750
8626,-265.625000
8627,-265.625000
8628,-269.531250
8629,-269.531250
8630,-273.437500
8631,-273.437500
8632,-277.343750
8633,-277.343750
8634,-277.343750
8635,-281.250000
8636,-281.250000
8637,-281.250000
8638,-285.156250
8639,-285.156250
8640,-289.062500
8641,-289.062500
8642,-289.062500
8643,-289.062500
8644,-292.968750
8645,-292.968750
8646,-292.968750
8647,-292.968750
8648,-292.968750
8649,-296.875000
8650,-296.875000
8651,-296.875000
8652,-296.875000
8653,-296.875000
8654,-296.875000
8655,-296.875000
8656,-296.875000
8657,-296.875000
8658,-300.781250
8659,-296.875000
8660,-296.875000
8661,-300.781250
8662,-296.875000
8663,-296.875000
8664,-296.875000
8665,-296.875000
8666,-296.875000
8667,-296.875000
8668,-296.875000
8669,-296.875000
8670,-292.968750
8671,-292.968750
8672,-292.968750
8673,-292.968750
8674,-292.968750
8675,-289.062500
8676,-289.062500
8677,-289.062500
8678,-285.156250
8679,-285.156250
8680,-285.156250
8681,-281.250000
8682,-281.250000
8683,-281.250000
8684,-277.343750
8685,-277.343750
8686,-273.437500
8687,-273.437500
8688,-273.437500
8689,-269.531250
8690,-269.531250
8691,-265.625000
8692,-265.625000
8693,-261.718750
8694,-257.812500
8695,-257.812500
8696,-257.812500
8697,-253.906250
8698,-250.000000
8699,-250.000000
8700,-246.093750
8701,-246.093750
8702,-242.187500
8703,-238.281250
8704,-234.375000
8705,-234.375000
8706,-230.468750
8707,-226.562500
8708,-226.562500
8709,-222.656250
8710,-218.750000
8711,-214.843750
8712,-214.843750
8713,-210.937500
8714,-207.031250
8715,-203.125000
8716,-199.218750
8717,-199.218750
8718,-195.312500
8719,-191.406250
8720,-187.500000
8721,-183.593750
8722,-179.687500
8723,-175.781250
8724,-175.781250
8725,-167.968750
8726,-167.968750
8727,-164.062500
8728,-160.156250
8729,-156.250000
8730,-152.343750
8731,-148.437500
8732,-144.531250
8733,-140.625000
8734,-136.718750
8735,-132.812500
8736,-128.906250
8737,-125.000000
8738,-121.093750
8739,-117.187500
8740,-117.187500
8741,-109.375000
8742,-105.468750
8743,-101.562500
8744,-97.656250
8745,-93.750000
8746,-89.843750
8747,-85.937500
8748,-82.031250
8749,-78.125000
8750,-74.218750
8751,-70.312500
8752,-66.406250
8753,-62.500000
8754,-58.593750
8755,-54.687500
8756,-50.781250
8757,-46.875000
8758,-42.968750
8759,-39.062500
8760,-35.156250
8761,-31.250000
8762,-27.343750
8763,-23.437500
8764,-19.531250
8765,-15.625000
8766,-11.718750
8767,-11.718750
8768,-7.812500
8769,-3.906250
8770,0.000000
8771,3.906250
8772,7.812500
8773,11.718750
8774,15.625000
8775,19.531250
8776,23.437500
8777,27.343750
8778,27.343750
8779,31.250000
8780,39.062500
8781,39.062500
8782,42.968750
8783,46.875000
8784,50.781250
8785,50.781250
8786,54.687500
8787,58.593750
8788,62.500000
8789,66.406250
8790,66.406250
8791,70.312500
8792,74.218750
8793,78.125000
8794,78.125000
8795,82.031250
8796,85.937500
8797,89.843750
8798,89.843750
8799,93.750000
8800,97.656250
8801,97.656250
8802,101.562500
8803,105.468750
8804,105.468750
8805,109.375000
8806,109.375000
8807,113.281250
8808,117.187500
8809,117.187500
8810,121.093750
8811,121.093750
8812,125.000000
8813,125.000000
8814,128.906250
8815,128.906250
8816,132.812500
8817,136.718750
8818,136.718750
8819,140.625000
8820,140.625000
8821,140.625000
8822,144.531250
8823,144.531250
8824,148.437500
8825,148.437500
8826,148.437500
8827,152.343750
8828,152.343750
8829,156.250000
8830,156.250000
8831,156.250000
8832,160.156250
8833,160.156250
8834,160.156250
8835,160.156250
8836,164.062500
8837,164.062500
8838,164.062500
8839,167.968750
8840,167.968750
8841,167.968750
8842,167.968750
8843,171.875000
8844,171.875000
8845,171.875000
8846,171.875000
8847,171.875000
8848,171.875000
8849,175.781250
8850,175.781250
8851,175.781250
8852,175.781250
8853,175.781250
8854,175.781250
8855,175.781250
8856,179.687500
8857,179.687500
8858,179.687500
8859,179.687500
8860,179.687500
8861,179.687500
8862,179.687500
8863,179.687500
8864,179.687500
8865,179.687500
8866,179.687500
8867,179.687500
8868,179.687500
8869,179.687500
8870,179.687500
8871,179.687500
8872,179.687500
8873,179.687500
8874,175.781250
8875,179.687500
8876,179.687500
8877,175.781250
8878,179.687500
8879,179.687500
8880,175.781250
8881,175.781250
8882,175.781250
8883,175.781250
8884,175.781250
8885,175.781250
8886,175.781250
8887,171.875000
8888,171.875000
8889,171.875000
8890,171.875000
8891,171.875000
8892,171.875000
8893,171.875000
8894,167.968750
8895,167.968750
8896,164.062500
8897,164.062500
8898,164.062500
8899,160.156250
8900,160.156250
8901,160.156250
8902,160.156250
8903,156.250000
8904,156.250000
8905,152.343750
8906,152.343750
8907,152.343750
8908,152.343750
8909,148.437500
8910,148.437500
8911,144.531250
8912,144.531250
8913,144.531250
8914,140.625000
8915,140.625000
8916,136.718750
8917,136.718750
8918,132.812500
8919,132.812500
8920,128.906250
8921,128.906250
8922,125.000000
8923,125.000000
8924,121.093750
8925,117.187500
8926,117.187500
8927,113.281250
8928,113.281250
8929,109.375000
8930,105.468750
8931,105.468750
8932,101.562500
8933,97.656250
8934,97.656250
8935,93.750000
8936,93.750000
8937,89.843750
8938,85.937500
8939,82.031250
8940,82.031250
8941,78.125000
8942,74.218750
8943,74.218750
8944,70.312500
8945,66.406250
8946,62.500000
8947,58.593750
8948,54.687500
8949,54.687500
8950,50.781250
8951,46.875000
8952,42.968750
8953,39.062500
8954,35.156250
8955,35.156250
8956,27.343750
8957,27.343750
8958,23.437500
8959,19.531250
8960,15.625000
8961,11.718750
8962,7.812500
8963,0.000000
8964,0.000000
8965,-3.906250
8966,-3.906250
8967,-7.812500
8968,-11.718750
8969,-15.625000
8970,-19.531250
8971,-23.437500
8972,-27.343750
8973,-31.250000
8974,-35.156250
8975,-39.062500
8976,-42.968750
8977,-46.875000
8978,-50.781250
8979,-54.687500
8980,-58.593750
8981,-62.500000
8982,-66.406250
8983,-70.312500
8984,-74.218750
8985,-78.125000
8986,-82.031250
8987,-85.937500
8988,-89.843750
8989,-93.750000
8990,-101.562500
8991,-101.562500
8992,-105.468750
8993,-109.375000
8994,-113.281250
8995,-117.187500
8996,-121.093750
8997,-125.000000
8998,-128.906250
8999,-132.812500
9000,-136.718750
9001,-140.625000
9002,-144.531250
9003,-148.437500
9004,-152.343750
9005,-152.343750
9006,-160.156250
9007,-160.156250
9008,-164.062500
9009,-167.968750
9010,-171.875000
9011,-175.781250
9012,-179.687500
9013,-183.593750
9014,-183.593750
9015,-187.500000
9016,-191.406250
9017,-195.312500
9018,-199.218750
9019,-203.125000
9020,-203.125000
9021,-207.031250
9022,-210.937500
9023,-214.843750
9024,-218.750000
9025,-218.750000
9026,-222.656250
9027,-226.562500
9028,-230.468750
9029,-230.468750
9030,-234.375000
9031,-238.281250
9032,-238.281250
9033,-242.187500
9034,-246.093750
9035,-246.093750
9036,-250.000000
9037,-253.906250
9038,-253.906250
9039,-257.812500
9040,-257.812500
9041,-261.718750
9042,-265.625000
9043,-265.625000
9044,-269.531250
9045,-269.531250
9046,-269.531250
9047,-273.437500
9048,-273.437500
9049,-277.343750
9050,-277.343750
9051,-281.250000
9052,-281.250000
9053,-281.250000
9054,-285.156250
9055,-285.156250
9056,-289.062500
9057,-289.062500
9058,-289.062500
9059,-289.062500
9060,-292.968750
9061,-292.968750
9062,-292.968750
9063,-292.968750
9064,-296.875000
9065,-296.875000
9066,-296.875000
9067,-296.875000
9068,-296.875000
9069,-296.875000
9070,-296.875000
9071,-296.875000
9072,-296.875000
9073,-296.875000
9074,-300.781250
9075,-300.781250
9076,-296.875000
9077,-300.781250
9078,-296.875000
9079,-300.781250
9080,-300.781250
9081,-296.875000
9082,-296.875000
9083,-296.875000
9084,-296.875000
9085,-296.875000
9086,-296.875000
9087,-292.968750
9088,-292.968750
9089,-292.968750
9090,-292.968750
9091,-292.968750
9092,-289.062500
9093,-289.062500
9094,-289.062500
9095,-289.062500
9096,-285.156250
9097,-285.156250
9098,-285.156250
9099,-281.250000
9100,-281.250000
9101,-277.343750
9102,-277.343750
9103,-277.343750
9104,-273.437500
9105,-273.437500
9106,-269.531250
9107,-269.531250
9108,-265.625000
9109,-265.625000
9110,-261.718750
9111,-261.718750
9112,-257.812500
9113,-253.906250
9114,-253.906250
9115,-250.000000
9116,-250.000000
9117,-246.093750
9118,-246.093750
9119,-242.187500
9120,-238.281250
9121,-234.375000
9122,-234.375000
9123,-230.468750
9124,-226.562500
9125,-226.562500
9126,-222.656250
9127,-218.750000
9128,-214.843750
9129,-214.843750
9130,-210.937500
9131,-207.031250
9132,-203.125000
9133,-199.218750
9134,-195.312500
9135,-195.312500
9136,-191.406250
9137,-187.500000
9138,-183.593750
9139,-179.687500
9140,-175.781250
9141,-171.875000
9142,-167.968750
9143,-164.062500
9144,-160.156250
9145,-160.156250
9146,-156.250000
9147,-152.343750
9148,-148.437500
9149,-144.531250
9150,-140.625000
9151,-136.718750
9152,-132.812500
9153,-128.906250
9154,-125.000000
9155,-121.093750
9156,-117.187500
9157,-113.281250
9158,-109.375000
9159,-105.468750
9160,-101.562500
9161,-97.656250
9162,-93.750000
9163,-89.843750
9164,-85.937500
9165,-82.031250
9166,-78.125000
9167,-74.218750
9168,-70.312500
9169,-66.406250
9170,-62.500000
9171,-58.593750
9172,-54.687500
9173,-50.781250
9174,-46.875000
9175,-42.968750
9176,-39.062500
9177,-35.156250
9178,-31.250000
9179,-27.343750
9180,-23.437500
9181,-23.437500
9182,-15.625000
9183,-11.718750
9184,-7.812500
9185,-3.906250
9186,-3.906250
9187,0.000000
9188,3.906250
9189,7.812500
9190,11.718750
9191,15.625000
9192,19.531250
9193,23.437500
9194,27.343750
9195,31.250000
9196,35.156250
9197,39.062500
9198,39.062500
9199,42.968750
9200,46.875000
9201,50.781250
9202,54.687500
9203,58.593750
9204,58.593750
9205,62.500000
9206,66.406250
9207,70.312500
9208,74.218750
9209,74.218750
9210,78.125000
9211,82.031250
9212,82.031250
9213,85.937500
9214,89.843750
9215,93.750000
9216,93.750000
9217,97.656250
9218,101.562500
9219,101.562500
9220,105.468750
9221,109.375000
9222,109.375000
9223,113.281250
9224,113.281250
9225,117.187500
9226,117.187500
9227,121.093750
9228,125.000000
9229,125.000000
9230,128.906250
9231,128.906250
9232,132.812500
9233,132.812500
9234,136.718750
9235,136.718750
9236,140.625000
9237,140.625000
9238,140.625000
9239,144.531250
9240,144.531250
9241,148.437500
9242,148.437500
9243,152.343750
9244,152.343750
9245,152.343750
9246,156.250000
9247,156.250000
9248,156.250000
9249,160.156250
9250,160.156250
9251,160.156250
9252,160.156250
9253,164.062500
9254,164.062500
9255,164.062500
9256,167.968750
9257,167.968750
9258,167.968750
9259,167.968750
9260,171.875000
9261,171.875000
9262,171.875000
9263,171.875000
9264,171.875000
9265,175.781250
9266,175.781250
9267,175.781250
9268,175.781250
9269,175.781250
9270,175.781250
9271,175.781250
9272,179.687500
9273,179.687500
9274,179.687500
9275,179.687500
9276,179.687500
9277,179.687500
9278,179.687500
9279,179.687500
9280,179.687500
9281,179.687500
9282,179.687500
9283,179.687500
9284,179.687500
9285,179.687500
9286,179.687500
9287,179.687500
9288,179.687500
9289,179.687500
9290,179.687500
9291,179.687500
9292,179.687500
9293,179.687500
9294,179.687500
9295,179.687500
9296,175.781250
9297,175.781250
9298,175.781250
9299,175.781250
9300,175.781250
9301,175.781250
9302,175.781250
9303,171.875000
9304,171.875000
9305,171.875000
9306,171.875000
9307,171.875000
9308,171.875000
9309,167.968750
9310,167.968750
9311,167.968750
9312,167.968750
9313,164.062500
9314,164.062500
9315,164.062500
9316,164.062500
9317,160.156250
9318,160.156250
9319,156.250000
9320,156.250000
9321,156.250000
9322,152.343750
9323,152.343750
9324,152.343750
9325,148.437500
9326,148.437500
9327,148.437500
9328,144.531250
9329,144.531250
9330,140.625000
9331,140.625000
9332,140.625000
9333,136.718750
9334,132.812500
9335,132.812500
9336,132.812500
9337,128.906250
9338,128.906250
9339,125.000000
9340,121.093750
9341,121.093750
9342,117.187500
9343,117.187500
9344,113.281250
9345,113.281250
9346,109.375000
9347,105.468750
9348,105.468750
9349,101.562500
9350,101.562500
9351,93.750000
9352,93.750000
9353,89.843750
9354,89.843750
9355,85.937500
9356,82.031250
9357,78.125000
9358,78.125000
9359,78.125000
9360,70.312500
9361,66.406250
9362,66.406250
9363,62.500000
9364,58.593750
9365,54.687500
9366,50.781250
9367,46.875000
9368,46.875000
9369,42.968750
9370,39.062500
9371,35.156250
9372,31.250000
9373,27.343750
9374,23.437500
9375,19.531250
9376,19.531250
9377,15.625000
9378,11.718750
9379,7.812500
9380,3.906250
9381,0.000000
9382,-3.906250
9383,-7.812500
9384,-11.718750
9385,-15.625000
9386,-19.531250
9387,-23.437500
9388,-27.343750
9389,-31.250000
9390,-35.156250
9391,-35.156250
9392,-42.968750
9393,-46.875000
9394,-50.781250
9395,-54.687500
9396,-54.687500
9397,-62.500000
9398,-66.406250
9399,-66.406250
9400,-74.218750
9401,-74.218750
9402,-82.031250
9403,-85.937500
9404,-85.937500
9405,-89.843750
9406,-93.750000
9407,-97.656250
9408,-101.562500
9409,-105.468750
9410,-109.375000
9411,-113.281250
9412,-121.093750
9413,-121.093750
9414,-125.000000
9415,-128.906250
9416,-132.812500
9417,-136.718750
9418,-140.625000
9419,-144.531250
9420,-148.437500
9421,-152.343750
9422,-156.250000
9423,-160.156250
9424,-164.062500
9425,-167.968750
9426,-171.875000
9427,-175.781250
9428,-175.781250
9429,-179.687500
9430,-183.593750
9431,-187.500000
9432,-191.406250
9433,-195.312500
9434,-199.218750
9435,-199.218750
9436,-203.125000
9437,-207.031250
9438,-210.937500
9439,-214.843750
9440,-214.843750
9441,-218.750000
9442,-222.656250
9443,-222.656250
9444,-226.562500
9445,-230.468750
9446,-234.375000
9447,-238.281250
9448,-238.281250
9449,-242.187500
9450,-242.187500
9451,-246.093750
9452,-250.000000
9453,-250.000000
9454,-253.906250
9455,-257.812500
9456,-257.812500
9457,-257.812500
9458,-261.718750
9459,-261.718750
9460,-265.625000
9461,-269.531250
9462,-269.531250
9463,-273.437500
9464,-273.437500
9465,-277.343750
9466,-277.343750
9467,-277.343750
9468,-281.250000
9469,-281.250000
9470,-285.156250
9471,-285.156250
9472,-285.156250
9473,-285.156250
9474,-289.062500
9475,-289.062500
9476,-289.062500
9477,-292.968750
9478,-292.968750
9479,-292.968750
9480,-292.968750
9481,-292.968750
9482,-296.875000
9483,-296.875000
9484,-296.875000
9485,-296.875000
9486,-296.875000
9487,-300.781250
9488,-296.875000
9489,-296.875000
9490,-296.875000
9491,-296.875000
9492,-300.781250
9493,-296.875000
9494,-296.875000
9495,-296.875000
9496,-300.781250
9497,-296.875000
9498,-296.875000
9499,-296.875000
9500,-296.875000
9501,-296.875000
9502,-296.875000
9503,-296.875000
9504,-292.968750
9505,-292.968750
9506,-292.968750
9507,-292.968750
9508,-292.968750
9509,-289.062500
9510,-289.062500
9511,-289.062500
9512,-285.156250
9513,-285.156250
9514,-285.156250
9515,-281.250000
9516,-281.250000
9517,-281.250000
9518,-277.343750
9519,-277.343750
9520,-273.437500
9521,-273.437500
9522,-269.531250
9523,-269.531250
9524,-269.531250
9525,-265.625000
9526,-265.625000
9527,-261.718750
9528,-257.812500
9529,-257.812500
9530,-253.906250
9531,-253.906250
9532,-250.000000
9533,-246.093750
9534,-246.093750
9535,-242.187500
9536,-242.187500
9537,-238.281250
9538,-234.375000
9539,-230.468750
9540,-230.468750
9541,-226.562500
9542,-222.656250
9543,-218.750000
9544,-218.750000
9545,-214.843750
9546,-210.937500
9547,-207.031250
9548,-207.031250
9549,-203.125000
9550,-199.218750
9551,-195.312500
9552,-191.406250
9553,-187.500000
9554,-187.500000
9555,-183.593750
9556,-179.687500
9557,-175.781250
9558,-171.875000
9559,-167.968750
9560,-164.062500
9561,-160.156250
9562,-156.250000
9563,-152.343750
9564,-148.437500
9565,-148.437500
9566,-144.531250
9567,-140.625000
9568,-136.718750
9569,-132.812500
9570,-128.906250
9571,-125.000000
9572,-121.093750
9573,-117.187500
9574,-113.281250
9575,-109.375000
9576,-105.468750
9577,-101.562500
9578,-97.656250
9579,-93.750000
9580,-89.843750
9581,-85.937500
9582,-82.031250
9583,-78.125000
9584,-74.218750
9585,-70.312500
9586,-66.406250
9587,-62.500000
9588,-58.593750
9589,-54.687500
9590,-50.781250
9591,-46.875000
9592,-42.968750
9593,-39.062500
9594,-35.156250
9595,-31.250000
9596,-27.343750
9597,-23.437500
9598,-19.531250
9599,-15.625000
9600,-11.718750
9601,-7.812500
9602,-3.906250
9603,0.000000
9604,3.906250
9605,7.812500
9606,11.718750
9607,11.718750
9608,19.531250
9609,19.531250
9610,23.437500
9611,27.343750
9612,31.250000
9613,35.156250
9614,39.062500
9615,42.968750
9616,42.968750
9617,46.875000
9618,50.781250
9619,54.687500
9620,58.593750
9621,58.593750
9622,62.500000
9623,66.406250
9624,70.312500
9625,74.218750
9626,74.218750
9627,78.125000
9628,82.031250
9629,82.031250
9630,85.937500
9631,89.843750
9632,89.843750
9633,93.750000
9634,97.656250
9635,101.562500
9636,101.562500
9637,105.468750
9638,109.375000
9639,109.375000
9640,113.281250
9641,113.281250
9642,117.187500
9643,121.093750
9644,121.093750
9645,125.000000
9646,125.000000
9647,128.906250
9648,128.906250
9649,132.812500
9650,132.812500
9651,136.718750
9652,140.625000
9653,140.625000
9654,144.531250
9655,144.531250
9656,144.531250
9657,148.437500
9658,148.437500
9659,148.437500
9660,148.437500
9661,152.343750
9662,156.250000
9663,156.250000
9664,156.250000
9665,160.156250
9666,160.156250
9667,160.156250
9668,160.156250
9669,164.062500
9670,164.062500
9671,164.062500
9672,167.968750
9673,167.968750
9674,167.968750
9675,167.968750
9676,167.968750
9677,167.968750
9678,171.875000
9679,171.875000
9680,171.875000
9681,171.875000
9682,175.781250
9683,175.781250
9684,175.781250
9685,175.781250
9686,175.781250
9687,175.781250
9688,175.781250
9689,175.781250
9690,179.687500
9691,179.687500
9692,175.781250
9693,179.687500
9694,179.687500
9695,179.687500
9696,183.593750
9697,179.687500
9698,179.687500
9699,179.687500
9700,179.687500
9701,179.687500
9702,179.687500
9703,179.687500
9704,179.687500
9705,179.687500
9706,179.687500
9707,179.687500
9708,179.687500
9709,175.781250
9710,179.687500
9711,179.687500
9712,179.687500
9713,175.781250
9714,175.781250
9715,175.781250
9716,175.781250
9717,175.781250
9718,175.781250
9719,175.781250
9720,175.781250
9721,171.875000
9722,171.875000
9723,171.875000
9724,171.875000
9725,167.968750
9726,167.968750
9727,167.968750
9728,167.968750
9729,164.062500
9730,164.062500
9731,164.062500
9732,164.062500
9733,160.156250
9734,160.156250
9735,160.156250
9736,156.250000
9737,156.250000
9738,156.250000
9739,152.343750
9740,152.343750
9741,152.343750
9742,148.437500
9743,148.437500
9744,148.437500
9745,144.531250
9746,144.531250
9747,140.625000
9748,140.625000
9749,136.718750
9750,136.718750
9751,132.812500
9752,132.812500
9753,128.906250
9754,128.906250
9755,125.000000
9756,125.000000
9757,121.093750
9758,121.093750
9759,121.093750
9760,113.281250
9761,113.281250
9762,109.375000
9763,109.375000
9764,105.468750
9765,101.562500
9766,101.562500
9767,97.656250
9768,93.750000
9769,93.750000
9770,89.843750
9771,85.937500
9772,85.937500
9773,82.031250
9774,78.125000
9775,74.218750
9776,74.218750
9777,70.312500
9778,66.406250
9779,62.500000
9780,58.593750
9781,58.593750
9782,54.687500
9783,50.781250
9784,46.875000
9785,42.968750
9786,42.968750
9787,39.062500
9788,35.156250
9789,31.250000
9790,27.343750
9791,23.437500
9792,19.531250
9793,15.625000
9794,15.625000
9795,11.718750
9796,7.812500
9797,3.906250
9798,0.000000
9799,-3.906250
9800,-7.812500
9801,-11.718750
9802,-15.625000
9803,-19.531250
9804,-23.437500
9805,-27.343750
9806,-31.250000
9807,-35.156250
9808,-39.062500
9809,-42.968750
9810,-46.875000
9811,-50.781250
9812,-50.781250
9813,-58.593750
9814,-62.500000
9815,-66.406250
9816,-70.312500
9817,-74.218750
9818,-78.125000
9819,-82.031250
9820,-85.937500
9821,-85.937500
9822,-93.750000
9823,-97.656250
9824,-101.562500
9825,-105.468750
9826,-109.375000
9827,-113.281250
9828,-117.187500
9829,-121.093750
9830,-125.000000
9831,-128.906250
9832,-132.812500
9833,-136.718750
9834,-136.718750
9835,-144.531250
9836,-144.531250
9837,-148.437500
9838,-152.343750
9839,-156.250000
9840,-160.156250
9841,-164.062500
9842,-167.968750
9843,-171.875000
9844,-175.781250
9845,-179.687500
9846,-179.687500
9847,-187.500000
9848,-187.500000
9849,-191.406250
9850,-195.312500
9851,-199.218750
9852,-199.218750
9853,-203.125000
9854,-207.031250
9855,-210.937500
9856,-214.843750
9857,-214.843750
9858,-218.750000
9859,-222.656250
9860,-226.562500
9861,-226.562500
9862,-230.468750
9863,-234.375000
9864,-234.375000
9865,-238.281250
9866,-242.187500
9867,-246.093750
9868,-246.093750
9869,-250.000000
9870,-250.000000
9871,-253.906250
9872,-257.812500
9873,-257.812500
9874,-261.718750
9875,-261.718750
9876,-265.625000
9877,-265.625000
9878,-269.531250
9879,-269.531250
9880,-273.437500
9881,-273.437500
9882,-277.343750
9883,-277.343750
9884,-277.343750
9885,-281.250000
9886,-281.250000
9887,-285.156250
9888,-285.156250
9889,-285.156250
9890,-285.156250
9891,-289.062500
9892,-292.968750
9893,-289.062500
9894,-292.968750
9895,-292.968750
9896,-292.968750
9897,-296.875000
9898,-296.875000
9899,-296.875000
9900,-296.875000
9901,-296.875000
9902,-296.875000
9903,-296.875000
9904,-296.875000
9905,-296.875000
9906,-296.875000
9907,-296.875000
9908,-300.781250
9909,-300.781250
9910,-300.781250
9911,-300.781250
9912,-296.875000
9913,-296.875000
9914,-296.875000
9915,-296.875000
9916,-296.875000
9917,-296.875000
9918,-296.875000
9919,-296.875000
9920,-296.875000
9921,-292.968750
9922,-292.968750
9923,-292.968750
9924,-292.968750
9925,-289.062500
9926,-289.062500
9927,-289.062500
9928,-289.062500
9929,-285.156250
9930,-285.156250
9931,-285.156250
9932,-281.250000
9933,-281.250000
9934,-281.250000
9935,-277.343750
9936,-277.343750
9937,-273.437500
9938,-273.437500
9939,-269.531250
9940,-269.531250
9941,-265.625000
9942,-265.625000
9943,-265.625000
9944,-261.718750
9945,-257.812500
9946,-257.812500
9947,-253.906250
9948,-250.000000
9949,-250.000000
9950,-246.093750
9951,-246.093750
9952,-242.187500
9953,-238.281250
9954,-238.281250
9955,-234.375000
9956,-230.468750
9957,-230.468750
9958,-226.562500
9959,-222.656250
9960,-218.750000
9961,-214.843750
9962,-214.843750
9963,-210.937500
9964,-207.031250
9965,-203.125000
9966,-203.125000
9967,-199.218750
9968,-195.312500
9969,-191.406250
9970,-187.500000
9971,-183.593750
9972,-179.687500
9973,-179.687500
9974,-171.875000
9975,-171.875000
9976,-167.968750
9977,-164.062500
9978,-156.250000
9979,-156.250000
9980,-152.343750
9981,-148.437500
9982,-144.531250
9983,-140.625000
9984,-136.718750
9985,-132.812500
9986,-128.906250
9987,-125.000000
9988,-121.093750
9989,-117.187500
9990,-113.281250
9991,-109.375000
9992,-105.468750
9993,-105.468750
9994,-97.656250
9995,-93.750000
9996,-89.843750
9997,-89.843750
9998,-85.937500
9999,-78.125000
10000,-78.125000
