Channel              :,CH1
Frequency            :,1.010kHz
Period               :,0.990ms
PK-PK                :,187.5mV
Probe attenuation    :,1X
Voltage per ADC value:,0.244141mV
Time interval        :,1.00000us

index,CH1_Voltage(mV)
1,-50.781250
2,-50.781250
3,-50.781250
4,-50.781250
5,-46.875000
6,-46.875000
7,-46.875000
8,-46.875000
9,-46.875000
10,-46.875000
11,-42.968750
12,-46.875000
13,-42.968750
14,-42.968750
15,-42.968750
16,-42.968750
17,-42.968750
18,-42.968750
19,-39.062500
20,-39.062500
21,-39.062500
22,-39.062500
23,-39.062500
24,-39.062500
25,-35.156250
26,-35.156250
27,-35.156250
28,-35.156250
29,-35.156250
30,-35.156250
31,-35.156250
32,-31.250000
33,-31.250000
34,-31.250000
35,-31.250000
36,-31.250000
37,-31.250000
38,-31.250000
39,-31.250000
40,-27.343750
41,-27.343750
42,-27.343750
43,-27.343750
44,-27.343750
45,-27.343750
46,-23.437500
47,-23.437500
48,-23.437500
49,-23.437500
50,-23.437500
51,-23.437500
52,-19.531250
53,-19.531250
54,-19.531250
55,-19.531250
56,-19.531250
57,-19.531250
58,-19.531250
59,-15.625000
60,-15.625000
61,-15.625000
62,-15.625000
63,-15.625000
64,-15.625000
65,-15.625000
66,-11.718750
67,-11.718750
68,-11.718750
69,-11.718750
70,-11.718750
71,-11.718750
72,-11.718750
73,-7.812500
74,-7.812500
75,-7.812500
76,-7.812500
77,-7.812500
78,-7.812500
79,-7.812500
80,-3.906250
81,-3.906250
82,-3.906250
83,-3.906250
84,-3.906250
85,-3.906250
86,0.000000
87,0.000000
88,0.000000
89,0.000000
90,0.000000
91,0.000000
92,0.000000
93,3.906250
94,3.906250
95,3.906250
96,3.906250
97,3.906250
98,3.906250
99,3.906250
100,7.812500
101,7.812500
102,7.812500
103,7.812500
104,7.812500
105,7.812500
106,7.812500
107,11.718750
108,11.718750
109,11.718750
110,11.718750
111,11.718750
112,11.718750
113,11.718750
114,11.718750
115,15.625000
116,15.625000
117,15.625000
118,15.625000
119,15.625000
120,15.625000
121,15.625000
122,15.625000
123,19.531250
124,19.531250
125,19.531250
126,19.531250
127,19.531250
128,19.531250
129,19.531250
130,23.437500
131,23.437500
132,23.437500
133,23.437500
134,23.437500
135,23.437500
136,23.437500
137,23.437500
138,27.343750
139,27.343750
140,27.343750
141,27.343750
142,27.343750
143,27.343750
144,27.343750
145,27.343750
146,27.343750
147,31.250000
148,31.250000
149,31.250000
150,31.250000
151,31.250000
152,31.250000
153,31.250000
154,35.156250
155,35.156250
156,35.156250
157,35.156250
158,35.156250
159,35.156250
160,35.156250
161,35.156250
162,35.156250
163,39.062500
164,39.062500
165,39.062500
166,39.062500
167,39.062500
168,39.062500
169,39.062500
170,39.062500
171,39.062500
172,42.968750
173,42.968750
174,42.968750
175,42.968750
176,42.968750
177,42.968750
178,42.968750
179,42.968750
180,42.968750
181,46.875000
182,46.875000
183,46.875000
184,46.875000
185,46.875000
186,46.875000
187,46.875000
188,46.875000
189,46.875000
190,50.781250
191,50.781250
192,50.781250
193,50.781250
194,50.781250
195,50.781250
196,50.781250
197,50.781250
198,50.781250
199,50.781250
200,50.781250
201,50.781250
202,50.781250
203,54.687500
204,54.687500
205,54.687500
206,54.687500
207,54.687500
208,54.687500
209,54.687500
210,54.687500
211,58.593750
212,58.593750
213,58.593750
214,58.593750
215,58.593750
216,58.593750
217,58.593750
218,58.593750
219,58.593750
220,58.593750
221,58.593750
222,58.593750
223,58.593750
224,62.500000
225,62.500000
226,62.500000
227,62.500000
228,62.500000
229,62.500000
230,62.500000
231,62.500000
232,62.500000
233,62.500000
234,62.500000
235,62.500000
236,62.500000
237,62.500000
238,66.406250
239,66.406250
240,66.406250
241,66.406250
242,66.406250
243,66.406250
244,66.406250
245,66.406250
246,66.406250
247,66.406250
248,66.406250
249,66.406250
250,66.406250
251,66.406250
252,70.312500
253,66.406250
254,66.406250
255,66.406250
256,66.406250
257,70.312500
258,70.312500
259,70.312500
260,70.312500
261,70.312500
262,70.312500
263,70.312500
264,70.312500
265,70.312500
266,70.312500
267,70.312500
268,70.312500
269,70.312500
270,70.312500
271,70.312500
272,70.312500
273,70.312500
274,70.312500
275,70.312500
276,70.312500
277,70.312500
278,74.218750
279,74.218750
280,74.218750
281,74.218750
282,70.312500
283,74.218750
284,70.312500
285,74.218750
286,74.218750
287,74.218750
288,74.218750
289,74.218750
290,74.218750
291,74.218750
292,74.218750
293,74.218750
294,74.218750
295,74.218750
296,74.218750
297,74.218750
298,74.218750
299,74.218750
300,74.218750
301,74.218750
302,74.218750
303,74.218750
304,74.218750
305,74.218750
306,74.218750
307,74.218750
308,74.218750
309,74.218750
310,74.218750
311,74.218750
312,74.218750
313,74.218750
314,74.218750
315,74.218750
316,74.218750
317,74.218750
318,74.218750
319,74.218750
320,74.218750
321,74.218750
322,74.218750
323,74.218750
324,74.218750
325,74.218750
326,74.218750
327,74.218750
328,74.218750
329,74.218750
330,74.218750
331,74.218750
332,74.218750
333,74.218750
334,74.218750
335,74.218750
336,74.218750
337,74.218750
338,74.218750
339,74.218750
340,74.218750
341,74.218750
342,74.218750
343,74.218750
344,74.218750
345,74.218750
346,74.218750
347,74.218750
348,74.218750
349,74.218750
350,74.218750
351,74.218750
352,74.218750
353,74.218750
354,74.218750
355,74.218750
356,74.218750
357,74.218750
358,74.218750
359,74.218750
360,74.218750
361,74.218750
362,74.218750
363,74.218750
364,70.312500
365,70.312500
366,70.312500
367,70.312500
368,70.312500
369,70.312500
370,70.312500
371,70.312500
372,70.312500
373,70.312500
374,70.312500
375,70.312500
376,70.312500
377,70.312500
378,70.312500
379,70.312500
380,70.312500
381,70.312500
382,70.312500
383,70.312500
384,70.312500
385,70.312500
386,70.312500
387,70.312500
388,70.312500
389,66.406250
390,66.406250
391,70.312500
392,66.406250
393,66.406250
394,66.406250
395,66.406250
396,66.406250
397,66.406250
398,66.406250
399,66.406250
400,66.406250
401,66.406250
402,66.406250
403,66.406250
404,62.500000
405,62.500000
406,62.500000
407,62.500000
408,62.500000
409,62.500000
410,62.500000
411,62.500000
412,62.500000
413,62.500000
414,62.500000
415,62.500000
416,62.500000
417,62.500000
418,62.500000
419,58.593750
420,58.593750
421,58.593750
422,58.593750
423,58.593750
424,58.593750
425,58.593750
426,58.593750
427,58.593750
428,58.593750
429,58.593750
430,58.593750
431,54.687500
432,58.593750
433,58.593750
434,54.687500
435,54.687500
436,54.687500
437,54.687500
438,54.687500
439,54.687500
440,54.687500
441,54.687500
442,54.687500
443,50.781250
444,50.781250
445,50.781250
446,50.781250
447,50.781250
448,50.781250
449,50.781250
450,50.781250
451,50.781250
452,50.781250
453,50.781250
454,46.875000
455,46.875000
456,46.875000
457,46.875000
458,46.875000
459,46.875000
460,46.875000
461,46.875000
462,46.875000
463,46.875000
464,46.875000
465,42.968750
466,42.968750
467,42.968750
468,42.968750
469,42.968750
470,42.968750
471,42.968750
472,42.968750
473,42.968750
474,39.062500
475,39.062500
476,39.062500
477,39.062500
478,39.062500
479,39.062500
480,39.062500
481,39.062500
482,39.062500
483,35.156250
484,35.156250
485,35.156250
486,35.156250
487,35.156250
488,35.156250
489,35.156250
490,35.156250
491,31.250000
492,31.250000
493,31.250000
494,31.250000
495,31.250000
496,31.250000
497,31.250000
498,31.250000
499,27.343750
500,27.343750
501,27.343750
502,27.343750
503,27.343750
504,27.343750
505,27.343750
506,27.343750
507,23.437500
508,23.437500
509,23.437500
510,23.437500
511,23.437500
512,23.437500
513,23.437500
514,19.531250
515,19.531250
516,19.531250
517,19.531250
518,19.531250
519,19.531250
520,19.531250
521,19.531250
522,15.625000
523,15.625000
524,15.625000
525,15.625000
526,15.625000
527,15.625000
528,15.625000
529,11.718750
530,11.718750
531,11.718750
532,11.718750
533,11.718750
534,11.718750
535,11.718750
536,11.718750
537,7.812500
538,7.812500
539,7.812500
540,7.812500
541,7.812500
542,7.812500
543,3.906250
544,3.906250
545,3.906250
546,3.906250
547,3.906250
548,3.906250
549,3.906250
550,3.906250
551,0.000000
552,0.000000
553,0.000000
554,0.000000
555,0.000000
556,0.000000
557,0.000000
558,-3.906250
559,-3.906250
560,-3.906250
561,-3.906250
562,-3.906250
563,-7.812500
564,-7.812500
565,-7.812500
566,-7.812500
567,-7.812500
568,-7.812500
569,-7.812500
570,-7.812500
571,-11.718750
572,-11.718750
573,-11.718750
574,-11.718750
575,-11.718750
576,-11.718750
577,-11.718750
578,-11.718750
579,-11.718750
580,-15.625000
581,-15.625000
582,-15.625000
583,-15.625000
584,-15.625000
585,-15.625000
586,-19.531250
587,-19.531250
588,-19.531250
589,-19.531250
590,-19.531250
591,-23.437500
592,-23.437500
593,-23.437500
594,-23.437500
595,-23.437500
596,-23.437500
597,-23.437500
598,-23.437500
599,-27.343750
600,-27.343750
601,-27.343750
602,-27.343750
603,-27.343750
604,-27.343750
605,-27.343750
606,-27.343750
607,-31.250000
608,-31.250000
609,-31.250000
610,-31.250000
611,-31.250000
612,-31.250000
613,-35.156250
614,-35.156250
615,-35.156250
616,-35.156250
617,-35.156250
618,-35.156250
619,-35.156250
620,-39.062500
621,-39.062500
622,-39.062500
623,-39.062500
624,-39.062500
625,-39.062500
626,-39.062500
627,-42.968750
628,-42.968750
629,-42.968750
630,-42.968750
631,-42.968750
632,-42.968750
633,-42.968750
634,-46.875000
635,-46.875000
636,-46.875000
637,-46.875000
638,-46.875000
639,-50.781250
640,-46.875000
641,-50.781250
642,-46.875000
643,-50.781250
644,-50.781250
645,-50.781250
646,-50.781250
647,-50.781250
648,-54.687500
649,-54.687500
650,-54.687500
651,-54.687500
652,-54.687500
653,-54.687500
654,-58.593750
655,-58.593750
656,-58.593750
657,-58.593750
658,-58.593750
659,-58.593750
660,-58.593750
661,-62.500000
662,-62.500000
663,-62.500000
664,-62.500000
665,-62.500000
666,-62.500000
667,-62.500000
668,-66.406250
669,-66.406250
670,-66.406250
671,-66.406250
672,-66.406250
673,-66.406250
674,-66.406250
675,-66.406250
676,-70.312500
677,-66.406250
678,-70.312500
679,-70.312500
680,-70.312500
681,-70.312500
682,-70.312500
683,-70.312500
684,-70.312500
685,-70.312500
686,-74.218750
687,-74.218750
688,-74.218750
689,-74.218750
690,-74.218750
691,-74.218750
692,-74.218750
693,-74.218750
694,-74.218750
695,-78.125000
696,-78.125000
697,-78.125000
698,-78.125000
699,-78.125000
700,-78.125000
701,-78.125000
702,-78.125000
703,-78.125000
704,-82.031250
705,-82.031250
706,-82.031250
707,-82.031250
708,-82.031250
709,-82.031250
710,-82.031250
711,-82.031250
712,-82.031250
713,-82.031250
714,-85.937500
715,-85.937500
716,-85.937500
717,-85.937500
718,-85.937500
719,-85.937500
720,-85.937500
721,-85.937500
722,-85.937500
723,-85.937500
724,-85.937500
725,-85.937500
726,-89.843750
727,-89.843750
728,-89.843750
729,-89.843750
730,-89.843750
731,-89.843750
732,-89.843750
733,-89.843750
734,-89.843750
735,-89.843750
736,-89.843750
737,-89.843750
738,-93.750000
739,-93.750000
740,-93.750000
741,-93.750000
742,-93.750000
743,-93.750000
744,-93.750000
745,-93.750000
746,-93.750000
747,-93.750000
748,-93.750000
749,-93.750000
750,-93.750000
751,-97.656250
752,-93.750000
753,-97.656250
754,-97.656250
755,-97.656250
756,-97.656250
757,-97.656250
758,-97.656250
759,-97.656250
760,-97.656250
761,-97.656250
762,-97.656250
763,-97.656250
764,-97.656250
765,-97.656250
766,-97.656250
767,-97.656250
768,-97.656250
769,-101.562500
770,-101.562500
771,-101.562500
772,-101.562500
773,-101.562500
774,-101.562500
775,-101.562500
776,-101.562500
777,-101.562500
778,-101.562500
779,-101.562500
780,-101.562500
781,-101.562500
782,-101.562500
783,-101.562500
784,-101.562500
785,-101.562500
786,-101.562500
787,-101.562500
788,-101.562500
789,-101.562500
790,-101.562500
791,-101.562500
792,-101.562500
793,-101.562500
794,-105.468750
795,-105.468750
796,-105.468750
797,-105.468750
798,-105.468750
799,-105.468750
800,-105.468750
801,-105.468750
802,-105.468750
803,-105.468750
804,-105.468750
805,-105.468750
806,-105.468750
807,-105.468750
808,-105.468750
809,-105.468750
810,-105.468750
811,-105.468750
812,-105.468750
813,-105.468750
814,-105.468750
815,-105.468750
816,-105.468750
817,-105.468750
818,-105.468750
819,-105.468750
820,-105.468750
821,-105.468750
822,-105.468750
823,-105.468750
824,-105.468750
825,-105.468750
826,-105.468750
827,-105.468750
828,-105.468750
829,-105.468750
830,-105.468750
831,-105.468750
832,-105.468750
833,-105.468750
834,-105.468750
835,-105.468750
836,-101.562500
837,-101.562500
838,-101.562500
839,-105.468750
840,-105.468750
841,-105.468750
842,-105.468750
843,-105.468750
844,-101.562500
845,-101.562500
846,-101.562500
847,-101.562500
848,-101.562500
849,-101.562500
850,-101.562500
851,-101.562500
852,-101.562500
853,-101.562500
854,-101.562500
855,-101.562500
856,-101.562500
857,-101.562500
858,-101.562500
859,-101.562500
860,-101.562500
861,-101.562500
862,-101.562500
863,-101.562500
864,-101.562500
865,-97.656250
866,-101.562500
867,-97.656250
868,-97.656250
869,-97.656250
870,-97.656250
871,-97.656250
872,-97.656250
873,-97.656250
874,-97.656250
875,-97.656250
876,-97.656250
877,-97.656250
878,-97.656250
879,-97.656250
880,-97.656250
881,-97.656250
882,-97.656250
883,-97.656250
884,-93.750000
885,-93.750000
886,-93.750000
887,-93.750000
888,-93.750000
889,-93.750000
890,-93.750000
891,-93.750000
892,-93.750000
893,-93.750000
894,-93.750000
895,-93.750000
896,-93.750000
897,-89.843750
898,-89.843750
899,-89.843750
900,-89.843750
901,-89.843750
902,-89.843750
903,-89.843750
904,-89.843750
905,-89.843750
906,-89.843750
907,-85.937500
908,-85.937500
909,-85.937500
910,-85.937500
911,-85.937500
912,-85.937500
913,-85.937500
914,-85.937500
915,-85.937500
916,-85.937500
917,-85.937500
918,-85.937500
919,-85.937500
920,-85.937500
921,-82.031250
922,-82.031250
923,-82.031250
924,-82.031250
925,-82.031250
926,-82.031250
927,-82.031250
928,-82.031250
929,-78.125000
930,-78.125000
931,-78.125000
932,-78.125000
933,-78.125000
934,-78.125000
935,-78.125000
936,-78.125000
937,-78.125000
938,-74.218750
939,-74.218750
940,-74.218750
941,-74.218750
942,-74.218750
943,-74.218750
944,-74.218750
945,-74.218750
946,-74.218750
947,-70.312500
948,-70.312500
949,-70.312500
950,-70.312500
951,-70.312500
952,-70.312500
953,-70.312500
954,-70.312500
955,-66.406250
956,-66.406250
957,-66.406250
958,-66.406250
959,-66.406250
960,-66.406250
961,-66.406250
962,-62.500000
963,-62.500000
964,-62.500000
965,-62.500000
966,-62.500000
967,-62.500000
968,-62.500000
969,-62.500000
970,-62.500000
971,-58.593750
972,-58.593750
973,-58.593750
974,-58.593750
975,-58.593750
976,-58.593750
977,-58.593750
978,-54.687500
979,-54.687500
980,-54.687500
981,-54.687500
982,-54.687500
983,-54.687500
984,-54.687500
985,-50.781250
986,-50.781250
987,-50.781250
988,-50.781250
989,-50.781250
990,-50.781250
991,-50.781250
992,-46.875000
993,-46.875000
994,-46.875000
995,-46.875000
996,-46.875000
997,-46.875000
998,-46.875000
999,-46.875000
1000,-42.968750
1001,-42.968750
1002,-42.968750
1003,-42.968750
1004,-42.968750
1005,-42.968750
1006,-42.968750
1007,-39.062500
1008,-39.062500
1009,-39.062500
1010,-39.062500
1011,-39.062500
1012,-39.062500
1013,-39.062500
1014,-39.062500
1015,-35.156250
1016,-35.156250
1017,-35.156250
1018,-35.156250
1019,-35.156250
1020,-35.156250
1021,-31.250000
1022,-31.250000
1023,-31.250000
1024,-31.250000
1025,-31.250000
1026,-31.250000
1027,-31.250000
1028,-27.343750
1029,-27.343750
1030,-27.343750
1031,-27.343750
1032,-27.343750
1033,-27.343750
1034,-23.437500
1035,-23.437500
1036,-23.437500
1037,-23.437500
1038,-23.437500
1039,-23.437500
1040,-23.437500
1041,-19.531250
1042,-19.531250
1043,-19.531250
1044,-19.531250
1045,-19.531250
1046,-19.531250
1047,-15.625000
1048,-15.625000
1049,-15.625000
1050,-15.625000
1051,-15.625000
1052,-15.625000
1053,-15.625000
1054,-15.625000
1055,-11.718750
1056,-11.718750
1057,-11.718750
1058,-11.718750
1059,-11.718750
1060,-11.718750
1061,-7.812500
1062,-7.812500
1063,-7.812500
1064,-7.812500
1065,-7.812500
1066,-7.812500
1067,-7.812500
1068,-3.906250
1069,-3.906250
1070,-3.906250
1071,-3.906250
1072,-3.906250
1073,-3.906250
1074,-3.906250
1075,-3.906250
1076,0.000000
1077,0.000000
1078,0.000000
1079,0.000000
1080,0.000000
1081,3.906250
1082,3.906250
1083,3.906250
1084,3.906250
1085,3.906250
1086,3.906250
1087,3.906250
1088,7.812500
1089,7.812500
1090,7.812500
1091,7.812500
1092,7.812500
1093,7.812500
1094,7.812500
1095,11.718750
1096,11.718750
1097,11.718750
1098,11.718750
1099,11.718750
1100,11.718750
1101,11.718750
1102,11.718750
1103,11.718750
1104,15.625000
1105,15.625000
1106,15.625000
1107,15.625000
1108,15.625000
1109,15.625000
1110,15.625000
1111,19.531250
1112,19.531250
1113,19.531250
1114,19.531250
1115,19.531250
1116,19.531250
1117,23.437500
1118,23.437500
1119,23.437500
1120,23.437500
1121,23.437500
1122,23.437500
1123,23.437500
1124,23.437500
1125,27.343750
1126,27.343750
1127,27.343750
1128,27.343750
1129,27.343750
1130,27.343750
1131,27.343750
1132,27.343750
1133,31.250000
1134,31.250000
1135,31.250000
1136,31.250000
1137,31.250000
1138,31.250000
1139,31.250000
1140,31.250000
1141,35.156250
1142,35.156250
1143,35.156250
1144,35.156250
1145,35.156250
1146,35.156250
1147,35.156250
1148,35.156250
1149,39.062500
1150,39.062500
1151,39.062500
1152,39.062500
1153,39.062500
1154,39.062500
1155,39.062500
1156,39.062500
1157,39.062500
1158,39.062500
1159,42.968750
1160,42.968750
1161,42.968750
1162,42.968750
1163,42.968750
1164,42.968750
1165,42.968750
1166,42.968750
1167,46.875000
1168,46.875000
1169,46.875000
1170,46.875000
1171,46.875000
1172,46.875000
1173,46.875000
1174,46.875000
1175,46.875000
1176,46.875000
1177,50.781250
1178,50.781250
1179,50.781250
1180,50.781250
1181,50.781250
1182,50.781250
1183,50.781250
1184,50.781250
1185,50.781250
1186,50.781250
1187,50.781250
1188,54.687500
1189,54.687500
1190,54.687500
1191,54.687500
1192,54.687500
1193,54.687500
1194,54.687500
1195,54.687500
1196,54.687500
1197,54.687500
1198,54.687500
1199,54.687500
1200,54.687500
1201,58.593750
1202,58.593750
1203,58.593750
1204,58.593750
1205,58.593750
1206,58.593750
1207,58.593750
1208,58.593750
1209,58.593750
1210,58.593750
1211,62.500000
1212,62.500000
1213,62.500000
1214,62.500000
1215,62.500000
1216,62.500000
1217,62.500000
1218,62.500000
1219,62.500000
1220,62.500000
1221,62.500000
1222,62.500000
1223,62.500000
1224,66.406250
1225,62.500000
1226,66.406250
1227,62.500000
1228,66.406250
1229,66.406250
1230,62.500000
1231,66.406250
1232,66.406250
1233,66.406250
1234,66.406250
1235,66.406250
1236,66.406250
1237,66.406250
1238,70.312500
1239,70.312500
1240,66.406250
1241,70.312500
1242,66.406250
1243,70.312500
1244,70.312500
1245,70.312500
1246,70.312500
1247,70.312500
1248,70.312500
1249,70.312500
1250,70.312500
1251,70.312500
1252,70.312500
1253,70.312500
1254,70.312500
1255,70.312500
1256,70.312500
1257,70.312500
1258,74.218750
1259,74.218750
1260,70.312500
1261,70.312500
1262,70.312500
1263,70.312500
1264,74.218750
1265,74.218750
1266,74.218750
1267,74.218750
1268,74.218750
1269,74.218750
1270,74.218750
1271,74.218750
1272,74.218750
1273,74.218750
1274,74.218750
1275,74.218750
1276,74.218750
1277,74.218750
1278,74.218750
1279,74.218750
1280,74.218750
1281,74.218750
1282,74.218750
1283,74.218750
1284,74.218750
1285,74.218750
1286,74.218750
1287,74.218750
1288,74.218750
1289,74.218750
1290,74.218750
1291,74.218750
1292,74.218750
1293,74.218750
1294,74.218750
1295,74.218750
1296,74.218750
1297,74.218750
1298,74.218750
1299,74.218750
1300,74.218750
1301,74.218750
1302,74.218750
1303,74.218750
1304,74.218750
1305,74.218750
1306,74.218750
1307,74.218750
1308,74.218750
1309,74.218750
1310,78.125000
1311,74.218750
1312,74.218750
1313,74.218750
1314,78.125000
1315,74.218750
1316,74.218750
1317,74.218750
1318,78.125000
1319,78.125000
1320,74.218750
1321,74.218750
1322,74.218750
1323,74.218750
1324,74.218750
1325,74.218750
1326,78.125000
1327,74.218750
1328,74.218750
1329,74.218750
1330,74.218750
1331,74.218750
1332,74.218750
1333,74.218750
1334,74.218750
1335,74.218750
1336,74.218750
1337,74.218750
1338,74.218750
1339,74.218750
1340,74.218750
1341,74.218750
1342,74.218750
1343,74.218750
1344,74.218750
1345,74.218750
1346,74.218750
1347,74.218750
1348,74.218750
1349,74.218750
1350,74.218750
1351,74.218750
1352,74.218750
1353,74.218750
1354,74.218750
1355,74.218750
1356,74.218750
1357,74.218750
1358,74.218750
1359,74.218750
1360,74.218750
1361,74.218750
1362,70.312500
1363,70.312500
1364,70.312500
1365,74.218750
1366,70.312500
1367,70.312500
1368,70.312500
1369,70.312500
1370,70.312500
1371,70.312500
1372,70.312500
1373,70.312500
1374,70.312500
1375,70.312500
1376,70.312500
1377,70.312500
1378,70.312500
1379,70.312500
1380,70.312500
1381,70.312500
1382,70.312500
1383,70.312500
1384,66.406250
1385,66.406250
1386,66.406250
1387,66.406250
1388,66.406250
1389,66.406250
1390,66.406250
1391,66.406250
1392,66.406250
1393,66.406250
1394,66.406250
1395,66.406250
1396,66.406250
1397,66.406250
1398,66.406250
1399,66.406250
1400,62.500000
1401,62.500000
1402,62.500000
1403,62.500000
1404,62.500000
1405,62.500000
1406,62.500000
1407,62.500000
1408,62.500000
1409,62.500000
1410,62.500000
1411,62.500000
1412,62.500000
1413,62.500000
1414,58.593750
1415,58.593750
1416,58.593750
1417,58.593750
1418,58.593750
1419,58.593750
1420,58.593750
1421,58.593750
1422,58.593750
1423,58.593750
1424,58.593750
1425,58.593750
1426,54.687500
1427,54.687500
1428,54.687500
1429,54.687500
1430,54.687500
1431,54.687500
1432,54.687500
1433,54.687500
1434,54.687500
1435,54.687500
1436,54.687500
1437,54.687500
1438,50.781250
1439,50.781250
1440,50.781250
1441,50.781250
1442,50.781250
1443,50.781250
1444,50.781250
1445,50.781250
1446,50.781250
1447,50.781250
1448,46.875000
1449,46.875000
1450,46.875000
1451,46.875000
1452,46.875000
1453,46.875000
1454,46.875000
1455,46.875000
1456,46.875000
1457,42.968750
1458,42.968750
1459,42.968750
1460,42.968750
1461,42.968750
1462,42.968750
1463,42.968750
1464,42.968750
1465,39.062500
1466,42.968750
1467,39.062500
1468,39.062500
1469,39.062500
1470,39.062500
1471,39.062500
1472,39.062500
1473,39.062500
1474,39.062500
1475,35.156250
1476,35.156250
1477,35.156250
1478,35.156250
1479,35.156250
1480,35.156250
1481,35.156250
1482,35.156250
1483,31.250000
1484,31.250000
1485,31.250000
1486,31.250000
1487,31.250000
1488,31.250000
1489,31.250000
1490,31.250000
1491,31.250000
1492,27.343750
1493,27.343750
1494,27.343750
1495,27.343750
1496,27.343750
1497,27.343750
1498,27.343750
1499,23.437500
1500,23.437500
1501,23.437500
1502,23.437500
1503,23.437500
1504,23.437500
1505,23.437500
1506,23.437500
1507,19.531250
1508,19.531250
1509,19.531250
1510,19.531250
1511,19.531250
1512,19.531250
1513,19.531250
1514,15.625000
1515,15.625000
1516,15.625000
1517,15.625000
1518,15.625000
1519,15.625000
1520,15.625000
1521,15.625000
1522,11.718750
1523,11.718750
1524,11.718750
1525,11.718750
1526,11.718750
1527,11.718750
1528,7.812500
1529,7.812500
1530,7.812500
1531,7.812500
1532,7.812500
1533,7.812500
1534,7.812500
1535,7.812500
1536,7.812500
1537,3.906250
1538,3.906250
1539,3.906250
1540,3.906250
1541,3.906250
1542,3.906250
1543,0.000000
1544,0.000000
1545,0.000000
1546,0.000000
1547,0.000000
1548,0.000000
1549,-3.906250
1550,-3.906250
1551,-3.906250
1552,-3.906250
1553,-3.906250
1554,-3.906250
1555,-3.906250
1556,-7.812500
1557,-7.812500
1558,-7.812500
1559,-7.812500
1560,-7.812500
1561,-7.812500
1562,-7.812500
1563,-7.812500
1564,-11.718750
1565,-11.718750
1566,-11.718750
1567,-11.718750
1568,-11.718750
1569,-15.625000
1570,-15.625000
1571,-15.625000
1572,-15.625000
1573,-15.625000
1574,-15.625000
1575,-15.625000
1576,-15.625000
1577,-15.625000
1578,-19.531250
1579,-19.531250
1580,-19.531250
1581,-19.531250
1582,-19.531250
1583,-23.437500
1584,-23.437500
1585,-23.437500
1586,-23.437500
1587,-23.437500
1588,-23.437500
1589,-23.437500
1590,-27.343750
1591,-27.343750
1592,-27.343750
1593,-27.343750
1594,-27.343750
1595,-27.343750
1596,-31.250000
1597,-31.250000
1598,-31.250000
1599,-31.250000
1600,-31.250000
1601,-31.250000
1602,-31.250000
1603,-31.250000
1604,-35.156250
1605,-35.156250
1606,-35.156250
1607,-35.156250
1608,-35.156250
1609,-35.156250
1610,-35.156250
1611,-39.062500
1612,-39.062500
1613,-39.062500
1614,-39.062500
1615,-39.062500
1616,-39.062500
1617,-39.062500
1618,-42.968750
1619,-42.968750
1620,-42.968750
1621,-42.968750
1622,-42.968750
1623,-42.968750
1624,-46.875000
1625,-42.968750
1626,-46.875000
1627,-46.875000
1628,-46.875000
1629,-46.875000
1630,-46.875000
1631,-50.781250
1632,-50.781250
1633,-50.781250
1634,-50.781250
1635,-50.781250
1636,-50.781250
1637,-50.781250
1638,-50.781250
1639,-54.687500
1640,-54.687500
1641,-54.687500
1642,-54.687500
1643,-54.687500
1644,-54.687500
1645,-54.687500
1646,-58.593750
1647,-58.593750
1648,-58.593750
1649,-58.593750
1650,-58.593750
1651,-58.593750
1652,-58.593750
1653,-58.593750
1654,-62.500000
1655,-62.500000
1656,-62.500000
1657,-62.500000
1658,-62.500000
1659,-62.500000
1660,-62.500000
1661,-66.406250
1662,-66.406250
1663,-66.406250
1664,-66.406250
1665,-66.406250
1666,-66.406250
1667,-66.406250
1668,-66.406250
1669,-66.406250
1670,-70.312500
1671,-70.312500
1672,-70.312500
1673,-70.312500
1674,-70.312500
1675,-70.312500
1676,-70.312500
1677,-74.218750
1678,-74.218750
1679,-74.218750
1680,-74.218750
1681,-74.218750
1682,-74.218750
1683,-74.218750
1684,-74.218750
1685,-74.218750
1686,-78.125000
1687,-78.125000
1688,-78.125000
1689,-78.125000
1690,-78.125000
1691,-78.125000
1692,-78.125000
1693,-82.031250
1694,-78.125000
1695,-82.031250
1696,-82.031250
1697,-82.031250
1698,-82.031250
1699,-82.031250
1700,-82.031250
1701,-82.031250
1702,-82.031250
1703,-82.031250
1704,-82.031250
1705,-82.031250
1706,-85.937500
1707,-85.937500
1708,-85.937500
1709,-85.937500
1710,-85.937500
1711,-85.937500
1712,-85.937500
1713,-85.937500
1714,-85.937500
1715,-85.937500
1716,-89.843750
1717,-89.843750
1718,-89.843750
1719,-89.843750
1720,-89.843750
1721,-89.843750
1722,-89.843750
1723,-89.843750
1724,-89.843750
1725,-89.843750
1726,-93.750000
1727,-89.843750
1728,-93.750000
1729,-93.750000
1730,-93.750000
1731,-93.750000
1732,-93.750000
1733,-93.750000
1734,-93.750000
1735,-93.750000
1736,-93.750000
1737,-93.750000
1738,-93.750000
1739,-93.750000
1740,-93.750000
1741,-97.656250
1742,-97.656250
1743,-97.656250
1744,-97.656250
1745,-97.656250
1746,-97.656250
1747,-97.656250
1748,-97.656250
1749,-97.656250
1750,-97.656250
1751,-97.656250
1752,-97.656250
1753,-97.656250
1754,-97.656250
1755,-97.656250
1756,-97.656250
1757,-97.656250
1758,-97.656250
1759,-101.562500
1760,-97.656250
1761,-101.562500
1762,-101.562500
1763,-101.562500
1764,-101.562500
1765,-101.562500
1766,-101.562500
1767,-101.562500
1768,-101.562500
1769,-101.562500
1770,-101.562500
1771,-101.562500
1772,-101.562500
1773,-101.562500
1774,-101.562500
1775,-101.562500
1776,-101.562500
1777,-101.562500
1778,-101.562500
1779,-101.562500
1780,-101.562500
1781,-101.562500
1782,-101.562500
1783,-101.562500
1784,-101.562500
1785,-101.562500
1786,-105.468750
1787,-101.562500
1788,-101.562500
1789,-105.468750
1790,-105.468750
1791,-105.468750
1792,-105.468750
1793,-105.468750
1794,-105.468750
1795,-105.468750
1796,-105.468750
1797,-105.468750
1798,-105.468750
1799,-105.468750
1800,-105.468750
1801,-105.468750
1802,-105.468750
1803,-101.562500
1804,-105.468750
1805,-105.468750
1806,-105.468750
1807,-105.468750
1808,-105.468750
1809,-105.468750
1810,-105.468750
1811,-105.468750
1812,-105.468750
1813,-105.468750
1814,-105.468750
1815,-105.468750
1816,-105.468750
1817,-105.468750
1818,-105.468750
1819,-105.468750
1820,-105.468750
1821,-105.468750
1822,-101.562500
1823,-105.468750
1824,-105.468750
1825,-105.468750
1826,-105.468750
1827,-105.468750
1828,-101.562500
1829,-105.468750
1830,-105.468750
1831,-101.562500
1832,-101.562500
1833,-101.562500
1834,-101.562500
1835,-105.468750
1836,-101.562500
1837,-101.562500
1838,-101.562500
1839,-101.562500
1840,-101.562500
1841,-101.562500
1842,-101.562500
1843,-101.562500
1844,-101.562500
1845,-101.562500
1846,-101.562500
1847,-101.562500
1848,-101.562500
1849,-101.562500
1850,-101.562500
1851,-101.562500
1852,-101.562500
1853,-97.656250
1854,-101.562500
1855,-97.656250
1856,-97.656250
1857,-97.656250
1858,-101.562500
1859,-101.562500
1860,-97.656250
1861,-97.656250
1862,-97.656250
1863,-97.656250
1864,-97.656250
1865,-97.656250
1866,-97.656250
1867,-97.656250
1868,-97.656250
1869,-97.656250
1870,-97.656250
1871,-97.656250
1872,-97.656250
1873,-97.656250
1874,-97.656250
1875,-93.750000
1876,-93.750000
1877,-93.750000
1878,-93.750000
1879,-93.750000
1880,-93.750000
1881,-93.750000
1882,-93.750000
1883,-93.750000
1884,-93.750000
1885,-93.750000
1886,-93.750000
1887,-89.843750
1888,-89.843750
1889,-89.843750
1890,-89.843750
1891,-89.843750
1892,-89.843750
1893,-89.843750
1894,-89.843750
1895,-89.843750
1896,-89.843750
1897,-89.843750
1898,-89.843750
1899,-89.843750
1900,-89.843750
1901,-85.937500
1902,-85.937500
1903,-85.937500
1904,-85.937500
1905,-85.937500
1906,-85.937500
1907,-85.937500
1908,-85.937500
1909,-85.937500
1910,-82.031250
1911,-82.031250
1912,-82.031250
1913,-82.031250
1914,-82.031250
1915,-82.031250
1916,-82.031250
1917,-82.031250
1918,-82.031250
1919,-82.031250
1920,-78.125000
1921,-78.125000
1922,-78.125000
1923,-78.125000
1924,-78.125000
1925,-78.125000
1926,-78.125000
1927,-74.218750
1928,-74.218750
1929,-74.218750
1930,-74.218750
1931,-74.218750
1932,-74.218750
1933,-74.218750
1934,-74.218750
1935,-74.218750
1936,-74.218750
1937,-70.312500
1938,-70.312500
1939,-70.312500
1940,-70.312500
1941,-70.312500
1942,-70.312500
1943,-70.312500
1944,-70.312500
1945,-70.312500
1946,-70.312500
1947,-66.406250
1948,-66.406250
1949,-66.406250
1950,-66.406250
1951,-66.406250
1952,-66.406250
1953,-66.406250
1954,-66.406250
1955,-62.500000
1956,-62.500000
1957,-62.500000
1958,-62.500000
1959,-62.500000
1960,-62.500000
1961,-58.593750
1962,-58.593750
1963,-58.593750
1964,-58.593750
1965,-58.593750
1966,-58.593750
1967,-58.593750
1968,-58.593750
1969,-54.687500
1970,-54.687500
1971,-54.687500
1972,-54.687500
1973,-54.687500
1974,-54.687500
1975,-54.687500
1976,-54.687500
1977,-50.781250
1978,-50.781250
1979,-50.781250
1980,-50.781250
1981,-50.781250
1982,-50.781250
1983,-50.781250
1984,-46.875000
1985,-46.875000
1986,-46.875000
1987,-46.875000
1988,-46.875000
1989,-46.875000
1990,-42.968750
1991,-42.968750
1992,-42.968750
1993,-42.968750
1994,-42.968750
1995,-42.968750
1996,-42.968750
1997,-39.062500
1998,-39.062500
1999,-39.062500
2000,-39.062500
2001,-39.062500
2002,-39.062500
2003,-39.062500
2004,-39.062500
2005,-35.156250
2006,-35.156250
2007,-35.156250
2008,-35.156250
2009,-35.156250
2010,-35.156250
2011,-31.250000
2012,-31.250000
2013,-31.250000
2014,-31.250000
2015,-31.250000
2016,-31.250000
2017,-31.250000
2018,-27.343750
2019,-27.343750
2020,-27.343750
2021,-27.343750
2022,-27.343750
2023,-27.343750
2024,-27.343750
2025,-23.437500
2026,-23.437500
2027,-23.437500
2028,-23.437500
2029,-23.437500
2030,-23.437500
2031,-23.437500
2032,-19.531250
2033,-19.531250
2034,-19.531250
2035,-19.531250
2036,-19.531250
2037,-19.531250
2038,-15.625000
2039,-15.625000
2040,-15.625000
2041,-15.625000
2042,-15.625000
2043,-15.625000
2044,-15.625000
2045,-15.625000
2046,-11.718750
2047,-11.718750
2048,-11.718750
2049,-11.718750
2050,-11.718750
2051,-11.718750
2052,-11.718750
2053,-7.812500
2054,-7.812500
2055,-7.812500
2056,-7.812500
2057,-7.812500
2058,-3.906250
2059,-3.906250
2060,-3.906250
2061,-3.906250
2062,-3.906250
2063,-3.906250
2064,-3.906250
2065,0.000000
2066,0.000000
2067,0.000000
2068,0.000000
2069,0.000000
2070,0.000000
2071,0.000000
2072,0.000000
2073,3.906250
2074,3.906250
2075,3.906250
2076,3.906250
2077,3.906250
2078,3.906250
2079,7.812500
2080,3.906250
2081,7.812500
2082,7.812500
2083,7.812500
2084,7.812500
2085,7.812500
2086,7.812500
2087,11.718750
2088,11.718750
2089,11.718750
2090,11.718750
2091,11.718750
2092,11.718750
2093,11.718750
2094,11.718750
2095,15.625000
2096,15.625000
2097,15.625000
2098,15.625000
2099,15.625000
2100,15.625000
2101,15.625000
2102,19.531250
2103,19.531250
2104,19.531250
2105,19.531250
2106,19.531250
2107,19.531250
2108,19.531250
2109,19.531250
2110,23.437500
2111,23.437500
2112,23.437500
2113,23.437500
2114,23.437500
2115,23.437500
2116,23.437500
2117,27.343750
2118,27.343750
2119,27.343750
2120,27.343750
2121,27.343750
2122,27.343750
2123,27.343750
2124,27.343750
2125,27.343750
2126,31.250000
2127,31.250000
2128,31.250000
2129,31.250000
2130,31.250000
2131,31.250000
2132,31.250000
2133,35.156250
2134,35.156250
2135,35.156250
2136,35.156250
2137,35.156250
2138,35.156250
2139,35.156250
2140,35.156250
2141,35.156250
2142,39.062500
2143,39.062500
2144,39.062500
2145,39.062500
2146,39.062500
2147,39.062500
2148,39.062500
2149,39.062500
2150,39.062500
2151,42.968750
2152,42.968750
2153,42.968750
2154,42.968750
2155,42.968750
2156,42.968750
2157,42.968750
2158,42.968750
2159,42.968750
2160,42.968750
2161,46.875000
2162,46.875000
2163,46.875000
2164,46.875000
2165,46.875000
2166,46.875000
2167,46.875000
2168,46.875000
2169,46.875000
2170,46.875000
2171,46.875000
2172,50.781250
2173,50.781250
2174,50.781250
2175,50.781250
2176,50.781250
2177,50.781250
2178,50.781250
2179,50.781250
2180,50.781250
2181,50.781250
2182,54.687500
2183,54.687500
2184,54.687500
2185,54.687500
2186,54.687500
2187,54.687500
2188,54.687500
2189,54.687500
2190,54.687500
2191,54.687500
2192,58.593750
2193,58.593750
2194,58.593750
2195,58.593750
2196,58.593750
2197,58.593750
2198,58.593750
2199,58.593750
2200,58.593750
2201,58.593750
2202,58.593750
2203,58.593750
2204,58.593750
2205,58.593750
2206,58.593750
2207,62.500000
2208,62.500000
2209,62.500000
2210,62.500000
2211,62.500000
2212,62.500000
2213,62.500000
2214,62.500000
2215,62.500000
2216,62.500000
2217,62.500000
2218,62.500000
2219,62.500000
2220,62.500000
2221,66.406250
2222,66.406250
2223,66.406250
2224,66.406250
2225,66.406250
2226,66.406250
2227,66.406250
2228,66.406250
2229,66.406250
2230,66.406250
2231,66.406250
2232,66.406250
2233,66.406250
2234,66.406250
2235,66.406250
2236,70.312500
2237,70.312500
2238,70.312500
2239,70.312500
2240,70.312500
2241,70.312500
2242,70.312500
2243,70.312500
2244,70.312500
2245,70.312500
2246,70.312500
2247,70.312500
2248,70.312500
2249,70.312500
2250,70.312500
2251,70.312500
2252,70.312500
2253,70.312500
2254,70.312500
2255,70.312500
2256,70.312500
2257,70.312500
2258,70.312500
2259,70.312500
2260,70.312500
2261,70.312500
2262,74.218750
2263,74.218750
2264,74.218750
2265,74.218750
2266,74.218750
2267,74.218750
2268,74.218750
2269,74.218750
2270,74.218750
2271,74.218750
2272,74.218750
2273,74.218750
2274,74.218750
2275,74.218750
2276,74.218750
2277,74.218750
2278,74.218750
2279,74.218750
2280,74.218750
2281,74.218750
2282,74.218750
2283,74.218750
2284,74.218750
2285,74.218750
2286,74.218750
2287,74.218750
2288,74.218750
2289,74.218750
2290,74.218750
2291,74.218750
2292,74.218750
2293,74.218750
2294,74.218750
2295,74.218750
2296,74.218750
2297,74.218750
2298,74.218750
2299,74.218750
2300,74.218750
2301,74.218750
2302,74.218750
2303,74.218750
2304,74.218750
2305,74.218750
2306,74.218750
2307,74.218750
2308,74.218750
2309,74.218750
2310,74.218750
2311,74.218750
2312,74.218750
2313,74.218750
2314,74.218750
2315,74.218750
2316,74.218750
2317,74.218750
2318,74.218750
2319,74.218750
2320,74.218750
2321,74.218750
2322,74.218750
2323,74.218750
2324,74.218750
2325,74.218750
2326,74.218750
2327,74.218750
2328,74.218750
2329,74.218750
2330,74.218750
2331,74.218750
2332,74.218750
2333,74.218750
2334,74.218750
2335,74.218750
2336,74.218750
2337,74.218750
2338,70.312500
2339,74.218750
2340,74.218750
2341,74.218750
2342,70.312500
2343,70.312500
2344,70.312500
2345,70.312500
2346,70.312500
2347,70.312500
2348,70.312500
2349,70.312500
2350,70.312500
2351,70.312500
2352,70.312500
2353,70.312500
2354,70.312500
2355,70.312500
2356,70.312500
2357,70.312500
2358,70.312500
2359,70.312500
2360,70.312500
2361,70.312500
2362,70.312500
2363,70.312500
2364,70.312500
2365,70.312500
2366,70.312500
2367,66.406250
2368,66.406250
2369,66.406250
2370,66.406250
2371,66.406250
2372,66.406250
2373,66.406250
2374,66.406250
2375,66.406250
2376,66.406250
2377,66.406250
2378,66.406250
2379,66.406250
2380,66.406250
2381,66.406250
2382,66.406250
2383,62.500000
2384,62.500000
2385,66.406250
2386,62.500000
2387,62.500000
2388,62.500000
2389,62.500000
2390,62.500000
2391,62.500000
2392,62.500000
2393,62.500000
2394,62.500000
2395,62.500000
2396,58.593750
2397,62.500000
2398,58.593750
2399,62.500000
2400,58.593750
2401,58.593750
2402,58.593750
2403,58.593750
2404,58.593750
2405,58.593750
2406,58.593750
2407,58.593750
2408,58.593750
2409,58.593750
2410,58.593750
2411,58.593750
2412,54.687500
2413,54.687500
2414,54.687500
2415,54.687500
2416,54.687500
2417,54.687500
2418,54.687500
2419,54.687500
2420,54.687500
2421,54.687500
2422,50.781250
2423,50.781250
2424,50.781250
2425,50.781250
2426,50.781250
2427,50.781250
2428,50.781250
2429,50.781250
2430,50.781250
2431,50.781250
2432,50.781250
2433,46.875000
2434,46.875000
2435,46.875000
2436,46.875000
2437,46.875000
2438,46.875000
2439,46.875000
2440,46.875000
2441,46.875000
2442,46.875000
2443,42.968750
2444,42.968750
2445,42.968750
2446,42.968750
2447,42.968750
2448,42.968750
2449,42.968750
2450,42.968750
2451,42.968750
2452,39.062500
2453,39.062500
2454,39.062500
2455,39.062500
2456,39.062500
2457,39.062500
2458,39.062500
2459,39.062500
2460,39.062500
2461,35.156250
2462,35.156250
2463,35.156250
2464,35.156250
2465,35.156250
2466,35.156250
2467,35.156250
2468,35.156250
2469,35.156250
2470,31.250000
2471,31.250000
2472,31.250000
2473,31.250000
2474,31.250000
2475,31.250000
2476,31.250000
2477,31.250000
2478,27.343750
2479,27.343750
2480,27.343750
2481,27.343750
2482,27.343750
2483,27.343750
2484,27.343750
2485,27.343750
2486,23.437500
2487,23.437500
2488,23.437500
2489,23.437500
2490,23.437500
2491,23.437500
2492,19.531250
2493,23.437500
2494,19.531250
2495,19.531250
2496,19.531250
2497,19.531250
2498,19.531250
2499,19.531250
2500,19.531250
2501,15.625000
2502,15.625000
2503,15.625000
2504,15.625000
2505,15.625000
2506,15.625000
2507,15.625000
2508,15.625000
2509,11.718750
2510,11.718750
2511,11.718750
2512,11.718750
2513,11.718750
2514,11.718750
2515,11.718750
2516,7.812500
2517,7.812500
2518,7.812500
2519,7.812500
2520,7.812500
2521,3.906250
2522,3.906250
2523,3.906250
2524,3.906250
2525,3.906250
2526,3.906250
2527,3.906250
2528,3.906250
2529,3.906250
2530,0.000000
2531,0.000000
2532,0.000000
2533,0.000000
2534,0.000000
2535,0.000000
2536,0.000000
2537,0.000000
2538,-3.906250
2539,-3.906250
2540,-3.906250
2541,-3.906250
2542,-7.812500
2543,-3.906250
2544,-7.812500
2545,-7.812500
2546,-7.812500
2547,-7.812500
2548,-7.812500
2549,-7.812500
2550,-11.718750
2551,-11.718750
2552,-11.718750
2553,-11.718750
2554,-11.718750
2555,-11.718750
2556,-11.718750
2557,-11.718750
2558,-15.625000
2559,-15.625000
2560,-15.625000
2561,-15.625000
2562,-15.625000
2563,-15.625000
2564,-19.531250
2565,-19.531250
2566,-19.531250
2567,-19.531250
2568,-19.531250
2569,-19.531250
2570,-23.437500
2571,-23.437500
2572,-23.437500
2573,-23.437500
2574,-23.437500
2575,-27.343750
2576,-23.437500
2577,-27.343750
2578,-27.343750
2579,-27.343750
2580,-27.343750
2581,-27.343750
2582,-27.343750
2583,-27.343750
2584,-31.250000
2585,-31.250000
2586,-31.250000
2587,-31.250000
2588,-31.250000
2589,-31.250000
2590,-31.250000
2591,-31.250000
2592,-35.156250
2593,-35.156250
2594,-35.156250
2595,-35.156250
2596,-35.156250
2597,-39.062500
2598,-39.062500
2599,-39.062500
2600,-39.062500
2601,-39.062500
2602,-39.062500
2603,-39.062500
2604,-39.062500
2605,-42.968750
2606,-42.968750
2607,-42.968750
2608,-42.968750
2609,-42.968750
2610,-46.875000
2611,-42.968750
2612,-46.875000
2613,-46.875000
2614,-46.875000
2615,-46.875000
2616,-46.875000
2617,-50.781250
2618,-46.875000
2619,-50.781250
2620,-50.781250
2621,-50.781250
2622,-50.781250
2623,-50.781250
2624,-50.781250
2625,-50.781250
2626,-54.687500
2627,-54.687500
2628,-54.687500
2629,-54.687500
2630,-54.687500
2631,-54.687500
2632,-58.593750
2633,-58.593750
2634,-58.593750
2635,-58.593750
2636,-58.593750
2637,-58.593750
2638,-58.593750
2639,-58.593750
2640,-62.500000
2641,-66.406250
2642,-62.500000
2643,-62.500000
2644,-62.500000
2645,-62.500000
2646,-62.500000
2647,-62.500000
2648,-66.406250
2649,-66.406250
2650,-66.406250
2651,-66.406250
2652,-66.406250
2653,-66.406250
2654,-66.406250
2655,-66.406250
2656,-70.312500
2657,-70.312500
2658,-70.312500
2659,-70.312500
2660,-70.312500
2661,-70.312500
2662,-70.312500
2663,-70.312500
2664,-74.218750
2665,-70.312500
2666,-74.218750
2667,-74.218750
2668,-74.218750
2669,-74.218750
2670,-74.218750
2671,-74.218750
2672,-74.218750
2673,-78.125000
2674,-78.125000
2675,-78.125000
2676,-78.125000
2677,-78.125000
2678,-78.125000
2679,-78.125000
2680,-78.125000
2681,-78.125000
2682,-82.031250
2683,-82.031250
2684,-82.031250
2685,-82.031250
2686,-82.031250
2687,-82.031250
2688,-82.031250
2689,-82.031250
2690,-82.031250
2691,-82.031250
2692,-85.937500
2693,-85.937500
2694,-85.937500
2695,-85.937500
2696,-85.937500
2697,-85.937500
2698,-85.937500
2699,-85.937500
2700,-85.937500
2701,-85.937500
2702,-85.937500
2703,-89.843750
2704,-89.843750
2705,-89.843750
2706,-89.843750
2707,-89.843750
2708,-89.843750
2709,-89.843750
2710,-89.843750
2711,-89.843750
2712,-89.843750
2713,-89.843750
2714,-93.750000
2715,-93.750000
2716,-93.750000
2717,-93.750000
2718,-93.750000
2719,-93.750000
2720,-93.750000
2721,-93.750000
2722,-93.750000
2723,-93.750000
2724,-93.750000
2725,-93.750000
2726,-97.656250
2727,-97.656250
2728,-97.656250
2729,-97.656250
2730,-97.656250
2731,-97.656250
2732,-97.656250
2733,-97.656250
2734,-97.656250
2735,-97.656250
2736,-97.656250
2737,-97.656250
2738,-97.656250
2739,-97.656250
2740,-97.656250
2741,-101.562500
2742,-101.562500
2743,-101.562500
2744,-101.562500
2745,-101.562500
2746,-101.562500
2747,-101.562500
2748,-101.562500
2749,-101.562500
2750,-101.562500
2751,-101.562500
2752,-101.562500
2753,-101.562500
2754,-101.562500
2755,-101.562500
2756,-101.562500
2757,-101.562500
2758,-101.562500
2759,-101.562500
2760,-101.562500
2761,-101.562500
2762,-105.468750
2763,-105.468750
2764,-105.468750
2765,-105.468750
2766,-105.468750
2767,-101.562500
2768,-105.468750
2769,-101.562500
2770,-105.468750
2771,-105.468750
2772,-105.468750
2773,-105.468750
2774,-105.468750
2775,-105.468750
2776,-105.468750
2777,-105.468750
2778,-105.468750
2779,-105.468750
2780,-105.468750
2781,-105.468750
2782,-105.468750
2783,-105.468750
2784,-105.468750
2785,-105.468750
2786,-105.468750
2787,-105.468750
2788,-105.468750
2789,-105.468750
2790,-105.468750
2791,-105.468750
2792,-105.468750
2793,-105.468750
2794,-105.468750
2795,-105.468750
2796,-105.468750
2797,-105.468750
2798,-105.468750
2799,-105.468750
2800,-105.468750
2801,-105.468750
2802,-105.468750
2803,-105.468750
2804,-105.468750
2805,-105.468750
2806,-105.468750
2807,-105.468750
2808,-105.468750
2809,-105.468750
2810,-105.468750
2811,-105.468750
2812,-105.468750
2813,-105.468750
2814,-105.468750
2815,-105.468750
2816,-105.468750
2817,-105.468750
2818,-105.468750
2819,-105.468750
2820,-105.468750
2821,-105.468750
2822,-105.468750
2823,-105.468750
2824,-105.468750
2825,-105.468750
2826,-101.562500
2827,-101.562500
2828,-101.562500
2829,-101.562500
2830,-101.562500
2831,-105.468750
2832,-105.468750
2833,-101.562500
2834,-101.562500
2835,-101.562500
2836,-101.562500
2837,-101.562500
2838,-101.562500
2839,-101.562500
2840,-101.562500
2841,-101.562500
2842,-101.562500
2843,-101.562500
2844,-101.562500
2845,-101.562500
2846,-101.562500
2847,-101.562500
2848,-101.562500
2849,-101.562500
2850,-97.656250
2851,-97.656250
2852,-101.562500
2853,-97.656250
2854,-97.656250
2855,-97.656250
2856,-97.656250
2857,-97.656250
2858,-97.656250
2859,-97.656250
2860,-97.656250
2861,-97.656250
2862,-97.656250
2863,-97.656250
2864,-97.656250
2865,-97.656250
2866,-97.656250
2867,-93.750000
2868,-93.750000
2869,-93.750000
2870,-93.750000
2871,-93.750000
2872,-93.750000
2873,-93.750000
2874,-93.750000
2875,-93.750000
2876,-93.750000
2877,-93.750000
2878,-93.750000
2879,-89.843750
2880,-89.843750
2881,-89.843750
2882,-89.843750
2883,-89.843750
2884,-89.843750
2885,-89.843750
2886,-89.843750
2887,-89.843750
2888,-89.843750
2889,-89.843750
2890,-89.843750
2891,-89.843750
2892,-85.937500
2893,-85.937500
2894,-85.937500
2895,-85.937500
2896,-85.937500
2897,-85.937500
2898,-85.937500
2899,-85.937500
2900,-82.031250
2901,-82.031250
2902,-85.937500
2903,-82.031250
2904,-82.031250
2905,-82.031250
2906,-82.031250
2907,-82.031250
2908,-82.031250
2909,-82.031250
2910,-82.031250
2911,-78.125000
2912,-78.125000
2913,-78.125000
2914,-78.125000
2915,-78.125000
2916,-78.125000
2917,-78.125000
2918,-78.125000
2919,-74.218750
2920,-74.218750
2921,-74.218750
2922,-74.218750
2923,-74.218750
2924,-74.218750
2925,-74.218750
2926,-74.218750
2927,-74.218750
2928,-74.218750
2929,-70.312500
2930,-70.312500
2931,-70.312500
2932,-70.312500
2933,-70.312500
2934,-70.312500
2935,-70.312500
2936,-66.406250
2937,-66.406250
2938,-66.406250
2939,-66.406250
2940,-66.406250
2941,-66.406250
2942,-66.406250
2943,-66.406250
2944,-66.406250
2945,-66.406250
2946,-62.500000
2947,-62.500000
2948,-62.500000
2949,-62.500000
2950,-62.500000
2951,-62.500000
2952,-62.500000
2953,-58.593750
2954,-58.593750
2955,-58.593750
2956,-58.593750
2957,-58.593750
2958,-58.593750
2959,-54.687500
2960,-54.687500
2961,-54.687500
2962,-54.687500
2963,-54.687500
2964,-54.687500
2965,-54.687500
2966,-54.687500
2967,-50.781250
2968,-50.781250
2969,-50.781250
2970,-50.781250
2971,-50.781250
2972,-50.781250
2973,-50.781250
2974,-46.875000
2975,-50.781250
2976,-46.875000
2977,-46.875000
2978,-46.875000
2979,-46.875000
2980,-46.875000
2981,-46.875000
2982,-42.968750
2983,-42.968750
2984,-42.968750
2985,-42.968750
2986,-42.968750
2987,-42.968750
2988,-42.968750
2989,-39.062500
2990,-39.062500
2991,-39.062500
2992,-39.062500
2993,-39.062500
2994,-35.156250
2995,-39.062500
2996,-35.156250
2997,-35.156250
2998,-35.156250
2999,-35.156250
3000,-35.156250
3001,-35.156250
3002,-31.250000
3003,-31.250000
3004,-31.250000
3005,-31.250000
3006,-31.250000
3007,-31.250000
3008,-31.250000
3009,-27.343750
3010,-27.343750
3011,-27.343750
3012,-27.343750
3013,-27.343750
3014,-27.343750
3015,-27.343750
3016,-23.437500
3017,-23.437500
3018,-23.437500
3019,-23.437500
3020,-23.437500
3021,-23.437500
3022,-19.531250
3023,-19.531250
3024,-19.531250
3025,-23.437500
3026,-19.531250
3027,-19.531250
3028,-19.531250
3029,-15.625000
3030,-15.625000
3031,-15.625000
3032,-15.625000
3033,-15.625000
3034,-15.625000
3035,-15.625000
3036,-15.625000
3037,-11.718750
3038,-11.718750
3039,-11.718750
3040,-11.718750
3041,-11.718750
3042,-7.812500
3043,-7.812500
3044,-7.812500
3045,-7.812500
3046,-7.812500
3047,-7.812500
3048,-3.906250
3049,-3.906250
3050,-3.906250
3051,-3.906250
3052,-3.906250
3053,-3.906250
3054,-3.906250
3055,-3.906250
3056,0.000000
3057,0.000000
3058,0.000000
3059,0.000000
3060,0.000000
3061,0.000000
3062,3.906250
3063,3.906250
3064,3.906250
3065,3.906250
3066,3.906250
3067,3.906250
3068,3.906250
3069,3.906250
3070,7.812500
3071,7.812500
3072,7.812500
3073,7.812500
3074,7.812500
3075,7.812500
3076,7.812500
3077,11.718750
3078,11.718750
3079,11.718750
3080,11.718750
3081,11.718750
3082,11.718750
3083,11.718750
3084,15.625000
3085,15.625000
3086,15.625000
3087,15.625000
3088,15.625000
3089,15.625000
3090,15.625000
3091,15.625000
3092,19.531250
3093,19.531250
3094,19.531250
3095,19.531250
3096,19.531250
3097,19.531250
3098,19.531250
3099,19.531250
3100,19.531250
3101,23.437500
3102,23.437500
3103,23.437500
3104,23.437500
3105,23.437500
3106,23.437500
3107,23.437500
3108,27.343750
3109,27.343750
3110,27.343750
3111,27.343750
3112,27.343750
3113,27.343750
3114,31.250000
3115,31.250000
3116,31.250000
3117,31.250000
3118,31.250000
3119,31.250000
3120,31.250000
3121,31.250000
3122,31.250000
3123,31.250000
3124,35.156250
3125,35.156250
3126,35.156250
3127,35.156250
3128,35.156250
3129,35.156250
3130,35.156250
3131,39.062500
3132,39.062500
3133,39.062500
3134,39.062500
3135,39.062500
3136,39.062500
3137,39.062500
3138,39.062500
3139,39.062500
3140,42.968750
3141,42.968750
3142,42.968750
3143,42.968750
3144,42.968750
3145,42.968750
3146,42.968750
3147,42.968750
3148,42.968750
3149,46.875000
3150,46.875000
3151,46.875000
3152,46.875000
3153,46.875000
3154,46.875000
3155,46.875000
3156,46.875000
3157,46.875000
3158,46.875000
3159,46.875000
3160,50.781250
3161,50.781250
3162,50.781250
3163,50.781250
3164,50.781250
3165,50.781250
3166,50.781250
3167,50.781250
3168,50.781250
3169,54.687500
3170,54.687500
3171,54.687500
3172,54.687500
3173,54.687500
3174,54.687500
3175,54.687500
3176,54.687500
3177,54.687500
3178,54.687500
3179,54.687500
3180,54.687500
3181,58.593750
3182,58.593750
3183,58.593750
3184,58.593750
3185,58.593750
3186,58.593750
3187,58.593750
3188,58.593750
3189,58.593750
3190,58.593750
3191,58.593750
3192,58.593750
3193,62.500000
3194,62.500000
3195,62.500000
3196,62.500000
3197,62.500000
3198,62.500000
3199,62.500000
3200,62.500000
3201,62.500000
3202,62.500000
3203,62.500000
3204,62.500000
3205,66.406250
3206,62.500000
3207,62.500000
3208,62.500000
3209,62.500000
3210,66.406250
3211,66.406250
3212,66.406250
3213,66.406250
3214,66.406250
3215,66.406250
3216,66.406250
3217,66.406250
3218,66.406250
3219,66.406250
3220,66.406250
3221,66.406250
3222,66.406250
3223,66.406250
3224,66.406250
3225,66.406250
3226,70.312500
3227,70.312500
3228,70.312500
3229,70.312500
3230,70.312500
3231,70.312500
3232,70.312500
3233,70.312500
3234,70.312500
3235,70.312500
3236,70.312500
3237,70.312500
3238,70.312500
3239,70.312500
3240,70.312500
3241,70.312500
3242,70.312500
3243,70.312500
3244,70.312500
3245,70.312500
3246,70.312500
3247,74.218750
3248,70.312500
3249,70.312500
3250,74.218750
3251,70.312500
3252,74.218750
3253,74.218750
3254,74.218750
3255,74.218750
3256,74.218750
3257,74.218750
3258,74.218750
3259,74.218750
3260,74.218750
3261,74.218750
3262,74.218750
3263,74.218750
3264,74.218750
3265,74.218750
3266,74.218750
3267,74.218750
3268,74.218750
3269,74.218750
3270,74.218750
3271,74.218750
3272,74.218750
3273,74.218750
3274,74.218750
3275,74.218750
3276,74.218750
3277,74.218750
3278,74.218750
3279,74.218750
3280,74.218750
3281,74.218750
3282,74.218750
3283,74.218750
3284,74.218750
3285,74.218750
3286,74.218750
3287,74.218750
3288,74.218750
3289,74.218750
3290,74.218750
3291,74.218750
3292,74.218750
3293,74.218750
3294,74.218750
3295,74.218750
3296,74.218750
3297,74.218750
3298,74.218750
3299,74.218750
3300,74.218750
3301,74.218750
3302,74.218750
3303,74.218750
3304,74.218750
3305,74.218750
3306,74.218750
3307,74.218750
3308,74.218750
3309,74.218750
3310,74.218750
3311,74.218750
3312,74.218750
3313,74.218750
3314,74.218750
3315,74.218750
3316,74.218750
3317,74.218750
3318,74.218750
3319,74.218750
3320,74.218750
3321,74.218750
3322,74.218750
3323,74.218750
3324,74.218750
3325,74.218750
3326,74.218750
3327,74.218750
3328,74.218750
3329,74.218750
3330,74.218750
3331,74.218750
3332,70.312500
3333,74.218750
3334,70.312500
3335,74.218750
3336,70.312500
3337,70.312500
3338,74.218750
3339,74.218750
3340,70.312500
3341,70.312500
3342,70.312500
3343,70.312500
3344,70.312500
3345,70.312500
3346,70.312500
3347,70.312500
3348,70.312500
3349,70.312500
3350,70.312500
3351,70.312500
3352,70.312500
3353,70.312500
3354,70.312500
3355,70.312500
3356,70.312500
3357,70.312500
3358,66.406250
3359,66.406250
3360,66.406250
3361,66.406250
3362,66.406250
3363,66.406250
3364,66.406250
3365,66.406250
3366,66.406250
3367,66.406250
3368,66.406250
3369,66.406250
3370,66.406250
3371,66.406250
3372,66.406250
3373,66.406250
3374,62.500000
3375,66.406250
3376,62.500000
3377,62.500000
3378,62.500000
3379,62.500000
3380,62.500000
3381,62.500000
3382,62.500000
3383,62.500000
3384,62.500000
3385,62.500000
3386,62.500000
3387,62.500000
3388,58.593750
3389,58.593750
3390,58.593750
3391,58.593750
3392,58.593750
3393,58.593750
3394,58.593750
3395,58.593750
3396,58.593750
3397,58.593750
3398,58.593750
3399,54.687500
3400,58.593750
3401,58.593750
3402,54.687500
3403,54.687500
3404,54.687500
3405,54.687500
3406,54.687500
3407,54.687500
3408,54.687500
3409,54.687500
3410,54.687500
3411,54.687500
3412,54.687500
3413,54.687500
3414,50.781250
3415,50.781250
3416,50.781250
3417,50.781250
3418,50.781250
3419,50.781250
3420,50.781250
3421,50.781250
3422,50.781250
3423,50.781250
3424,50.781250
3425,50.781250
3426,46.875000
3427,46.875000
3428,46.875000
3429,46.875000
3430,46.875000
3431,46.875000
3432,46.875000
3433,46.875000
3434,42.968750
3435,42.968750
3436,42.968750
3437,42.968750
3438,42.968750
3439,42.968750
3440,42.968750
3441,42.968750
3442,42.968750
3443,42.968750
3444,39.062500
3445,39.062500
3446,39.062500
3447,39.062500
3448,39.062500
3449,39.062500
3450,39.062500
3451,39.062500
3452,39.062500
3453,35.156250
3454,35.156250
3455,35.156250
3456,35.156250
3457,35.156250
3458,35.156250
3459,35.156250
3460,31.250000
3461,35.156250
3462,31.250000
3463,31.250000
3464,31.250000
3465,31.250000
3466,31.250000
3467,31.250000
3468,31.250000
3469,31.250000
3470,27.343750
3471,27.343750
3472,27.343750
3473,27.343750
3474,27.343750
3475,27.343750
3476,27.343750
3477,27.343750
3478,27.343750
3479,23.437500
3480,23.437500
3481,23.437500
3482,23.437500
3483,23.437500
3484,23.437500
3485,19.531250
3486,19.531250
3487,19.531250
3488,19.531250
3489,19.531250
3490,19.531250
3491,19.531250
3492,15.625000
3493,15.625000
3494,15.625000
3495,15.625000
3496,15.625000
3497,15.625000
3498,15.625000
3499,15.625000
3500,11.718750
3501,11.718750
3502,11.718750
3503,11.718750
3504,11.718750
3505,11.718750
3506,7.812500
3507,7.812500
3508,7.812500
3509,7.812500
3510,7.812500
3511,7.812500
3512,7.812500
3513,7.812500
3514,3.906250
3515,3.906250
3516,3.906250
3517,3.906250
3518,3.906250
3519,3.906250
3520,3.906250
3521,0.000000
3522,0.000000
3523,0.000000
3524,0.000000
3525,0.000000
3526,0.000000
3527,-3.906250
3528,-3.906250
3529,-3.906250
3530,-3.906250
3531,-3.906250
3532,-3.906250
3533,-3.906250
3534,-3.906250
3535,-3.906250
3536,-7.812500
3537,-7.812500
3538,-7.812500
3539,-7.812500
3540,-11.718750
3541,-7.812500
3542,-7.812500
3543,-11.718750
3544,-11.718750
3545,-11.718750
3546,-11.718750
3547,-15.625000
3548,-15.625000
3549,-15.625000
3550,-15.625000
3551,-15.625000
3552,-15.625000
3553,-15.625000
3554,-15.625000
3555,-19.531250
3556,-19.531250
3557,-19.531250
3558,-19.531250
3559,-19.531250
3560,-19.531250
3561,-23.437500
3562,-19.531250
3563,-23.437500
3564,-23.437500
3565,-23.437500
3566,-23.437500
3567,-23.437500
3568,-23.437500
3569,-27.343750
3570,-27.343750
3571,-27.343750
3572,-27.343750
3573,-27.343750
3574,-27.343750
3575,-31.250000
3576,-31.250000
3577,-31.250000
3578,-31.250000
3579,-31.250000
3580,-31.250000
3581,-31.250000
3582,-35.156250
3583,-35.156250
3584,-35.156250
3585,-35.156250
3586,-35.156250
3587,-35.156250
3588,-35.156250
3589,-35.156250
3590,-39.062500
3591,-39.062500
3592,-39.062500
3593,-39.062500
3594,-39.062500
3595,-39.062500
3596,-39.062500
3597,-42.968750
3598,-42.968750
3599,-42.968750
3600,-42.968750
3601,-42.968750
3602,-42.968750
3603,-42.968750
3604,-46.875000
3605,-46.875000
3606,-46.875000
3607,-46.875000
3608,-46.875000
3609,-46.875000
3610,-50.781250
3611,-50.781250
3612,-50.781250
3613,-50.781250
3614,-50.781250
3615,-50.781250
3616,-50.781250
3617,-50.781250
3618,-54.687500
3619,-54.687500
3620,-54.687500
3621,-54.687500
3622,-54.687500
3623,-54.687500
3624,-54.687500
3625,-58.593750
3626,-58.593750
3627,-58.593750
3628,-58.593750
3629,-58.593750
3630,-58.593750
3631,-58.593750
3632,-62.500000
3633,-62.500000
3634,-62.500000
3635,-62.500000
3636,-62.500000
3637,-62.500000
3638,-62.500000
3639,-66.406250
3640,-66.406250
3641,-66.406250
3642,-66.406250
3643,-66.406250
3644,-66.406250
3645,-66.406250
3646,-66.406250
3647,-66.406250
3648,-66.406250
3649,-70.312500
3650,-70.312500
3651,-70.312500
3652,-70.312500
3653,-70.312500
3654,-70.312500
3655,-70.312500
3656,-70.312500
3657,-74.218750
3658,-74.218750
3659,-74.218750
3660,-74.218750
3661,-74.218750
3662,-74.218750
3663,-74.218750
3664,-78.125000
3665,-74.218750
3666,-78.125000
3667,-78.125000
3668,-78.125000
3669,-78.125000
3670,-78.125000
3671,-78.125000
3672,-78.125000
3673,-78.125000
3674,-78.125000
3675,-82.031250
3676,-82.031250
3677,-82.031250
3678,-82.031250
3679,-82.031250
3680,-82.031250
3681,-82.031250
3682,-82.031250
3683,-85.937500
3684,-82.031250
3685,-85.937500
3686,-85.937500
3687,-85.937500
3688,-85.937500
3689,-85.937500
3690,-85.937500
3691,-85.937500
3692,-85.937500
3693,-85.937500
3694,-85.937500
3695,-89.843750
3696,-89.843750
3697,-89.843750
3698,-89.843750
3699,-89.843750
3700,-89.843750
3701,-89.843750
3702,-89.843750
3703,-89.843750
3704,-89.843750
3705,-89.843750
3706,-89.843750
3707,-89.843750
3708,-93.750000
3709,-93.750000
3710,-93.750000
3711,-93.750000
3712,-93.750000
3713,-93.750000
3714,-93.750000
3715,-93.750000
3716,-93.750000
3717,-93.750000
3718,-93.750000
3719,-93.750000
3720,-97.656250
3721,-93.750000
3722,-93.750000
3723,-97.656250
3724,-97.656250
3725,-97.656250
3726,-97.656250
3727,-97.656250
3728,-97.656250
3729,-97.656250
3730,-97.656250
3731,-97.656250
3732,-97.656250
3733,-97.656250
3734,-97.656250
3735,-97.656250
3736,-97.656250
3737,-97.656250
3738,-97.656250
3739,-97.656250
3740,-101.562500
3741,-101.562500
3742,-101.562500
3743,-101.562500
3744,-101.562500
3745,-101.562500
3746,-101.562500
3747,-101.562500
3748,-101.562500
3749,-101.562500
3750,-101.562500
3751,-101.562500
3752,-101.562500
3753,-101.562500
3754,-101.562500
3755,-101.562500
3756,-101.562500
3757,-101.562500
3758,-101.562500
3759,-101.562500
3760,-101.562500
3761,-101.562500
3762,-101.562500
3763,-105.468750
3764,-105.468750
3765,-101.562500
3766,-101.562500
3767,-101.562500
3768,-105.468750
3769,-105.468750
3770,-105.468750
3771,-105.468750
3772,-105.468750
3773,-105.468750
3774,-105.468750
3775,-105.468750
3776,-105.468750
3777,-105.468750
3778,-105.468750
3779,-105.468750
3780,-105.468750
3781,-105.468750
3782,-105.468750
3783,-105.468750
3784,-105.468750
3785,-105.468750
3786,-105.468750
3787,-105.468750
3788,-105.468750
3789,-105.468750
3790,-105.468750
3791,-105.468750
3792,-105.468750
3793,-105.468750
3794,-105.468750
3795,-105.468750
3796,-105.468750
3797,-105.468750
3798,-105.468750
3799,-101.562500
3800,-105.468750
3801,-105.468750
3802,-105.468750
3803,-105.468750
3804,-105.468750
3805,-105.468750
3806,-105.468750
3807,-101.562500
3808,-105.468750
3809,-101.562500
3810,-101.562500
3811,-101.562500
3812,-101.562500
3813,-101.562500
3814,-101.562500
3815,-101.562500
3816,-101.562500
3817,-101.562500
3818,-101.562500
3819,-101.562500
3820,-101.562500
3821,-101.562500
3822,-101.562500
3823,-101.562500
3824,-101.562500
3825,-101.562500
3826,-101.562500
3827,-101.562500
3828,-101.562500
3829,-101.562500
3830,-101.562500
3831,-101.562500
3832,-101.562500
3833,-101.562500
3834,-97.656250
3835,-101.562500
3836,-101.562500
3837,-97.656250
3838,-97.656250
3839,-97.656250
3840,-97.656250
3841,-97.656250
3842,-97.656250
3843,-97.656250
3844,-97.656250
3845,-97.656250
3846,-97.656250
3847,-97.656250
3848,-97.656250
3849,-97.656250
3850,-97.656250
3851,-97.656250
3852,-97.656250
3853,-97.656250
3854,-93.750000
3855,-93.750000
3856,-93.750000
3857,-93.750000
3858,-93.750000
3859,-93.750000
3860,-93.750000
3861,-93.750000
3862,-93.750000
3863,-93.750000
3864,-93.750000
3865,-93.750000
3866,-89.843750
3867,-89.843750
3868,-89.843750
3869,-89.843750
3870,-89.843750
3871,-89.843750
3872,-89.843750
3873,-89.843750
3874,-89.843750
3875,-89.843750
3876,-89.843750
3877,-89.843750
3878,-85.937500
3879,-85.937500
3880,-85.937500
3881,-85.937500
3882,-85.937500
3883,-85.937500
3884,-85.937500
3885,-85.937500
3886,-85.937500
3887,-82.031250
3888,-85.937500
3889,-82.031250
3890,-82.031250
3891,-82.031250
3892,-82.031250
3893,-82.031250
3894,-82.031250
3895,-82.031250
3896,-82.031250
3897,-82.031250
3898,-78.125000
3899,-78.125000
3900,-78.125000
3901,-78.125000
3902,-82.031250
3903,-82.031250
3904,-78.125000
3905,-78.125000
3906,-78.125000
3907,-74.218750
3908,-74.218750
3909,-74.218750
3910,-74.218750
3911,-74.218750
3912,-74.218750
3913,-74.218750
3914,-74.218750
3915,-74.218750
3916,-74.218750
3917,-70.312500
3918,-70.312500
3919,-70.312500
3920,-70.312500
3921,-70.312500
3922,-70.312500
3923,-70.312500
3924,-70.312500
3925,-66.406250
3926,-66.406250
3927,-66.406250
3928,-66.406250
3929,-66.406250
3930,-66.406250
3931,-66.406250
3932,-66.406250
3933,-66.406250
3934,-66.406250
3935,-62.500000
3936,-62.500000
3937,-62.500000
3938,-62.500000
3939,-62.500000
3940,-62.500000
3941,-58.593750
3942,-58.593750
3943,-58.593750
3944,-58.593750
3945,-58.593750
3946,-58.593750
3947,-58.593750
3948,-54.687500
3949,-54.687500
3950,-54.687500
3951,-54.687500
3952,-54.687500
3953,-54.687500
3954,-54.687500
3955,-50.781250
3956,-50.781250
3957,-50.781250
3958,-50.781250
3959,-50.781250
3960,-50.781250
3961,-50.781250
3962,-50.781250
3963,-46.875000
3964,-46.875000
3965,-46.875000
3966,-46.875000
3967,-46.875000
3968,-46.875000
3969,-46.875000
3970,-42.968750
3971,-42.968750
3972,-42.968750
3973,-42.968750
3974,-42.968750
3975,-42.968750
3976,-42.968750
3977,-42.968750
3978,-39.062500
3979,-39.062500
3980,-39.062500
3981,-39.062500
3982,-39.062500
3983,-39.062500
3984,-35.156250
3985,-35.156250
3986,-35.156250
3987,-35.156250
3988,-35.156250
3989,-35.156250
3990,-31.250000
3991,-31.250000
3992,-31.250000
3993,-31.250000
3994,-31.250000
3995,-31.250000
3996,-31.250000
3997,-27.343750
3998,-27.343750
3999,-27.343750
4000,-27.343750
4001,-27.343750
4002,-27.343750
4003,-27.343750
4004,-23.437500
4005,-27.343750
4006,-23.437500
4007,-23.437500
4008,-23.437500
4009,-23.437500
4010,-19.531250
4011,-19.531250
4012,-19.531250
4013,-19.531250
4014,-19.531250
4015,-19.531250
4016,-19.531250
4017,-19.531250
4018,-15.625000
4019,-15.625000
4020,-15.625000
4021,-15.625000
4022,-15.625000
4023,-15.625000
4024,-11.718750
4025,-11.718750
4026,-11.718750
4027,-11.718750
4028,-11.718750
4029,-11.718750
4030,-11.718750
4031,-11.718750
4032,-7.812500
4033,-7.812500
4034,-7.812500
4035,-7.812500
4036,-7.812500
4037,-7.812500
4038,-3.906250
4039,-3.906250
4040,-3.906250
4041,-3.906250
4042,-3.906250
4043,-3.906250
4044,-3.906250
4045,-3.906250
4046,0.000000
4047,0.000000
4048,0.000000
4049,0.000000
4050,0.000000
4051,3.906250
4052,0.000000
4053,3.906250
4054,3.906250
4055,3.906250
4056,3.906250
4057,3.906250
4058,3.906250
4059,7.812500
4060,7.812500
4061,7.812500
4062,7.812500
4063,7.812500
4064,7.812500
4065,7.812500
4066,11.718750
4067,11.718750
4068,11.718750
4069,11.718750
4070,11.718750
4071,11.718750
4072,11.718750
4073,15.625000
4074,15.625000
4075,15.625000
4076,15.625000
4077,15.625000
4078,15.625000
4079,15.625000
4080,15.625000
4081,19.531250
4082,19.531250
4083,19.531250
4084,19.531250
4085,19.531250
4086,19.531250
4087,23.437500
4088,19.531250
4089,23.437500
4090,23.437500
4091,23.437500
4092,23.437500
4093,23.437500
4094,23.437500
4095,27.343750
4096,27.343750
4097,27.343750
4098,27.343750
4099,27.343750
4100,27.343750
4101,27.343750
4102,27.343750
4103,31.250000
4104,31.250000
4105,31.250000
4106,31.250000
4107,31.250000
4108,31.250000
4109,31.250000
4110,31.250000
4111,35.156250
4112,35.156250
4113,35.156250
4114,35.156250
4115,35.156250
4116,35.156250
4117,35.156250
4118,35.156250
4119,35.156250
4120,35.156250
4121,39.062500
4122,39.062500
4123,39.062500
4124,39.062500
4125,39.062500
4126,39.062500
4127,39.062500
4128,39.062500
4129,39.062500
4130,42.968750
4131,42.968750
4132,42.968750
4133,42.968750
4134,42.968750
4135,42.968750
4136,42.968750
4137,42.968750
4138,42.968750
4139,42.968750
4140,46.875000
4141,46.875000
4142,46.875000
4143,46.875000
4144,46.875000
4145,46.875000
4146,46.875000
4147,46.875000
4148,46.875000
4149,50.781250
4150,50.781250
4151,50.781250
4152,50.781250
4153,50.781250
4154,50.781250
4155,50.781250
4156,50.781250
4157,50.781250
4158,50.781250
4159,54.687500
4160,50.781250
4161,50.781250
4162,54.687500
4163,54.687500
4164,54.687500
4165,54.687500
4166,54.687500
4167,54.687500
4168,54.687500
4169,54.687500
4170,54.687500
4171,54.687500
4172,58.593750
4173,58.593750
4174,58.593750
4175,58.593750
4176,58.593750
4177,58.593750
4178,58.593750
4179,58.593750
4180,58.593750
4181,58.593750
4182,58.593750
4183,58.593750
4184,58.593750
4185,62.500000
4186,62.500000
4187,62.500000
4188,62.500000
4189,62.500000
4190,62.500000
4191,62.500000
4192,62.500000
4193,62.500000
4194,62.500000
4195,62.500000
4196,62.500000
4197,62.500000
4198,66.406250
4199,66.406250
4200,66.406250
4201,62.500000
4202,66.406250
4203,66.406250
4204,66.406250
4205,66.406250
4206,66.406250
4207,66.406250
4208,66.406250
4209,66.406250
4210,66.406250
4211,66.406250
4212,66.406250
4213,66.406250
4214,66.406250
4215,66.406250
4216,70.312500
4217,70.312500
4218,70.312500
4219,70.312500
4220,70.312500
4221,70.312500
4222,70.312500
4223,70.312500
4224,70.312500
4225,70.312500
4226,70.312500
4227,70.312500
4228,70.312500
4229,70.312500
4230,70.312500
4231,70.312500
4232,70.312500
4233,70.312500
4234,70.312500
4235,70.312500
4236,70.312500
4237,70.312500
4238,74.218750
4239,70.312500
4240,74.218750
4241,74.218750
4242,70.312500
4243,70.312500
4244,74.218750
4245,70.312500
4246,74.218750
4247,74.218750
4248,74.218750
4249,74.218750
4250,74.218750
4251,74.218750
4252,74.218750
4253,74.218750
4254,74.218750
4255,74.218750
4256,74.218750
4257,70.312500
4258,74.218750
4259,74.218750
4260,74.218750
4261,74.218750
4262,74.218750
4263,74.218750
4264,74.218750
4265,74.218750
4266,78.125000
4267,74.218750
4268,74.218750
4269,74.218750
4270,74.218750
4271,74.218750
4272,74.218750
4273,70.312500
4274,74.218750
4275,74.218750
4276,74.218750
4277,74.218750
4278,74.218750
4279,74.218750
4280,74.218750
4281,74.218750
4282,74.218750
4283,74.218750
4284,74.218750
4285,74.218750
4286,78.125000
4287,74.218750
4288,74.218750
4289,74.218750
4290,74.218750
4291,74.218750
4292,74.218750
4293,74.218750
4294,74.218750
4295,74.218750
4296,74.218750
4297,74.218750
4298,74.218750
4299,74.218750
4300,74.218750
4301,74.218750
4302,74.218750
4303,74.218750
4304,74.218750
4305,74.218750
4306,74.218750
4307,74.218750
4308,74.218750
4309,74.218750
4310,74.218750
4311,74.218750
4312,74.218750
4313,74.218750
4314,74.218750
4315,74.218750
4316,74.218750
4317,70.312500
4318,74.218750
4319,74.218750
4320,74.218750
4321,74.218750
4322,70.312500
4323,70.312500
4324,70.312500
4325,70.312500
4326,70.312500
4327,70.312500
4328,70.312500
4329,70.312500
4330,70.312500
4331,70.312500
4332,70.312500
4333,70.312500
4334,70.312500
4335,70.312500
4336,70.312500
4337,70.312500
4338,70.312500
4339,70.312500
4340,70.312500
4341,70.312500
4342,70.312500
4343,70.312500
4344,70.312500
4345,70.312500
4346,66.406250
4347,66.406250
4348,66.406250
4349,66.406250
4350,66.406250
4351,66.406250
4352,66.406250
4353,66.406250
4354,66.406250
4355,66.406250
4356,66.406250
4357,66.406250
4358,66.406250
4359,66.406250
4360,66.406250
4361,66.406250
4362,62.500000
4363,62.500000
4364,62.500000
4365,66.406250
4366,62.500000
4367,62.500000
4368,62.500000
4369,62.500000
4370,62.500000
4371,62.500000
4372,62.500000
4373,62.500000
4374,62.500000
4375,62.500000
4376,62.500000
4377,58.593750
4378,58.593750
4379,58.593750
4380,58.593750
4381,58.593750
4382,58.593750
4383,58.593750
4384,58.593750
4385,58.593750
4386,58.593750
4387,58.593750
4388,58.593750
4389,58.593750
4390,58.593750
4391,54.687500
4392,54.687500
4393,54.687500
4394,54.687500
4395,54.687500
4396,54.687500
4397,54.687500
4398,54.687500
4399,54.687500
4400,54.687500
4401,54.687500
4402,50.781250
4403,50.781250
4404,50.781250
4405,50.781250
4406,50.781250
4407,50.781250
4408,50.781250
4409,50.781250
4410,50.781250
4411,50.781250
4412,50.781250
4413,46.875000
4414,46.875000
4415,46.875000
4416,46.875000
4417,46.875000
4418,46.875000
4419,46.875000
4420,46.875000
4421,42.968750
4422,42.968750
4423,42.968750
4424,42.968750
4425,42.968750
4426,42.968750
4427,42.968750
4428,42.968750
4429,42.968750
4430,39.062500
4431,42.968750
4432,39.062500
4433,39.062500
4434,39.062500
4435,39.062500
4436,39.062500
4437,39.062500
4438,39.062500
4439,35.156250
4440,39.062500
4441,35.156250
4442,35.156250
4443,35.156250
4444,35.156250
4445,35.156250
4446,35.156250
4447,35.156250
4448,31.250000
4449,31.250000
4450,31.250000
4451,31.250000
4452,31.250000
4453,31.250000
4454,31.250000
4455,31.250000
4456,31.250000
4457,27.343750
4458,27.343750
4459,27.343750
4460,27.343750
4461,27.343750
4462,27.343750
4463,27.343750
4464,23.437500
4465,23.437500
4466,23.437500
4467,23.437500
4468,23.437500
4469,23.437500
4470,23.437500
4471,23.437500
4472,23.437500
4473,19.531250
4474,19.531250
4475,19.531250
4476,19.531250
4477,19.531250
4478,19.531250
4479,19.531250
4480,15.625000
4481,15.625000
4482,15.625000
4483,15.625000
4484,15.625000
4485,15.625000
4486,15.625000
4487,15.625000
4488,11.718750
4489,11.718750
4490,11.718750
4491,11.718750
4492,11.718750
4493,11.718750
4494,11.718750
4495,11.718750
4496,7.812500
4497,7.812500
4498,7.812500
4499,7.812500
4500,7.812500
4501,7.812500
4502,7.812500
4503,3.906250
4504,3.906250
4505,3.906250
4506,3.906250
4507,3.906250
4508,3.906250
4509,0.000000
4510,0.000000
4511,0.000000
4512,0.000000
4513,0.000000
4514,0.000000
4515,-3.906250
4516,-3.906250
4517,-3.906250
4518,-3.906250
4519,-3.906250
4520,-3.906250
4521,-3.906250
4522,-7.812500
4523,-7.812500
4524,-7.812500
4525,-7.812500
4526,-7.812500
4527,-7.812500
4528,-7.812500
4529,-7.812500
4530,-11.718750
4531,-11.718750
4532,-11.718750
4533,-11.718750
4534,-11.718750
4535,-15.625000
4536,-15.625000
4537,-15.625000
4538,-15.625000
4539,-15.625000
4540,-15.625000
4541,-15.625000
4542,-19.531250
4543,-19.531250
4544,-19.531250
4545,-19.531250
4546,-19.531250
4547,-19.531250
4548,-19.531250
4549,-19.531250
4550,-23.437500
4551,-23.437500
4552,-23.437500
4553,-23.437500
4554,-23.437500
4555,-23.437500
4556,-27.343750
4557,-27.343750
4558,-27.343750
4559,-27.343750
4560,-27.343750
4561,-27.343750
4562,-27.343750
4563,-27.343750
4564,-31.250000
4565,-31.250000
4566,-31.250000
4567,-31.250000
4568,-31.250000
4569,-31.250000
4570,-31.250000
4571,-35.156250
4572,-35.156250
4573,-35.156250
4574,-35.156250
4575,-35.156250
4576,-39.062500
4577,-39.062500
4578,-39.062500
4579,-39.062500
4580,-39.062500
4581,-39.062500
4582,-39.062500
4583,-39.062500
4584,-42.968750
4585,-42.968750
4586,-42.968750
4587,-42.968750
4588,-42.968750
4589,-42.968750
4590,-42.968750
4591,-42.968750
4592,-46.875000
4593,-46.875000
4594,-46.875000
4595,-46.875000
4596,-46.875000
4597,-46.875000
4598,-50.781250
4599,-50.781250
4600,-50.781250
4601,-50.781250
4602,-50.781250
4603,-54.687500
4604,-50.781250
4605,-50.781250
4606,-54.687500
4607,-54.687500
4608,-54.687500
4609,-54.687500
4610,-54.687500
4611,-58.593750
4612,-54.687500
4613,-58.593750
4614,-58.593750
4615,-58.593750
4616,-58.593750
4617,-58.593750
4618,-58.593750
4619,-62.500000
4620,-62.500000
4621,-62.500000
4622,-62.500000
4623,-62.500000
4624,-62.500000
4625,-62.500000
4626,-62.500000
4627,-62.500000
4628,-66.406250
4629,-66.406250
4630,-66.406250
4631,-66.406250
4632,-66.406250
4633,-66.406250
4634,-66.406250
4635,-66.406250
4636,-70.312500
4637,-70.312500
4638,-70.312500
4639,-70.312500
4640,-70.312500
4641,-70.312500
4642,-70.312500
4643,-70.312500
4644,-70.312500
4645,-74.218750
4646,-74.218750
4647,-74.218750
4648,-74.218750
4649,-74.218750
4650,-74.218750
4651,-74.218750
4652,-78.125000
4653,-78.125000
4654,-78.125000
4655,-78.125000
4656,-78.125000
4657,-78.125000
4658,-78.125000
4659,-78.125000
4660,-78.125000
4661,-78.125000
4662,-82.031250
4663,-82.031250
4664,-82.031250
4665,-82.031250
4666,-82.031250
4667,-82.031250
4668,-82.031250
4669,-82.031250
4670,-85.937500
4671,-82.031250
4672,-85.937500
4673,-85.937500
4674,-85.937500
4675,-85.937500
4676,-85.937500
4677,-85.937500
4678,-85.937500
4679,-85.937500
4680,-89.843750
4681,-89.843750
4682,-89.843750
4683,-89.843750
4684,-89.843750
4685,-89.843750
4686,-89.843750
4687,-89.843750
4688,-89.843750
4689,-89.843750
4690,-89.843750
4691,-89.843750
4692,-89.843750
4693,-89.843750
4694,-93.750000
4695,-93.750000
4696,-93.750000
4697,-93.750000
4698,-93.750000
4699,-93.750000
4700,-93.750000
4701,-93.750000
4702,-93.750000
4703,-93.750000
4704,-93.750000
4705,-93.750000
4706,-97.656250
4707,-97.656250
4708,-97.656250
4709,-97.656250
4710,-97.656250
4711,-97.656250
4712,-97.656250
4713,-97.656250
4714,-97.656250
4715,-97.656250
4716,-97.656250
4717,-97.656250
4718,-97.656250
4719,-101.562500
4720,-101.562500
4721,-101.562500
4722,-101.562500
4723,-101.562500
4724,-97.656250
4725,-101.562500
4726,-101.562500
4727,-101.562500
4728,-101.562500
4729,-101.562500
4730,-101.562500
4731,-101.562500
4732,-101.562500
4733,-101.562500
4734,-101.562500
4735,-101.562500
4736,-101.562500
4737,-101.562500
4738,-101.562500
4739,-101.562500
4740,-101.562500
4741,-101.562500
4742,-101.562500
4743,-105.468750
4744,-105.468750
4745,-105.468750
4746,-105.468750
4747,-105.468750
4748,-105.468750
4749,-105.468750
4750,-105.468750
4751,-105.468750
4752,-105.468750
4753,-105.468750
4754,-105.468750
4755,-105.468750
4756,-105.468750
4757,-105.468750
4758,-105.468750
4759,-105.468750
4760,-105.468750
4761,-105.468750
4762,-105.468750
4763,-105.468750
4764,-105.468750
4765,-105.468750
4766,-105.468750
4767,-105.468750
4768,-105.468750
4769,-105.468750
4770,-105.468750
4771,-105.468750
4772,-105.468750
4773,-105.468750
4774,-105.468750
4775,-105.468750
4776,-105.468750
4777,-105.468750
4778,-105.468750
4779,-105.468750
4780,-105.468750
4781,-105.468750
4782,-105.468750
4783,-105.468750
4784,-105.468750
4785,-105.468750
4786,-105.468750
4787,-105.468750
4788,-105.468750
4789,-105.468750
4790,-105.468750
4791,-105.468750
4792,-105.468750
4793,-105.468750
4794,-105.468750
4795,-105.468750
4796,-105.468750
4797,-105.468750
4798,-105.468750
4799,-105.468750
4800,-105.468750
4801,-105.468750
4802,-105.468750
4803,-105.468750
4804,-105.468750
4805,-105.468750
4806,-105.468750
4807,-101.562500
4808,-101.562500
4809,-101.562500
4810,-105.468750
4811,-105.468750
4812,-101.562500
4813,-105.468750
4814,-101.562500
4815,-105.468750
4816,-101.562500
4817,-101.562500
4818,-101.562500
4819,-101.562500
4820,-101.562500
4821,-101.562500
4822,-101.562500
4823,-101.562500
4824,-101.562500
4825,-101.562500
4826,-101.562500
4827,-101.562500
4828,-101.562500
4829,-101.562500
4830,-97.656250
4831,-97.656250
4832,-101.562500
4833,-97.656250
4834,-97.656250
4835,-97.656250
4836,-97.656250
4837,-97.656250
4838,-97.656250
4839,-97.656250
4840,-97.656250
4841,-97.656250
4842,-97.656250
4843,-97.656250
4844,-97.656250
4845,-97.656250
4846,-97.656250
4847,-97.656250
4848,-93.750000
4849,-93.750000
4850,-93.750000
4851,-93.750000
4852,-93.750000
4853,-93.750000
4854,-93.750000
4855,-93.750000
4856,-93.750000
4857,-93.750000
4858,-93.750000
4859,-93.750000
4860,-93.750000
4861,-93.750000
4862,-89.843750
4863,-89.843750
4864,-89.843750
4865,-89.843750
4866,-89.843750
4867,-89.843750
4868,-89.843750
4869,-89.843750
4870,-89.843750
4871,-89.843750
4872,-85.937500
4873,-85.937500
4874,-85.937500
4875,-85.937500
4876,-85.937500
4877,-85.937500
4878,-85.937500
4879,-85.937500
4880,-85.937500
4881,-85.937500
4882,-85.937500
4883,-82.031250
4884,-82.031250
4885,-82.031250
4886,-82.031250
4887,-82.031250
4888,-82.031250
4889,-82.031250
4890,-82.031250
4891,-82.031250
4892,-78.125000
4893,-82.031250
4894,-78.125000
4895,-78.125000
4896,-78.125000
4897,-78.125000
4898,-78.125000
4899,-78.125000
4900,-78.125000
4901,-74.218750
4902,-74.218750
4903,-74.218750
4904,-74.218750
4905,-74.218750
4906,-74.218750
4907,-74.218750
4908,-74.218750
4909,-70.312500
4910,-70.312500
4911,-70.312500
4912,-70.312500
4913,-70.312500
4914,-70.312500
4915,-70.312500
4916,-70.312500
4917,-66.406250
4918,-66.406250
4919,-66.406250
4920,-66.406250
4921,-66.406250
4922,-66.406250
4923,-66.406250
4924,-66.406250
4925,-66.406250
4926,-62.500000
4927,-62.500000
4928,-62.500000
4929,-62.500000
4930,-62.500000
4931,-62.500000
4932,-62.500000
4933,-58.593750
4934,-58.593750
4935,-58.593750
4936,-58.593750
4937,-58.593750
4938,-58.593750
4939,-58.593750
4940,-58.593750
4941,-54.687500
4942,-54.687500
4943,-54.687500
4944,-54.687500
4945,-54.687500
4946,-54.687500
4947,-50.781250
4948,-50.781250
4949,-50.781250
4950,-50.781250
4951,-50.781250
4952,-50.781250
4953,-50.781250
4954,-50.781250
4955,-46.875000
4956,-50.781250
4957,-46.875000
4958,-46.875000
4959,-46.875000
4960,-46.875000
4961,-42.968750
4962,-42.968750
4963,-42.968750
4964,-42.968750
4965,-42.968750
4966,-42.968750
4967,-42.968750
4968,-42.968750
4969,-39.062500
4970,-39.062500
4971,-39.062500
4972,-39.062500
4973,-39.062500
4974,-35.156250
4975,-35.156250
4976,-35.156250
4977,-35.156250
4978,-35.156250
4979,-35.156250
4980,-35.156250
4981,-35.156250
4982,-31.250000
4983,-31.250000
4984,-31.250000
4985,-31.250000
4986,-31.250000
4987,-31.250000
4988,-31.250000
4989,-27.343750
4990,-27.343750
4991,-31.250000
4992,-27.343750
4993,-27.343750
4994,-27.343750
4995,-23.437500
4996,-23.437500
4997,-23.437500
4998,-23.437500
4999,-23.437500
5000,-23.437500
5001,-23.437500
5002,-23.437500
5003,-19.531250
5004,-19.531250
5005,-19.531250
5006,-19.531250
5007,-19.531250
5008,-15.625000
5009,-15.625000
5010,-15.625000
5011,-15.625000
5012,-15.625000
5013,-15.625000
5014,-15.625000
5015,-15.625000
5016,-11.718750
5017,-11.718750
5018,-11.718750
5019,-11.718750
5020,-11.718750
5021,-11.718750
5022,-7.812500
5023,-7.812500
5024,-7.812500
5025,-7.812500
5026,-7.812500
5027,-7.812500
5028,-7.812500
5029,-3.906250
5030,-3.906250
5031,-3.906250
5032,-3.906250
5033,-3.906250
5034,0.000000
5035,0.000000
5036,0.000000
5037,0.000000
5038,0.000000
5039,0.000000
5040,0.000000
5041,0.000000
5042,0.000000
5043,3.906250
5044,3.906250
5045,3.906250
5046,3.906250
5047,3.906250
5048,3.906250
5049,3.906250
5050,7.812500
5051,7.812500
5052,7.812500
5053,7.812500
5054,7.812500
5055,7.812500
5056,7.812500
5057,11.718750
5058,11.718750
5059,11.718750
5060,11.718750
5061,11.718750
5062,11.718750
5063,15.625000
5064,15.625000
5065,15.625000
5066,15.625000
5067,15.625000
5068,15.625000
5069,15.625000
5070,15.625000
5071,19.531250
5072,19.531250
5073,19.531250
5074,19.531250
5075,19.531250
5076,19.531250
5077,19.531250
5078,19.531250
5079,23.437500
5080,23.437500
5081,23.437500
5082,23.437500
5083,23.437500
5084,23.437500
5085,23.437500
5086,23.437500
5087,27.343750
5088,27.343750
5089,27.343750
5090,27.343750
5091,27.343750
5092,27.343750
5093,27.343750
5094,31.250000
5095,31.250000
5096,31.250000
5097,31.250000
5098,31.250000
5099,31.250000
5100,31.250000
5101,31.250000
5102,31.250000
5103,35.156250
5104,35.156250
5105,35.156250
5106,35.156250
5107,35.156250
5108,35.156250
5109,39.062500
5110,35.156250
5111,39.062500
5112,35.156250
5113,39.062500
5114,39.062500
5115,39.062500
5116,39.062500
5117,39.062500
5118,39.062500
5119,42.968750
5120,42.968750
5121,42.968750
5122,42.968750
5123,42.968750
5124,42.968750
5125,42.968750
5126,42.968750
5127,42.968750
5128,46.875000
5129,46.875000
5130,46.875000
5131,46.875000
5132,46.875000
5133,46.875000
5134,46.875000
5135,46.875000
5136,46.875000
5137,46.875000
5138,50.781250
5139,50.781250
5140,50.781250
5141,50.781250
5142,50.781250
5143,50.781250
5144,50.781250
5145,50.781250
5146,50.781250
5147,50.781250
5148,54.687500
5149,54.687500
5150,54.687500
5151,54.687500
5152,54.687500
5153,54.687500
5154,54.687500
5155,54.687500
5156,54.687500
5157,54.687500
5158,54.687500
5159,54.687500
5160,58.593750
5161,58.593750
5162,58.593750
5163,58.593750
5164,58.593750
5165,58.593750
5166,58.593750
5167,58.593750
5168,58.593750
5169,58.593750
5170,58.593750
5171,58.593750
5172,62.500000
5173,62.500000
5174,62.500000
5175,62.500000
5176,62.500000
5177,62.500000
5178,62.500000
5179,62.500000
5180,62.500000
5181,62.500000
5182,62.500000
5183,62.500000
5184,62.500000
5185,62.500000
5186,62.500000
5187,62.500000
5188,62.500000
5189,66.406250
5190,66.406250
5191,66.406250
5192,66.406250
5193,66.406250
5194,66.406250
5195,66.406250
5196,66.406250
5197,66.406250
5198,66.406250
5199,66.406250
5200,66.406250
5201,66.406250
5202,66.406250
5203,70.312500
5204,66.406250
5205,66.406250
5206,70.312500
5207,70.312500
5208,66.406250
5209,70.312500
5210,70.312500
5211,70.312500
5212,70.312500
5213,70.312500
5214,70.312500
5215,70.312500
5216,70.312500
5217,70.312500
5218,70.312500
5219,70.312500
5220,70.312500
5221,70.312500
5222,70.312500
5223,70.312500
5224,74.218750
5225,70.312500
5226,70.312500
5227,74.218750
5228,74.218750
5229,74.218750
5230,74.218750
5231,74.218750
5232,74.218750
5233,74.218750
5234,74.218750
5235,74.218750
5236,74.218750
5237,74.218750
5238,74.218750
5239,74.218750
5240,74.218750
5241,74.218750
5242,74.218750
5243,74.218750
5244,74.218750
5245,74.218750
5246,74.218750
5247,74.218750
5248,74.218750
5249,74.218750
5250,74.218750
5251,74.218750
5252,74.218750
5253,74.218750
5254,74.218750
5255,74.218750
5256,74.218750
5257,74.218750
5258,74.218750
5259,74.218750
5260,74.218750
5261,74.218750
5262,74.218750
5263,74.218750
5264,74.218750
5265,78.125000
5266,74.218750
5267,78.125000
5268,78.125000
5269,74.218750
5270,74.218750
5271,74.218750
5272,74.218750
5273,78.125000
5274,74.218750
5275,74.218750
5276,78.125000
5277,74.218750
5278,74.218750
5279,74.218750
5280,74.218750
5281,74.218750
5282,74.218750
5283,74.218750
5284,74.218750
5285,74.218750
5286,74.218750
5287,74.218750
5288,74.218750
5289,74.218750
5290,74.218750
5291,74.218750
5292,74.218750
5293,74.218750
5294,74.218750
5295,74.218750
5296,74.218750
5297,74.218750
5298,74.218750
5299,74.218750
5300,74.218750
5301,74.218750
5302,74.218750
5303,74.218750
5304,74.218750
5305,74.218750
5306,74.218750
5307,74.218750
5308,74.218750
5309,74.218750
5310,74.218750
5311,74.218750
5312,74.218750
5313,74.218750
5314,74.218750
5315,74.218750
5316,74.218750
5317,74.218750
5318,70.312500
5319,74.218750
5320,70.312500
5321,70.312500
5322,70.312500
5323,70.312500
5324,70.312500
5325,70.312500
5326,70.312500
5327,70.312500
5328,70.312500
5329,70.312500
5330,70.312500
5331,70.312500
5332,70.312500
5333,70.312500
5334,70.312500
5335,70.312500
5336,70.312500
5337,70.312500
5338,70.312500
5339,66.406250
5340,66.406250
5341,66.406250
5342,66.406250
5343,66.406250
5344,66.406250
5345,66.406250
5346,66.406250
5347,66.406250
5348,66.406250
5349,66.406250
5350,66.406250
5351,66.406250
5352,66.406250
5353,66.406250
5354,66.406250
5355,66.406250
5356,66.406250
5357,66.406250
5358,66.406250
5359,62.500000
5360,62.500000
5361,62.500000
5362,62.500000
5363,62.500000
5364,62.500000
5365,62.500000
5366,62.500000
5367,62.500000
5368,62.500000
5369,62.500000
5370,62.500000
5371,62.500000
5372,62.500000
5373,58.593750
5374,58.593750
5375,58.593750
5376,58.593750
5377,58.593750
5378,58.593750
5379,58.593750
5380,58.593750
5381,58.593750
5382,58.593750
5383,58.593750
5384,54.687500
5385,54.687500
5386,54.687500
5387,54.687500
5388,54.687500
5389,54.687500
5390,54.687500
5391,54.687500
5392,54.687500
5393,54.687500
5394,54.687500
5395,50.781250
5396,50.781250
5397,50.781250
5398,50.781250
5399,50.781250
5400,50.781250
5401,50.781250
5402,50.781250
5403,50.781250
5404,50.781250
5405,50.781250
5406,46.875000
5407,46.875000
5408,46.875000
5409,46.875000
5410,46.875000
5411,46.875000
5412,46.875000
5413,46.875000
5414,46.875000
5415,46.875000
5416,42.968750
5417,42.968750
5418,42.968750
5419,42.968750
5420,42.968750
5421,42.968750
5422,42.968750
5423,42.968750
5424,42.968750
5425,39.062500
5426,39.062500
5427,39.062500
5428,39.062500
5429,39.062500
5430,39.062500
5431,39.062500
5432,35.156250
5433,35.156250
5434,35.156250
5435,35.156250
5436,35.156250
5437,35.156250
5438,35.156250
5439,35.156250
5440,35.156250
5441,35.156250
5442,31.250000
5443,31.250000
5444,31.250000
5445,31.250000
5446,31.250000
5447,31.250000
5448,31.250000
5449,27.343750
5450,27.343750
5451,27.343750
5452,27.343750
5453,27.343750
5454,27.343750
5455,27.343750
5456,27.343750
5457,23.437500
5458,23.437500
5459,23.437500
5460,23.437500
5461,23.437500
5462,23.437500
5463,23.437500
5464,19.531250
5465,23.437500
5466,19.531250
5467,19.531250
5468,19.531250
5469,19.531250
5470,19.531250
5471,15.625000
5472,15.625000
5473,15.625000
5474,15.625000
5475,15.625000
5476,15.625000
5477,15.625000
5478,15.625000
5479,15.625000
5480,11.718750
5481,11.718750
5482,11.718750
5483,11.718750
5484,11.718750
5485,11.718750
5486,11.718750
5487,11.718750
5488,7.812500
5489,7.812500
5490,7.812500
5491,7.812500
5492,7.812500
5493,7.812500
5494,3.906250
5495,3.906250
5496,3.906250
5497,3.906250
5498,3.906250
5499,3.906250
5500,3.906250
5501,3.906250
5502,0.000000
5503,0.000000
5504,0.000000
5505,0.000000
5506,0.000000
5507,0.000000
5508,-3.906250
5509,-3.906250
5510,-3.906250
5511,-3.906250
5512,-3.906250
5513,-3.906250
5514,-3.906250
5515,-7.812500
5516,-7.812500
5517,-7.812500
5518,-7.812500
5519,-7.812500
5520,-7.812500
5521,-7.812500
5522,-7.812500
5523,-11.718750
5524,-11.718750
5525,-11.718750
5526,-11.718750
5527,-11.718750
5528,-11.718750
5529,-11.718750
5530,-15.625000
5531,-15.625000
5532,-15.625000
5533,-15.625000
5534,-15.625000
5535,-15.625000
5536,-19.531250
5537,-19.531250
5538,-19.531250
5539,-19.531250
5540,-19.531250
5541,-19.531250
5542,-23.437500
5543,-23.437500
5544,-23.437500
5545,-23.437500
5546,-23.437500
5547,-23.437500
5548,-27.343750
5549,-27.343750
5550,-23.437500
5551,-27.343750
5552,-27.343750
5553,-27.343750
5554,-27.343750
5555,-27.343750
5556,-27.343750
5557,-27.343750
5558,-31.250000
5559,-31.250000
5560,-31.250000
5561,-31.250000
5562,-31.250000
5563,-35.156250
5564,-35.156250
5565,-35.156250
5566,-35.156250
5567,-35.156250
5568,-35.156250
5569,-35.156250
5570,-39.062500
5571,-39.062500
5572,-39.062500
5573,-39.062500
5574,-39.062500
5575,-39.062500
5576,-39.062500
5577,-39.062500
5578,-42.968750
5579,-42.968750
5580,-42.968750
5581,-42.968750
5582,-46.875000
5583,-42.968750
5584,-46.875000
5585,-46.875000
5586,-46.875000
5587,-46.875000
5588,-46.875000
5589,-46.875000
5590,-50.781250
5591,-50.781250
5592,-50.781250
5593,-50.781250
5594,-50.781250
5595,-50.781250
5596,-50.781250
5597,-50.781250
5598,-50.781250
5599,-54.687500
5600,-54.687500
5601,-54.687500
5602,-54.687500
5603,-54.687500
5604,-54.687500
5605,-54.687500
5606,-58.593750
5607,-58.593750
5608,-58.593750
5609,-58.593750
5610,-58.593750
5611,-58.593750
5612,-58.593750
5613,-58.593750
5614,-62.500000
5615,-62.500000
5616,-62.500000
5617,-62.500000
5618,-62.500000
5619,-62.500000
5620,-66.406250
5621,-62.500000
5622,-66.406250
5623,-66.406250
5624,-66.406250
5625,-66.406250
5626,-66.406250
5627,-66.406250
5628,-66.406250
5629,-66.406250
5630,-70.312500
5631,-70.312500
5632,-70.312500
5633,-70.312500
5634,-70.312500
5635,-70.312500
5636,-70.312500
5637,-70.312500
5638,-74.218750
5639,-74.218750
5640,-74.218750
5641,-74.218750
5642,-74.218750
5643,-74.218750
5644,-74.218750
5645,-74.218750
5646,-78.125000
5647,-78.125000
5648,-78.125000
5649,-78.125000
5650,-78.125000
5651,-78.125000
5652,-78.125000
5653,-78.125000
5654,-78.125000
5655,-78.125000
5656,-78.125000
5657,-78.125000
5658,-82.031250
5659,-82.031250
5660,-82.031250
5661,-82.031250
5662,-82.031250
5663,-82.031250
5664,-82.031250
5665,-82.031250
5666,-85.937500
5667,-85.937500
5668,-85.937500
5669,-85.937500
5670,-85.937500
5671,-85.937500
5672,-85.937500
5673,-85.937500
5674,-85.937500
5675,-85.937500
5676,-85.937500
5677,-85.937500
5678,-89.843750
5679,-89.843750
5680,-89.843750
5681,-89.843750
5682,-89.843750
5683,-89.843750
5684,-89.843750
5685,-89.843750
5686,-89.843750
5687,-89.843750
5688,-89.843750
5689,-93.750000
5690,-93.750000
5691,-93.750000
5692,-93.750000
5693,-93.750000
5694,-93.750000
5695,-93.750000
5696,-93.750000
5697,-93.750000
5698,-93.750000
5699,-93.750000
5700,-93.750000
5701,-97.656250
5702,-97.656250
5703,-97.656250
5704,-97.656250
5705,-97.656250
5706,-97.656250
5707,-97.656250
5708,-97.656250
5709,-97.656250
5710,-97.656250
5711,-97.656250
5712,-97.656250
5713,-97.656250
5714,-97.656250
5715,-97.656250
5716,-97.656250
5717,-101.562500
5718,-97.656250
5719,-101.562500
5720,-97.656250
5721,-101.562500
5722,-101.562500
5723,-97.656250
5724,-97.656250
5725,-101.562500
5726,-101.562500
5727,-101.562500
5728,-101.562500
5729,-101.562500
5730,-101.562500
5731,-101.562500
5732,-101.562500
5733,-101.562500
5734,-101.562500
5735,-101.562500
5736,-101.562500
5737,-101.562500
5738,-101.562500
5739,-101.562500
5740,-101.562500
5741,-101.562500
5742,-101.562500
5743,-101.562500
5744,-101.562500
5745,-101.562500
5746,-101.562500
5747,-105.468750
5748,-101.562500
5749,-101.562500
5750,-105.468750
5751,-105.468750
5752,-101.562500
5753,-101.562500
5754,-101.562500
5755,-101.562500
5756,-105.468750
5757,-105.468750
5758,-105.468750
5759,-101.562500
5760,-101.562500
5761,-101.562500
5762,-105.468750
5763,-105.468750
5764,-101.562500
5765,-101.562500
5766,-105.468750
5767,-105.468750
5768,-105.468750
5769,-105.468750
5770,-101.562500
5771,-101.562500
5772,-101.562500
5773,-101.562500
5774,-101.562500
5775,-105.468750
5776,-105.468750
5777,-101.562500
5778,-101.562500
5779,-101.562500
5780,-105.468750
5781,-101.562500
5782,-101.562500
5783,-101.562500
5784,-101.562500
5785,-101.562500
5786,-101.562500
5787,-101.562500
5788,-101.562500
5789,-101.562500
5790,-101.562500
5791,-101.562500
5792,-101.562500
5793,-101.562500
5794,-101.562500
5795,-101.562500
5796,-101.562500
5797,-101.562500
5798,-101.562500
5799,-101.562500
5800,-101.562500
5801,-101.562500
5802,-101.562500
5803,-101.562500
5804,-101.562500
5805,-101.562500
5806,-101.562500
5807,-101.562500
5808,-97.656250
5809,-97.656250
5810,-101.562500
5811,-97.656250
5812,-101.562500
5813,-97.656250
5814,-97.656250
5815,-97.656250
5816,-97.656250
5817,-97.656250
5818,-97.656250
5819,-97.656250
5820,-97.656250
5821,-97.656250
5822,-97.656250
5823,-97.656250
5824,-97.656250
5825,-97.656250
5826,-97.656250
5827,-97.656250
5828,-97.656250
5829,-97.656250
5830,-97.656250
5831,-93.750000
5832,-93.750000
5833,-93.750000
5834,-89.843750
5835,-93.750000
5836,-93.750000
5837,-93.750000
5838,-93.750000
5839,-93.750000
5840,-93.750000
5841,-93.750000
5842,-93.750000
5843,-93.750000
5844,-89.843750
5845,-89.843750
5846,-89.843750
5847,-89.843750
5848,-89.843750
5849,-89.843750
5850,-89.843750
5851,-89.843750
5852,-89.843750
5853,-89.843750
5854,-89.843750
5855,-89.843750
5856,-89.843750
5857,-85.937500
5858,-85.937500
5859,-85.937500
5860,-85.937500
5861,-85.937500
5862,-85.937500
5863,-85.937500
5864,-85.937500
5865,-85.937500
5866,-82.031250
5867,-82.031250
5868,-82.031250
5869,-82.031250
5870,-82.031250
5871,-82.031250
5872,-82.031250
5873,-82.031250
5874,-82.031250
5875,-82.031250
5876,-82.031250
5877,-82.031250
5878,-78.125000
5879,-78.125000
5880,-78.125000
5881,-78.125000
5882,-78.125000
5883,-78.125000
5884,-78.125000
5885,-78.125000
5886,-74.218750
5887,-74.218750
5888,-74.218750
5889,-74.218750
5890,-74.218750
5891,-74.218750
5892,-74.218750
5893,-74.218750
5894,-74.218750
5895,-70.312500
5896,-70.312500
5897,-70.312500
5898,-70.312500
5899,-70.312500
5900,-70.312500
5901,-70.312500
5902,-70.312500
5903,-70.312500
5904,-66.406250
5905,-66.406250
5906,-66.406250
5907,-66.406250
5908,-66.406250
5909,-66.406250
5910,-66.406250
5911,-66.406250
5912,-62.500000
5913,-62.500000
5914,-62.500000
5915,-62.500000
5916,-62.500000
5917,-62.500000
5918,-62.500000
5919,-58.593750
5920,-58.593750
5921,-58.593750
5922,-58.593750
5923,-58.593750
5924,-58.593750
5925,-58.593750
5926,-58.593750
5927,-54.687500
5928,-54.687500
5929,-54.687500
5930,-54.687500
5931,-54.687500
5932,-54.687500
5933,-54.687500
5934,-50.781250
5935,-50.781250
5936,-50.781250
5937,-50.781250
5938,-50.781250
5939,-50.781250
5940,-50.781250
5941,-46.875000
5942,-46.875000
5943,-46.875000
5944,-46.875000
5945,-46.875000
5946,-46.875000
5947,-46.875000
5948,-46.875000
5949,-42.968750
5950,-42.968750
5951,-42.968750
5952,-42.968750
5953,-42.968750
5954,-42.968750
5955,-42.968750
5956,-39.062500
5957,-39.062500
5958,-39.062500
5959,-39.062500
5960,-39.062500
5961,-39.062500
5962,-39.062500
5963,-35.156250
5964,-35.156250
5965,-35.156250
5966,-35.156250
5967,-35.156250
5968,-35.156250
5969,-35.156250
5970,-31.250000
5971,-31.250000
5972,-31.250000
5973,-31.250000
5974,-31.250000
5975,-31.250000
5976,-27.343750
5977,-27.343750
5978,-27.343750
5979,-27.343750
5980,-27.343750
5981,-27.343750
5982,-27.343750
5983,-27.343750
5984,-27.343750
5985,-23.437500
5986,-23.437500
5987,-23.437500
5988,-23.437500
5989,-23.437500
5990,-23.437500
5991,-19.531250
5992,-19.531250
5993,-19.531250
5994,-19.531250
5995,-19.531250
5996,-15.625000
5997,-15.625000
5998,-15.625000
5999,-15.625000
6000,-15.625000
6001,-15.625000
6002,-15.625000
6003,-15.625000
6004,-15.625000
6005,-11.718750
6006,-11.718750
6007,-11.718750
6008,-11.718750
6009,-7.812500
6010,-7.812500
6011,-7.812500
6012,-7.812500
6013,-7.812500
6014,-7.812500
6015,-7.812500
6016,-7.812500
6017,-3.906250
6018,-3.906250
6019,-3.906250
6020,-3.906250
6021,-3.906250
6022,-3.906250
6023,-3.906250
6024,0.000000
6025,0.000000
6026,0.000000
6027,0.000000
6028,0.000000
6029,0.000000
6030,3.906250
6031,3.906250
6032,3.906250
6033,3.906250
6034,3.906250
6035,3.906250
6036,3.906250
6037,3.906250
6038,7.812500
6039,7.812500
6040,7.812500
6041,7.812500
6042,7.812500
6043,7.812500
6044,7.812500
6045,11.718750
6046,11.718750
6047,11.718750
6048,11.718750
6049,11.718750
6050,11.718750
6051,15.625000
6052,15.625000
6053,15.625000
6054,15.625000
6055,15.625000
6056,15.625000
6057,15.625000
6058,15.625000
6059,19.531250
6060,19.531250
6061,19.531250
6062,19.531250
6063,19.531250
6064,19.531250
6065,19.531250
6066,19.531250
6067,23.437500
6068,23.437500
6069,23.437500
6070,23.437500
6071,23.437500
6072,23.437500
6073,23.437500
6074,27.343750
6075,27.343750
6076,27.343750
6077,27.343750
6078,27.343750
6079,27.343750
6080,27.343750
6081,27.343750
6082,31.250000
6083,31.250000
6084,31.250000
6085,31.250000
6086,31.250000
6087,31.250000
6088,31.250000
6089,31.250000
6090,31.250000
6091,31.250000
6092,35.156250
6093,35.156250
6094,35.156250
6095,35.156250
6096,35.156250
6097,35.156250
6098,35.156250
6099,39.062500
6100,39.062500
6101,39.062500
6102,39.062500
6103,39.062500
6104,39.062500
6105,39.062500
6106,39.062500
6107,39.062500
6108,42.968750
6109,42.968750
6110,42.968750
6111,42.968750
6112,42.968750
6113,42.968750
6114,42.968750
6115,42.968750
6116,42.968750
6117,46.875000
6118,46.875000
6119,46.875000
6120,46.875000
6121,46.875000
6122,46.875000
6123,46.875000
6124,46.875000
6125,46.875000
6126,46.875000
6127,50.781250
6128,46.875000
6129,50.781250
6130,50.781250
6131,50.781250
6132,50.781250
6133,50.781250
6134,50.781250
6135,50.781250
6136,50.781250
6137,50.781250
6138,50.781250
6139,54.687500
6140,54.687500
6141,54.687500
6142,54.687500
6143,54.687500
6144,54.687500
6145,54.687500
6146,54.687500
6147,54.687500
6148,58.593750
6149,58.593750
6150,58.593750
6151,58.593750
6152,58.593750
6153,58.593750
6154,58.593750
6155,58.593750
6156,58.593750
6157,58.593750
6158,58.593750
6159,58.593750
6160,58.593750
6161,62.500000
6162,58.593750
6163,62.500000
6164,62.500000
6165,62.500000
6166,62.500000
6167,62.500000
6168,62.500000
6169,62.500000
6170,62.500000
6171,62.500000
6172,62.500000
6173,62.500000
6174,62.500000
6175,66.406250
6176,66.406250
6177,66.406250
6178,66.406250
6179,66.406250
6180,66.406250
6181,66.406250
6182,66.406250
6183,66.406250
6184,66.406250
6185,66.406250
6186,66.406250
6187,66.406250
6188,66.406250
6189,66.406250
6190,66.406250
6191,66.406250
6192,70.312500
6193,70.312500
6194,66.406250
6195,70.312500
6196,70.312500
6197,70.312500
6198,70.312500
6199,70.312500
6200,70.312500
6201,70.312500
6202,70.312500
6203,70.312500
6204,70.312500
6205,70.312500
6206,70.312500
6207,70.312500
6208,70.312500
6209,70.312500
6210,70.312500
6211,70.312500
6212,70.312500
6213,70.312500
6214,70.312500
6215,74.218750
6216,70.312500
6217,74.218750
6218,74.218750
6219,74.218750
6220,74.218750
6221,74.218750
6222,74.218750
6223,74.218750
6224,74.218750
6225,74.218750
6226,74.218750
6227,74.218750
6228,74.218750
6229,74.218750
6230,74.218750
6231,74.218750
6232,74.218750
6233,74.218750
6234,74.218750
6235,74.218750
6236,74.218750
6237,74.218750
6238,74.218750
6239,74.218750
6240,74.218750
6241,74.218750
6242,74.218750
6243,74.218750
6244,74.218750
6245,74.218750
6246,74.218750
6247,74.218750
6248,74.218750
6249,74.218750
6250,74.218750
6251,74.218750
6252,74.218750
6253,74.218750
6254,74.218750
6255,74.218750
6256,74.218750
6257,74.218750
6258,74.218750
6259,74.218750
6260,74.218750
6261,74.218750
6262,74.218750
6263,74.218750
6264,74.218750
6265,74.218750
6266,74.218750
6267,74.218750
6268,74.218750
6269,74.218750
6270,74.218750
6271,74.218750
6272,74.218750
6273,74.218750
6274,74.218750
6275,74.218750
6276,74.218750
6277,74.218750
6278,74.218750
6279,74.218750
6280,74.218750
6281,74.218750
6282,74.218750
6283,74.218750
6284,74.218750
6285,74.218750
6286,74.218750
6287,74.218750
6288,74.218750
6289,74.218750
6290,74.218750
6291,74.218750
6292,74.218750
6293,74.218750
6294,74.218750
6295,74.218750
6296,74.218750
6297,74.218750
6298,74.218750
6299,74.218750
6300,74.218750
6301,74.218750
6302,74.218750
6303,74.218750
6304,70.312500
6305,70.312500
6306,74.218750
6307,74.218750
6308,70.312500
6309,70.312500
6310,70.312500
6311,70.312500
6312,70.312500
6313,70.312500
6314,70.312500
6315,70.312500
6316,70.312500
6317,70.312500
6318,70.312500
6319,70.312500
6320,70.312500
6321,70.312500
6322,70.312500
6323,70.312500
6324,70.312500
6325,70.312500
6326,66.406250
6327,70.312500
6328,66.406250
6329,70.312500
6330,66.406250
6331,66.406250
6332,66.406250
6333,66.406250
6334,66.406250
6335,66.406250
6336,66.406250
6337,66.406250
6338,66.406250
6339,66.406250
6340,66.406250
6341,66.406250
6342,66.406250
6343,62.500000
6344,62.500000
6345,62.500000
6346,62.500000
6347,62.500000
6348,62.500000
6349,62.500000
6350,62.500000
6351,62.500000
6352,62.500000
6353,62.500000
6354,62.500000
6355,62.500000
6356,62.500000
6357,62.500000
6358,62.500000
6359,58.593750
6360,58.593750
6361,58.593750
6362,58.593750
6363,58.593750
6364,58.593750
6365,58.593750
6366,58.593750
6367,58.593750
6368,58.593750
6369,58.593750
6370,58.593750
6371,58.593750
6372,54.687500
6373,54.687500
6374,54.687500
6375,54.687500
6376,54.687500
6377,54.687500
6378,54.687500
6379,54.687500
6380,54.687500
6381,54.687500
6382,54.687500
6383,50.781250
6384,50.781250
6385,50.781250
6386,50.781250
6387,50.781250
6388,50.781250
6389,50.781250
6390,50.781250
6391,50.781250
6392,50.781250
6393,46.875000
6394,46.875000
6395,46.875000
6396,46.875000
6397,46.875000
6398,46.875000
6399,46.875000
6400,46.875000
6401,46.875000
6402,46.875000
6403,46.875000
6404,42.968750
6405,42.968750
6406,42.968750
6407,42.968750
6408,42.968750
6409,42.968750
6410,42.968750
6411,42.968750
6412,39.062500
6413,39.062500
6414,39.062500
6415,39.062500
6416,39.062500
6417,39.062500
6418,39.062500
6419,39.062500
6420,39.062500
6421,35.156250
6422,35.156250
6423,35.156250
6424,35.156250
6425,35.156250
6426,35.156250
6427,35.156250
6428,35.156250
6429,35.156250
6430,31.250000
6431,31.250000
6432,31.250000
6433,31.250000
6434,31.250000
6435,31.250000
6436,31.250000
6437,31.250000
6438,27.343750
6439,27.343750
6440,27.343750
6441,27.343750
6442,27.343750
6443,27.343750
6444,27.343750
6445,27.343750
6446,27.343750
6447,23.437500
6448,23.437500
6449,23.437500
6450,23.437500
6451,23.437500
6452,23.437500
6453,19.531250
6454,23.437500
6455,19.531250
6456,19.531250
6457,19.531250
6458,19.531250
6459,19.531250
6460,15.625000
6461,15.625000
6462,15.625000
6463,15.625000
6464,15.625000
6465,15.625000
6466,15.625000
6467,15.625000
6468,15.625000
6469,11.718750
6470,11.718750
6471,11.718750
6472,11.718750
6473,11.718750
6474,11.718750
6475,11.718750
6476,7.812500
6477,7.812500
6478,7.812500
6479,7.812500
6480,7.812500
6481,7.812500
6482,7.812500
6483,3.906250
6484,3.906250
6485,3.906250
6486,3.906250
6487,3.906250
6488,3.906250
6489,0.000000
6490,0.000000
6491,0.000000
6492,0.000000
6493,0.000000
6494,0.000000
6495,0.000000
6496,-3.906250
6497,-3.906250
6498,-3.906250
6499,-3.906250
6500,-3.906250
6501,-3.906250
6502,-7.812500
6503,-7.812500
6504,-7.812500
6505,-7.812500
6506,-7.812500
6507,-7.812500
6508,-7.812500
6509,-7.812500
6510,-7.812500
6511,-11.718750
6512,-11.718750
6513,-11.718750
6514,-11.718750
6515,-11.718750
6516,-15.625000
6517,-15.625000
6518,-15.625000
6519,-15.625000
6520,-15.625000
6521,-15.625000
6522,-15.625000
6523,-19.531250
6524,-19.531250
6525,-19.531250
6526,-19.531250
6527,-19.531250
6528,-19.531250
6529,-19.531250
6530,-19.531250
6531,-23.437500
6532,-23.437500
6533,-23.437500
6534,-23.437500
6535,-23.437500
6536,-27.343750
6537,-27.343750
6538,-27.343750
6539,-27.343750
6540,-27.343750
6541,-27.343750
6542,-27.343750
6543,-27.343750
6544,-31.250000
6545,-31.250000
6546,-31.250000
6547,-31.250000
6548,-31.250000
6549,-31.250000
6550,-35.156250
6551,-35.156250
6552,-35.156250
6553,-35.156250
6554,-35.156250
6555,-35.156250
6556,-35.156250
6557,-35.156250
6558,-39.062500
6559,-39.062500
6560,-39.062500
6561,-39.062500
6562,-39.062500
6563,-39.062500
6564,-42.968750
6565,-42.968750
6566,-42.968750
6567,-42.968750
6568,-42.968750
6569,-42.968750
6570,-42.968750
6571,-46.875000
6572,-46.875000
6573,-46.875000
6574,-46.875000
6575,-46.875000
6576,-46.875000
6577,-46.875000
6578,-46.875000
6579,-50.781250
6580,-50.781250
6581,-50.781250
6582,-50.781250
6583,-50.781250
6584,-50.781250
6585,-50.781250
6586,-54.687500
6587,-54.687500
6588,-54.687500
6589,-54.687500
6590,-54.687500
6591,-54.687500
6592,-54.687500
6593,-58.593750
6594,-58.593750
6595,-58.593750
6596,-58.593750
6597,-58.593750
6598,-58.593750
6599,-58.593750
6600,-58.593750
6601,-62.500000
6602,-62.500000
6603,-62.500000
6604,-62.500000
6605,-62.500000
6606,-62.500000
6607,-62.500000
6608,-66.406250
6609,-62.500000
6610,-66.406250
6611,-66.406250
6612,-66.406250
6613,-66.406250
6614,-66.406250
6615,-66.406250
6616,-70.312500
6617,-70.312500
6618,-70.312500
6619,-70.312500
6620,-70.312500
6621,-70.312500
6622,-70.312500
6623,-74.218750
6624,-74.218750
6625,-74.218750
6626,-74.218750
6627,-74.218750
6628,-74.218750
6629,-74.218750
6630,-74.218750
6631,-74.218750
6632,-78.125000
6633,-78.125000
6634,-78.125000
6635,-78.125000
6636,-78.125000
6637,-78.125000
6638,-78.125000
6639,-78.125000
6640,-82.031250
6641,-78.125000
6642,-82.031250
6643,-82.031250
6644,-82.031250
6645,-82.031250
6646,-82.031250
6647,-82.031250
6648,-82.031250
6649,-82.031250
6650,-82.031250
6651,-82.031250
6652,-85.937500
6653,-85.937500
6654,-85.937500
6655,-85.937500
6656,-85.937500
6657,-85.937500
6658,-85.937500
6659,-85.937500
6660,-85.937500
6661,-85.937500
6662,-85.937500
6663,-85.937500
6664,-89.843750
6665,-89.843750
6666,-89.843750
6667,-89.843750
6668,-89.843750
6669,-89.843750
6670,-89.843750
6671,-89.843750
6672,-89.843750
6673,-89.843750
6674,-93.750000
6675,-89.843750
6676,-93.750000
6677,-93.750000
6678,-93.750000
6679,-93.750000
6680,-93.750000
6681,-93.750000
6682,-93.750000
6683,-93.750000
6684,-93.750000
6685,-93.750000
6686,-97.656250
6687,-97.656250
6688,-97.656250
6689,-97.656250
6690,-97.656250
6691,-97.656250
6692,-97.656250
6693,-97.656250
6694,-97.656250
6695,-97.656250
6696,-97.656250
6697,-97.656250
6698,-97.656250
6699,-97.656250
6700,-97.656250
6701,-97.656250
6702,-97.656250
6703,-97.656250
6704,-101.562500
6705,-101.562500
6706,-101.562500
6707,-101.562500
6708,-101.562500
6709,-101.562500
6710,-101.562500
6711,-101.562500
6712,-101.562500
6713,-101.562500
6714,-101.562500
6715,-101.562500
6716,-101.562500
6717,-101.562500
6718,-101.562500
6719,-101.562500
6720,-101.562500
6721,-101.562500
6722,-101.562500
6723,-101.562500
6724,-101.562500
6725,-101.562500
6726,-101.562500
6727,-101.562500
6728,-105.468750
6729,-105.468750
6730,-105.468750
6731,-101.562500
6732,-105.468750
6733,-101.562500
6734,-105.468750
6735,-105.468750
6736,-105.468750
6737,-105.468750
6738,-105.468750
6739,-105.468750
6740,-105.468750
6741,-105.468750
6742,-105.468750
6743,-105.468750
6744,-105.468750
6745,-105.468750
6746,-105.468750
6747,-105.468750
6748,-105.468750
6749,-105.468750
6750,-105.468750
6751,-105.468750
6752,-105.468750
6753,-105.468750
6754,-105.468750
6755,-105.468750
6756,-105.468750
6757,-105.468750
6758,-105.468750
6759,-105.468750
6760,-105.468750
6761,-105.468750
6762,-105.468750
6763,-105.468750
6764,-105.468750
6765,-105.468750
6766,-105.468750
6767,-105.468750
6768,-105.468750
6769,-105.468750
6770,-105.468750
6771,-105.468750
6772,-105.468750
6773,-105.468750
6774,-105.468750
6775,-105.468750
6776,-105.468750
6777,-105.468750
6778,-105.468750
6779,-105.468750
6780,-105.468750
6781,-105.468750
6782,-105.468750
6783,-105.468750
6784,-101.562500
6785,-101.562500
6786,-105.468750
6787,-101.562500
6788,-101.562500
6789,-101.562500
6790,-101.562500
6791,-101.562500
6792,-101.562500
6793,-101.562500
6794,-101.562500
6795,-101.562500
6796,-101.562500
6797,-101.562500
6798,-101.562500
6799,-101.562500
6800,-101.562500
6801,-101.562500
6802,-101.562500
6803,-101.562500
6804,-101.562500
6805,-97.656250
6806,-97.656250
6807,-97.656250
6808,-97.656250
6809,-97.656250
6810,-97.656250
6811,-97.656250
6812,-97.656250
6813,-97.656250
6814,-97.656250
6815,-97.656250
6816,-97.656250
6817,-97.656250
6818,-97.656250
6819,-97.656250
6820,-97.656250
6821,-97.656250
6822,-97.656250
6823,-93.750000
6824,-93.750000
6825,-93.750000
6826,-93.750000
6827,-93.750000
6828,-93.750000
6829,-93.750000
6830,-93.750000
6831,-93.750000
6832,-93.750000
6833,-93.750000
6834,-93.750000
6835,-93.750000
6836,-89.843750
6837,-89.843750
6838,-89.843750
6839,-89.843750
6840,-89.843750
6841,-89.843750
6842,-89.843750
6843,-89.843750
6844,-89.843750
6845,-89.843750
6846,-89.843750
6847,-89.843750
6848,-85.937500
6849,-85.937500
6850,-85.937500
6851,-85.937500
6852,-85.937500
6853,-85.937500
6854,-85.937500
6855,-85.937500
6856,-85.937500
6857,-85.937500
6858,-82.031250
6859,-82.031250
6860,-82.031250
6861,-82.031250
6862,-82.031250
6863,-82.031250
6864,-82.031250
6865,-82.031250
6866,-82.031250
6867,-82.031250
6868,-78.125000
6869,-78.125000
6870,-78.125000
6871,-78.125000
6872,-78.125000
6873,-78.125000
6874,-78.125000
6875,-78.125000
6876,-78.125000
6877,-78.125000
6878,-78.125000
6879,-74.218750
6880,-74.218750
6881,-74.218750
6882,-74.218750
6883,-74.218750
6884,-74.218750
6885,-74.218750
6886,-74.218750
6887,-70.312500
6888,-70.312500
6889,-70.312500
6890,-70.312500
6891,-70.312500
6892,-70.312500
6893,-70.312500
6894,-66.406250
6895,-66.406250
6896,-70.312500
6897,-66.406250
6898,-66.406250
6899,-66.406250
6900,-66.406250
6901,-66.406250
6902,-66.406250
6903,-66.406250
6904,-62.500000
6905,-62.500000
6906,-62.500000
6907,-62.500000
6908,-62.500000
6909,-58.593750
6910,-58.593750
6911,-58.593750
6912,-58.593750
6913,-58.593750
6914,-58.593750
6915,-58.593750
6916,-58.593750
6917,-58.593750
6918,-58.593750
6919,-54.687500
6920,-54.687500
6921,-54.687500
6922,-54.687500
6923,-54.687500
6924,-50.781250
6925,-50.781250
6926,-50.781250
6927,-50.781250
6928,-50.781250
6929,-50.781250
6930,-50.781250
6931,-46.875000
6932,-50.781250
6933,-46.875000
6934,-46.875000
6935,-46.875000
6936,-46.875000
6937,-46.875000
6938,-46.875000
6939,-42.968750
6940,-42.968750
6941,-42.968750
6942,-42.968750
6943,-42.968750
6944,-42.968750
6945,-39.062500
6946,-39.062500
6947,-39.062500
6948,-39.062500
6949,-39.062500
6950,-39.062500
6951,-39.062500
6952,-39.062500
6953,-35.156250
6954,-35.156250
6955,-35.156250
6956,-35.156250
6957,-35.156250
6958,-35.156250
6959,-35.156250
6960,-35.156250
6961,-31.250000
6962,-31.250000
6963,-31.250000
6964,-31.250000
6965,-31.250000
6966,-27.343750
6967,-27.343750
6968,-27.343750
6969,-27.343750
6970,-27.343750
6971,-27.343750
6972,-27.343750
6973,-23.437500
6974,-27.343750
6975,-23.437500
6976,-23.437500
6977,-23.437500
6978,-23.437500
6979,-23.437500
6980,-19.531250
6981,-19.531250
6982,-19.531250
6983,-19.531250
6984,-19.531250
6985,-19.531250
6986,-19.531250
6987,-19.531250
6988,-15.625000
6989,-15.625000
6990,-15.625000
6991,-15.625000
6992,-15.625000
6993,-11.718750
6994,-15.625000
6995,-15.625000
6996,-11.718750
6997,-11.718750
6998,-11.718750
6999,-11.718750
7000,-7.812500
7001,-7.812500
7002,-7.812500
7003,-7.812500
7004,-7.812500
7005,-7.812500
7006,-7.812500
7007,-7.812500
7008,-3.906250
7009,-3.906250
7010,-3.906250
7011,-3.906250
7012,-3.906250
7013,-3.906250
7014,-3.906250
7015,0.000000
7016,0.000000
7017,0.000000
7018,0.000000
7019,0.000000
7020,0.000000
7021,3.906250
7022,3.906250
7023,3.906250
7024,3.906250
7025,3.906250
7026,3.906250
7027,3.906250
7028,3.906250
7029,7.812500
7030,7.812500
7031,7.812500
7032,7.812500
7033,7.812500
7034,7.812500
7035,11.718750
7036,11.718750
7037,11.718750
7038,11.718750
7039,11.718750
7040,11.718750
7041,11.718750
7042,15.625000
7043,15.625000
7044,15.625000
7045,15.625000
7046,15.625000
7047,15.625000
7048,15.625000
7049,15.625000
7050,19.531250
7051,19.531250
7052,19.531250
7053,19.531250
7054,19.531250
7055,19.531250
7056,19.531250
7057,19.531250
7058,23.437500
7059,23.437500
7060,23.437500
7061,23.437500
7062,23.437500
7063,23.437500
7064,23.437500
7065,27.343750
7066,27.343750
7067,27.343750
7068,27.343750
7069,27.343750
7070,27.343750
7071,27.343750
7072,31.250000
7073,31.250000
7074,31.250000
7075,31.250000
7076,31.250000
7077,31.250000
7078,31.250000
7079,31.250000
7080,31.250000
7081,35.156250
7082,35.156250
7083,35.156250
7084,35.156250
7085,35.156250
7086,35.156250
7087,35.156250
7088,39.062500
7089,35.156250
7090,39.062500
7091,39.062500
7092,39.062500
7093,39.062500
7094,39.062500
7095,39.062500
7096,39.062500
7097,42.968750
7098,42.968750
7099,42.968750
7100,42.968750
7101,42.968750
7102,42.968750
7103,42.968750
7104,42.968750
7105,46.875000
7106,46.875000
7107,46.875000
7108,46.875000
7109,46.875000
7110,46.875000
7111,46.875000
7112,46.875000
7113,46.875000
7114,46.875000
7115,50.781250
7116,50.781250
7117,50.781250
7118,50.781250
7119,50.781250
7120,50.781250
7121,50.781250
7122,50.781250
7123,50.781250
7124,50.781250
7125,50.781250
7126,50.781250
7127,50.781250
7128,54.687500
7129,54.687500
7130,54.687500
7131,54.687500
7132,54.687500
7133,54.687500
7134,54.687500
7135,54.687500
7136,54.687500
7137,54.687500
7138,58.593750
7139,58.593750
7140,58.593750
7141,58.593750
7142,58.593750
7143,58.593750
7144,58.593750
7145,58.593750
7146,58.593750
7147,58.593750
7148,58.593750
7149,62.500000
7150,58.593750
7151,62.500000
7152,62.500000
7153,62.500000
7154,62.500000
7155,62.500000
7156,62.500000
7157,62.500000
7158,62.500000
7159,62.500000
7160,62.500000
7161,62.500000
7162,62.500000
7163,62.500000
7164,62.500000
7165,62.500000
7166,66.406250
7167,66.406250
7168,66.406250
7169,66.406250
7170,66.406250
7171,66.406250
7172,66.406250
7173,66.406250
7174,66.406250
7175,66.406250
7176,66.406250
7177,66.406250
7178,66.406250
7179,66.406250
7180,70.312500
7181,70.312500
7182,70.312500
7183,70.312500
7184,70.312500
7185,70.312500
7186,70.312500
7187,70.312500
7188,70.312500
7189,70.312500
7190,70.312500
7191,70.312500
7192,70.312500
7193,70.312500
7194,70.312500
7195,70.312500
7196,70.312500
7197,70.312500
7198,70.312500
7199,70.312500
7200,74.218750
7201,74.218750
7202,74.218750
7203,74.218750
7204,74.218750
7205,74.218750
7206,74.218750
7207,74.218750
7208,74.218750
7209,74.218750
7210,74.218750
7211,74.218750
7212,74.218750
7213,74.218750
7214,74.218750
7215,74.218750
7216,74.218750
7217,74.218750
7218,74.218750
7219,74.218750
7220,74.218750
7221,74.218750
7222,74.218750
7223,74.218750
7224,74.218750
7225,74.218750
7226,74.218750
7227,74.218750
7228,78.125000
7229,74.218750
7230,74.218750
7231,74.218750
7232,74.218750
7233,74.218750
7234,74.218750
7235,78.125000
7236,78.125000
7237,74.218750
7238,74.218750
7239,74.218750
7240,74.218750
7241,78.125000
7242,74.218750
7243,78.125000
7244,74.218750
7245,74.218750
7246,74.218750
7247,74.218750
7248,74.218750
7249,78.125000
7250,74.218750
7251,74.218750
7252,74.218750
7253,74.218750
7254,74.218750
7255,78.125000
7256,74.218750
7257,74.218750
7258,74.218750
7259,78.125000
7260,74.218750
7261,74.218750
7262,74.218750
7263,74.218750
7264,74.218750
7265,74.218750
7266,74.218750
7267,74.218750
7268,74.218750
7269,74.218750
7270,74.218750
7271,74.218750
7272,74.218750
7273,74.218750
7274,74.218750
7275,74.218750
7276,74.218750
7277,74.218750
7278,74.218750
7279,70.312500
7280,74.218750
7281,74.218750
7282,74.218750
7283,74.218750
7284,74.218750
7285,74.218750
7286,74.218750
7287,74.218750
7288,74.218750
7289,74.218750
7290,74.218750
7291,74.218750
7292,74.218750
7293,74.218750
7294,74.218750
7295,74.218750
7296,74.218750
7297,74.218750
7298,74.218750
7299,74.218750
7300,70.312500
7301,74.218750
7302,70.312500
7303,70.312500
7304,70.312500
7305,70.312500
7306,70.312500
7307,70.312500
7308,70.312500
7309,70.312500
7310,70.312500
7311,70.312500
7312,70.312500
7313,70.312500
7314,70.312500
7315,70.312500
7316,70.312500
7317,70.312500
7318,70.312500
7319,70.312500
7320,70.312500
7321,70.312500
7322,66.406250
7323,66.406250
7324,66.406250
7325,66.406250
7326,66.406250
7327,66.406250
7328,66.406250
7329,66.406250
7330,66.406250
7331,66.406250
7332,66.406250
7333,66.406250
7334,66.406250
7335,66.406250
7336,62.500000
7337,66.406250
7338,66.406250
7339,62.500000
7340,62.500000
7341,62.500000
7342,62.500000
7343,62.500000
7344,62.500000
7345,62.500000
7346,62.500000
7347,62.500000
7348,62.500000
7349,62.500000
7350,62.500000
7351,58.593750
7352,58.593750
7353,58.593750
7354,58.593750
7355,58.593750
7356,58.593750
7357,58.593750
7358,58.593750
7359,58.593750
7360,58.593750
7361,58.593750
7362,58.593750
7363,58.593750
7364,58.593750
7365,54.687500
7366,54.687500
7367,54.687500
7368,54.687500
7369,54.687500
7370,54.687500
7371,54.687500
7372,54.687500
7373,54.687500
7374,54.687500
7375,50.781250
7376,50.781250
7377,50.781250
7378,50.781250
7379,50.781250
7380,50.781250
7381,50.781250
7382,50.781250
7383,50.781250
7384,46.875000
7385,46.875000
7386,46.875000
7387,46.875000
7388,46.875000
7389,50.781250
7390,46.875000
7391,46.875000
7392,46.875000
7393,46.875000
7394,42.968750
7395,42.968750
7396,42.968750
7397,42.968750
7398,42.968750
7399,42.968750
7400,42.968750
7401,42.968750
7402,42.968750
7403,39.062500
7404,39.062500
7405,39.062500
7406,39.062500
7407,39.062500
7408,39.062500
7409,39.062500
7410,39.062500
7411,39.062500
7412,39.062500
7413,35.156250
7414,35.156250
7415,35.156250
7416,35.156250
7417,35.156250
7418,35.156250
7419,35.156250
7420,31.250000
7421,31.250000
7422,31.250000
7423,31.250000
7424,31.250000
7425,31.250000
7426,31.250000
7427,31.250000
7428,31.250000
7429,27.343750
7430,27.343750
7431,27.343750
7432,27.343750
7433,27.343750
7434,27.343750
7435,27.343750
7436,27.343750
7437,23.437500
7438,23.437500
7439,23.437500
7440,23.437500
7441,23.437500
7442,23.437500
7443,23.437500
7444,23.437500
7445,19.531250
7446,19.531250
7447,19.531250
7448,19.531250
7449,19.531250
7450,19.531250
7451,19.531250
7452,15.625000
7453,15.625000
7454,15.625000
7455,15.625000
7456,15.625000
7457,15.625000
7458,15.625000
7459,15.625000
7460,11.718750
7461,11.718750
7462,11.718750
7463,11.718750
7464,11.718750
7465,11.718750
7466,11.718750
7467,7.812500
7468,7.812500
7469,7.812500
7470,7.812500
7471,7.812500
7472,7.812500
7473,7.812500
7474,7.812500
7475,3.906250
7476,3.906250
7477,3.906250
7478,3.906250
7479,3.906250
7480,3.906250
7481,3.906250
7482,0.000000
7483,0.000000
7484,0.000000
7485,0.000000
7486,0.000000
7487,-3.906250
7488,-3.906250
7489,-3.906250
7490,-3.906250
7491,-3.906250
7492,-3.906250
7493,-3.906250
7494,-3.906250
7495,-7.812500
7496,-7.812500
7497,-7.812500
7498,-7.812500
7499,-7.812500
7500,-7.812500
7501,-7.812500
7502,-11.718750
7503,-11.718750
7504,-11.718750
7505,-11.718750
7506,-11.718750
7507,-11.718750
7508,-15.625000
7509,-15.625000
7510,-15.625000
7511,-15.625000
7512,-15.625000
7513,-15.625000
7514,-15.625000
7515,-19.531250
7516,-19.531250
7517,-19.531250
7518,-19.531250
7519,-19.531250
7520,-19.531250
7521,-19.531250
7522,-23.437500
7523,-23.437500
7524,-23.437500
7525,-23.437500
7526,-23.437500
7527,-23.437500
7528,-27.343750
7529,-27.343750
7530,-27.343750
7531,-27.343750
7532,-27.343750
7533,-27.343750
7534,-27.343750
7535,-27.343750
7536,-31.250000
7537,-31.250000
7538,-31.250000
7539,-31.250000
7540,-31.250000
7541,-31.250000
7542,-31.250000
7543,-35.156250
7544,-35.156250
7545,-35.156250
7546,-35.156250
7547,-35.156250
7548,-39.062500
7549,-39.062500
7550,-39.062500
7551,-39.062500
7552,-39.062500
7553,-39.062500
7554,-39.062500
7555,-39.062500
7556,-42.968750
7557,-42.968750
7558,-42.968750
7559,-42.968750
7560,-42.968750
7561,-42.968750
7562,-42.968750
7563,-46.875000
7564,-46.875000
7565,-46.875000
7566,-46.875000
7567,-46.875000
7568,-46.875000
7569,-46.875000
7570,-46.875000
7571,-46.875000
7572,-50.781250
7573,-50.781250
7574,-50.781250
7575,-50.781250
7576,-50.781250
7577,-54.687500
7578,-54.687500
7579,-54.687500
7580,-54.687500
7581,-54.687500
7582,-54.687500
7583,-54.687500
7584,-54.687500
7585,-54.687500
7586,-58.593750
7587,-58.593750
7588,-58.593750
7589,-58.593750
7590,-58.593750
7591,-58.593750
7592,-58.593750
7593,-62.500000
7594,-62.500000
7595,-62.500000
7596,-62.500000
7597,-62.500000
7598,-62.500000
7599,-62.500000
7600,-66.406250
7601,-62.500000
7602,-66.406250
7603,-66.406250
7604,-66.406250
7605,-66.406250
7606,-66.406250
7607,-66.406250
7608,-66.406250
7609,-70.312500
7610,-70.312500
7611,-70.312500
7612,-70.312500
7613,-70.312500
7614,-70.312500
7615,-70.312500
7616,-70.312500
7617,-74.218750
7618,-74.218750
7619,-74.218750
7620,-74.218750
7621,-74.218750
7622,-74.218750
7623,-74.218750
7624,-74.218750
7625,-74.218750
7626,-78.125000
7627,-78.125000
7628,-78.125000
7629,-78.125000
7630,-78.125000
7631,-78.125000
7632,-78.125000
7633,-78.125000
7634,-78.125000
7635,-78.125000
7636,-78.125000
7637,-82.031250
7638,-82.031250
7639,-82.031250
7640,-82.031250
7641,-82.031250
7642,-82.031250
7643,-82.031250
7644,-82.031250
7645,-82.031250
7646,-85.937500
7647,-85.937500
7648,-85.937500
7649,-85.937500
7650,-85.937500
7651,-85.937500
7652,-89.843750
7653,-85.937500
7654,-85.937500
7655,-89.843750
7656,-89.843750
7657,-89.843750
7658,-89.843750
7659,-89.843750
7660,-89.843750
7661,-89.843750
7662,-89.843750
7663,-89.843750
7664,-89.843750
7665,-89.843750
7666,-89.843750
7667,-89.843750
7668,-89.843750
7669,-89.843750
7670,-93.750000
7671,-93.750000
7672,-93.750000
7673,-93.750000
7674,-93.750000
7675,-93.750000
7676,-93.750000
7677,-93.750000
7678,-93.750000
7679,-93.750000
7680,-93.750000
7681,-93.750000
7682,-97.656250
7683,-97.656250
7684,-101.562500
7685,-93.750000
7686,-97.656250
7687,-97.656250
7688,-93.750000
7689,-97.656250
7690,-97.656250
7691,-97.656250
7692,-97.656250
7693,-97.656250
7694,-97.656250
7695,-97.656250
7696,-101.562500
7697,-97.656250
7698,-97.656250
7699,-97.656250
7700,-97.656250
7701,-97.656250
7702,-101.562500
7703,-101.562500
7704,-101.562500
7705,-101.562500
7706,-101.562500
7707,-101.562500
7708,-101.562500
7709,-101.562500
7710,-101.562500
7711,-101.562500
7712,-101.562500
7713,-101.562500
7714,-101.562500
7715,-101.562500
7716,-101.562500
7717,-101.562500
7718,-101.562500
7719,-101.562500
7720,-101.562500
7721,-101.562500
7722,-101.562500
7723,-101.562500
7724,-101.562500
7725,-101.562500
7726,-101.562500
7727,-101.562500
7728,-101.562500
7729,-101.562500
7730,-101.562500
7731,-101.562500
7732,-101.562500
7733,-101.562500
7734,-101.562500
7735,-101.562500
7736,-101.562500
7737,-101.562500
7738,-101.562500
7739,-105.468750
7740,-105.468750
7741,-105.468750
7742,-105.468750
7743,-105.468750
7744,-105.468750
7745,-105.468750
7746,-105.468750
7747,-105.468750
7748,-105.468750
7749,-105.468750
7750,-105.468750
7751,-101.562500
7752,-101.562500
7753,-101.562500
7754,-105.468750
7755,-101.562500
7756,-101.562500
7757,-101.562500
7758,-101.562500
7759,-101.562500
7760,-105.468750
7761,-105.468750
7762,-101.562500
7763,-101.562500
7764,-101.562500
7765,-101.562500
7766,-101.562500
7767,-101.562500
7768,-101.562500
7769,-101.562500
7770,-101.562500
7771,-101.562500
7772,-101.562500
7773,-101.562500
7774,-101.562500
7775,-101.562500
7776,-101.562500
7777,-101.562500
7778,-101.562500
7779,-101.562500
7780,-101.562500
7781,-101.562500
7782,-101.562500
7783,-101.562500
7784,-101.562500
7785,-101.562500
7786,-101.562500
7787,-101.562500
7788,-101.562500
7789,-101.562500
7790,-101.562500
7791,-101.562500
7792,-101.562500
7793,-101.562500
7794,-97.656250
7795,-97.656250
7796,-97.656250
7797,-97.656250
7798,-97.656250
7799,-97.656250
7800,-97.656250
7801,-97.656250
7802,-97.656250
7803,-97.656250
7804,-97.656250
7805,-97.656250
7806,-97.656250
7807,-97.656250
7808,-97.656250
7809,-93.750000
7810,-97.656250
7811,-93.750000
7812,-93.750000
7813,-93.750000
7814,-93.750000
7815,-93.750000
7816,-93.750000
7817,-93.750000
7818,-93.750000
7819,-93.750000
7820,-93.750000
7821,-93.750000
7822,-93.750000
7823,-89.843750
7824,-93.750000
7825,-89.843750
7826,-89.843750
7827,-89.843750
7828,-89.843750
7829,-89.843750
7830,-89.843750
7831,-89.843750
7832,-89.843750
7833,-89.843750
7834,-89.843750
7835,-85.937500
7836,-89.843750
7837,-85.937500
7838,-85.937500
7839,-85.937500
7840,-85.937500
7841,-85.937500
7842,-85.937500
7843,-85.937500
7844,-85.937500
7845,-85.937500
7846,-82.031250
7847,-82.031250
7848,-82.031250
7849,-82.031250
7850,-82.031250
7851,-82.031250
7852,-82.031250
7853,-82.031250
7854,-82.031250
7855,-82.031250
7856,-82.031250
7857,-78.125000
7858,-78.125000
7859,-78.125000
7860,-78.125000
7861,-78.125000
7862,-78.125000
7863,-78.125000
7864,-78.125000
7865,-74.218750
7866,-74.218750
7867,-74.218750
7868,-74.218750
7869,-74.218750
7870,-74.218750
7871,-74.218750
7872,-74.218750
7873,-74.218750
7874,-74.218750
7875,-70.312500
7876,-70.312500
7877,-70.312500
7878,-70.312500
7879,-70.312500
7880,-70.312500
7881,-70.312500
7882,-66.406250
7883,-66.406250
7884,-70.312500
7885,-66.406250
7886,-66.406250
7887,-66.406250
7888,-66.406250
7889,-62.500000
7890,-66.406250
7891,-62.500000
7892,-62.500000
7893,-62.500000
7894,-62.500000
7895,-62.500000
7896,-62.500000
7897,-62.500000
7898,-58.593750
7899,-58.593750
7900,-58.593750
7901,-58.593750
7902,-58.593750
7903,-58.593750
7904,-58.593750
7905,-58.593750
7906,-58.593750
7907,-54.687500
7908,-54.687500
7909,-54.687500
7910,-54.687500
7911,-54.687500
7912,-50.781250
7913,-54.687500
7914,-54.687500
7915,-54.687500
7916,-50.781250
7917,-50.781250
7918,-50.781250
7919,-50.781250
7920,-46.875000
7921,-46.875000
7922,-46.875000
7923,-46.875000
7924,-46.875000
7925,-46.875000
7926,-46.875000
7927,-46.875000
7928,-42.968750
7929,-42.968750
7930,-42.968750
7931,-42.968750
7932,-42.968750
7933,-42.968750
7934,-42.968750
7935,-39.062500
7936,-39.062500
7937,-39.062500
7938,-39.062500
7939,-39.062500
7940,-39.062500
7941,-39.062500
7942,-35.156250
7943,-35.156250
7944,-35.156250
7945,-35.156250
7946,-35.156250
7947,-35.156250
7948,-35.156250
7949,-31.250000
7950,-31.250000
7951,-31.250000
7952,-31.250000
7953,-31.250000
7954,-31.250000
7955,-27.343750
7956,-27.343750
7957,-27.343750
7958,-27.343750
7959,-27.343750
7960,-27.343750
7961,-27.343750
7962,-27.343750
7963,-23.437500
7964,-23.437500
7965,-23.437500
7966,-23.437500
7967,-23.437500
7968,-23.437500
7969,-19.531250
7970,-19.531250
7971,-19.531250
7972,-19.531250
7973,-19.531250
7974,-19.531250
7975,-15.625000
7976,-15.625000
7977,-15.625000
7978,-15.625000
7979,-15.625000
7980,-15.625000
7981,-15.625000
7982,-11.718750
7983,-11.718750
7984,-11.718750
7985,-11.718750
7986,-11.718750
7987,-11.718750
7988,-11.718750
7989,-7.812500
7990,-7.812500
7991,-7.812500
7992,-7.812500
7993,-7.812500
7994,-7.812500
7995,-7.812500
7996,-3.906250
7997,-3.906250
7998,-3.906250
7999,-3.906250
8000,-3.906250
8001,-3.906250
8002,-3.906250
8003,0.000000
8004,0.000000
8005,0.000000
8006,0.000000
8007,0.000000
8008,0.000000
8009,0.000000
8010,3.906250
8011,3.906250
8012,3.906250
8013,3.906250
8014,3.906250
8015,3.906250
8016,3.906250
8017,7.812500
8018,7.812500
8019,7.812500
8020,7.812500
8021,7.812500
8022,7.812500
8023,11.718750
8024,11.718750
8025,11.718750
8026,11.718750
8027,11.718750
8028,11.718750
8029,11.718750
8030,15.625000
8031,15.625000
8032,15.625000
8033,15.625000
8034,15.625000
8035,15.625000
8036,15.625000
8037,15.625000
8038,15.625000
8039,19.531250
8040,19.531250
8041,19.531250
8042,19.531250
8043,19.531250
8044,19.531250
8045,19.531250
8046,19.531250
8047,23.437500
8048,23.437500
8049,23.437500
8050,23.437500
8051,23.437500
8052,23.437500
8053,23.437500
8054,27.343750
8055,27.343750
8056,27.343750
8057,27.343750
8058,27.343750
8059,27.343750
8060,27.343750
8061,27.343750
8062,31.250000
8063,31.250000
8064,31.250000
8065,31.250000
8066,31.250000
8067,31.250000
8068,31.250000
8069,31.250000
8070,31.250000
8071,35.156250
8072,35.156250
8073,35.156250
8074,35.156250
8075,35.156250
8076,35.156250
8077,35.156250
8078,35.156250
8079,39.062500
8080,39.062500
8081,39.062500
8082,39.062500
8083,39.062500
8084,39.062500
8085,39.062500
8086,39.062500
8087,42.968750
8088,42.968750
8089,42.968750
8090,42.968750
8091,42.968750
8092,42.968750
8093,42.968750
8094,42.968750
8095,42.968750
8096,46.875000
8097,42.968750
8098,46.875000
8099,46.875000
8100,46.875000
8101,46.875000
8102,46.875000
8103,46.875000
8104,46.875000
8105,46.875000
8106,46.875000
8107,46.875000
8108,50.781250
8109,50.781250
8110,50.781250
8111,50.781250
8112,50.781250
8113,50.781250
8114,50.781250
8115,50.781250
8116,50.781250
8117,54.687500
8118,54.687500
8119,54.687500
8120,54.687500
8121,54.687500
8122,54.687500
8123,54.687500
8124,54.687500
8125,54.687500
8126,54.687500
8127,54.687500
8128,58.593750
8129,58.593750
8130,58.593750
8131,58.593750
8132,58.593750
8133,58.593750
8134,58.593750
8135,58.593750
8136,58.593750
8137,58.593750
8138,62.500000
8139,62.500000
8140,58.593750
8141,58.593750
8142,58.593750
8143,62.500000
8144,62.500000
8145,62.500000
8146,62.500000
8147,62.500000
8148,62.500000
8149,62.500000
8150,62.500000
8151,62.500000
8152,62.500000
8153,62.500000
8154,66.406250
8155,66.406250
8156,66.406250
8157,66.406250
8158,66.406250
8159,66.406250
8160,66.406250
8161,66.406250
8162,66.406250
8163,66.406250
8164,66.406250
8165,66.406250
8166,66.406250
8167,66.406250
8168,66.406250
8169,66.406250
8170,66.406250
8171,70.312500
8172,70.312500
8173,70.312500
8174,66.406250
8175,70.312500
8176,70.312500
8177,70.312500
8178,70.312500
8179,70.312500
8180,70.312500
8181,70.312500
8182,70.312500
8183,70.312500
8184,70.312500
8185,70.312500
8186,70.312500
8187,70.312500
8188,70.312500
8189,70.312500
8190,70.312500
8191,70.312500
8192,70.312500
8193,74.218750
8194,70.312500
8195,70.312500
8196,70.312500
8197,74.218750
8198,70.312500
8199,74.218750
8200,74.218750
8201,74.218750
8202,74.218750
8203,74.218750
8204,74.218750
8205,74.218750
8206,74.218750
8207,74.218750
8208,74.218750
8209,74.218750
8210,74.218750
8211,74.218750
8212,74.218750
8213,74.218750
8214,74.218750
8215,74.218750
8216,74.218750
8217,74.218750
8218,74.218750
8219,74.218750
8220,74.218750
8221,74.218750
8222,74.218750
8223,74.218750
8224,74.218750
8225,74.218750
8226,74.218750
8227,74.218750
8228,74.218750
8229,74.218750
8230,78.125000
8231,74.218750
8232,74.218750
8233,74.218750
8234,74.218750
8235,74.218750
8236,74.218750
8237,74.218750
8238,74.218750
8239,74.218750
8240,74.218750
8241,74.218750
8242,74.218750
8243,74.218750
8244,74.218750
8245,74.218750
8246,74.218750
8247,74.218750
8248,78.125000
8249,74.218750
8250,74.218750
8251,74.218750
8252,74.218750
8253,74.218750
8254,74.218750
8255,74.218750
8256,74.218750
8257,74.218750
8258,74.218750
8259,74.218750
8260,74.218750
8261,74.218750
8262,74.218750
8263,74.218750
8264,74.218750
8265,74.218750
8266,74.218750
8267,74.218750
8268,74.218750
8269,74.218750
8270,74.218750
8271,74.218750
8272,74.218750
8273,74.218750
8274,74.218750
8275,74.218750
8276,74.218750
8277,74.218750
8278,74.218750
8279,74.218750
8280,74.218750
8281,74.218750
8282,74.218750
8283,74.218750
8284,74.218750
8285,74.218750
8286,70.312500
8287,70.312500
8288,70.312500
8289,70.312500
8290,70.312500
8291,70.312500
8292,70.312500
8293,70.312500
8294,70.312500
8295,70.312500
8296,70.312500
8297,70.312500
8298,70.312500
8299,70.312500
8300,70.312500
8301,70.312500
8302,70.312500
8303,70.312500
8304,70.312500
8305,70.312500
8306,66.406250
8307,66.406250
8308,66.406250
8309,66.406250
8310,66.406250
8311,66.406250
8312,66.406250
8313,66.406250
8314,66.406250
8315,66.406250
8316,66.406250
8317,66.406250
8318,66.406250
8319,66.406250
8320,66.406250
8321,66.406250
8322,66.406250
8323,66.406250
8324,66.406250
8325,66.406250
8326,62.500000
8327,62.500000
8328,62.500000
8329,62.500000
8330,62.500000
8331,62.500000
8332,62.500000
8333,62.500000
8334,62.500000
8335,62.500000
8336,62.500000
8337,62.500000
8338,62.500000
8339,58.593750
8340,58.593750
8341,58.593750
8342,58.593750
8343,58.593750
8344,58.593750
8345,58.593750
8346,58.593750
8347,58.593750
8348,58.593750
8349,58.593750
8350,58.593750
8351,58.593750
8352,54.687500
8353,54.687500
8354,54.687500
8355,54.687500
8356,54.687500
8357,54.687500
8358,54.687500
8359,54.687500
8360,54.687500
8361,50.781250
8362,50.781250
8363,54.687500
8364,50.781250
8365,50.781250
8366,50.781250
8367,50.781250
8368,50.781250
8369,50.781250
8370,50.781250
8371,50.781250
8372,50.781250
8373,46.875000
8374,46.875000
8375,50.781250
8376,46.875000
8377,46.875000
8378,46.875000
8379,46.875000
8380,46.875000
8381,46.875000
8382,46.875000
8383,46.875000
8384,42.968750
8385,42.968750
8386,42.968750
8387,42.968750
8388,42.968750
8389,42.968750
8390,42.968750
8391,42.968750
8392,39.062500
8393,39.062500
8394,39.062500
8395,39.062500
8396,39.062500
8397,39.062500
8398,39.062500
8399,39.062500
8400,35.156250
8401,39.062500
8402,35.156250
8403,35.156250
8404,35.156250
8405,35.156250
8406,35.156250
8407,35.156250
8408,35.156250
8409,35.156250
8410,31.250000
8411,31.250000
8412,31.250000
8413,31.250000
8414,31.250000
8415,31.250000
8416,31.250000
8417,27.343750
8418,27.343750
8419,27.343750
8420,27.343750
8421,27.343750
8422,27.343750
8423,27.343750
8424,27.343750
8425,23.437500
8426,23.437500
8427,23.437500
8428,23.437500
8429,23.437500
8430,23.437500
8431,23.437500
8432,19.531250
8433,19.531250
8434,19.531250
8435,19.531250
8436,19.531250
8437,19.531250
8438,19.531250
8439,15.625000
8440,15.625000
8441,15.625000
8442,15.625000
8443,15.625000
8444,15.625000
8445,15.625000
8446,15.625000
8447,11.718750
8448,11.718750
8449,11.718750
8450,11.718750
8451,11.718750
8452,11.718750
8453,11.718750
8454,7.812500
8455,7.812500
8456,7.812500
8457,7.812500
8458,7.812500
8459,7.812500
8460,7.812500
8461,3.906250
8462,3.906250
8463,3.906250
8464,3.906250
8465,3.906250
8466,3.906250
8467,3.906250
8468,3.906250
8469,0.000000
8470,0.000000
8471,0.000000
8472,0.000000
8473,0.000000
8474,0.000000
8475,0.000000
8476,-3.906250
8477,-3.906250
8478,-3.906250
8479,-3.906250
8480,-3.906250
8481,-3.906250
8482,-7.812500
8483,-7.812500
8484,-7.812500
8485,-7.812500
8486,-7.812500
8487,-7.812500
8488,-11.718750
8489,-7.812500
8490,-11.718750
8491,-11.718750
8492,-11.718750
8493,-11.718750
8494,-11.718750
8495,-11.718750
8496,-15.625000
8497,-15.625000
8498,-15.625000
8499,-15.625000
8500,-15.625000
8501,-15.625000
8502,-15.625000
8503,-15.625000
8504,-19.531250
8505,-19.531250
8506,-19.531250
8507,-19.531250
8508,-19.531250
8509,-19.531250
8510,-23.437500
8511,-23.437500
8512,-23.437500
8513,-23.437500
8514,-23.437500
8515,-27.343750
8516,-27.343750
8517,-27.343750
8518,-27.343750
8519,-27.343750
8520,-27.343750
8521,-27.343750
8522,-31.250000
8523,-31.250000
8524,-31.250000
8525,-31.250000
8526,-31.250000
8527,-31.250000
8528,-31.250000
8529,-35.156250
8530,-35.156250
8531,-35.156250
8532,-35.156250
8533,-35.156250
8534,-35.156250
8535,-35.156250
8536,-39.062500
8537,-39.062500
8538,-39.062500
8539,-39.062500
8540,-39.062500
8541,-39.062500
8542,-39.062500
8543,-42.968750
8544,-42.968750
8545,-42.968750
8546,-42.968750
8547,-42.968750
8548,-42.968750
8549,-42.968750
8550,-46.875000
8551,-46.875000
8552,-46.875000
8553,-46.875000
8554,-46.875000
8555,-46.875000
8556,-46.875000
8557,-46.875000
8558,-50.781250
8559,-50.781250
8560,-50.781250
8561,-50.781250
8562,-50.781250
8563,-54.687500
8564,-54.687500
8565,-54.687500
8566,-54.687500
8567,-54.687500
8568,-54.687500
8569,-54.687500
8570,-58.593750
8571,-58.593750
8572,-58.593750
8573,-58.593750
8574,-58.593750
8575,-58.593750
8576,-58.593750
8577,-62.500000
8578,-62.500000
8579,-62.500000
8580,-62.500000
8581,-62.500000
8582,-62.500000
8583,-62.500000
8584,-62.500000
8585,-66.406250
8586,-62.500000
8587,-66.406250
8588,-66.406250
8589,-66.406250
8590,-66.406250
8591,-66.406250
8592,-66.406250
8593,-66.406250
8594,-70.312500
8595,-70.312500
8596,-70.312500
8597,-70.312500
8598,-70.312500
8599,-70.312500
8600,-70.312500
8601,-70.312500
8602,-74.218750
8603,-74.218750
8604,-74.218750
8605,-74.218750
8606,-74.218750
8607,-74.218750
8608,-74.218750
8609,-74.218750
8610,-74.218750
8611,-74.218750
8612,-74.218750
8613,-78.125000
8614,-78.125000
8615,-78.125000
8616,-78.125000
8617,-78.125000
8618,-78.125000
8619,-78.125000
8620,-78.125000
8621,-78.125000
8622,-82.031250
8623,-82.031250
8624,-82.031250
8625,-82.031250
8626,-82.031250
8627,-82.031250
8628,-82.031250
8629,-82.031250
8630,-82.031250
8631,-85.937500
8632,-85.937500
8633,-85.937500
8634,-85.937500
8635,-85.937500
8636,-85.937500
8637,-85.937500
8638,-85.937500
8639,-85.937500
8640,-85.937500
8641,-85.937500
8642,-89.843750
8643,-89.843750
8644,-89.843750
8645,-89.843750
8646,-89.843750
8647,-89.843750
8648,-89.843750
8649,-89.843750
8650,-89.843750
8651,-89.843750
8652,-89.843750
8653,-89.843750
8654,-93.750000
8655,-93.750000
8656,-93.750000
8657,-93.750000
8658,-93.750000
8659,-93.750000
8660,-93.750000
8661,-93.750000
8662,-93.750000
8663,-93.750000
8664,-93.750000
8665,-93.750000
8666,-97.656250
8667,-97.656250
8668,-97.656250
8669,-97.656250
8670,-97.656250
8671,-97.656250
8672,-97.656250
8673,-97.656250
8674,-97.656250
8675,-97.656250
8676,-97.656250
8677,-97.656250
8678,-97.656250
8679,-97.656250
8680,-97.656250
8681,-97.656250
8682,-97.656250
8683,-101.562500
8684,-101.562500
8685,-101.562500
8686,-101.562500
8687,-101.562500
8688,-101.562500
8689,-101.562500
8690,-101.562500
8691,-101.562500
8692,-101.562500
8693,-101.562500
8694,-101.562500
8695,-101.562500
8696,-101.562500
8697,-101.562500
8698,-101.562500
8699,-101.562500
8700,-101.562500
8701,-101.562500
8702,-101.562500
8703,-101.562500
8704,-105.468750
8705,-105.468750
8706,-105.468750
8707,-105.468750
8708,-105.468750
8709,-105.468750
8710,-105.468750
8711,-105.468750
8712,-105.468750
8713,-105.468750
8714,-105.468750
8715,-105.468750
8716,-105.468750
8717,-105.468750
8718,-105.468750
8719,-105.468750
8720,-105.468750
8721,-105.468750
8722,-105.468750
8723,-105.468750
8724,-105.468750
8725,-105.468750
8726,-105.468750
8727,-105.468750
8728,-105.468750
8729,-105.468750
8730,-105.468750
8731,-105.468750
8732,-105.468750
8733,-105.468750
8734,-105.468750
8735,-105.468750
8736,-105.468750
8737,-105.468750
8738,-105.468750
8739,-105.468750
8740,-105.468750
8741,-105.468750
8742,-105.468750
8743,-105.468750
8744,-105.468750
8745,-105.468750
8746,-105.468750
8747,-105.468750
8748,-105.468750
8749,-105.468750
8750,-105.468750
8751,-105.468750
8752,-105.468750
8753,-105.468750
8754,-105.468750
8755,-105.468750
8756,-105.468750
8757,-105.468750
8758,-105.468750
8759,-105.468750
8760,-105.468750
8761,-105.468750
8762,-101.562500
8763,-105.468750
8764,-105.468750
8765,-101.562500
8766,-101.562500
8767,-101.562500
8768,-101.562500
8769,-101.562500
8770,-101.562500
8771,-101.562500
8772,-101.562500
8773,-101.562500
8774,-101.562500
8775,-101.562500
8776,-101.562500
8777,-101.562500
8778,-101.562500
8779,-101.562500
8780,-101.562500
8781,-101.562500
8782,-101.562500
8783,-101.562500
8784,-101.562500
8785,-101.562500
8786,-101.562500
8787,-101.562500
8788,-101.562500
8789,-97.656250
8790,-97.656250
8791,-97.656250
8792,-97.656250
8793,-97.656250
8794,-97.656250
8795,-97.656250
8796,-97.656250
8797,-97.656250
8798,-97.656250
8799,-97.656250
8800,-97.656250
8801,-97.656250
8802,-97.656250
8803,-97.656250
8804,-97.656250
8805,-97.656250
8806,-93.750000
8807,-93.750000
8808,-93.750000
8809,-93.750000
8810,-93.750000
8811,-93.750000
8812,-93.750000
8813,-93.750000
8814,-93.750000
8815,-93.750000
8816,-93.750000
8817,-93.750000
8818,-93.750000
8819,-93.750000
8820,-89.843750
8821,-89.843750
8822,-89.843750
8823,-89.843750
8824,-89.843750
8825,-89.843750
8826,-89.843750
8827,-89.843750
8828,-89.843750
8829,-85.937500
8830,-85.937500
8831,-85.937500
8832,-85.937500
8833,-85.937500
8834,-85.937500
8835,-85.937500
8836,-85.937500
8837,-85.937500
8838,-85.937500
8839,-85.937500
8840,-82.031250
8841,-82.031250
8842,-82.031250
8843,-82.031250
8844,-82.031250
8845,-82.031250
8846,-82.031250
8847,-82.031250
8848,-82.031250
8849,-82.031250
8850,-78.125000
8851,-78.125000
8852,-78.125000
8853,-78.125000
8854,-78.125000
8855,-78.125000
8856,-78.125000
8857,-78.125000
8858,-74.218750
8859,-74.218750
8860,-74.218750
8861,-74.218750
8862,-74.218750
8863,-74.218750
8864,-74.218750
8865,-74.218750
8866,-74.218750
8867,-70.312500
8868,-70.312500
8869,-70.312500
8870,-70.312500
8871,-70.312500
8872,-70.312500
8873,-70.312500
8874,-70.312500
8875,-70.312500
8876,-66.406250
8877,-66.406250
8878,-66.406250
8879,-66.406250
8880,-66.406250
8881,-66.406250
8882,-66.406250
8883,-62.500000
8884,-66.406250
8885,-62.500000
8886,-62.500000
8887,-62.500000
8888,-62.500000
8889,-62.500000
8890,-62.500000
8891,-58.593750
8892,-58.593750
8893,-58.593750
8894,-58.593750
8895,-58.593750
8896,-58.593750
8897,-58.593750
8898,-58.593750
8899,-54.687500
8900,-54.687500
8901,-54.687500
8902,-54.687500
8903,-54.687500
8904,-54.687500
8905,-50.781250
8906,-50.781250
8907,-50.781250
8908,-50.781250
8909,-50.781250
8910,-50.781250
8911,-50.781250
8912,-50.781250
8913,-46.875000
8914,-46.875000
8915,-46.875000
8916,-46.875000
8917,-46.875000
8918,-46.875000
8919,-46.875000
8920,-46.875000
8921,-42.968750
8922,-42.968750
8923,-42.968750
8924,-42.968750
8925,-42.968750
8926,-42.968750
8927,-39.062500
8928,-39.062500
8929,-39.062500
8930,-39.062500
8931,-39.062500
8932,-39.062500
8933,-39.062500
8934,-35.156250
8935,-35.156250
8936,-35.156250
8937,-35.156250
8938,-35.156250
8939,-35.156250
8940,-35.156250
8941,-31.250000
8942,-31.250000
8943,-31.250000
8944,-31.250000
8945,-31.250000
8946,-31.250000
8947,-31.250000
8948,-27.343750
8949,-27.343750
8950,-27.343750
8951,-27.343750
8952,-27.343750
8953,-27.343750
8954,-27.343750
8955,-23.437500
8956,-27.343750
8957,-23.437500
8958,-23.437500
8959,-23.437500
8960,-23.437500
8961,-19.531250
8962,-19.531250
8963,-19.531250
8964,-19.531250
8965,-19.531250
8966,-19.531250
8967,-19.531250
8968,-19.531250
8969,-15.625000
8970,-15.625000
8971,-15.625000
8972,-15.625000
8973,-15.625000
8974,-15.625000
8975,-11.718750
8976,-11.718750
8977,-11.718750
8978,-11.718750
8979,-11.718750
8980,-11.718750
8981,-11.718750
8982,-7.812500
8983,-7.812500
8984,-7.812500
8985,-7.812500
8986,-7.812500
8987,-7.812500
8988,-3.906250
8989,-3.906250
8990,-3.906250
8991,-3.906250
8992,-3.906250
8993,-3.906250
8994,-3.906250
8995,-3.906250
8996,0.000000
8997,0.000000
8998,0.000000
8999,0.000000
9000,0.000000
9001,0.000000
9002,3.906250
9003,3.906250
9004,3.906250
9005,3.906250
9006,3.906250
9007,3.906250
9008,3.906250
9009,7.812500
9010,7.812500
9011,7.812500
9012,7.812500
9013,7.812500
9014,7.812500
9015,7.812500
9016,11.718750
9017,11.718750
9018,11.718750
9019,11.718750
9020,11.718750
9021,11.718750
9022,11.718750
9023,15.625000
9024,15.625000
9025,15.625000
9026,15.625000
9027,15.625000
9028,15.625000
9029,15.625000
9030,15.625000
9031,19.531250
9032,19.531250
9033,19.531250
9034,19.531250
9035,19.531250
9036,19.531250
9037,19.531250
9038,19.531250
9039,23.437500
9040,23.437500
9041,23.437500
9042,23.437500
9043,23.437500
9044,23.437500
9045,23.437500
9046,27.343750
9047,27.343750
9048,27.343750
9049,27.343750
9050,27.343750
9051,27.343750
9052,27.343750
9053,27.343750
9054,31.250000
9055,31.250000
9056,31.250000
9057,31.250000
9058,31.250000
9059,31.250000
9060,31.250000
9061,31.250000
9062,35.156250
9063,31.250000
9064,31.250000
9065,35.156250
9066,35.156250
9067,35.156250
9068,35.156250
9069,35.156250
9070,39.062500
9071,35.156250
9072,39.062500
9073,39.062500
9074,39.062500
9075,39.062500
9076,39.062500
9077,39.062500
9078,39.062500
9079,42.968750
9080,42.968750
9081,42.968750
9082,42.968750
9083,42.968750
9084,42.968750
9085,42.968750
9086,42.968750
9087,42.968750
9088,46.875000
9089,46.875000
9090,46.875000
9091,46.875000
9092,46.875000
9093,46.875000
9094,46.875000
9095,46.875000
9096,46.875000
9097,46.875000
9098,46.875000
9099,50.781250
9100,50.781250
9101,50.781250
9102,50.781250
9103,50.781250
9104,50.781250
9105,50.781250
9106,50.781250
9107,50.781250
9108,50.781250
9109,50.781250
9110,54.687500
9111,54.687500
9112,54.687500
9113,54.687500
9114,54.687500
9115,54.687500
9116,54.687500
9117,54.687500
9118,54.687500
9119,58.593750
9120,54.687500
9121,54.687500
9122,58.593750
9123,58.593750
9124,58.593750
9125,58.593750
9126,58.593750
9127,58.593750
9128,58.593750
9129,58.593750
9130,58.593750
9131,58.593750
9132,58.593750
9133,62.500000
9134,62.500000
9135,62.500000
9136,62.500000
9137,62.500000
9138,62.500000
9139,62.500000
9140,62.500000
9141,62.500000
9142,62.500000
9143,62.500000
9144,62.500000
9145,62.500000
9146,66.406250
9147,66.406250
9148,66.406250
9149,66.406250
9150,66.406250
9151,66.406250
9152,66.406250
9153,66.406250
9154,66.406250
9155,66.406250
9156,66.406250
9157,66.406250
9158,66.406250
9159,66.406250
9160,66.406250
9161,70.312500
9162,66.406250
9163,70.312500
9164,66.406250
9165,66.406250
9166,70.312500
9167,70.312500
9168,70.312500
9169,70.312500
9170,70.312500
9171,70.312500
9172,70.312500
9173,70.312500
9174,70.312500
9175,70.312500
9176,70.312500
9177,70.312500
9178,70.312500
9179,70.312500
9180,70.312500
9181,70.312500
9182,70.312500
9183,74.218750
9184,70.312500
9185,74.218750
9186,74.218750
9187,70.312500
9188,70.312500
9189,70.312500
9190,74.218750
9191,74.218750
9192,74.218750
9193,74.218750
9194,70.312500
9195,74.218750
9196,74.218750
9197,74.218750
9198,74.218750
9199,74.218750
9200,74.218750
9201,74.218750
9202,74.218750
9203,74.218750
9204,74.218750
9205,74.218750
9206,74.218750
9207,74.218750
9208,74.218750
9209,74.218750
9210,74.218750
9211,74.218750
9212,74.218750
9213,74.218750
9214,74.218750
9215,74.218750
9216,74.218750
9217,74.218750
9218,74.218750
9219,74.218750
9220,74.218750
9221,74.218750
9222,74.218750
9223,74.218750
9224,74.218750
9225,74.218750
9226,74.218750
9227,74.218750
9228,74.218750
9229,74.218750
9230,74.218750
9231,74.218750
9232,74.218750
9233,74.218750
9234,74.218750
9235,74.218750
9236,74.218750
9237,74.218750
9238,74.218750
9239,74.218750
9240,74.218750
9241,74.218750
9242,74.218750
9243,74.218750
9244,74.218750
9245,74.218750
9246,74.218750
9247,74.218750
9248,74.218750
9249,74.218750
9250,74.218750
9251,74.218750
9252,74.218750
9253,74.218750
9254,74.218750
9255,74.218750
9256,74.218750
9257,74.218750
9258,74.218750
9259,74.218750
9260,74.218750
9261,74.218750
9262,74.218750
9263,74.218750
9264,74.218750
9265,70.312500
9266,74.218750
9267,74.218750
9268,70.312500
9269,74.218750
9270,74.218750
9271,70.312500
9272,74.218750
9273,74.218750
9274,70.312500
9275,74.218750
9276,74.218750
9277,70.312500
9278,70.312500
9279,70.312500
9280,70.312500
9281,70.312500
9282,70.312500
9283,70.312500
9284,70.312500
9285,70.312500
9286,70.312500
9287,70.312500
9288,70.312500
9289,70.312500
9290,70.312500
9291,70.312500
9292,70.312500
9293,70.312500
9294,70.312500
9295,70.312500
9296,70.312500
9297,66.406250
9298,66.406250
9299,66.406250
9300,66.406250
9301,66.406250
9302,66.406250
9303,66.406250
9304,66.406250
9305,66.406250
9306,66.406250
9307,66.406250
9308,66.406250
9309,66.406250
9310,66.406250
9311,66.406250
9312,66.406250
9313,66.406250
9314,62.500000
9315,62.500000
9316,62.500000
9317,62.500000
9318,62.500000
9319,62.500000
9320,62.500000
9321,62.500000
9322,62.500000
9323,62.500000
9324,62.500000
9325,62.500000
9326,62.500000
9327,62.500000
9328,62.500000
9329,58.593750
9330,58.593750
9331,58.593750
9332,58.593750
9333,58.593750
9334,58.593750
9335,58.593750
9336,58.593750
9337,58.593750
9338,58.593750
9339,54.687500
9340,54.687500
9341,54.687500
9342,54.687500
9343,54.687500
9344,54.687500
9345,54.687500
9346,54.687500
9347,50.781250
9348,54.687500
9349,54.687500
9350,54.687500
9351,54.687500
9352,50.781250
9353,50.781250
9354,50.781250
9355,50.781250
9356,50.781250
9357,50.781250
9358,50.781250
9359,50.781250
9360,50.781250
9361,50.781250
9362,46.875000
9363,46.875000
9364,46.875000
9365,46.875000
9366,46.875000
9367,46.875000
9368,46.875000
9369,46.875000
9370,46.875000
9371,42.968750
9372,42.968750
9373,42.968750
9374,42.968750
9375,42.968750
9376,42.968750
9377,42.968750
9378,42.968750
9379,42.968750
9380,42.968750
9381,42.968750
9382,39.062500
9383,39.062500
9384,39.062500
9385,39.062500
9386,39.062500
9387,39.062500
9388,39.062500
9389,39.062500
9390,39.062500
9391,39.062500
9392,35.156250
9393,35.156250
9394,35.156250
9395,35.156250
9396,35.156250
9397,35.156250
9398,35.156250
9399,35.156250
9400,31.250000
9401,31.250000
9402,31.250000
9403,31.250000
9404,31.250000
9405,31.250000
9406,31.250000
9407,31.250000
9408,27.343750
9409,27.343750
9410,27.343750
9411,27.343750
9412,27.343750
9413,27.343750
9414,27.343750
9415,23.437500
9416,23.437500
9417,23.437500
9418,23.437500
9419,23.437500
9420,23.437500
9421,23.437500
9422,23.437500
9423,19.531250
9424,19.531250
9425,19.531250
9426,19.531250
9427,19.531250
9428,19.531250
9429,19.531250
9430,19.531250
9431,15.625000
9432,15.625000
9433,15.625000
9434,15.625000
9435,15.625000
9436,15.625000
9437,15.625000
9438,11.718750
9439,11.718750
9440,11.718750
9441,11.718750
9442,11.718750
9443,11.718750
9444,11.718750
9445,7.812500
9446,7.812500
9447,7.812500
9448,7.812500
9449,7.812500
9450,7.812500
9451,7.812500
9452,3.906250
9453,3.906250
9454,3.906250
9455,3.906250
9456,3.906250
9457,3.906250
9458,3.906250
9459,0.000000
9460,0.000000
9461,0.000000
9462,0.000000
9463,0.000000
9464,0.000000
9465,-3.906250
9466,-3.906250
9467,-3.906250
9468,-3.906250
9469,-3.906250
9470,-3.906250
9471,-3.906250
9472,-7.812500
9473,-7.812500
9474,-7.812500
9475,-7.812500
9476,-7.812500
9477,-7.812500
9478,-7.812500
9479,-11.718750
9480,-11.718750
9481,-11.718750
9482,-11.718750
9483,-11.718750
9484,-11.718750
9485,-11.718750
9486,-15.625000
9487,-15.625000
9488,-15.625000
9489,-15.625000
9490,-15.625000
9491,-15.625000
9492,-15.625000
9493,-19.531250
9494,-19.531250
9495,-19.531250
9496,-19.531250
9497,-19.531250
9498,-19.531250
9499,-19.531250
9500,-23.437500
9501,-23.437500
9502,-23.437500
9503,-23.437500
9504,-23.437500
9505,-23.437500
9506,-23.437500
9507,-23.437500
9508,-27.343750
9509,-27.343750
9510,-27.343750
9511,-27.343750
9512,-27.343750
9513,-27.343750
9514,-31.250000
9515,-31.250000
9516,-31.250000
9517,-31.250000
9518,-31.250000
9519,-31.250000
9520,-35.156250
9521,-35.156250
9522,-35.156250
9523,-35.156250
9524,-35.156250
9525,-35.156250
9526,-35.156250
9527,-39.062500
9528,-39.062500
9529,-39.062500
9530,-39.062500
9531,-39.062500
9532,-39.062500
9533,-39.062500
9534,-39.062500
9535,-42.968750
9536,-42.968750
9537,-42.968750
9538,-42.968750
9539,-42.968750
9540,-42.968750
9541,-46.875000
9542,-46.875000
9543,-46.875000
9544,-46.875000
9545,-46.875000
9546,-46.875000
9547,-46.875000
9548,-46.875000
9549,-46.875000
9550,-50.781250
9551,-50.781250
9552,-50.781250
9553,-50.781250
9554,-50.781250
9555,-50.781250
9556,-54.687500
9557,-54.687500
9558,-54.687500
9559,-54.687500
9560,-54.687500
9561,-54.687500
9562,-54.687500
9563,-58.593750
9564,-58.593750
9565,-58.593750
9566,-58.593750
9567,-58.593750
9568,-58.593750
9569,-58.593750
9570,-62.500000
9571,-62.500000
9572,-62.500000
9573,-62.500000
9574,-62.500000
9575,-62.500000
9576,-62.500000
9577,-62.500000
9578,-66.406250
9579,-66.406250
9580,-66.406250
9581,-66.406250
9582,-66.406250
9583,-66.406250
9584,-66.406250
9585,-66.406250
9586,-70.312500
9587,-70.312500
9588,-70.312500
9589,-70.312500
9590,-70.312500
9591,-70.312500
9592,-70.312500
9593,-70.312500
9594,-74.218750
9595,-74.218750
9596,-74.218750
9597,-74.218750
9598,-74.218750
9599,-74.218750
9600,-74.218750
9601,-74.218750
9602,-78.125000
9603,-78.125000
9604,-78.125000
9605,-78.125000
9606,-78.125000
9607,-78.125000
9608,-78.125000
9609,-78.125000
9610,-78.125000
9611,-82.031250
9612,-82.031250
9613,-82.031250
9614,-82.031250
9615,-82.031250
9616,-82.031250
9617,-82.031250
9618,-82.031250
9619,-82.031250
9620,-82.031250
9621,-82.031250
9622,-82.031250
9623,-82.031250
9624,-85.937500
9625,-85.937500
9626,-85.937500
9627,-85.937500
9628,-85.937500
9629,-85.937500
9630,-85.937500
9631,-85.937500
9632,-85.937500
9633,-89.843750
9634,-89.843750
9635,-89.843750
9636,-89.843750
9637,-89.843750
9638,-89.843750
9639,-89.843750
9640,-89.843750
9641,-89.843750
9642,-89.843750
9643,-89.843750
9644,-89.843750
9645,-89.843750
9646,-93.750000
9647,-93.750000
9648,-93.750000
9649,-93.750000
9650,-93.750000
9651,-93.750000
9652,-93.750000
9653,-93.750000
9654,-93.750000
9655,-93.750000
9656,-93.750000
9657,-93.750000
9658,-97.656250
9659,-97.656250
9660,-93.750000
9661,-93.750000
9662,-93.750000
9663,-97.656250
9664,-97.656250
9665,-97.656250
9666,-97.656250
9667,-97.656250
9668,-97.656250
9669,-97.656250
9670,-97.656250
9671,-97.656250
9672,-97.656250
9673,-97.656250
9674,-97.656250
9675,-97.656250
9676,-97.656250
9677,-97.656250
9678,-101.562500
9679,-101.562500
9680,-101.562500
9681,-101.562500
9682,-101.562500
9683,-101.562500
9684,-101.562500
9685,-101.562500
9686,-101.562500
9687,-101.562500
9688,-101.562500
9689,-101.562500
9690,-101.562500
9691,-101.562500
9692,-101.562500
9693,-101.562500
9694,-101.562500
9695,-101.562500
9696,-101.562500
9697,-101.562500
9698,-101.562500
9699,-101.562500
9700,-101.562500
9701,-101.562500
9702,-101.562500
9703,-101.562500
9704,-101.562500
9705,-101.562500
9706,-101.562500
9707,-101.562500
9708,-105.468750
9709,-105.468750
9710,-105.468750
9711,-105.468750
9712,-105.468750
9713,-105.468750
9714,-105.468750
9715,-105.468750
9716,-105.468750
9717,-105.468750
9718,-105.468750
9719,-105.468750
9720,-101.562500
9721,-105.468750
9722,-105.468750
9723,-105.468750
9724,-105.468750
9725,-105.468750
9726,-105.468750
9727,-105.468750
9728,-105.468750
9729,-105.468750
9730,-105.468750
9731,-105.468750
9732,-105.468750
9733,-105.468750
9734,-105.468750
9735,-105.468750
9736,-105.468750
9737,-105.468750
9738,-105.468750
9739,-105.468750
9740,-105.468750
9741,-105.468750
9742,-105.468750
9743,-105.468750
9744,-101.562500
9745,-101.562500
9746,-101.562500
9747,-101.562500
9748,-101.562500
9749,-101.562500
9750,-105.468750
9751,-101.562500
9752,-101.562500
9753,-101.562500
9754,-101.562500
9755,-101.562500
9756,-101.562500
9757,-101.562500
9758,-101.562500
9759,-101.562500
9760,-101.562500
9761,-101.562500
9762,-101.562500
9763,-101.562500
9764,-101.562500
9765,-101.562500
9766,-101.562500
9767,-101.562500
9768,-101.562500
9769,-101.562500
9770,-101.562500
9771,-101.562500
9772,-97.656250
9773,-97.656250
9774,-101.562500
9775,-97.656250
9776,-97.656250
9777,-97.656250
9778,-97.656250
9779,-97.656250
9780,-97.656250
9781,-97.656250
9782,-97.656250
9783,-97.656250
9784,-97.656250
9785,-97.656250
9786,-97.656250
9787,-97.656250
9788,-97.656250
9789,-97.656250
9790,-93.750000
9791,-93.750000
9792,-93.750000
9793,-93.750000
9794,-93.750000
9795,-93.750000
9796,-93.750000
9797,-93.750000
9798,-93.750000
9799,-93.750000
9800,-93.750000
9801,-93.750000
9802,-93.750000
9803,-93.750000
9804,-89.843750
9805,-89.843750
9806,-89.843750
9807,-89.843750
9808,-89.843750
9809,-89.843750
9810,-89.843750
9811,-89.843750
9812,-89.843750
9813,-89.843750
9814,-85.937500
9815,-85.937500
9816,-85.937500
9817,-85.937500
9818,-85.937500
9819,-85.937500
9820,-85.937500
9821,-85.937500
9822,-85.937500
9823,-85.937500
9824,-85.937500
9825,-85.937500
9826,-85.937500
9827,-82.031250
9828,-82.031250
9829,-82.031250
9830,-82.031250
9831,-82.031250
9832,-82.031250
9833,-82.031250
9834,-82.031250
9835,-78.125000
9836,-82.031250
9837,-78.125000
9838,-78.125000
9839,-78.125000
9840,-78.125000
9841,-78.125000
9842,-78.125000
9843,-78.125000
9844,-78.125000
9845,-78.125000
9846,-74.218750
9847,-74.218750
9848,-74.218750
9849,-74.218750
9850,-74.218750
9851,-74.218750
9852,-74.218750
9853,-74.218750
9854,-70.312500
9855,-70.312500
9856,-70.312500
9857,-70.312500
9858,-70.312500
9859,-70.312500
9860,-70.312500
9861,-70.312500
9862,-70.312500
9863,-70.312500
9864,-66.406250
9865,-66.406250
9866,-66.406250
9867,-66.406250
9868,-66.406250
9869,-66.406250
9870,-66.406250
9871,-66.406250
9872,-62.500000
9873,-62.500000
9874,-62.500000
9875,-62.500000
9876,-62.500000
9877,-58.593750
9878,-62.500000
9879,-62.500000
9880,-58.593750
9881,-58.593750
9882,-58.593750
9883,-58.593750
9884,-58.593750
9885,-58.593750
9886,-54.687500
9887,-54.687500
9888,-54.687500
9889,-54.687500
9890,-54.687500
9891,-54.687500
9892,-54.687500
9893,-50.781250
9894,-50.781250
9895,-50.781250
9896,-50.781250
9897,-50.781250
9898,-50.781250
9899,-50.781250
9900,-50.781250
9901,-46.875000
9902,-46.875000
9903,-46.875000
9904,-46.875000
9905,-46.875000
9906,-46.875000
9907,-42.968750
9908,-42.968750
9909,-42.968750
9910,-42.968750
9911,-42.968750
9912,-42.968750
9913,-42.968750
9914,-42.968750
9915,-39.062500
9916,-39.062500
9917,-39.062500
9918,-39.062500
9919,-35.156250
9920,-39.062500
9921,-35.156250
9922,-35.156250
9923,-35.156250
9924,-35.156250
9925,-35.156250
9926,-35.156250
9927,-31.250000
9928,-31.250000
9929,-31.250000
9930,-31.250000
9931,-31.250000
9932,-31.250000
9933,-31.250000
9934,-31.250000
9935,-27.343750
9936,-27.343750
9937,-27.343750
9938,-27.343750
9939,-27.343750
9940,-27.343750
9941,-23.437500
9942,-27.343750
9943,-23.437500
9944,-23.437500
9945,-23.437500
9946,-23.437500
9947,-23.437500
9948,-19.531250
9949,-19.531250
9950,-19.531250
9951,-19.531250
9952,-19.531250
9953,-19.531250
9954,-19.531250
9955,-15.625000
9956,-15.625000
9957,-15.625000
9958,-15.625000
9959,-15.625000
9960,-15.625000
9961,-15.625000
9962,-11.718750
9963,-11.718750
9964,-11.718750
9965,-11.718750
9966,-11.718750
9967,-11.718750
9968,-11.718750
9969,-7.812500
9970,-7.812500
9971,-7.812500
9972,-7.812500
9973,-7.812500
9974,-7.812500
9975,-3.906250
9976,-3.906250
9977,-3.906250
9978,-3.906250
9979,-3.906250
9980,-3.906250
9981,0.000000
9982,0.000000
9983,0.000000
9984,-3.906250
9985,0.000000
9986,0.000000
9987,0.000000
9988,0.000000
9989,3.906250
9990,3.906250
9991,3.906250
9992,3.906250
9993,3.906250
9994,3.906250
9995,3.906250
9996,7.812500
9997,7.812500
9998,7.812500
9999,7.812500
10000,7.812500
