Channel              :,CH1
Frequency            :,1.010kHz
Period               :,0.990ms
PK-PK                :,234.4mV
Probe attenuation    :,1X
Voltage per ADC value:,0.244141mV
Time interval        :,1.00000us

index,CH1_Voltage(mV)
1,-62.500000
2,-62.500000
3,-62.500000
4,-58.593750
5,-58.593750
6,-58.593750
7,-58.593750
8,-58.593750
9,-54.687500
10,-58.593750
11,-58.593750
12,-54.687500
13,-54.687500
14,-54.687500
15,-54.687500
16,-50.781250
17,-50.781250
18,-50.781250
19,-50.781250
20,-46.875000
21,-46.875000
22,-46.875000
23,-46.875000
24,-46.875000
25,-46.875000
26,-46.875000
27,-42.968750
28,-42.968750
29,-42.968750
30,-42.968750
31,-39.062500
32,-39.062500
33,-39.062500
34,-39.062500
35,-39.062500
36,-39.062500
37,-39.062500
38,-35.156250
39,-35.156250
40,-35.156250
41,-35.156250
42,-31.250000
43,-31.250000
44,-31.250000
45,-31.250000
46,-31.250000
47,-31.250000
48,-31.250000
49,-27.343750
50,-27.343750
51,-27.343750
52,-27.343750
53,-23.437500
54,-23.437500
55,-23.437500
56,-23.437500
57,-23.437500
58,-19.531250
59,-19.531250
60,-19.531250
61,-19.531250
62,-19.531250
63,-15.625000
64,-19.531250
65,-15.625000
66,-15.625000
67,-15.625000
68,-15.625000
69,-11.718750
70,-11.718750
71,-11.718750
72,-11.718750
73,-11.718750
74,-7.812500
75,-11.718750
76,-7.812500
77,-7.812500
78,-7.812500
79,-7.812500
80,-3.906250
81,-3.906250
82,-3.906250
83,-3.906250
84,-3.906250
85,-3.906250
86,0.000000
87,0.000000
88,0.000000
89,0.000000
90,0.000000
91,3.906250
92,3.906250
93,3.906250
94,3.906250
95,3.906250
96,7.812500
97,7.812500
98,7.812500
99,7.812500
100,7.812500
101,11.718750
102,11.718750
103,11.718750
104,11.718750
105,11.718750
106,11.718750
107,15.625000
108,15.625000
109,15.625000
110,15.625000
111,15.625000
112,19.531250
113,19.531250
114,19.531250
115,19.531250
116,19.531250
117,23.437500
118,23.437500
119,23.437500
120,23.437500
121,23.437500
122,23.437500
123,23.437500
124,27.343750
125,27.343750
126,27.343750
127,27.343750
128,27.343750
129,31.250000
130,31.250000
131,31.250000
132,31.250000
133,31.250000
134,31.250000
135,35.156250
136,35.156250
137,35.156250
138,35.156250
139,35.156250
140,35.156250
141,35.156250
142,39.062500
143,39.062500
144,39.062500
145,39.062500
146,39.062500
147,39.062500
148,42.968750
149,42.968750
150,42.968750
151,42.968750
152,42.968750
153,42.968750
154,46.875000
155,46.875000
156,46.875000
157,46.875000
158,46.875000
159,46.875000
160,46.875000
161,50.781250
162,50.781250
163,50.781250
164,50.781250
165,50.781250
166,50.781250
167,50.781250
168,54.687500
169,54.687500
170,54.687500
171,54.687500
172,54.687500
173,54.687500
174,58.593750
175,58.593750
176,58.593750
177,58.593750
178,58.593750
179,58.593750
180,58.593750
181,58.593750
182,62.500000
183,62.500000
184,62.500000
185,62.500000
186,62.500000
187,62.500000
188,62.500000
189,62.500000
190,66.406250
191,66.406250
192,66.406250
193,66.406250
194,66.406250
195,66.406250
196,66.406250
197,66.406250
198,70.312500
199,70.312500
200,70.312500
201,70.312500
202,70.312500
203,70.312500
204,70.312500
205,70.312500
206,74.218750
207,74.218750
208,74.218750
209,74.218750
210,74.218750
211,74.218750
212,74.218750
213,74.218750
214,74.218750
215,74.218750
216,78.125000
217,78.125000
218,78.125000
219,78.125000
220,78.125000
221,78.125000
222,78.125000
223,78.125000
224,78.125000
225,82.031250
226,78.125000
227,82.031250
228,82.031250
229,82.031250
230,82.031250
231,82.031250
232,82.031250
233,82.031250
234,82.031250
235,85.937500
236,85.937500
237,82.031250
238,85.937500
239,85.937500
240,85.937500
241,85.937500
242,85.937500
243,85.937500
244,85.937500
245,85.937500
246,85.937500
247,85.937500
248,85.937500
249,85.937500
250,89.843750
251,89.843750
252,89.843750
253,89.843750
254,89.843750
255,89.843750
256,89.843750
257,89.843750
258,89.843750
259,89.843750
260,89.843750
261,89.843750
262,89.843750
263,93.750000
264,93.750000
265,93.750000
266,93.750000
267,93.750000
268,93.750000
269,93.750000
270,93.750000
271,93.750000
272,93.750000
273,93.750000
274,93.750000
275,93.750000
276,93.750000
277,93.750000
278,93.750000
279,93.750000
280,93.750000
281,93.750000
282,93.750000
283,97.656250
284,97.656250
285,97.656250
286,97.656250
287,97.656250
288,97.656250
289,97.656250
290,97.656250
291,97.656250
292,97.656250
293,97.656250
294,97.656250
295,97.656250
296,97.656250
297,97.656250
298,97.656250
299,97.656250
300,97.656250
301,97.656250
302,97.656250
303,97.656250
304,97.656250
305,97.656250
306,97.656250
307,97.656250
308,97.656250
309,97.656250
310,97.656250
311,97.656250
312,97.656250
313,97.656250
314,97.656250
315,97.656250
316,97.656250
317,97.656250
318,97.656250
319,97.656250
320,97.656250
321,97.656250
322,97.656250
323,97.656250
324,97.656250
325,97.656250
326,97.656250
327,97.656250
328,97.656250
329,97.656250
330,97.656250
331,97.656250
332,97.656250
333,97.656250
334,97.656250
335,97.656250
336,97.656250
337,97.656250
338,97.656250
339,97.656250
340,97.656250
341,97.656250
342,97.656250
343,97.656250
344,97.656250
345,97.656250
346,97.656250
347,97.656250
348,97.656250
349,97.656250
350,97.656250
351,97.656250
352,97.656250
353,97.656250
354,97.656250
355,97.656250
356,97.656250
357,97.656250
358,97.656250
359,97.656250
360,97.656250
361,97.656250
362,93.750000
363,97.656250
364,97.656250
365,97.656250
366,97.656250
367,93.750000
368,93.750000
369,93.750000
370,97.656250
371,93.750000
372,93.750000
373,93.750000
374,93.750000
375,93.750000
376,93.750000
377,93.750000
378,93.750000
379,93.750000
380,93.750000
381,93.750000
382,93.750000
383,89.843750
384,89.843750
385,93.750000
386,93.750000
387,89.843750
388,89.843750
389,93.750000
390,93.750000
391,89.843750
392,89.843750
393,89.843750
394,89.843750
395,89.843750
396,89.843750
397,89.843750
398,89.843750
399,89.843750
400,89.843750
401,85.937500
402,85.937500
403,85.937500
404,85.937500
405,85.937500
406,85.937500
407,85.937500
408,85.937500
409,85.937500
410,85.937500
411,85.937500
412,85.937500
413,85.937500
414,85.937500
415,82.031250
416,82.031250
417,82.031250
418,82.031250
419,82.031250
420,82.031250
421,82.031250
422,82.031250
423,82.031250
424,82.031250
425,78.125000
426,78.125000
427,78.125000
428,78.125000
429,78.125000
430,78.125000
431,78.125000
432,78.125000
433,74.218750
434,78.125000
435,74.218750
436,74.218750
437,74.218750
438,74.218750
439,74.218750
440,74.218750
441,74.218750
442,74.218750
443,74.218750
444,74.218750
445,74.218750
446,70.312500
447,70.312500
448,70.312500
449,70.312500
450,70.312500
451,70.312500
452,66.406250
453,66.406250
454,66.406250
455,66.406250
456,66.406250
457,66.406250
458,66.406250
459,66.406250
460,66.406250
461,62.500000
462,62.500000
463,62.500000
464,62.500000
465,62.500000
466,62.500000
467,58.593750
468,58.593750
469,58.593750
470,58.593750
471,58.593750
472,58.593750
473,58.593750
474,58.593750
475,54.687500
476,54.687500
477,54.687500
478,54.687500
479,54.687500
480,54.687500
481,54.687500
482,54.687500
483,50.781250
484,50.781250
485,50.781250
486,50.781250
487,50.781250
488,50.781250
489,46.875000
490,46.875000
491,46.875000
492,46.875000
493,46.875000
494,46.875000
495,46.875000
496,46.875000
497,42.968750
498,42.968750
499,42.968750
500,42.968750
501,42.968750
502,42.968750
503,42.968750
504,39.062500
505,39.062500
506,39.062500
507,39.062500
508,39.062500
509,35.156250
510,35.156250
511,35.156250
512,35.156250
513,35.156250
514,35.156250
515,31.250000
516,31.250000
517,31.250000
518,31.250000
519,31.250000
520,31.250000
521,31.250000
522,27.343750
523,27.343750
524,27.343750
525,27.343750
526,27.343750
527,23.437500
528,23.437500
529,23.437500
530,23.437500
531,23.437500
532,23.437500
533,23.437500
534,19.531250
535,19.531250
536,19.531250
537,19.531250
538,15.625000
539,15.625000
540,15.625000
541,15.625000
542,15.625000
543,11.718750
544,11.718750
545,11.718750
546,11.718750
547,11.718750
548,11.718750
549,7.812500
550,7.812500
551,7.812500
552,7.812500
553,7.812500
554,3.906250
555,3.906250
556,3.906250
557,3.906250
558,3.906250
559,3.906250
560,0.000000
561,0.000000
562,0.000000
563,0.000000
564,0.000000
565,0.000000
566,-3.906250
567,-3.906250
568,-3.906250
569,-3.906250
570,-3.906250
571,-7.812500
572,-7.812500
573,-7.812500
574,-7.812500
575,-7.812500
576,-11.718750
577,-11.718750
578,-11.718750
579,-11.718750
580,-11.718750
581,-15.625000
582,-15.625000
583,-15.625000
584,-15.625000
585,-15.625000
586,-19.531250
587,-19.531250
588,-19.531250
589,-19.531250
590,-23.437500
591,-23.437500
592,-23.437500
593,-23.437500
594,-23.437500
595,-23.437500
596,-27.343750
597,-27.343750
598,-27.343750
599,-27.343750
600,-27.343750
601,-31.250000
602,-27.343750
603,-31.250000
604,-31.250000
605,-31.250000
606,-31.250000
607,-35.156250
608,-35.156250
609,-35.156250
610,-35.156250
611,-39.062500
612,-39.062500
613,-39.062500
614,-39.062500
615,-39.062500
616,-39.062500
617,-39.062500
618,-42.968750
619,-42.968750
620,-42.968750
621,-42.968750
622,-42.968750
623,-46.875000
624,-46.875000
625,-46.875000
626,-46.875000
627,-46.875000
628,-46.875000
629,-50.781250
630,-50.781250
631,-50.781250
632,-50.781250
633,-50.781250
634,-50.781250
635,-50.781250
636,-54.687500
637,-54.687500
638,-54.687500
639,-54.687500
640,-58.593750
641,-58.593750
642,-58.593750
643,-58.593750
644,-58.593750
645,-58.593750
646,-62.500000
647,-62.500000
648,-62.500000
649,-62.500000
650,-62.500000
651,-66.406250
652,-66.406250
653,-66.406250
654,-66.406250
655,-66.406250
656,-70.312500
657,-70.312500
658,-70.312500
659,-70.312500
660,-70.312500
661,-70.312500
662,-70.312500
663,-74.218750
664,-74.218750
665,-74.218750
666,-74.218750
667,-74.218750
668,-74.218750
669,-78.125000
670,-78.125000
671,-78.125000
672,-78.125000
673,-82.031250
674,-82.031250
675,-82.031250
676,-82.031250
677,-82.031250
678,-82.031250
679,-82.031250
680,-82.031250
681,-85.937500
682,-85.937500
683,-85.937500
684,-85.937500
685,-85.937500
686,-85.937500
687,-89.843750
688,-89.843750
689,-89.843750
690,-89.843750
691,-89.843750
692,-89.843750
693,-89.843750
694,-93.750000
695,-93.750000
696,-93.750000
697,-93.750000
698,-93.750000
699,-93.750000
700,-97.656250
701,-97.656250
702,-97.656250
703,-97.656250
704,-97.656250
705,-97.656250
706,-97.656250
707,-101.562500
708,-101.562500
709,-101.562500
710,-101.562500
711,-101.562500
712,-101.562500
713,-101.562500
714,-105.468750
715,-105.468750
716,-105.468750
717,-105.468750
718,-105.468750
719,-105.468750
720,-105.468750
721,-105.468750
722,-105.468750
723,-109.375000
724,-109.375000
725,-109.375000
726,-109.375000
727,-109.375000
728,-109.375000
729,-109.375000
730,-109.375000
731,-113.281250
732,-109.375000
733,-113.281250
734,-113.281250
735,-113.281250
736,-113.281250
737,-113.281250
738,-113.281250
739,-117.187500
740,-117.187500
741,-117.187500
742,-117.187500
743,-117.187500
744,-117.187500
745,-117.187500
746,-117.187500
747,-117.187500
748,-117.187500
749,-117.187500
750,-117.187500
751,-121.093750
752,-117.187500
753,-121.093750
754,-121.093750
755,-121.093750
756,-121.093750
757,-121.093750
758,-121.093750
759,-121.093750
760,-121.093750
761,-125.000000
762,-121.093750
763,-121.093750
764,-121.093750
765,-125.000000
766,-125.000000
767,-125.000000
768,-125.000000
769,-125.000000
770,-125.000000
771,-125.000000
772,-125.000000
773,-125.000000
774,-125.000000
775,-125.000000
776,-125.000000
777,-125.000000
778,-125.000000
779,-128.906250
780,-128.906250
781,-128.906250
782,-128.906250
783,-128.906250
784,-128.906250
785,-128.906250
786,-128.906250
787,-128.906250
788,-128.906250
789,-128.906250
790,-128.906250
791,-128.906250
792,-128.906250
793,-128.906250
794,-128.906250
795,-128.906250
796,-132.812500
797,-132.812500
798,-132.812500
799,-128.906250
800,-128.906250
801,-128.906250
802,-132.812500
803,-132.812500
804,-132.812500
805,-132.812500
806,-132.812500
807,-132.812500
808,-132.812500
809,-132.812500
810,-132.812500
811,-132.812500
812,-132.812500
813,-132.812500
814,-132.812500
815,-132.812500
816,-132.812500
817,-132.812500
818,-132.812500
819,-132.812500
820,-132.812500
821,-132.812500
822,-132.812500
823,-132.812500
824,-132.812500
825,-132.812500
826,-132.812500
827,-132.812500
828,-132.812500
829,-132.812500
830,-132.812500
831,-128.906250
832,-132.812500
833,-128.906250
834,-132.812500
835,-132.812500
836,-132.812500
837,-132.812500
838,-132.812500
839,-128.906250
840,-128.906250
841,-132.812500
842,-132.812500
843,-128.906250
844,-128.906250
845,-128.906250
846,-128.906250
847,-128.906250
848,-128.906250
849,-128.906250
850,-128.906250
851,-128.906250
852,-128.906250
853,-128.906250
854,-128.906250
855,-128.906250
856,-128.906250
857,-128.906250
858,-128.906250
859,-128.906250
860,-128.906250
861,-128.906250
862,-125.000000
863,-128.906250
864,-125.000000
865,-128.906250
866,-128.906250
867,-125.000000
868,-125.000000
869,-125.000000
870,-125.000000
871,-125.000000
872,-125.000000
873,-125.000000
874,-125.000000
875,-125.000000
876,-125.000000
877,-125.000000
878,-121.093750
879,-121.093750
880,-121.093750
881,-121.093750
882,-121.093750
883,-121.093750
884,-121.093750
885,-121.093750
886,-121.093750
887,-121.093750
888,-117.187500
889,-117.187500
890,-117.187500
891,-117.187500
892,-117.187500
893,-117.187500
894,-117.187500
895,-117.187500
896,-117.187500
897,-117.187500
898,-117.187500
899,-113.281250
900,-113.281250
901,-113.281250
902,-113.281250
903,-113.281250
904,-113.281250
905,-113.281250
906,-113.281250
907,-109.375000
908,-109.375000
909,-109.375000
910,-109.375000
911,-109.375000
912,-109.375000
913,-109.375000
914,-109.375000
915,-109.375000
916,-109.375000
917,-105.468750
918,-105.468750
919,-105.468750
920,-105.468750
921,-105.468750
922,-105.468750
923,-105.468750
924,-105.468750
925,-105.468750
926,-101.562500
927,-101.562500
928,-101.562500
929,-101.562500
930,-101.562500
931,-101.562500
932,-97.656250
933,-97.656250
934,-97.656250
935,-97.656250
936,-97.656250
937,-97.656250
938,-97.656250
939,-97.656250
940,-93.750000
941,-93.750000
942,-93.750000
943,-93.750000
944,-93.750000
945,-93.750000
946,-93.750000
947,-93.750000
948,-89.843750
949,-89.843750
950,-89.843750
951,-89.843750
952,-89.843750
953,-89.843750
954,-85.937500
955,-85.937500
956,-85.937500
957,-85.937500
958,-85.937500
959,-85.937500
960,-82.031250
961,-82.031250
962,-82.031250
963,-82.031250
964,-82.031250
965,-82.031250
966,-78.125000
967,-78.125000
968,-78.125000
969,-78.125000
970,-78.125000
971,-78.125000
972,-74.218750
973,-74.218750
974,-74.218750
975,-74.218750
976,-74.218750
977,-74.218750
978,-70.312500
979,-70.312500
980,-70.312500
981,-70.312500
982,-70.312500
983,-70.312500
984,-66.406250
985,-66.406250
986,-66.406250
987,-66.406250
988,-66.406250
989,-66.406250
990,-62.500000
991,-62.500000
992,-62.500000
993,-62.500000
994,-58.593750
995,-58.593750
996,-58.593750
997,-58.593750
998,-58.593750
999,-58.593750
1000,-54.687500
1001,-54.687500
1002,-54.687500
1003,-54.687500
1004,-54.687500
1005,-50.781250
1006,-50.781250
1007,-50.781250
1008,-50.781250
1009,-50.781250
1010,-50.781250
1011,-46.875000
1012,-46.875000
1013,-46.875000
1014,-46.875000
1015,-46.875000
1016,-42.968750
1017,-42.968750
1018,-42.968750
1019,-42.968750
1020,-42.968750
1021,-39.062500
1022,-39.062500
1023,-39.062500
1024,-39.062500
1025,-39.062500
1026,-35.156250
1027,-35.156250
1028,-35.156250
1029,-35.156250
1030,-35.156250
1031,-35.156250
1032,-31.250000
1033,-31.250000
1034,-31.250000
1035,-31.250000
1036,-31.250000
1037,-27.343750
1038,-27.343750
1039,-27.343750
1040,-27.343750
1041,-27.343750
1042,-23.437500
1043,-23.437500
1044,-23.437500
1045,-23.437500
1046,-23.437500
1047,-23.437500
1048,-19.531250
1049,-19.531250
1050,-19.531250
1051,-19.531250
1052,-15.625000
1053,-15.625000
1054,-15.625000
1055,-15.625000
1056,-15.625000
1057,-15.625000
1058,-11.718750
1059,-11.718750
1060,-11.718750
1061,-11.718750
1062,-11.718750
1063,-11.718750
1064,-7.812500
1065,-7.812500
1066,-7.812500
1067,-7.812500
1068,-3.906250
1069,-3.906250
1070,-3.906250
1071,-3.906250
1072,-3.906250
1073,-3.906250
1074,0.000000
1075,0.000000
1076,0.000000
1077,0.000000
1078,0.000000
1079,3.906250
1080,3.906250
1081,3.906250
1082,3.906250
1083,3.906250
1084,3.906250
1085,3.906250
1086,7.812500
1087,7.812500
1088,7.812500
1089,7.812500
1090,11.718750
1091,11.718750
1092,11.718750
1093,11.718750
1094,11.718750
1095,11.718750
1096,11.718750
1097,15.625000
1098,15.625000
1099,15.625000
1100,15.625000
1101,19.531250
1102,19.531250
1103,19.531250
1104,19.531250
1105,19.531250
1106,19.531250
1107,19.531250
1108,23.437500
1109,23.437500
1110,23.437500
1111,23.437500
1112,23.437500
1113,23.437500
1114,27.343750
1115,27.343750
1116,27.343750
1117,27.343750
1118,27.343750
1119,31.250000
1120,31.250000
1121,31.250000
1122,31.250000
1123,31.250000
1124,31.250000
1125,35.156250
1126,35.156250
1127,35.156250
1128,35.156250
1129,35.156250
1130,35.156250
1131,39.062500
1132,39.062500
1133,39.062500
1134,39.062500
1135,39.062500
1136,39.062500
1137,42.968750
1138,42.968750
1139,42.968750
1140,42.968750
1141,42.968750
1142,42.968750
1143,42.968750
1144,46.875000
1145,46.875000
1146,46.875000
1147,46.875000
1148,46.875000
1149,46.875000
1150,50.781250
1151,50.781250
1152,50.781250
1153,50.781250
1154,50.781250
1155,50.781250
1156,50.781250
1157,54.687500
1158,54.687500
1159,54.687500
1160,54.687500
1161,54.687500
1162,54.687500
1163,58.593750
1164,58.593750
1165,58.593750
1166,58.593750
1167,58.593750
1168,58.593750
1169,58.593750
1170,58.593750
1171,62.500000
1172,62.500000
1173,62.500000
1174,62.500000
1175,62.500000
1176,62.500000
1177,62.500000
1178,66.406250
1179,66.406250
1180,66.406250
1181,66.406250
1182,66.406250
1183,66.406250
1184,66.406250
1185,66.406250
1186,66.406250
1187,66.406250
1188,70.312500
1189,70.312500
1190,70.312500
1191,70.312500
1192,70.312500
1193,70.312500
1194,74.218750
1195,70.312500
1196,70.312500
1197,70.312500
1198,74.218750
1199,74.218750
1200,74.218750
1201,74.218750
1202,74.218750
1203,78.125000
1204,78.125000
1205,78.125000
1206,78.125000
1207,78.125000
1208,78.125000
1209,78.125000
1210,78.125000
1211,78.125000
1212,78.125000
1213,78.125000
1214,78.125000
1215,78.125000
1216,78.125000
1217,82.031250
1218,82.031250
1219,82.031250
1220,82.031250
1221,82.031250
1222,85.937500
1223,82.031250
1224,82.031250
1225,82.031250
1226,82.031250
1227,85.937500
1228,85.937500
1229,85.937500
1230,85.937500
1231,85.937500
1232,85.937500
1233,85.937500
1234,85.937500
1235,85.937500
1236,85.937500
1237,85.937500
1238,85.937500
1239,85.937500
1240,89.843750
1241,89.843750
1242,89.843750
1243,89.843750
1244,89.843750
1245,89.843750
1246,89.843750
1247,89.843750
1248,89.843750
1249,89.843750
1250,89.843750
1251,89.843750
1252,89.843750
1253,89.843750
1254,89.843750
1255,93.750000
1256,93.750000
1257,89.843750
1258,93.750000
1259,93.750000
1260,93.750000
1261,93.750000
1262,93.750000
1263,93.750000
1264,93.750000
1265,93.750000
1266,93.750000
1267,93.750000
1268,93.750000
1269,93.750000
1270,93.750000
1271,93.750000
1272,93.750000
1273,93.750000
1274,93.750000
1275,93.750000
1276,93.750000
1277,97.656250
1278,97.656250
1279,97.656250
1280,97.656250
1281,97.656250
1282,97.656250
1283,97.656250
1284,97.656250
1285,97.656250
1286,97.656250
1287,97.656250
1288,97.656250
1289,97.656250
1290,97.656250
1291,97.656250
1292,97.656250
1293,97.656250
1294,97.656250
1295,97.656250
1296,97.656250
1297,97.656250
1298,97.656250
1299,97.656250
1300,97.656250
1301,97.656250
1302,97.656250
1303,97.656250
1304,97.656250
1305,97.656250
1306,97.656250
1307,97.656250
1308,97.656250
1309,97.656250
1310,101.562500
1311,97.656250
1312,97.656250
1313,97.656250
1314,97.656250
1315,97.656250
1316,97.656250
1317,97.656250
1318,97.656250
1319,101.562500
1320,97.656250
1321,97.656250
1322,97.656250
1323,97.656250
1324,97.656250
1325,97.656250
1326,97.656250
1327,97.656250
1328,97.656250
1329,97.656250
1330,97.656250
1331,97.656250
1332,97.656250
1333,97.656250
1334,97.656250
1335,97.656250
1336,97.656250
1337,97.656250
1338,97.656250
1339,97.656250
1340,97.656250
1341,97.656250
1342,97.656250
1343,97.656250
1344,97.656250
1345,97.656250
1346,97.656250
1347,97.656250
1348,97.656250
1349,97.656250
1350,97.656250
1351,97.656250
1352,97.656250
1353,93.750000
1354,93.750000
1355,93.750000
1356,93.750000
1357,93.750000
1358,93.750000
1359,93.750000
1360,93.750000
1361,93.750000
1362,93.750000
1363,93.750000
1364,93.750000
1365,93.750000
1366,93.750000
1367,93.750000
1368,93.750000
1369,93.750000
1370,93.750000
1371,93.750000
1372,93.750000
1373,93.750000
1374,89.843750
1375,89.843750
1376,89.843750
1377,89.843750
1378,89.843750
1379,89.843750
1380,89.843750
1381,89.843750
1382,89.843750
1383,89.843750
1384,89.843750
1385,89.843750
1386,89.843750
1387,89.843750
1388,85.937500
1389,89.843750
1390,89.843750
1391,85.937500
1392,89.843750
1393,85.937500
1394,85.937500
1395,85.937500
1396,85.937500
1397,85.937500
1398,85.937500
1399,85.937500
1400,85.937500
1401,85.937500
1402,85.937500
1403,82.031250
1404,85.937500
1405,82.031250
1406,82.031250
1407,82.031250
1408,82.031250
1409,82.031250
1410,82.031250
1411,82.031250
1412,82.031250
1413,82.031250
1414,78.125000
1415,78.125000
1416,78.125000
1417,78.125000
1418,78.125000
1419,78.125000
1420,78.125000
1421,78.125000
1422,78.125000
1423,78.125000
1424,74.218750
1425,74.218750
1426,74.218750
1427,74.218750
1428,74.218750
1429,74.218750
1430,74.218750
1431,74.218750
1432,74.218750
1433,70.312500
1434,74.218750
1435,70.312500
1436,70.312500
1437,70.312500
1438,70.312500
1439,70.312500
1440,70.312500
1441,70.312500
1442,70.312500
1443,66.406250
1444,66.406250
1445,66.406250
1446,66.406250
1447,66.406250
1448,66.406250
1449,66.406250
1450,62.500000
1451,62.500000
1452,62.500000
1453,62.500000
1454,62.500000
1455,62.500000
1456,62.500000
1457,58.593750
1458,62.500000
1459,58.593750
1460,58.593750
1461,58.593750
1462,58.593750
1463,58.593750
1464,58.593750
1465,54.687500
1466,54.687500
1467,54.687500
1468,54.687500
1469,54.687500
1470,54.687500
1471,54.687500
1472,50.781250
1473,50.781250
1474,50.781250
1475,50.781250
1476,50.781250
1477,50.781250
1478,50.781250
1479,46.875000
1480,46.875000
1481,46.875000
1482,46.875000
1483,46.875000
1484,46.875000
1485,46.875000
1486,42.968750
1487,42.968750
1488,42.968750
1489,42.968750
1490,42.968750
1491,39.062500
1492,39.062500
1493,39.062500
1494,39.062500
1495,39.062500
1496,39.062500
1497,39.062500
1498,35.156250
1499,35.156250
1500,35.156250
1501,35.156250
1502,35.156250
1503,31.250000
1504,31.250000
1505,31.250000
1506,31.250000
1507,31.250000
1508,31.250000
1509,31.250000
1510,31.250000
1511,27.343750
1512,27.343750
1513,27.343750
1514,27.343750
1515,27.343750
1516,23.437500
1517,23.437500
1518,23.437500
1519,23.437500
1520,23.437500
1521,19.531250
1522,19.531250
1523,23.437500
1524,19.531250
1525,19.531250
1526,19.531250
1527,19.531250
1528,15.625000
1529,15.625000
1530,15.625000
1531,15.625000
1532,15.625000
1533,15.625000
1534,11.718750
1535,11.718750
1536,11.718750
1537,11.718750
1538,11.718750
1539,7.812500
1540,7.812500
1541,7.812500
1542,7.812500
1543,7.812500
1544,3.906250
1545,3.906250
1546,3.906250
1547,3.906250
1548,3.906250
1549,3.906250
1550,0.000000
1551,0.000000
1552,0.000000
1553,0.000000
1554,0.000000
1555,-3.906250
1556,-3.906250
1557,-3.906250
1558,-3.906250
1559,-7.812500
1560,-3.906250
1561,-7.812500
1562,-7.812500
1563,-7.812500
1564,-7.812500
1565,-11.718750
1566,-11.718750
1567,-11.718750
1568,-11.718750
1569,-11.718750
1570,-11.718750
1571,-15.625000
1572,-15.625000
1573,-15.625000
1574,-15.625000
1575,-15.625000
1576,-19.531250
1577,-19.531250
1578,-19.531250
1579,-19.531250
1580,-19.531250
1581,-19.531250
1582,-23.437500
1583,-23.437500
1584,-23.437500
1585,-23.437500
1586,-23.437500
1587,-27.343750
1588,-27.343750
1589,-27.343750
1590,-27.343750
1591,-27.343750
1592,-27.343750
1593,-31.250000
1594,-31.250000
1595,-31.250000
1596,-31.250000
1597,-35.156250
1598,-35.156250
1599,-35.156250
1600,-35.156250
1601,-35.156250
1602,-35.156250
1603,-39.062500
1604,-39.062500
1605,-39.062500
1606,-39.062500
1607,-39.062500
1608,-42.968750
1609,-42.968750
1610,-42.968750
1611,-42.968750
1612,-46.875000
1613,-46.875000
1614,-46.875000
1615,-46.875000
1616,-46.875000
1617,-46.875000
1618,-50.781250
1619,-50.781250
1620,-50.781250
1621,-50.781250
1622,-50.781250
1623,-54.687500
1624,-54.687500
1625,-54.687500
1626,-54.687500
1627,-58.593750
1628,-54.687500
1629,-58.593750
1630,-58.593750
1631,-58.593750
1632,-58.593750
1633,-58.593750
1634,-58.593750
1635,-62.500000
1636,-62.500000
1637,-62.500000
1638,-62.500000
1639,-62.500000
1640,-66.406250
1641,-66.406250
1642,-66.406250
1643,-66.406250
1644,-66.406250
1645,-70.312500
1646,-70.312500
1647,-70.312500
1648,-70.312500
1649,-70.312500
1650,-70.312500
1651,-70.312500
1652,-74.218750
1653,-74.218750
1654,-74.218750
1655,-74.218750
1656,-74.218750
1657,-74.218750
1658,-78.125000
1659,-78.125000
1660,-78.125000
1661,-78.125000
1662,-78.125000
1663,-78.125000
1664,-82.031250
1665,-82.031250
1666,-82.031250
1667,-82.031250
1668,-82.031250
1669,-82.031250
1670,-85.937500
1671,-85.937500
1672,-85.937500
1673,-85.937500
1674,-85.937500
1675,-85.937500
1676,-85.937500
1677,-89.843750
1678,-89.843750
1679,-89.843750
1680,-89.843750
1681,-89.843750
1682,-93.750000
1683,-93.750000
1684,-93.750000
1685,-93.750000
1686,-93.750000
1687,-93.750000
1688,-93.750000
1689,-93.750000
1690,-97.656250
1691,-97.656250
1692,-97.656250
1693,-97.656250
1694,-97.656250
1695,-97.656250
1696,-97.656250
1697,-101.562500
1698,-101.562500
1699,-101.562500
1700,-101.562500
1701,-101.562500
1702,-101.562500
1703,-101.562500
1704,-101.562500
1705,-105.468750
1706,-105.468750
1707,-105.468750
1708,-105.468750
1709,-105.468750
1710,-105.468750
1711,-105.468750
1712,-105.468750
1713,-109.375000
1714,-109.375000
1715,-109.375000
1716,-109.375000
1717,-109.375000
1718,-109.375000
1719,-109.375000
1720,-113.281250
1721,-113.281250
1722,-113.281250
1723,-113.281250
1724,-113.281250
1725,-113.281250
1726,-113.281250
1727,-113.281250
1728,-117.187500
1729,-117.187500
1730,-117.187500
1731,-117.187500
1732,-117.187500
1733,-117.187500
1734,-117.187500
1735,-117.187500
1736,-117.187500
1737,-117.187500
1738,-117.187500
1739,-117.187500
1740,-117.187500
1741,-121.093750
1742,-121.093750
1743,-121.093750
1744,-121.093750
1745,-121.093750
1746,-121.093750
1747,-121.093750
1748,-121.093750
1749,-121.093750
1750,-121.093750
1751,-125.000000
1752,-121.093750
1753,-121.093750
1754,-125.000000
1755,-125.000000
1756,-125.000000
1757,-125.000000
1758,-125.000000
1759,-125.000000
1760,-125.000000
1761,-125.000000
1762,-125.000000
1763,-125.000000
1764,-125.000000
1765,-125.000000
1766,-128.906250
1767,-128.906250
1768,-128.906250
1769,-128.906250
1770,-128.906250
1771,-128.906250
1772,-128.906250
1773,-128.906250
1774,-128.906250
1775,-128.906250
1776,-128.906250
1777,-128.906250
1778,-128.906250
1779,-128.906250
1780,-128.906250
1781,-128.906250
1782,-128.906250
1783,-128.906250
1784,-128.906250
1785,-128.906250
1786,-128.906250
1787,-128.906250
1788,-132.812500
1789,-132.812500
1790,-128.906250
1791,-128.906250
1792,-128.906250
1793,-128.906250
1794,-128.906250
1795,-132.812500
1796,-132.812500
1797,-132.812500
1798,-132.812500
1799,-132.812500
1800,-132.812500
1801,-132.812500
1802,-132.812500
1803,-132.812500
1804,-132.812500
1805,-132.812500
1806,-132.812500
1807,-132.812500
1808,-132.812500
1809,-132.812500
1810,-128.906250
1811,-132.812500
1812,-132.812500
1813,-132.812500
1814,-132.812500
1815,-128.906250
1816,-128.906250
1817,-132.812500
1818,-132.812500
1819,-132.812500
1820,-132.812500
1821,-132.812500
1822,-132.812500
1823,-128.906250
1824,-128.906250
1825,-128.906250
1826,-128.906250
1827,-128.906250
1828,-132.812500
1829,-132.812500
1830,-132.812500
1831,-128.906250
1832,-128.906250
1833,-128.906250
1834,-128.906250
1835,-128.906250
1836,-128.906250
1837,-128.906250
1838,-128.906250
1839,-128.906250
1840,-128.906250
1841,-128.906250
1842,-128.906250
1843,-128.906250
1844,-128.906250
1845,-128.906250
1846,-128.906250
1847,-128.906250
1848,-128.906250
1849,-128.906250
1850,-128.906250
1851,-128.906250
1852,-125.000000
1853,-125.000000
1854,-125.000000
1855,-125.000000
1856,-125.000000
1857,-125.000000
1858,-125.000000
1859,-125.000000
1860,-125.000000
1861,-125.000000
1862,-125.000000
1863,-125.000000
1864,-125.000000
1865,-125.000000
1866,-121.093750
1867,-121.093750
1868,-125.000000
1869,-121.093750
1870,-121.093750
1871,-121.093750
1872,-121.093750
1873,-121.093750
1874,-121.093750
1875,-121.093750
1876,-121.093750
1877,-121.093750
1878,-121.093750
1879,-121.093750
1880,-117.187500
1881,-121.093750
1882,-117.187500
1883,-117.187500
1884,-117.187500
1885,-117.187500
1886,-117.187500
1887,-117.187500
1888,-117.187500
1889,-117.187500
1890,-113.281250
1891,-113.281250
1892,-113.281250
1893,-113.281250
1894,-113.281250
1895,-113.281250
1896,-113.281250
1897,-113.281250
1898,-109.375000
1899,-109.375000
1900,-109.375000
1901,-109.375000
1902,-109.375000
1903,-109.375000
1904,-109.375000
1905,-109.375000
1906,-109.375000
1907,-105.468750
1908,-105.468750
1909,-105.468750
1910,-105.468750
1911,-105.468750
1912,-105.468750
1913,-105.468750
1914,-105.468750
1915,-105.468750
1916,-101.562500
1917,-101.562500
1918,-101.562500
1919,-101.562500
1920,-101.562500
1921,-101.562500
1922,-101.562500
1923,-97.656250
1924,-101.562500
1925,-97.656250
1926,-97.656250
1927,-97.656250
1928,-97.656250
1929,-93.750000
1930,-93.750000
1931,-93.750000
1932,-93.750000
1933,-93.750000
1934,-93.750000
1935,-93.750000
1936,-89.843750
1937,-89.843750
1938,-89.843750
1939,-89.843750
1940,-89.843750
1941,-89.843750
1942,-89.843750
1943,-89.843750
1944,-85.937500
1945,-85.937500
1946,-85.937500
1947,-85.937500
1948,-85.937500
1949,-82.031250
1950,-82.031250
1951,-82.031250
1952,-82.031250
1953,-82.031250
1954,-82.031250
1955,-78.125000
1956,-78.125000
1957,-78.125000
1958,-78.125000
1959,-78.125000
1960,-78.125000
1961,-78.125000
1962,-74.218750
1963,-74.218750
1964,-74.218750
1965,-74.218750
1966,-74.218750
1967,-74.218750
1968,-70.312500
1969,-70.312500
1970,-70.312500
1971,-70.312500
1972,-70.312500
1973,-66.406250
1974,-66.406250
1975,-66.406250
1976,-66.406250
1977,-66.406250
1978,-66.406250
1979,-62.500000
1980,-62.500000
1981,-62.500000
1982,-62.500000
1983,-62.500000
1984,-58.593750
1985,-58.593750
1986,-58.593750
1987,-58.593750
1988,-58.593750
1989,-58.593750
1990,-58.593750
1991,-54.687500
1992,-54.687500
1993,-54.687500
1994,-54.687500
1995,-54.687500
1996,-50.781250
1997,-50.781250
1998,-50.781250
1999,-50.781250
2000,-50.781250
2001,-46.875000
2002,-46.875000
2003,-46.875000
2004,-46.875000
2005,-46.875000
2006,-46.875000
2007,-42.968750
2008,-42.968750
2009,-42.968750
2010,-42.968750
2011,-42.968750
2012,-39.062500
2013,-39.062500
2014,-39.062500
2015,-39.062500
2016,-39.062500
2017,-35.156250
2018,-35.156250
2019,-35.156250
2020,-35.156250
2021,-35.156250
2022,-35.156250
2023,-31.250000
2024,-31.250000
2025,-31.250000
2026,-31.250000
2027,-31.250000
2028,-27.343750
2029,-27.343750
2030,-27.343750
2031,-27.343750
2032,-23.437500
2033,-23.437500
2034,-23.437500
2035,-23.437500
2036,-23.437500
2037,-23.437500
2038,-19.531250
2039,-23.437500
2040,-19.531250
2041,-19.531250
2042,-19.531250
2043,-15.625000
2044,-15.625000
2045,-15.625000
2046,-15.625000
2047,-15.625000
2048,-15.625000
2049,-11.718750
2050,-11.718750
2051,-11.718750
2052,-11.718750
2053,-7.812500
2054,-7.812500
2055,-7.812500
2056,-7.812500
2057,-7.812500
2058,-7.812500
2059,-7.812500
2060,-3.906250
2061,-3.906250
2062,-3.906250
2063,-3.906250
2064,0.000000
2065,0.000000
2066,0.000000
2067,0.000000
2068,0.000000
2069,3.906250
2070,3.906250
2071,3.906250
2072,3.906250
2073,3.906250
2074,7.812500
2075,7.812500
2076,7.812500
2077,7.812500
2078,7.812500
2079,7.812500
2080,11.718750
2081,11.718750
2082,11.718750
2083,11.718750
2084,11.718750
2085,11.718750
2086,15.625000
2087,15.625000
2088,15.625000
2089,15.625000
2090,15.625000
2091,15.625000
2092,19.531250
2093,19.531250
2094,19.531250
2095,19.531250
2096,19.531250
2097,23.437500
2098,23.437500
2099,23.437500
2100,23.437500
2101,23.437500
2102,23.437500
2103,27.343750
2104,27.343750
2105,27.343750
2106,27.343750
2107,27.343750
2108,27.343750
2109,31.250000
2110,31.250000
2111,31.250000
2112,31.250000
2113,31.250000
2114,31.250000
2115,31.250000
2116,35.156250
2117,35.156250
2118,35.156250
2119,35.156250
2120,35.156250
2121,39.062500
2122,39.062500
2123,39.062500
2124,39.062500
2125,39.062500
2126,39.062500
2127,42.968750
2128,42.968750
2129,42.968750
2130,42.968750
2131,42.968750
2132,42.968750
2133,42.968750
2134,46.875000
2135,46.875000
2136,46.875000
2137,46.875000
2138,46.875000
2139,46.875000
2140,50.781250
2141,50.781250
2142,50.781250
2143,50.781250
2144,50.781250
2145,50.781250
2146,50.781250
2147,54.687500
2148,54.687500
2149,54.687500
2150,54.687500
2151,54.687500
2152,54.687500
2153,54.687500
2154,58.593750
2155,58.593750
2156,58.593750
2157,58.593750
2158,58.593750
2159,58.593750
2160,58.593750
2161,58.593750
2162,62.500000
2163,62.500000
2164,62.500000
2165,62.500000
2166,62.500000
2167,62.500000
2168,62.500000
2169,66.406250
2170,66.406250
2171,66.406250
2172,66.406250
2173,66.406250
2174,66.406250
2175,66.406250
2176,66.406250
2177,70.312500
2178,70.312500
2179,70.312500
2180,70.312500
2181,70.312500
2182,70.312500
2183,70.312500
2184,74.218750
2185,70.312500
2186,74.218750
2187,74.218750
2188,74.218750
2189,74.218750
2190,74.218750
2191,74.218750
2192,74.218750
2193,74.218750
2194,78.125000
2195,78.125000
2196,78.125000
2197,78.125000
2198,78.125000
2199,78.125000
2200,78.125000
2201,78.125000
2202,78.125000
2203,78.125000
2204,78.125000
2205,82.031250
2206,82.031250
2207,82.031250
2208,82.031250
2209,82.031250
2210,82.031250
2211,82.031250
2212,82.031250
2213,82.031250
2214,85.937500
2215,82.031250
2216,85.937500
2217,85.937500
2218,85.937500
2219,85.937500
2220,85.937500
2221,85.937500
2222,85.937500
2223,85.937500
2224,85.937500
2225,85.937500
2226,85.937500
2227,85.937500
2228,85.937500
2229,89.843750
2230,89.843750
2231,89.843750
2232,89.843750
2233,89.843750
2234,89.843750
2235,89.843750
2236,89.843750
2237,89.843750
2238,89.843750
2239,89.843750
2240,89.843750
2241,89.843750
2242,89.843750
2243,93.750000
2244,93.750000
2245,89.843750
2246,89.843750
2247,93.750000
2248,93.750000
2249,93.750000
2250,93.750000
2251,93.750000
2252,93.750000
2253,93.750000
2254,93.750000
2255,93.750000
2256,93.750000
2257,93.750000
2258,93.750000
2259,93.750000
2260,93.750000
2261,93.750000
2262,93.750000
2263,93.750000
2264,97.656250
2265,93.750000
2266,97.656250
2267,97.656250
2268,97.656250
2269,97.656250
2270,97.656250
2271,97.656250
2272,97.656250
2273,97.656250
2274,97.656250
2275,97.656250
2276,97.656250
2277,97.656250
2278,97.656250
2279,97.656250
2280,97.656250
2281,97.656250
2282,97.656250
2283,97.656250
2284,97.656250
2285,97.656250
2286,97.656250
2287,97.656250
2288,97.656250
2289,97.656250
2290,97.656250
2291,97.656250
2292,97.656250
2293,97.656250
2294,97.656250
2295,97.656250
2296,97.656250
2297,97.656250
2298,97.656250
2299,97.656250
2300,97.656250
2301,101.562500
2302,97.656250
2303,97.656250
2304,97.656250
2305,97.656250
2306,97.656250
2307,97.656250
2308,97.656250
2309,97.656250
2310,97.656250
2311,97.656250
2312,97.656250
2313,101.562500
2314,97.656250
2315,97.656250
2316,97.656250
2317,97.656250
2318,97.656250
2319,97.656250
2320,97.656250
2321,97.656250
2322,97.656250
2323,97.656250
2324,97.656250
2325,97.656250
2326,97.656250
2327,97.656250
2328,97.656250
2329,97.656250
2330,97.656250
2331,97.656250
2332,97.656250
2333,97.656250
2334,97.656250
2335,97.656250
2336,97.656250
2337,97.656250
2338,97.656250
2339,97.656250
2340,97.656250
2341,97.656250
2342,97.656250
2343,97.656250
2344,97.656250
2345,97.656250
2346,97.656250
2347,97.656250
2348,93.750000
2349,93.750000
2350,93.750000
2351,93.750000
2352,93.750000
2353,93.750000
2354,93.750000
2355,93.750000
2356,93.750000
2357,93.750000
2358,93.750000
2359,93.750000
2360,93.750000
2361,93.750000
2362,93.750000
2363,93.750000
2364,93.750000
2365,89.843750
2366,89.843750
2367,89.843750
2368,89.843750
2369,89.843750
2370,89.843750
2371,89.843750
2372,89.843750
2373,89.843750
2374,89.843750
2375,89.843750
2376,89.843750
2377,89.843750
2378,89.843750
2379,85.937500
2380,85.937500
2381,85.937500
2382,85.937500
2383,85.937500
2384,85.937500
2385,85.937500
2386,85.937500
2387,85.937500
2388,85.937500
2389,85.937500
2390,85.937500
2391,82.031250
2392,82.031250
2393,82.031250
2394,82.031250
2395,82.031250
2396,82.031250
2397,82.031250
2398,82.031250
2399,82.031250
2400,82.031250
2401,82.031250
2402,82.031250
2403,78.125000
2404,78.125000
2405,78.125000
2406,78.125000
2407,78.125000
2408,78.125000
2409,78.125000
2410,78.125000
2411,78.125000
2412,78.125000
2413,74.218750
2414,74.218750
2415,74.218750
2416,74.218750
2417,74.218750
2418,74.218750
2419,74.218750
2420,74.218750
2421,74.218750
2422,74.218750
2423,70.312500
2424,70.312500
2425,70.312500
2426,70.312500
2427,70.312500
2428,70.312500
2429,70.312500
2430,70.312500
2431,70.312500
2432,66.406250
2433,66.406250
2434,66.406250
2435,66.406250
2436,66.406250
2437,66.406250
2438,66.406250
2439,66.406250
2440,62.500000
2441,62.500000
2442,62.500000
2443,62.500000
2444,62.500000
2445,62.500000
2446,62.500000
2447,62.500000
2448,62.500000
2449,58.593750
2450,58.593750
2451,58.593750
2452,58.593750
2453,58.593750
2454,58.593750
2455,54.687500
2456,54.687500
2457,54.687500
2458,54.687500
2459,54.687500
2460,54.687500
2461,54.687500
2462,54.687500
2463,50.781250
2464,50.781250
2465,50.781250
2466,50.781250
2467,50.781250
2468,46.875000
2469,50.781250
2470,46.875000
2471,46.875000
2472,46.875000
2473,46.875000
2474,42.968750
2475,42.968750
2476,42.968750
2477,42.968750
2478,42.968750
2479,42.968750
2480,42.968750
2481,42.968750
2482,39.062500
2483,39.062500
2484,39.062500
2485,39.062500
2486,39.062500
2487,39.062500
2488,35.156250
2489,35.156250
2490,35.156250
2491,35.156250
2492,35.156250
2493,35.156250
2494,35.156250
2495,31.250000
2496,31.250000
2497,31.250000
2498,31.250000
2499,31.250000
2500,27.343750
2501,27.343750
2502,27.343750
2503,27.343750
2504,27.343750
2505,27.343750
2506,23.437500
2507,23.437500
2508,23.437500
2509,23.437500
2510,23.437500
2511,23.437500
2512,19.531250
2513,19.531250
2514,19.531250
2515,15.625000
2516,19.531250
2517,15.625000
2518,15.625000
2519,15.625000
2520,15.625000
2521,15.625000
2522,11.718750
2523,11.718750
2524,11.718750
2525,11.718750
2526,11.718750
2527,11.718750
2528,7.812500
2529,7.812500
2530,7.812500
2531,7.812500
2532,7.812500
2533,3.906250
2534,3.906250
2535,3.906250
2536,3.906250
2537,3.906250
2538,3.906250
2539,0.000000
2540,0.000000
2541,0.000000
2542,0.000000
2543,0.000000
2544,-3.906250
2545,-3.906250
2546,-3.906250
2547,-3.906250
2548,-3.906250
2549,-7.812500
2550,-7.812500
2551,-7.812500
2552,-7.812500
2553,-7.812500
2554,-11.718750
2555,-11.718750
2556,-7.812500
2557,-11.718750
2558,-11.718750
2559,-11.718750
2560,-15.625000
2561,-15.625000
2562,-15.625000
2563,-15.625000
2564,-15.625000
2565,-15.625000
2566,-15.625000
2567,-19.531250
2568,-19.531250
2569,-19.531250
2570,-19.531250
2571,-23.437500
2572,-23.437500
2573,-23.437500
2574,-23.437500
2575,-23.437500
2576,-27.343750
2577,-27.343750
2578,-27.343750
2579,-27.343750
2580,-27.343750
2581,-27.343750
2582,-31.250000
2583,-31.250000
2584,-31.250000
2585,-31.250000
2586,-31.250000
2587,-35.156250
2588,-35.156250
2589,-35.156250
2590,-35.156250
2591,-39.062500
2592,-39.062500
2593,-39.062500
2594,-39.062500
2595,-39.062500
2596,-39.062500
2597,-42.968750
2598,-42.968750
2599,-42.968750
2600,-42.968750
2601,-42.968750
2602,-42.968750
2603,-46.875000
2604,-46.875000
2605,-46.875000
2606,-46.875000
2607,-50.781250
2608,-46.875000
2609,-50.781250
2610,-50.781250
2611,-50.781250
2612,-50.781250
2613,-50.781250
2614,-54.687500
2615,-54.687500
2616,-54.687500
2617,-54.687500
2618,-54.687500
2619,-58.593750
2620,-58.593750
2621,-58.593750
2622,-58.593750
2623,-58.593750
2624,-62.500000
2625,-62.500000
2626,-62.500000
2627,-62.500000
2628,-62.500000
2629,-66.406250
2630,-66.406250
2631,-66.406250
2632,-66.406250
2633,-66.406250
2634,-66.406250
2635,-66.406250
2636,-70.312500
2637,-70.312500
2638,-70.312500
2639,-70.312500
2640,-70.312500
2641,-74.218750
2642,-74.218750
2643,-74.218750
2644,-74.218750
2645,-74.218750
2646,-74.218750
2647,-78.125000
2648,-78.125000
2649,-78.125000
2650,-78.125000
2651,-78.125000
2652,-82.031250
2653,-82.031250
2654,-82.031250
2655,-82.031250
2656,-82.031250
2657,-82.031250
2658,-82.031250
2659,-85.937500
2660,-85.937500
2661,-85.937500
2662,-85.937500
2663,-85.937500
2664,-85.937500
2665,-85.937500
2666,-89.843750
2667,-89.843750
2668,-89.843750
2669,-89.843750
2670,-89.843750
2671,-89.843750
2672,-93.750000
2673,-93.750000
2674,-93.750000
2675,-93.750000
2676,-93.750000
2677,-93.750000
2678,-93.750000
2679,-97.656250
2680,-97.656250
2681,-97.656250
2682,-97.656250
2683,-97.656250
2684,-97.656250
2685,-97.656250
2686,-101.562500
2687,-101.562500
2688,-101.562500
2689,-101.562500
2690,-101.562500
2691,-101.562500
2692,-101.562500
2693,-105.468750
2694,-105.468750
2695,-105.468750
2696,-105.468750
2697,-105.468750
2698,-105.468750
2699,-105.468750
2700,-105.468750
2701,-109.375000
2702,-109.375000
2703,-109.375000
2704,-109.375000
2705,-109.375000
2706,-109.375000
2707,-109.375000
2708,-109.375000
2709,-113.281250
2710,-113.281250
2711,-113.281250
2712,-113.281250
2713,-113.281250
2714,-113.281250
2715,-113.281250
2716,-113.281250
2717,-113.281250
2718,-113.281250
2719,-113.281250
2720,-113.281250
2721,-117.187500
2722,-117.187500
2723,-117.187500
2724,-117.187500
2725,-117.187500
2726,-117.187500
2727,-117.187500
2728,-117.187500
2729,-117.187500
2730,-121.093750
2731,-121.093750
2732,-121.093750
2733,-121.093750
2734,-121.093750
2735,-121.093750
2736,-121.093750
2737,-121.093750
2738,-121.093750
2739,-121.093750
2740,-121.093750
2741,-121.093750
2742,-121.093750
2743,-125.000000
2744,-125.000000
2745,-125.000000
2746,-125.000000
2747,-125.000000
2748,-125.000000
2749,-125.000000
2750,-125.000000
2751,-125.000000
2752,-125.000000
2753,-125.000000
2754,-125.000000
2755,-125.000000
2756,-125.000000
2757,-128.906250
2758,-128.906250
2759,-128.906250
2760,-128.906250
2761,-125.000000
2762,-128.906250
2763,-128.906250
2764,-128.906250
2765,-128.906250
2766,-128.906250
2767,-128.906250
2768,-128.906250
2769,-128.906250
2770,-128.906250
2771,-128.906250
2772,-128.906250
2773,-128.906250
2774,-128.906250
2775,-132.812500
2776,-128.906250
2777,-128.906250
2778,-128.906250
2779,-132.812500
2780,-132.812500
2781,-132.812500
2782,-132.812500
2783,-132.812500
2784,-132.812500
2785,-132.812500
2786,-132.812500
2787,-132.812500
2788,-132.812500
2789,-132.812500
2790,-132.812500
2791,-132.812500
2792,-132.812500
2793,-132.812500
2794,-132.812500
2795,-132.812500
2796,-132.812500
2797,-132.812500
2798,-132.812500
2799,-132.812500
2800,-132.812500
2801,-132.812500
2802,-132.812500
2803,-132.812500
2804,-132.812500
2805,-132.812500
2806,-132.812500
2807,-132.812500
2808,-132.812500
2809,-132.812500
2810,-132.812500
2811,-132.812500
2812,-132.812500
2813,-132.812500
2814,-132.812500
2815,-132.812500
2816,-132.812500
2817,-128.906250
2818,-128.906250
2819,-132.812500
2820,-132.812500
2821,-132.812500
2822,-132.812500
2823,-132.812500
2824,-128.906250
2825,-128.906250
2826,-128.906250
2827,-128.906250
2828,-128.906250
2829,-128.906250
2830,-128.906250
2831,-128.906250
2832,-128.906250
2833,-128.906250
2834,-128.906250
2835,-128.906250
2836,-128.906250
2837,-128.906250
2838,-128.906250
2839,-128.906250
2840,-125.000000
2841,-125.000000
2842,-125.000000
2843,-125.000000
2844,-125.000000
2845,-125.000000
2846,-125.000000
2847,-125.000000
2848,-125.000000
2849,-125.000000
2850,-125.000000
2851,-125.000000
2852,-125.000000
2853,-125.000000
2854,-125.000000
2855,-125.000000
2856,-121.093750
2857,-125.000000
2858,-121.093750
2859,-121.093750
2860,-121.093750
2861,-121.093750
2862,-121.093750
2863,-121.093750
2864,-121.093750
2865,-121.093750
2866,-121.093750
2867,-121.093750
2868,-121.093750
2869,-117.187500
2870,-117.187500
2871,-117.187500
2872,-117.187500
2873,-117.187500
2874,-117.187500
2875,-117.187500
2876,-117.187500
2877,-117.187500
2878,-117.187500
2879,-117.187500
2880,-113.281250
2881,-113.281250
2882,-113.281250
2883,-113.281250
2884,-113.281250
2885,-113.281250
2886,-113.281250
2887,-109.375000
2888,-109.375000
2889,-109.375000
2890,-109.375000
2891,-109.375000
2892,-109.375000
2893,-109.375000
2894,-109.375000
2895,-109.375000
2896,-109.375000
2897,-109.375000
2898,-109.375000
2899,-105.468750
2900,-105.468750
2901,-105.468750
2902,-105.468750
2903,-105.468750
2904,-105.468750
2905,-105.468750
2906,-101.562500
2907,-101.562500
2908,-101.562500
2909,-101.562500
2910,-101.562500
2911,-101.562500
2912,-101.562500
2913,-97.656250
2914,-97.656250
2915,-97.656250
2916,-97.656250
2917,-97.656250
2918,-97.656250
2919,-97.656250
2920,-93.750000
2921,-93.750000
2922,-93.750000
2923,-93.750000
2924,-93.750000
2925,-93.750000
2926,-89.843750
2927,-89.843750
2928,-89.843750
2929,-89.843750
2930,-89.843750
2931,-89.843750
2932,-89.843750
2933,-89.843750
2934,-85.937500
2935,-85.937500
2936,-85.937500
2937,-85.937500
2938,-85.937500
2939,-82.031250
2940,-82.031250
2941,-82.031250
2942,-82.031250
2943,-82.031250
2944,-82.031250
2945,-82.031250
2946,-78.125000
2947,-78.125000
2948,-78.125000
2949,-78.125000
2950,-78.125000
2951,-74.218750
2952,-74.218750
2953,-74.218750
2954,-74.218750
2955,-74.218750
2956,-74.218750
2957,-70.312500
2958,-70.312500
2959,-70.312500
2960,-70.312500
2961,-70.312500
2962,-70.312500
2963,-70.312500
2964,-66.406250
2965,-66.406250
2966,-66.406250
2967,-66.406250
2968,-62.500000
2969,-62.500000
2970,-62.500000
2971,-62.500000
2972,-62.500000
2973,-58.593750
2974,-58.593750
2975,-58.593750
2976,-58.593750
2977,-58.593750
2978,-58.593750
2979,-58.593750
2980,-54.687500
2981,-54.687500
2982,-54.687500
2983,-54.687500
2984,-50.781250
2985,-50.781250
2986,-50.781250
2987,-50.781250
2988,-50.781250
2989,-50.781250
2990,-50.781250
2991,-46.875000
2992,-46.875000
2993,-46.875000
2994,-46.875000
2995,-46.875000
2996,-42.968750
2997,-42.968750
2998,-42.968750
2999,-42.968750
3000,-42.968750
3001,-39.062500
3002,-39.062500
3003,-39.062500
3004,-39.062500
3005,-39.062500
3006,-35.156250
3007,-35.156250
3008,-35.156250
3009,-35.156250
3010,-35.156250
3011,-35.156250
3012,-31.250000
3013,-31.250000
3014,-31.250000
3015,-31.250000
3016,-31.250000
3017,-27.343750
3018,-27.343750
3019,-27.343750
3020,-27.343750
3021,-23.437500
3022,-27.343750
3023,-23.437500
3024,-23.437500
3025,-23.437500
3026,-23.437500
3027,-23.437500
3028,-19.531250
3029,-19.531250
3030,-19.531250
3031,-19.531250
3032,-19.531250
3033,-15.625000
3034,-15.625000
3035,-15.625000
3036,-15.625000
3037,-15.625000
3038,-11.718750
3039,-11.718750
3040,-11.718750
3041,-11.718750
3042,-11.718750
3043,-11.718750
3044,-7.812500
3045,-7.812500
3046,-7.812500
3047,-7.812500
3048,-3.906250
3049,-3.906250
3050,-3.906250
3051,-3.906250
3052,-3.906250
3053,-3.906250
3054,0.000000
3055,0.000000
3056,0.000000
3057,0.000000
3058,0.000000
3059,0.000000
3060,3.906250
3061,3.906250
3062,3.906250
3063,3.906250
3064,3.906250
3065,7.812500
3066,7.812500
3067,7.812500
3068,7.812500
3069,7.812500
3070,11.718750
3071,11.718750
3072,11.718750
3073,11.718750
3074,11.718750
3075,11.718750
3076,15.625000
3077,15.625000
3078,15.625000
3079,15.625000
3080,15.625000
3081,19.531250
3082,19.531250
3083,19.531250
3084,19.531250
3085,19.531250
3086,23.437500
3087,23.437500
3088,23.437500
3089,27.343750
3090,23.437500
3091,23.437500
3092,23.437500
3093,27.343750
3094,27.343750
3095,27.343750
3096,27.343750
3097,27.343750
3098,31.250000
3099,31.250000
3100,31.250000
3101,31.250000
3102,31.250000
3103,31.250000
3104,35.156250
3105,35.156250
3106,35.156250
3107,35.156250
3108,35.156250
3109,35.156250
3110,39.062500
3111,39.062500
3112,39.062500
3113,39.062500
3114,39.062500
3115,39.062500
3116,42.968750
3117,42.968750
3118,42.968750
3119,42.968750
3120,42.968750
3121,42.968750
3122,42.968750
3123,46.875000
3124,46.875000
3125,46.875000
3126,46.875000
3127,46.875000
3128,46.875000
3129,46.875000
3130,50.781250
3131,50.781250
3132,50.781250
3133,50.781250
3134,50.781250
3135,50.781250
3136,50.781250
3137,54.687500
3138,54.687500
3139,54.687500
3140,54.687500
3141,54.687500
3142,54.687500
3143,54.687500
3144,54.687500
3145,58.593750
3146,58.593750
3147,58.593750
3148,58.593750
3149,58.593750
3150,62.500000
3151,62.500000
3152,62.500000
3153,62.500000
3154,62.500000
3155,66.406250
3156,62.500000
3157,62.500000
3158,62.500000
3159,66.406250
3160,66.406250
3161,66.406250
3162,66.406250
3163,66.406250
3164,66.406250
3165,66.406250
3166,70.312500
3167,66.406250
3168,70.312500
3169,70.312500
3170,70.312500
3171,70.312500
3172,70.312500
3173,70.312500
3174,70.312500
3175,74.218750
3176,70.312500
3177,70.312500
3178,74.218750
3179,74.218750
3180,74.218750
3181,74.218750
3182,74.218750
3183,74.218750
3184,74.218750
3185,74.218750
3186,78.125000
3187,78.125000
3188,78.125000
3189,78.125000
3190,78.125000
3191,78.125000
3192,78.125000
3193,78.125000
3194,78.125000
3195,78.125000
3196,78.125000
3197,78.125000
3198,82.031250
3199,82.031250
3200,82.031250
3201,82.031250
3202,82.031250
3203,82.031250
3204,82.031250
3205,82.031250
3206,82.031250
3207,82.031250
3208,85.937500
3209,85.937500
3210,85.937500
3211,85.937500
3212,85.937500
3213,85.937500
3214,85.937500
3215,85.937500
3216,85.937500
3217,85.937500
3218,89.843750
3219,89.843750
3220,89.843750
3221,89.843750
3222,89.843750
3223,89.843750
3224,89.843750
3225,89.843750
3226,89.843750
3227,89.843750
3228,89.843750
3229,89.843750
3230,89.843750
3231,89.843750
3232,89.843750
3233,89.843750
3234,89.843750
3235,89.843750
3236,93.750000
3237,93.750000
3238,93.750000
3239,93.750000
3240,93.750000
3241,93.750000
3242,93.750000
3243,93.750000
3244,93.750000
3245,93.750000
3246,93.750000
3247,93.750000
3248,93.750000
3249,93.750000
3250,93.750000
3251,93.750000
3252,93.750000
3253,93.750000
3254,93.750000
3255,93.750000
3256,97.656250
3257,97.656250
3258,97.656250
3259,97.656250
3260,97.656250
3261,97.656250
3262,97.656250
3263,97.656250
3264,97.656250
3265,97.656250
3266,97.656250
3267,97.656250
3268,97.656250
3269,97.656250
3270,97.656250
3271,97.656250
3272,97.656250
3273,97.656250
3274,97.656250
3275,97.656250
3276,97.656250
3277,97.656250
3278,97.656250
3279,97.656250
3280,97.656250
3281,97.656250
3282,97.656250
3283,97.656250
3284,97.656250
3285,97.656250
3286,97.656250
3287,97.656250
3288,97.656250
3289,97.656250
3290,97.656250
3291,97.656250
3292,97.656250
3293,97.656250
3294,97.656250
3295,97.656250
3296,97.656250
3297,97.656250
3298,97.656250
3299,97.656250
3300,97.656250
3301,97.656250
3302,97.656250
3303,97.656250
3304,97.656250
3305,97.656250
3306,97.656250
3307,97.656250
3308,97.656250
3309,97.656250
3310,97.656250
3311,97.656250
3312,97.656250
3313,97.656250
3314,97.656250
3315,97.656250
3316,97.656250
3317,97.656250
3318,97.656250
3319,97.656250
3320,97.656250
3321,97.656250
3322,97.656250
3323,97.656250
3324,97.656250
3325,97.656250
3326,97.656250
3327,97.656250
3328,97.656250
3329,97.656250
3330,93.750000
3331,97.656250
3332,93.750000
3333,97.656250
3334,93.750000
3335,93.750000
3336,93.750000
3337,93.750000
3338,93.750000
3339,93.750000
3340,93.750000
3341,93.750000
3342,93.750000
3343,93.750000
3344,93.750000
3345,93.750000
3346,93.750000
3347,93.750000
3348,93.750000
3349,93.750000
3350,93.750000
3351,93.750000
3352,93.750000
3353,93.750000
3354,93.750000
3355,93.750000
3356,93.750000
3357,93.750000
3358,89.843750
3359,89.843750
3360,89.843750
3361,89.843750
3362,89.843750
3363,89.843750
3364,89.843750
3365,89.843750
3366,89.843750
3367,89.843750
3368,89.843750
3369,89.843750
3370,85.937500
3371,85.937500
3372,89.843750
3373,85.937500
3374,85.937500
3375,85.937500
3376,85.937500
3377,85.937500
3378,85.937500
3379,85.937500
3380,85.937500
3381,85.937500
3382,85.937500
3383,85.937500
3384,82.031250
3385,82.031250
3386,82.031250
3387,82.031250
3388,82.031250
3389,78.125000
3390,78.125000
3391,82.031250
3392,78.125000
3393,82.031250
3394,78.125000
3395,78.125000
3396,78.125000
3397,78.125000
3398,78.125000
3399,78.125000
3400,78.125000
3401,78.125000
3402,78.125000
3403,74.218750
3404,74.218750
3405,74.218750
3406,74.218750
3407,74.218750
3408,74.218750
3409,74.218750
3410,74.218750
3411,74.218750
3412,74.218750
3413,70.312500
3414,70.312500
3415,70.312500
3416,70.312500
3417,70.312500
3418,70.312500
3419,70.312500
3420,70.312500
3421,66.406250
3422,66.406250
3423,66.406250
3424,66.406250
3425,66.406250
3426,66.406250
3427,66.406250
3428,62.500000
3429,62.500000
3430,62.500000
3431,62.500000
3432,62.500000
3433,62.500000
3434,62.500000
3435,62.500000
3436,58.593750
3437,58.593750
3438,58.593750
3439,58.593750
3440,58.593750
3441,58.593750
3442,58.593750
3443,58.593750
3444,58.593750
3445,54.687500
3446,54.687500
3447,54.687500
3448,54.687500
3449,54.687500
3450,54.687500
3451,54.687500
3452,50.781250
3453,50.781250
3454,50.781250
3455,50.781250
3456,46.875000
3457,46.875000
3458,46.875000
3459,42.968750
3460,46.875000
3461,46.875000
3462,46.875000
3463,46.875000
3464,42.968750
3465,42.968750
3466,42.968750
3467,42.968750
3468,42.968750
3469,42.968750
3470,42.968750
3471,42.968750
3472,39.062500
3473,39.062500
3474,39.062500
3475,39.062500
3476,39.062500
3477,39.062500
3478,39.062500
3479,35.156250
3480,35.156250
3481,35.156250
3482,35.156250
3483,35.156250
3484,31.250000
3485,31.250000
3486,31.250000
3487,31.250000
3488,31.250000
3489,27.343750
3490,27.343750
3491,27.343750
3492,27.343750
3493,27.343750
3494,27.343750
3495,23.437500
3496,23.437500
3497,23.437500
3498,23.437500
3499,23.437500
3500,23.437500
3501,23.437500
3502,19.531250
3503,19.531250
3504,19.531250
3505,19.531250
3506,19.531250
3507,15.625000
3508,15.625000
3509,15.625000
3510,15.625000
3511,15.625000
3512,15.625000
3513,11.718750
3514,11.718750
3515,11.718750
3516,11.718750
3517,11.718750
3518,11.718750
3519,7.812500
3520,7.812500
3521,7.812500
3522,3.906250
3523,3.906250
3524,3.906250
3525,3.906250
3526,3.906250
3527,3.906250
3528,3.906250
3529,0.000000
3530,0.000000
3531,0.000000
3532,0.000000
3533,0.000000
3534,-3.906250
3535,-3.906250
3536,-3.906250
3537,-3.906250
3538,-3.906250
3539,-7.812500
3540,-7.812500
3541,-7.812500
3542,-7.812500
3543,-7.812500
3544,-11.718750
3545,-11.718750
3546,-11.718750
3547,-11.718750
3548,-11.718750
3549,-15.625000
3550,-15.625000
3551,-15.625000
3552,-15.625000
3553,-15.625000
3554,-15.625000
3555,-19.531250
3556,-19.531250
3557,-19.531250
3558,-19.531250
3559,-19.531250
3560,-19.531250
3561,-23.437500
3562,-23.437500
3563,-23.437500
3564,-23.437500
3565,-27.343750
3566,-27.343750
3567,-27.343750
3568,-27.343750
3569,-27.343750
3570,-27.343750
3571,-31.250000
3572,-31.250000
3573,-31.250000
3574,-31.250000
3575,-31.250000
3576,-35.156250
3577,-35.156250
3578,-35.156250
3579,-35.156250
3580,-35.156250
3581,-35.156250
3582,-39.062500
3583,-39.062500
3584,-39.062500
3585,-39.062500
3586,-42.968750
3587,-42.968750
3588,-42.968750
3589,-42.968750
3590,-42.968750
3591,-46.875000
3592,-46.875000
3593,-46.875000
3594,-46.875000
3595,-46.875000
3596,-46.875000
3597,-50.781250
3598,-50.781250
3599,-50.781250
3600,-50.781250
3601,-50.781250
3602,-54.687500
3603,-54.687500
3604,-54.687500
3605,-54.687500
3606,-54.687500
3607,-54.687500
3608,-54.687500
3609,-58.593750
3610,-58.593750
3611,-58.593750
3612,-58.593750
3613,-58.593750
3614,-62.500000
3615,-62.500000
3616,-62.500000
3617,-62.500000
3618,-62.500000
3619,-66.406250
3620,-66.406250
3621,-66.406250
3622,-66.406250
3623,-66.406250
3624,-70.312500
3625,-70.312500
3626,-70.312500
3627,-70.312500
3628,-70.312500
3629,-70.312500
3630,-70.312500
3631,-74.218750
3632,-74.218750
3633,-74.218750
3634,-74.218750
3635,-74.218750
3636,-74.218750
3637,-74.218750
3638,-78.125000
3639,-78.125000
3640,-78.125000
3641,-78.125000
3642,-82.031250
3643,-82.031250
3644,-82.031250
3645,-82.031250
3646,-82.031250
3647,-82.031250
3648,-82.031250
3649,-85.937500
3650,-85.937500
3651,-85.937500
3652,-85.937500
3653,-85.937500
3654,-85.937500
3655,-89.843750
3656,-89.843750
3657,-89.843750
3658,-89.843750
3659,-89.843750
3660,-89.843750
3661,-93.750000
3662,-93.750000
3663,-93.750000
3664,-93.750000
3665,-93.750000
3666,-93.750000
3667,-93.750000
3668,-97.656250
3669,-97.656250
3670,-97.656250
3671,-97.656250
3672,-97.656250
3673,-97.656250
3674,-97.656250
3675,-97.656250
3676,-101.562500
3677,-97.656250
3678,-101.562500
3679,-101.562500
3680,-101.562500
3681,-101.562500
3682,-101.562500
3683,-105.468750
3684,-105.468750
3685,-105.468750
3686,-105.468750
3687,-105.468750
3688,-105.468750
3689,-105.468750
3690,-105.468750
3691,-109.375000
3692,-109.375000
3693,-109.375000
3694,-109.375000
3695,-109.375000
3696,-109.375000
3697,-109.375000
3698,-109.375000
3699,-113.281250
3700,-113.281250
3701,-113.281250
3702,-113.281250
3703,-113.281250
3704,-113.281250
3705,-113.281250
3706,-113.281250
3707,-117.187500
3708,-117.187500
3709,-117.187500
3710,-117.187500
3711,-117.187500
3712,-117.187500
3713,-117.187500
3714,-117.187500
3715,-117.187500
3716,-117.187500
3717,-117.187500
3718,-117.187500
3719,-121.093750
3720,-121.093750
3721,-121.093750
3722,-121.093750
3723,-121.093750
3724,-121.093750
3725,-121.093750
3726,-121.093750
3727,-121.093750
3728,-121.093750
3729,-121.093750
3730,-125.000000
3731,-125.000000
3732,-121.093750
3733,-125.000000
3734,-125.000000
3735,-125.000000
3736,-125.000000
3737,-125.000000
3738,-125.000000
3739,-125.000000
3740,-125.000000
3741,-125.000000
3742,-125.000000
3743,-125.000000
3744,-125.000000
3745,-125.000000
3746,-125.000000
3747,-125.000000
3748,-125.000000
3749,-128.906250
3750,-128.906250
3751,-128.906250
3752,-128.906250
3753,-128.906250
3754,-128.906250
3755,-128.906250
3756,-128.906250
3757,-128.906250
3758,-128.906250
3759,-128.906250
3760,-128.906250
3761,-128.906250
3762,-128.906250
3763,-128.906250
3764,-128.906250
3765,-128.906250
3766,-128.906250
3767,-128.906250
3768,-128.906250
3769,-128.906250
3770,-128.906250
3771,-132.812500
3772,-128.906250
3773,-132.812500
3774,-132.812500
3775,-132.812500
3776,-128.906250
3777,-132.812500
3778,-132.812500
3779,-132.812500
3780,-128.906250
3781,-128.906250
3782,-132.812500
3783,-132.812500
3784,-132.812500
3785,-132.812500
3786,-132.812500
3787,-132.812500
3788,-132.812500
3789,-132.812500
3790,-132.812500
3791,-132.812500
3792,-128.906250
3793,-132.812500
3794,-132.812500
3795,-132.812500
3796,-132.812500
3797,-132.812500
3798,-132.812500
3799,-132.812500
3800,-132.812500
3801,-132.812500
3802,-132.812500
3803,-132.812500
3804,-132.812500
3805,-132.812500
3806,-128.906250
3807,-128.906250
3808,-128.906250
3809,-128.906250
3810,-132.812500
3811,-132.812500
3812,-128.906250
3813,-132.812500
3814,-128.906250
3815,-128.906250
3816,-128.906250
3817,-128.906250
3818,-128.906250
3819,-128.906250
3820,-128.906250
3821,-128.906250
3822,-128.906250
3823,-128.906250
3824,-128.906250
3825,-128.906250
3826,-128.906250
3827,-128.906250
3828,-128.906250
3829,-128.906250
3830,-125.000000
3831,-128.906250
3832,-128.906250
3833,-128.906250
3834,-128.906250
3835,-125.000000
3836,-125.000000
3837,-125.000000
3838,-125.000000
3839,-125.000000
3840,-125.000000
3841,-125.000000
3842,-125.000000
3843,-125.000000
3844,-125.000000
3845,-125.000000
3846,-125.000000
3847,-125.000000
3848,-125.000000
3849,-125.000000
3850,-121.093750
3851,-121.093750
3852,-121.093750
3853,-121.093750
3854,-121.093750
3855,-121.093750
3856,-121.093750
3857,-121.093750
3858,-121.093750
3859,-121.093750
3860,-117.187500
3861,-117.187500
3862,-117.187500
3863,-117.187500
3864,-117.187500
3865,-117.187500
3866,-117.187500
3867,-117.187500
3868,-117.187500
3869,-113.281250
3870,-113.281250
3871,-113.281250
3872,-113.281250
3873,-113.281250
3874,-113.281250
3875,-113.281250
3876,-113.281250
3877,-109.375000
3878,-113.281250
3879,-109.375000
3880,-109.375000
3881,-109.375000
3882,-109.375000
3883,-109.375000
3884,-109.375000
3885,-109.375000
3886,-105.468750
3887,-105.468750
3888,-105.468750
3889,-105.468750
3890,-105.468750
3891,-105.468750
3892,-105.468750
3893,-105.468750
3894,-101.562500
3895,-101.562500
3896,-101.562500
3897,-101.562500
3898,-101.562500
3899,-101.562500
3900,-101.562500
3901,-101.562500
3902,-101.562500
3903,-97.656250
3904,-97.656250
3905,-97.656250
3906,-97.656250
3907,-97.656250
3908,-97.656250
3909,-97.656250
3910,-93.750000
3911,-93.750000
3912,-93.750000
3913,-93.750000
3914,-93.750000
3915,-89.843750
3916,-89.843750
3917,-89.843750
3918,-89.843750
3919,-89.843750
3920,-89.843750
3921,-89.843750
3922,-89.843750
3923,-85.937500
3924,-85.937500
3925,-85.937500
3926,-85.937500
3927,-85.937500
3928,-85.937500
3929,-82.031250
3930,-82.031250
3931,-82.031250
3932,-82.031250
3933,-82.031250
3934,-82.031250
3935,-78.125000
3936,-78.125000
3937,-78.125000
3938,-78.125000
3939,-78.125000
3940,-78.125000
3941,-78.125000
3942,-74.218750
3943,-74.218750
3944,-74.218750
3945,-78.125000
3946,-74.218750
3947,-74.218750
3948,-70.312500
3949,-70.312500
3950,-70.312500
3951,-70.312500
3952,-70.312500
3953,-70.312500
3954,-66.406250
3955,-66.406250
3956,-66.406250
3957,-66.406250
3958,-66.406250
3959,-66.406250
3960,-62.500000
3961,-62.500000
3962,-62.500000
3963,-62.500000
3964,-62.500000
3965,-58.593750
3966,-58.593750
3967,-58.593750
3968,-58.593750
3969,-58.593750
3970,-54.687500
3971,-54.687500
3972,-54.687500
3973,-54.687500
3974,-54.687500
3975,-50.781250
3976,-50.781250
3977,-50.781250
3978,-50.781250
3979,-50.781250
3980,-46.875000
3981,-50.781250
3982,-46.875000
3983,-46.875000
3984,-46.875000
3985,-46.875000
3986,-42.968750
3987,-42.968750
3988,-42.968750
3989,-42.968750
3990,-42.968750
3991,-42.968750
3992,-39.062500
3993,-39.062500
3994,-39.062500
3995,-39.062500
3996,-35.156250
3997,-35.156250
3998,-35.156250
3999,-35.156250
4000,-35.156250
4001,-31.250000
4002,-31.250000
4003,-31.250000
4004,-31.250000
4005,-31.250000
4006,-31.250000
4007,-27.343750
4008,-27.343750
4009,-27.343750
4010,-27.343750
4011,-27.343750
4012,-23.437500
4013,-23.437500
4014,-23.437500
4015,-23.437500
4016,-23.437500
4017,-19.531250
4018,-19.531250
4019,-19.531250
4020,-19.531250
4021,-19.531250
4022,-15.625000
4023,-15.625000
4024,-15.625000
4025,-15.625000
4026,-15.625000
4027,-15.625000
4028,-11.718750
4029,-11.718750
4030,-11.718750
4031,-11.718750
4032,-11.718750
4033,-11.718750
4034,-7.812500
4035,-7.812500
4036,-7.812500
4037,-7.812500
4038,-3.906250
4039,-3.906250
4040,-3.906250
4041,-3.906250
4042,-3.906250
4043,-3.906250
4044,0.000000
4045,0.000000
4046,0.000000
4047,0.000000
4048,3.906250
4049,0.000000
4050,3.906250
4051,3.906250
4052,3.906250
4053,3.906250
4054,3.906250
4055,7.812500
4056,7.812500
4057,7.812500
4058,7.812500
4059,7.812500
4060,11.718750
4061,11.718750
4062,11.718750
4063,11.718750
4064,11.718750
4065,11.718750
4066,11.718750
4067,15.625000
4068,15.625000
4069,15.625000
4070,15.625000
4071,19.531250
4072,19.531250
4073,19.531250
4074,19.531250
4075,19.531250
4076,19.531250
4077,23.437500
4078,23.437500
4079,23.437500
4080,23.437500
4081,23.437500
4082,27.343750
4083,27.343750
4084,27.343750
4085,27.343750
4086,27.343750
4087,27.343750
4088,27.343750
4089,31.250000
4090,31.250000
4091,31.250000
4092,31.250000
4093,31.250000
4094,31.250000
4095,35.156250
4096,35.156250
4097,35.156250
4098,35.156250
4099,35.156250
4100,35.156250
4101,35.156250
4102,39.062500
4103,39.062500
4104,39.062500
4105,39.062500
4106,42.968750
4107,42.968750
4108,42.968750
4109,42.968750
4110,42.968750
4111,42.968750
4112,42.968750
4113,42.968750
4114,46.875000
4115,46.875000
4116,46.875000
4117,46.875000
4118,46.875000
4119,50.781250
4120,50.781250
4121,50.781250
4122,50.781250
4123,50.781250
4124,50.781250
4125,50.781250
4126,54.687500
4127,54.687500
4128,54.687500
4129,54.687500
4130,54.687500
4131,54.687500
4132,58.593750
4133,54.687500
4134,58.593750
4135,58.593750
4136,58.593750
4137,58.593750
4138,58.593750
4139,58.593750
4140,62.500000
4141,62.500000
4142,62.500000
4143,62.500000
4144,62.500000
4145,62.500000
4146,62.500000
4147,62.500000
4148,62.500000
4149,66.406250
4150,66.406250
4151,66.406250
4152,66.406250
4153,66.406250
4154,66.406250
4155,66.406250
4156,66.406250
4157,70.312500
4158,70.312500
4159,70.312500
4160,70.312500
4161,70.312500
4162,70.312500
4163,70.312500
4164,70.312500
4165,74.218750
4166,74.218750
4167,74.218750
4168,74.218750
4169,74.218750
4170,74.218750
4171,74.218750
4172,74.218750
4173,74.218750
4174,74.218750
4175,78.125000
4176,78.125000
4177,78.125000
4178,78.125000
4179,78.125000
4180,78.125000
4181,78.125000
4182,78.125000
4183,78.125000
4184,78.125000
4185,82.031250
4186,82.031250
4187,82.031250
4188,82.031250
4189,82.031250
4190,82.031250
4191,82.031250
4192,82.031250
4193,82.031250
4194,82.031250
4195,82.031250
4196,85.937500
4197,85.937500
4198,85.937500
4199,85.937500
4200,85.937500
4201,85.937500
4202,85.937500
4203,85.937500
4204,85.937500
4205,85.937500
4206,85.937500
4207,85.937500
4208,85.937500
4209,85.937500
4210,85.937500
4211,89.843750
4212,89.843750
4213,89.843750
4214,89.843750
4215,89.843750
4216,89.843750
4217,89.843750
4218,89.843750
4219,89.843750
4220,89.843750
4221,89.843750
4222,89.843750
4223,89.843750
4224,89.843750
4225,89.843750
4226,93.750000
4227,93.750000
4228,93.750000
4229,93.750000
4230,93.750000
4231,89.843750
4232,93.750000
4233,93.750000
4234,89.843750
4235,93.750000
4236,93.750000
4237,93.750000
4238,93.750000
4239,93.750000
4240,93.750000
4241,93.750000
4242,93.750000
4243,93.750000
4244,93.750000
4245,97.656250
4246,97.656250
4247,97.656250
4248,93.750000
4249,97.656250
4250,97.656250
4251,97.656250
4252,97.656250
4253,97.656250
4254,97.656250
4255,97.656250
4256,97.656250
4257,97.656250
4258,97.656250
4259,97.656250
4260,97.656250
4261,97.656250
4262,97.656250
4263,97.656250
4264,97.656250
4265,97.656250
4266,97.656250
4267,97.656250
4268,97.656250
4269,97.656250
4270,97.656250
4271,97.656250
4272,97.656250
4273,97.656250
4274,97.656250
4275,97.656250
4276,97.656250
4277,97.656250
4278,97.656250
4279,97.656250
4280,97.656250
4281,97.656250
4282,97.656250
4283,97.656250
4284,97.656250
4285,97.656250
4286,97.656250
4287,97.656250
4288,97.656250
4289,97.656250
4290,97.656250
4291,97.656250
4292,97.656250
4293,97.656250
4294,97.656250
4295,97.656250
4296,97.656250
4297,97.656250
4298,97.656250
4299,97.656250
4300,97.656250
4301,97.656250
4302,97.656250
4303,97.656250
4304,97.656250
4305,97.656250
4306,97.656250
4307,97.656250
4308,97.656250
4309,97.656250
4310,97.656250
4311,97.656250
4312,97.656250
4313,97.656250
4314,97.656250
4315,97.656250
4316,97.656250
4317,97.656250
4318,97.656250
4319,97.656250
4320,93.750000
4321,93.750000
4322,93.750000
4323,97.656250
4324,93.750000
4325,93.750000
4326,93.750000
4327,93.750000
4328,93.750000
4329,93.750000
4330,93.750000
4331,93.750000
4332,93.750000
4333,93.750000
4334,93.750000
4335,93.750000
4336,93.750000
4337,93.750000
4338,93.750000
4339,93.750000
4340,93.750000
4341,93.750000
4342,93.750000
4343,93.750000
4344,89.843750
4345,89.843750
4346,89.843750
4347,89.843750
4348,89.843750
4349,89.843750
4350,89.843750
4351,89.843750
4352,89.843750
4353,89.843750
4354,89.843750
4355,89.843750
4356,89.843750
4357,89.843750
4358,89.843750
4359,85.937500
4360,85.937500
4361,85.937500
4362,85.937500
4363,85.937500
4364,85.937500
4365,85.937500
4366,85.937500
4367,85.937500
4368,85.937500
4369,85.937500
4370,82.031250
4371,82.031250
4372,82.031250
4373,82.031250
4374,82.031250
4375,82.031250
4376,82.031250
4377,82.031250
4378,82.031250
4379,82.031250
4380,82.031250
4381,82.031250
4382,82.031250
4383,82.031250
4384,78.125000
4385,78.125000
4386,78.125000
4387,78.125000
4388,78.125000
4389,78.125000
4390,78.125000
4391,78.125000
4392,78.125000
4393,78.125000
4394,74.218750
4395,74.218750
4396,74.218750
4397,74.218750
4398,74.218750
4399,74.218750
4400,74.218750
4401,74.218750
4402,74.218750
4403,74.218750
4404,70.312500
4405,70.312500
4406,70.312500
4407,70.312500
4408,70.312500
4409,70.312500
4410,70.312500
4411,70.312500
4412,66.406250
4413,66.406250
4414,66.406250
4415,66.406250
4416,66.406250
4417,66.406250
4418,66.406250
4419,62.500000
4420,62.500000
4421,62.500000
4422,62.500000
4423,62.500000
4424,62.500000
4425,62.500000
4426,62.500000
4427,62.500000
4428,58.593750
4429,58.593750
4430,58.593750
4431,58.593750
4432,58.593750
4433,54.687500
4434,54.687500
4435,54.687500
4436,54.687500
4437,54.687500
4438,54.687500
4439,54.687500
4440,50.781250
4441,50.781250
4442,50.781250
4443,50.781250
4444,50.781250
4445,50.781250
4446,50.781250
4447,50.781250
4448,46.875000
4449,46.875000
4450,46.875000
4451,46.875000
4452,46.875000
4453,46.875000
4454,46.875000
4455,42.968750
4456,42.968750
4457,42.968750
4458,42.968750
4459,42.968750
4460,42.968750
4461,39.062500
4462,39.062500
4463,39.062500
4464,39.062500
4465,39.062500
4466,35.156250
4467,35.156250
4468,35.156250
4469,35.156250
4470,35.156250
4471,35.156250
4472,35.156250
4473,31.250000
4474,31.250000
4475,31.250000
4476,31.250000
4477,31.250000
4478,31.250000
4479,27.343750
4480,27.343750
4481,27.343750
4482,27.343750
4483,27.343750
4484,23.437500
4485,23.437500
4486,23.437500
4487,23.437500
4488,23.437500
4489,23.437500
4490,19.531250
4491,19.531250
4492,19.531250
4493,19.531250
4494,19.531250
4495,19.531250
4496,15.625000
4497,15.625000
4498,15.625000
4499,15.625000
4500,15.625000
4501,11.718750
4502,11.718750
4503,11.718750
4504,11.718750
4505,11.718750
4506,7.812500
4507,7.812500
4508,7.812500
4509,7.812500
4510,7.812500
4511,7.812500
4512,7.812500
4513,7.812500
4514,3.906250
4515,3.906250
4516,3.906250
4517,3.906250
4518,3.906250
4519,3.906250
4520,0.000000
4521,0.000000
4522,0.000000
4523,-3.906250
4524,-3.906250
4525,-3.906250
4526,-3.906250
4527,-3.906250
4528,-3.906250
4529,-7.812500
4530,-7.812500
4531,-7.812500
4532,-7.812500
4533,-7.812500
4534,-7.812500
4535,-11.718750
4536,-11.718750
4537,-11.718750
4538,-11.718750
4539,-11.718750
4540,-15.625000
4541,-15.625000
4542,-15.625000
4543,-15.625000
4544,-15.625000
4545,-15.625000
4546,-19.531250
4547,-19.531250
4548,-19.531250
4549,-19.531250
4550,-19.531250
4551,-23.437500
4552,-23.437500
4553,-23.437500
4554,-23.437500
4555,-27.343750
4556,-27.343750
4557,-27.343750
4558,-27.343750
4559,-27.343750
4560,-27.343750
4561,-31.250000
4562,-31.250000
4563,-31.250000
4564,-31.250000
4565,-31.250000
4566,-35.156250
4567,-35.156250
4568,-35.156250
4569,-35.156250
4570,-39.062500
4571,-39.062500
4572,-39.062500
4573,-39.062500
4574,-39.062500
4575,-39.062500
4576,-42.968750
4577,-42.968750
4578,-42.968750
4579,-42.968750
4580,-46.875000
4581,-46.875000
4582,-46.875000
4583,-46.875000
4584,-46.875000
4585,-46.875000
4586,-46.875000
4587,-50.781250
4588,-50.781250
4589,-50.781250
4590,-50.781250
4591,-50.781250
4592,-54.687500
4593,-54.687500
4594,-54.687500
4595,-54.687500
4596,-58.593750
4597,-58.593750
4598,-58.593750
4599,-58.593750
4600,-58.593750
4601,-58.593750
4602,-62.500000
4603,-62.500000
4604,-62.500000
4605,-62.500000
4606,-62.500000
4607,-62.500000
4608,-62.500000
4609,-66.406250
4610,-66.406250
4611,-66.406250
4612,-66.406250
4613,-66.406250
4614,-70.312500
4615,-70.312500
4616,-70.312500
4617,-70.312500
4618,-70.312500
4619,-70.312500
4620,-70.312500
4621,-74.218750
4622,-74.218750
4623,-74.218750
4624,-74.218750
4625,-74.218750
4626,-74.218750
4627,-78.125000
4628,-78.125000
4629,-78.125000
4630,-78.125000
4631,-78.125000
4632,-82.031250
4633,-82.031250
4634,-82.031250
4635,-82.031250
4636,-82.031250
4637,-85.937500
4638,-85.937500
4639,-85.937500
4640,-85.937500
4641,-85.937500
4642,-85.937500
4643,-85.937500
4644,-85.937500
4645,-89.843750
4646,-89.843750
4647,-89.843750
4648,-89.843750
4649,-89.843750
4650,-89.843750
4651,-89.843750
4652,-93.750000
4653,-93.750000
4654,-93.750000
4655,-93.750000
4656,-93.750000
4657,-93.750000
4658,-93.750000
4659,-97.656250
4660,-97.656250
4661,-97.656250
4662,-97.656250
4663,-97.656250
4664,-97.656250
4665,-97.656250
4666,-97.656250
4667,-101.562500
4668,-101.562500
4669,-101.562500
4670,-101.562500
4671,-101.562500
4672,-101.562500
4673,-105.468750
4674,-105.468750
4675,-101.562500
4676,-105.468750
4677,-105.468750
4678,-105.468750
4679,-105.468750
4680,-109.375000
4681,-105.468750
4682,-109.375000
4683,-105.468750
4684,-109.375000
4685,-109.375000
4686,-109.375000
4687,-109.375000
4688,-113.281250
4689,-109.375000
4690,-113.281250
4691,-113.281250
4692,-113.281250
4693,-113.281250
4694,-113.281250
4695,-113.281250
4696,-117.187500
4697,-113.281250
4698,-117.187500
4699,-117.187500
4700,-117.187500
4701,-117.187500
4702,-117.187500
4703,-117.187500
4704,-117.187500
4705,-117.187500
4706,-117.187500
4707,-121.093750
4708,-121.093750
4709,-121.093750
4710,-121.093750
4711,-121.093750
4712,-121.093750
4713,-121.093750
4714,-121.093750
4715,-121.093750
4716,-121.093750
4717,-121.093750
4718,-121.093750
4719,-125.000000
4720,-125.000000
4721,-125.000000
4722,-125.000000
4723,-125.000000
4724,-125.000000
4725,-125.000000
4726,-125.000000
4727,-125.000000
4728,-125.000000
4729,-125.000000
4730,-125.000000
4731,-125.000000
4732,-128.906250
4733,-128.906250
4734,-128.906250
4735,-125.000000
4736,-128.906250
4737,-128.906250
4738,-128.906250
4739,-128.906250
4740,-128.906250
4741,-128.906250
4742,-128.906250
4743,-128.906250
4744,-128.906250
4745,-128.906250
4746,-128.906250
4747,-128.906250
4748,-128.906250
4749,-128.906250
4750,-128.906250
4751,-128.906250
4752,-128.906250
4753,-128.906250
4754,-128.906250
4755,-128.906250
4756,-132.812500
4757,-132.812500
4758,-132.812500
4759,-132.812500
4760,-132.812500
4761,-132.812500
4762,-132.812500
4763,-132.812500
4764,-132.812500
4765,-132.812500
4766,-128.906250
4767,-132.812500
4768,-132.812500
4769,-132.812500
4770,-132.812500
4771,-132.812500
4772,-132.812500
4773,-132.812500
4774,-132.812500
4775,-132.812500
4776,-132.812500
4777,-132.812500
4778,-132.812500
4779,-132.812500
4780,-132.812500
4781,-132.812500
4782,-132.812500
4783,-132.812500
4784,-132.812500
4785,-132.812500
4786,-128.906250
4787,-128.906250
4788,-132.812500
4789,-132.812500
4790,-132.812500
4791,-132.812500
4792,-132.812500
4793,-132.812500
4794,-132.812500
4795,-128.906250
4796,-128.906250
4797,-132.812500
4798,-128.906250
4799,-132.812500
4800,-128.906250
4801,-132.812500
4802,-128.906250
4803,-128.906250
4804,-128.906250
4805,-128.906250
4806,-128.906250
4807,-128.906250
4808,-128.906250
4809,-128.906250
4810,-128.906250
4811,-128.906250
4812,-128.906250
4813,-128.906250
4814,-128.906250
4815,-128.906250
4816,-128.906250
4817,-128.906250
4818,-128.906250
4819,-128.906250
4820,-128.906250
4821,-125.000000
4822,-125.000000
4823,-125.000000
4824,-125.000000
4825,-125.000000
4826,-125.000000
4827,-125.000000
4828,-125.000000
4829,-125.000000
4830,-125.000000
4831,-125.000000
4832,-125.000000
4833,-125.000000
4834,-125.000000
4835,-125.000000
4836,-125.000000
4837,-125.000000
4838,-121.093750
4839,-121.093750
4840,-121.093750
4841,-121.093750
4842,-121.093750
4843,-121.093750
4844,-121.093750
4845,-121.093750
4846,-121.093750
4847,-121.093750
4848,-121.093750
4849,-117.187500
4850,-117.187500
4851,-117.187500
4852,-117.187500
4853,-117.187500
4854,-117.187500
4855,-117.187500
4856,-117.187500
4857,-117.187500
4858,-117.187500
4859,-113.281250
4860,-113.281250
4861,-113.281250
4862,-113.281250
4863,-113.281250
4864,-113.281250
4865,-113.281250
4866,-113.281250
4867,-113.281250
4868,-113.281250
4869,-109.375000
4870,-109.375000
4871,-109.375000
4872,-109.375000
4873,-109.375000
4874,-109.375000
4875,-109.375000
4876,-105.468750
4877,-105.468750
4878,-105.468750
4879,-105.468750
4880,-105.468750
4881,-105.468750
4882,-105.468750
4883,-105.468750
4884,-105.468750
4885,-105.468750
4886,-101.562500
4887,-101.562500
4888,-101.562500
4889,-101.562500
4890,-101.562500
4891,-101.562500
4892,-97.656250
4893,-97.656250
4894,-97.656250
4895,-97.656250
4896,-97.656250
4897,-97.656250
4898,-97.656250
4899,-93.750000
4900,-93.750000
4901,-93.750000
4902,-93.750000
4903,-93.750000
4904,-93.750000
4905,-93.750000
4906,-89.843750
4907,-89.843750
4908,-89.843750
4909,-89.843750
4910,-89.843750
4911,-89.843750
4912,-85.937500
4913,-85.937500
4914,-85.937500
4915,-85.937500
4916,-85.937500
4917,-85.937500
4918,-82.031250
4919,-82.031250
4920,-82.031250
4921,-82.031250
4922,-78.125000
4923,-82.031250
4924,-78.125000
4925,-78.125000
4926,-78.125000
4927,-78.125000
4928,-78.125000
4929,-78.125000
4930,-74.218750
4931,-74.218750
4932,-74.218750
4933,-74.218750
4934,-74.218750
4935,-74.218750
4936,-70.312500
4937,-70.312500
4938,-70.312500
4939,-70.312500
4940,-70.312500
4941,-70.312500
4942,-66.406250
4943,-66.406250
4944,-66.406250
4945,-66.406250
4946,-66.406250
4947,-62.500000
4948,-62.500000
4949,-62.500000
4950,-62.500000
4951,-62.500000
4952,-58.593750
4953,-58.593750
4954,-58.593750
4955,-58.593750
4956,-58.593750
4957,-58.593750
4958,-58.593750
4959,-54.687500
4960,-54.687500
4961,-54.687500
4962,-54.687500
4963,-54.687500
4964,-54.687500
4965,-50.781250
4966,-50.781250
4967,-50.781250
4968,-46.875000
4969,-50.781250
4970,-46.875000
4971,-46.875000
4972,-46.875000
4973,-46.875000
4974,-46.875000
4975,-46.875000
4976,-42.968750
4977,-42.968750
4978,-42.968750
4979,-39.062500
4980,-42.968750
4981,-39.062500
4982,-39.062500
4983,-39.062500
4984,-39.062500
4985,-39.062500
4986,-39.062500
4987,-35.156250
4988,-35.156250
4989,-35.156250
4990,-35.156250
4991,-35.156250
4992,-31.250000
4993,-31.250000
4994,-31.250000
4995,-31.250000
4996,-27.343750
4997,-27.343750
4998,-27.343750
4999,-27.343750
5000,-27.343750
5001,-27.343750
5002,-23.437500
5003,-23.437500
5004,-23.437500
5005,-23.437500
5006,-23.437500
5007,-19.531250
5008,-19.531250
5009,-19.531250
5010,-19.531250
5011,-19.531250
5012,-19.531250
5013,-15.625000
5014,-19.531250
5015,-15.625000
5016,-15.625000
5017,-15.625000
5018,-11.718750
5019,-11.718750
5020,-11.718750
5021,-11.718750
5022,-11.718750
5023,-7.812500
5024,-7.812500
5025,-7.812500
5026,-7.812500
5027,-7.812500
5028,-3.906250
5029,-3.906250
5030,-3.906250
5031,-3.906250
5032,-3.906250
5033,0.000000
5034,0.000000
5035,0.000000
5036,0.000000
5037,0.000000
5038,0.000000
5039,3.906250
5040,3.906250
5041,3.906250
5042,3.906250
5043,3.906250
5044,7.812500
5045,7.812500
5046,7.812500
5047,7.812500
5048,7.812500
5049,7.812500
5050,11.718750
5051,11.718750
5052,11.718750
5053,11.718750
5054,15.625000
5055,15.625000
5056,15.625000
5057,15.625000
5058,15.625000
5059,15.625000
5060,15.625000
5061,19.531250
5062,19.531250
5063,19.531250
5064,19.531250
5065,19.531250
5066,23.437500
5067,23.437500
5068,23.437500
5069,23.437500
5070,23.437500
5071,23.437500
5072,27.343750
5073,27.343750
5074,23.437500
5075,27.343750
5076,27.343750
5077,27.343750
5078,31.250000
5079,31.250000
5080,31.250000
5081,31.250000
5082,31.250000
5083,31.250000
5084,35.156250
5085,35.156250
5086,35.156250
5087,35.156250
5088,35.156250
5089,35.156250
5090,39.062500
5091,35.156250
5092,39.062500
5093,39.062500
5094,39.062500
5095,39.062500
5096,42.968750
5097,39.062500
5098,42.968750
5099,42.968750
5100,42.968750
5101,42.968750
5102,42.968750
5103,46.875000
5104,46.875000
5105,46.875000
5106,46.875000
5107,46.875000
5108,46.875000
5109,46.875000
5110,50.781250
5111,50.781250
5112,50.781250
5113,50.781250
5114,50.781250
5115,50.781250
5116,54.687500
5117,54.687500
5118,54.687500
5119,54.687500
5120,54.687500
5121,54.687500
5122,54.687500
5123,54.687500
5124,58.593750
5125,58.593750
5126,58.593750
5127,58.593750
5128,58.593750
5129,58.593750
5130,62.500000
5131,62.500000
5132,62.500000
5133,62.500000
5134,62.500000
5135,62.500000
5136,62.500000
5137,62.500000
5138,66.406250
5139,66.406250
5140,66.406250
5141,66.406250
5142,66.406250
5143,66.406250
5144,66.406250
5145,66.406250
5146,66.406250
5147,70.312500
5148,70.312500
5149,70.312500
5150,70.312500
5151,70.312500
5152,70.312500
5153,70.312500
5154,70.312500
5155,70.312500
5156,74.218750
5157,74.218750
5158,74.218750
5159,74.218750
5160,74.218750
5161,74.218750
5162,74.218750
5163,74.218750
5164,74.218750
5165,78.125000
5166,78.125000
5167,78.125000
5168,78.125000
5169,78.125000
5170,78.125000
5171,78.125000
5172,78.125000
5173,78.125000
5174,82.031250
5175,82.031250
5176,82.031250
5177,82.031250
5178,82.031250
5179,82.031250
5180,82.031250
5181,82.031250
5182,82.031250
5183,82.031250
5184,85.937500
5185,85.937500
5186,82.031250
5187,82.031250
5188,85.937500
5189,85.937500
5190,85.937500
5191,85.937500
5192,85.937500
5193,85.937500
5194,85.937500
5195,85.937500
5196,85.937500
5197,85.937500
5198,85.937500
5199,89.843750
5200,89.843750
5201,89.843750
5202,89.843750
5203,89.843750
5204,89.843750
5205,89.843750
5206,89.843750
5207,89.843750
5208,89.843750
5209,89.843750
5210,89.843750
5211,89.843750
5212,89.843750
5213,89.843750
5214,89.843750
5215,89.843750
5216,93.750000
5217,93.750000
5218,93.750000
5219,93.750000
5220,93.750000
5221,93.750000
5222,93.750000
5223,93.750000
5224,93.750000
5225,93.750000
5226,93.750000
5227,93.750000
5228,93.750000
5229,93.750000
5230,93.750000
5231,93.750000
5232,93.750000
5233,93.750000
5234,93.750000
5235,93.750000
5236,93.750000
5237,93.750000
5238,97.656250
5239,97.656250
5240,97.656250
5241,97.656250
5242,97.656250
5243,97.656250
5244,97.656250
5245,97.656250
5246,97.656250
5247,97.656250
5248,97.656250
5249,97.656250
5250,97.656250
5251,97.656250
5252,97.656250
5253,97.656250
5254,97.656250
5255,97.656250
5256,97.656250
5257,97.656250
5258,97.656250
5259,97.656250
5260,97.656250
5261,97.656250
5262,97.656250
5263,97.656250
5264,97.656250
5265,97.656250
5266,97.656250
5267,97.656250
5268,97.656250
5269,97.656250
5270,97.656250
5271,97.656250
5272,97.656250
5273,97.656250
5274,97.656250
5275,97.656250
5276,97.656250
5277,97.656250
5278,97.656250
5279,97.656250
5280,97.656250
5281,97.656250
5282,97.656250
5283,97.656250
5284,97.656250
5285,97.656250
5286,97.656250
5287,97.656250
5288,97.656250
5289,97.656250
5290,97.656250
5291,97.656250
5292,97.656250
5293,97.656250
5294,97.656250
5295,97.656250
5296,97.656250
5297,97.656250
5298,97.656250
5299,97.656250
5300,97.656250
5301,97.656250
5302,97.656250
5303,97.656250
5304,97.656250
5305,97.656250
5306,97.656250
5307,97.656250
5308,97.656250
5309,93.750000
5310,97.656250
5311,93.750000
5312,97.656250
5313,93.750000
5314,97.656250
5315,93.750000
5316,93.750000
5317,93.750000
5318,93.750000
5319,93.750000
5320,93.750000
5321,93.750000
5322,93.750000
5323,93.750000
5324,93.750000
5325,93.750000
5326,93.750000
5327,89.843750
5328,93.750000
5329,93.750000
5330,93.750000
5331,93.750000
5332,93.750000
5333,93.750000
5334,89.843750
5335,89.843750
5336,89.843750
5337,89.843750
5338,89.843750
5339,89.843750
5340,89.843750
5341,89.843750
5342,89.843750
5343,89.843750
5344,89.843750
5345,89.843750
5346,89.843750
5347,89.843750
5348,89.843750
5349,85.937500
5350,85.937500
5351,85.937500
5352,85.937500
5353,85.937500
5354,85.937500
5355,85.937500
5356,85.937500
5357,85.937500
5358,85.937500
5359,85.937500
5360,85.937500
5361,82.031250
5362,82.031250
5363,82.031250
5364,82.031250
5365,82.031250
5366,82.031250
5367,82.031250
5368,82.031250
5369,82.031250
5370,82.031250
5371,82.031250
5372,78.125000
5373,78.125000
5374,78.125000
5375,78.125000
5376,78.125000
5377,78.125000
5378,78.125000
5379,78.125000
5380,78.125000
5381,78.125000
5382,74.218750
5383,74.218750
5384,74.218750
5385,74.218750
5386,74.218750
5387,74.218750
5388,74.218750
5389,74.218750
5390,74.218750
5391,74.218750
5392,74.218750
5393,70.312500
5394,70.312500
5395,70.312500
5396,70.312500
5397,70.312500
5398,70.312500
5399,70.312500
5400,70.312500
5401,66.406250
5402,66.406250
5403,66.406250
5404,66.406250
5405,66.406250
5406,66.406250
5407,66.406250
5408,66.406250
5409,62.500000
5410,62.500000
5411,62.500000
5412,62.500000
5413,62.500000
5414,62.500000
5415,62.500000
5416,58.593750
5417,62.500000
5418,58.593750
5419,58.593750
5420,58.593750
5421,58.593750
5422,58.593750
5423,58.593750
5424,54.687500
5425,54.687500
5426,54.687500
5427,54.687500
5428,54.687500
5429,54.687500
5430,54.687500
5431,54.687500
5432,50.781250
5433,50.781250
5434,50.781250
5435,50.781250
5436,50.781250
5437,46.875000
5438,46.875000
5439,46.875000
5440,46.875000
5441,46.875000
5442,46.875000
5443,46.875000
5444,46.875000
5445,42.968750
5446,42.968750
5447,42.968750
5448,42.968750
5449,42.968750
5450,42.968750
5451,39.062500
5452,39.062500
5453,39.062500
5454,39.062500
5455,39.062500
5456,39.062500
5457,35.156250
5458,35.156250
5459,35.156250
5460,35.156250
5461,35.156250
5462,35.156250
5463,31.250000
5464,31.250000
5465,31.250000
5466,31.250000
5467,31.250000
5468,31.250000
5469,31.250000
5470,27.343750
5471,27.343750
5472,27.343750
5473,27.343750
5474,23.437500
5475,27.343750
5476,23.437500
5477,23.437500
5478,23.437500
5479,23.437500
5480,23.437500
5481,23.437500
5482,19.531250
5483,19.531250
5484,19.531250
5485,19.531250
5486,15.625000
5487,19.531250
5488,15.625000
5489,15.625000
5490,15.625000
5491,15.625000
5492,11.718750
5493,11.718750
5494,11.718750
5495,11.718750
5496,7.812500
5497,7.812500
5498,7.812500
5499,7.812500
5500,7.812500
5501,7.812500
5502,7.812500
5503,3.906250
5504,3.906250
5505,3.906250
5506,3.906250
5507,0.000000
5508,0.000000
5509,0.000000
5510,0.000000
5511,-3.906250
5512,-3.906250
5513,-3.906250
5514,-3.906250
5515,-3.906250
5516,-3.906250
5517,-3.906250
5518,-3.906250
5519,-7.812500
5520,-7.812500
5521,-7.812500
5522,-7.812500
5523,-7.812500
5524,-11.718750
5525,-11.718750
5526,-11.718750
5527,-11.718750
5528,-11.718750
5529,-11.718750
5530,-15.625000
5531,-15.625000
5532,-15.625000
5533,-15.625000
5534,-19.531250
5535,-19.531250
5536,-19.531250
5537,-19.531250
5538,-19.531250
5539,-19.531250
5540,-23.437500
5541,-23.437500
5542,-23.437500
5543,-23.437500
5544,-23.437500
5545,-27.343750
5546,-27.343750
5547,-27.343750
5548,-27.343750
5549,-27.343750
5550,-27.343750
5551,-31.250000
5552,-31.250000
5553,-31.250000
5554,-31.250000
5555,-31.250000
5556,-35.156250
5557,-35.156250
5558,-35.156250
5559,-35.156250
5560,-35.156250
5561,-35.156250
5562,-39.062500
5563,-39.062500
5564,-39.062500
5565,-39.062500
5566,-39.062500
5567,-42.968750
5568,-42.968750
5569,-42.968750
5570,-42.968750
5571,-42.968750
5572,-46.875000
5573,-46.875000
5574,-46.875000
5575,-46.875000
5576,-46.875000
5577,-50.781250
5578,-50.781250
5579,-50.781250
5580,-50.781250
5581,-50.781250
5582,-50.781250
5583,-54.687500
5584,-54.687500
5585,-54.687500
5586,-54.687500
5587,-58.593750
5588,-58.593750
5589,-58.593750
5590,-58.593750
5591,-58.593750
5592,-58.593750
5593,-58.593750
5594,-62.500000
5595,-62.500000
5596,-62.500000
5597,-62.500000
5598,-62.500000
5599,-66.406250
5600,-66.406250
5601,-66.406250
5602,-66.406250
5603,-66.406250
5604,-66.406250
5605,-70.312500
5606,-70.312500
5607,-70.312500
5608,-70.312500
5609,-70.312500
5610,-74.218750
5611,-74.218750
5612,-74.218750
5613,-74.218750
5614,-74.218750
5615,-74.218750
5616,-78.125000
5617,-78.125000
5618,-78.125000
5619,-78.125000
5620,-78.125000
5621,-82.031250
5622,-82.031250
5623,-82.031250
5624,-82.031250
5625,-82.031250
5626,-82.031250
5627,-82.031250
5628,-85.937500
5629,-85.937500
5630,-85.937500
5631,-85.937500
5632,-85.937500
5633,-85.937500
5634,-89.843750
5635,-89.843750
5636,-89.843750
5637,-89.843750
5638,-89.843750
5639,-89.843750
5640,-89.843750
5641,-93.750000
5642,-93.750000
5643,-93.750000
5644,-93.750000
5645,-93.750000
5646,-93.750000
5647,-97.656250
5648,-97.656250
5649,-97.656250
5650,-97.656250
5651,-97.656250
5652,-97.656250
5653,-97.656250
5654,-97.656250
5655,-101.562500
5656,-101.562500
5657,-101.562500
5658,-101.562500
5659,-101.562500
5660,-101.562500
5661,-101.562500
5662,-105.468750
5663,-105.468750
5664,-105.468750
5665,-105.468750
5666,-105.468750
5667,-105.468750
5668,-105.468750
5669,-109.375000
5670,-109.375000
5671,-109.375000
5672,-109.375000
5673,-109.375000
5674,-109.375000
5675,-109.375000
5676,-109.375000
5677,-109.375000
5678,-109.375000
5679,-113.281250
5680,-113.281250
5681,-113.281250
5682,-113.281250
5683,-113.281250
5684,-113.281250
5685,-113.281250
5686,-113.281250
5687,-113.281250
5688,-113.281250
5689,-113.281250
5690,-117.187500
5691,-117.187500
5692,-117.187500
5693,-117.187500
5694,-117.187500
5695,-117.187500
5696,-117.187500
5697,-117.187500
5698,-117.187500
5699,-117.187500
5700,-121.093750
5701,-121.093750
5702,-121.093750
5703,-121.093750
5704,-121.093750
5705,-121.093750
5706,-121.093750
5707,-121.093750
5708,-121.093750
5709,-121.093750
5710,-121.093750
5711,-125.000000
5712,-125.000000
5713,-125.000000
5714,-121.093750
5715,-125.000000
5716,-125.000000
5717,-125.000000
5718,-125.000000
5719,-125.000000
5720,-125.000000
5721,-125.000000
5722,-125.000000
5723,-125.000000
5724,-125.000000
5725,-128.906250
5726,-128.906250
5727,-128.906250
5728,-128.906250
5729,-125.000000
5730,-128.906250
5731,-128.906250
5732,-128.906250
5733,-128.906250
5734,-128.906250
5735,-128.906250
5736,-128.906250
5737,-128.906250
5738,-128.906250
5739,-128.906250
5740,-128.906250
5741,-128.906250
5742,-128.906250
5743,-128.906250
5744,-128.906250
5745,-128.906250
5746,-128.906250
5747,-132.812500
5748,-128.906250
5749,-128.906250
5750,-128.906250
5751,-132.812500
5752,-132.812500
5753,-132.812500
5754,-132.812500
5755,-132.812500
5756,-132.812500
5757,-132.812500
5758,-132.812500
5759,-132.812500
5760,-128.906250
5761,-132.812500
5762,-132.812500
5763,-132.812500
5764,-132.812500
5765,-132.812500
5766,-132.812500
5767,-132.812500
5768,-132.812500
5769,-132.812500
5770,-132.812500
5771,-132.812500
5772,-132.812500
5773,-132.812500
5774,-132.812500
5775,-132.812500
5776,-132.812500
5777,-132.812500
5778,-132.812500
5779,-132.812500
5780,-132.812500
5781,-132.812500
5782,-132.812500
5783,-132.812500
5784,-132.812500
5785,-128.906250
5786,-128.906250
5787,-128.906250
5788,-132.812500
5789,-132.812500
5790,-128.906250
5791,-128.906250
5792,-128.906250
5793,-128.906250
5794,-128.906250
5795,-128.906250
5796,-132.812500
5797,-128.906250
5798,-128.906250
5799,-128.906250
5800,-128.906250
5801,-128.906250
5802,-128.906250
5803,-128.906250
5804,-128.906250
5805,-128.906250
5806,-128.906250
5807,-128.906250
5808,-128.906250
5809,-128.906250
5810,-128.906250
5811,-125.000000
5812,-125.000000
5813,-125.000000
5814,-125.000000
5815,-125.000000
5816,-125.000000
5817,-125.000000
5818,-125.000000
5819,-125.000000
5820,-125.000000
5821,-125.000000
5822,-125.000000
5823,-125.000000
5824,-125.000000
5825,-125.000000
5826,-121.093750
5827,-121.093750
5828,-121.093750
5829,-121.093750
5830,-121.093750
5831,-121.093750
5832,-121.093750
5833,-121.093750
5834,-121.093750
5835,-121.093750
5836,-117.187500
5837,-117.187500
5838,-117.187500
5839,-117.187500
5840,-117.187500
5841,-117.187500
5842,-117.187500
5843,-117.187500
5844,-117.187500
5845,-117.187500
5846,-117.187500
5847,-117.187500
5848,-117.187500
5849,-113.281250
5850,-113.281250
5851,-113.281250
5852,-113.281250
5853,-113.281250
5854,-113.281250
5855,-113.281250
5856,-113.281250
5857,-113.281250
5858,-109.375000
5859,-109.375000
5860,-109.375000
5861,-109.375000
5862,-113.281250
5863,-109.375000
5864,-109.375000
5865,-105.468750
5866,-109.375000
5867,-105.468750
5868,-105.468750
5869,-105.468750
5870,-105.468750
5871,-105.468750
5872,-105.468750
5873,-105.468750
5874,-101.562500
5875,-101.562500
5876,-101.562500
5877,-101.562500
5878,-101.562500
5879,-101.562500
5880,-97.656250
5881,-101.562500
5882,-101.562500
5883,-97.656250
5884,-97.656250
5885,-97.656250
5886,-97.656250
5887,-97.656250
5888,-97.656250
5889,-93.750000
5890,-93.750000
5891,-93.750000
5892,-93.750000
5893,-93.750000
5894,-93.750000
5895,-93.750000
5896,-89.843750
5897,-89.843750
5898,-89.843750
5899,-89.843750
5900,-89.843750
5901,-85.937500
5902,-89.843750
5903,-85.937500
5904,-85.937500
5905,-85.937500
5906,-85.937500
5907,-85.937500
5908,-85.937500
5909,-82.031250
5910,-82.031250
5911,-82.031250
5912,-82.031250
5913,-82.031250
5914,-82.031250
5915,-78.125000
5916,-78.125000
5917,-78.125000
5918,-78.125000
5919,-78.125000
5920,-78.125000
5921,-78.125000
5922,-74.218750
5923,-74.218750
5924,-74.218750
5925,-74.218750
5926,-70.312500
5927,-70.312500
5928,-70.312500
5929,-70.312500
5930,-70.312500
5931,-70.312500
5932,-66.406250
5933,-66.406250
5934,-66.406250
5935,-66.406250
5936,-66.406250
5937,-66.406250
5938,-62.500000
5939,-62.500000
5940,-62.500000
5941,-62.500000
5942,-62.500000
5943,-62.500000
5944,-58.593750
5945,-58.593750
5946,-58.593750
5947,-58.593750
5948,-54.687500
5949,-54.687500
5950,-54.687500
5951,-54.687500
5952,-54.687500
5953,-54.687500
5954,-50.781250
5955,-50.781250
5956,-50.781250
5957,-50.781250
5958,-50.781250
5959,-46.875000
5960,-46.875000
5961,-46.875000
5962,-46.875000
5963,-46.875000
5964,-42.968750
5965,-42.968750
5966,-42.968750
5967,-42.968750
5968,-42.968750
5969,-42.968750
5970,-42.968750
5971,-39.062500
5972,-39.062500
5973,-39.062500
5974,-39.062500
5975,-35.156250
5976,-35.156250
5977,-35.156250
5978,-35.156250
5979,-35.156250
5980,-35.156250
5981,-31.250000
5982,-31.250000
5983,-31.250000
5984,-31.250000
5985,-31.250000
5986,-27.343750
5987,-27.343750
5988,-27.343750
5989,-27.343750
5990,-27.343750
5991,-23.437500
5992,-23.437500
5993,-23.437500
5994,-23.437500
5995,-23.437500
5996,-23.437500
5997,-23.437500
5998,-19.531250
5999,-19.531250
6000,-19.531250
6001,-15.625000
6002,-15.625000
6003,-15.625000
6004,-15.625000
6005,-15.625000
6006,-15.625000
6007,-15.625000
6008,-11.718750
6009,-11.718750
6010,-11.718750
6011,-11.718750
6012,-11.718750
6013,-7.812500
6014,-7.812500
6015,-7.812500
6016,-7.812500
6017,-7.812500
6018,-3.906250
6019,-3.906250
6020,-3.906250
6021,-3.906250
6022,-3.906250
6023,0.000000
6024,0.000000
6025,0.000000
6026,0.000000
6027,3.906250
6028,3.906250
6029,0.000000
6030,3.906250
6031,3.906250
6032,3.906250
6033,3.906250
6034,7.812500
6035,7.812500
6036,7.812500
6037,7.812500
6038,7.812500
6039,11.718750
6040,11.718750
6041,11.718750
6042,11.718750
6043,11.718750
6044,11.718750
6045,11.718750
6046,15.625000
6047,15.625000
6048,15.625000
6049,15.625000
6050,15.625000
6051,15.625000
6052,19.531250
6053,19.531250
6054,19.531250
6055,19.531250
6056,23.437500
6057,23.437500
6058,23.437500
6059,23.437500
6060,23.437500
6061,23.437500
6062,27.343750
6063,27.343750
6064,27.343750
6065,27.343750
6066,27.343750
6067,27.343750
6068,31.250000
6069,31.250000
6070,31.250000
6071,31.250000
6072,31.250000
6073,31.250000
6074,35.156250
6075,35.156250
6076,35.156250
6077,35.156250
6078,35.156250
6079,39.062500
6080,39.062500
6081,39.062500
6082,39.062500
6083,39.062500
6084,39.062500
6085,42.968750
6086,42.968750
6087,42.968750
6088,42.968750
6089,42.968750
6090,42.968750
6091,46.875000
6092,46.875000
6093,46.875000
6094,46.875000
6095,50.781250
6096,46.875000
6097,46.875000
6098,46.875000
6099,50.781250
6100,50.781250
6101,50.781250
6102,50.781250
6103,50.781250
6104,50.781250
6105,54.687500
6106,54.687500
6107,54.687500
6108,54.687500
6109,54.687500
6110,54.687500
6111,54.687500
6112,58.593750
6113,58.593750
6114,58.593750
6115,58.593750
6116,58.593750
6117,58.593750
6118,58.593750
6119,58.593750
6120,62.500000
6121,62.500000
6122,62.500000
6123,62.500000
6124,62.500000
6125,62.500000
6126,62.500000
6127,62.500000
6128,66.406250
6129,66.406250
6130,66.406250
6131,66.406250
6132,66.406250
6133,66.406250
6134,66.406250
6135,66.406250
6136,66.406250
6137,70.312500
6138,70.312500
6139,70.312500
6140,70.312500
6141,70.312500
6142,70.312500
6143,70.312500
6144,70.312500
6145,74.218750
6146,74.218750
6147,74.218750
6148,74.218750
6149,74.218750
6150,74.218750
6151,74.218750
6152,74.218750
6153,74.218750
6154,74.218750
6155,78.125000
6156,78.125000
6157,78.125000
6158,78.125000
6159,78.125000
6160,78.125000
6161,78.125000
6162,78.125000
6163,78.125000
6164,82.031250
6165,82.031250
6166,82.031250
6167,82.031250
6168,82.031250
6169,82.031250
6170,82.031250
6171,82.031250
6172,82.031250
6173,82.031250
6174,82.031250
6175,82.031250
6176,82.031250
6177,85.937500
6178,85.937500
6179,85.937500
6180,85.937500
6181,85.937500
6182,85.937500
6183,85.937500
6184,85.937500
6185,85.937500
6186,89.843750
6187,85.937500
6188,89.843750
6189,89.843750
6190,89.843750
6191,89.843750
6192,89.843750
6193,89.843750
6194,89.843750
6195,89.843750
6196,89.843750
6197,89.843750
6198,89.843750
6199,89.843750
6200,89.843750
6201,89.843750
6202,89.843750
6203,93.750000
6204,93.750000
6205,93.750000
6206,93.750000
6207,93.750000
6208,93.750000
6209,93.750000
6210,93.750000
6211,93.750000
6212,93.750000
6213,93.750000
6214,93.750000
6215,93.750000
6216,93.750000
6217,93.750000
6218,93.750000
6219,93.750000
6220,93.750000
6221,93.750000
6222,97.656250
6223,97.656250
6224,97.656250
6225,97.656250
6226,97.656250
6227,93.750000
6228,97.656250
6229,97.656250
6230,97.656250
6231,97.656250
6232,97.656250
6233,97.656250
6234,97.656250
6235,97.656250
6236,97.656250
6237,97.656250
6238,97.656250
6239,97.656250
6240,97.656250
6241,97.656250
6242,97.656250
6243,97.656250
6244,97.656250
6245,97.656250
6246,97.656250
6247,97.656250
6248,97.656250
6249,97.656250
6250,97.656250
6251,97.656250
6252,97.656250
6253,97.656250
6254,97.656250
6255,97.656250
6256,97.656250
6257,97.656250
6258,97.656250
6259,97.656250
6260,97.656250
6261,97.656250
6262,97.656250
6263,97.656250
6264,97.656250
6265,97.656250
6266,97.656250
6267,97.656250
6268,97.656250
6269,97.656250
6270,97.656250
6271,97.656250
6272,97.656250
6273,97.656250
6274,97.656250
6275,97.656250
6276,97.656250
6277,97.656250
6278,97.656250
6279,97.656250
6280,97.656250
6281,97.656250
6282,97.656250
6283,97.656250
6284,97.656250
6285,97.656250
6286,97.656250
6287,97.656250
6288,97.656250
6289,97.656250
6290,97.656250
6291,93.750000
6292,97.656250
6293,97.656250
6294,97.656250
6295,97.656250
6296,97.656250
6297,93.750000
6298,97.656250
6299,93.750000
6300,93.750000
6301,93.750000
6302,97.656250
6303,93.750000
6304,93.750000
6305,93.750000
6306,93.750000
6307,93.750000
6308,93.750000
6309,93.750000
6310,93.750000
6311,93.750000
6312,93.750000
6313,93.750000
6314,93.750000
6315,93.750000
6316,93.750000
6317,93.750000
6318,93.750000
6319,93.750000
6320,93.750000
6321,93.750000
6322,93.750000
6323,93.750000
6324,93.750000
6325,89.843750
6326,89.843750
6327,89.843750
6328,89.843750
6329,89.843750
6330,89.843750
6331,89.843750
6332,89.843750
6333,89.843750
6334,89.843750
6335,89.843750
6336,89.843750
6337,89.843750
6338,89.843750
6339,85.937500
6340,85.937500
6341,85.937500
6342,85.937500
6343,85.937500
6344,85.937500
6345,85.937500
6346,85.937500
6347,85.937500
6348,85.937500
6349,85.937500
6350,85.937500
6351,85.937500
6352,82.031250
6353,82.031250
6354,82.031250
6355,82.031250
6356,82.031250
6357,82.031250
6358,82.031250
6359,82.031250
6360,82.031250
6361,78.125000
6362,78.125000
6363,78.125000
6364,78.125000
6365,78.125000
6366,78.125000
6367,78.125000
6368,78.125000
6369,78.125000
6370,78.125000
6371,78.125000
6372,78.125000
6373,74.218750
6374,74.218750
6375,74.218750
6376,74.218750
6377,74.218750
6378,74.218750
6379,74.218750
6380,74.218750
6381,74.218750
6382,70.312500
6383,70.312500
6384,70.312500
6385,70.312500
6386,70.312500
6387,70.312500
6388,70.312500
6389,70.312500
6390,70.312500
6391,66.406250
6392,66.406250
6393,66.406250
6394,66.406250
6395,66.406250
6396,66.406250
6397,66.406250
6398,66.406250
6399,62.500000
6400,62.500000
6401,62.500000
6402,62.500000
6403,62.500000
6404,62.500000
6405,62.500000
6406,62.500000
6407,58.593750
6408,58.593750
6409,58.593750
6410,58.593750
6411,58.593750
6412,54.687500
6413,54.687500
6414,54.687500
6415,54.687500
6416,54.687500
6417,54.687500
6418,54.687500
6419,54.687500
6420,50.781250
6421,50.781250
6422,50.781250
6423,50.781250
6424,50.781250
6425,50.781250
6426,50.781250
6427,46.875000
6428,46.875000
6429,46.875000
6430,46.875000
6431,46.875000
6432,46.875000
6433,46.875000
6434,42.968750
6435,42.968750
6436,42.968750
6437,42.968750
6438,42.968750
6439,42.968750
6440,42.968750
6441,39.062500
6442,39.062500
6443,39.062500
6444,39.062500
6445,39.062500
6446,35.156250
6447,35.156250
6448,35.156250
6449,35.156250
6450,35.156250
6451,35.156250
6452,31.250000
6453,31.250000
6454,31.250000
6455,31.250000
6456,31.250000
6457,27.343750
6458,31.250000
6459,27.343750
6460,27.343750
6461,27.343750
6462,27.343750
6463,27.343750
6464,23.437500
6465,23.437500
6466,23.437500
6467,23.437500
6468,23.437500
6469,23.437500
6470,19.531250
6471,19.531250
6472,19.531250
6473,19.531250
6474,19.531250
6475,15.625000
6476,15.625000
6477,15.625000
6478,15.625000
6479,15.625000
6480,15.625000
6481,15.625000
6482,11.718750
6483,11.718750
6484,11.718750
6485,11.718750
6486,11.718750
6487,7.812500
6488,7.812500
6489,7.812500
6490,7.812500
6491,7.812500
6492,3.906250
6493,3.906250
6494,3.906250
6495,3.906250
6496,3.906250
6497,0.000000
6498,0.000000
6499,0.000000
6500,0.000000
6501,0.000000
6502,0.000000
6503,-3.906250
6504,-3.906250
6505,-3.906250
6506,-3.906250
6507,-3.906250
6508,-3.906250
6509,-3.906250
6510,-7.812500
6511,-7.812500
6512,-7.812500
6513,-11.718750
6514,-11.718750
6515,-11.718750
6516,-11.718750
6517,-11.718750
6518,-11.718750
6519,-15.625000
6520,-15.625000
6521,-15.625000
6522,-15.625000
6523,-15.625000
6524,-19.531250
6525,-19.531250
6526,-19.531250
6527,-19.531250
6528,-19.531250
6529,-23.437500
6530,-23.437500
6531,-23.437500
6532,-23.437500
6533,-27.343750
6534,-23.437500
6535,-27.343750
6536,-27.343750
6537,-27.343750
6538,-27.343750
6539,-31.250000
6540,-31.250000
6541,-31.250000
6542,-31.250000
6543,-31.250000
6544,-35.156250
6545,-35.156250
6546,-35.156250
6547,-35.156250
6548,-35.156250
6549,-35.156250
6550,-39.062500
6551,-39.062500
6552,-39.062500
6553,-39.062500
6554,-39.062500
6555,-42.968750
6556,-42.968750
6557,-42.968750
6558,-42.968750
6559,-42.968750
6560,-46.875000
6561,-46.875000
6562,-46.875000
6563,-46.875000
6564,-46.875000
6565,-46.875000
6566,-50.781250
6567,-50.781250
6568,-50.781250
6569,-50.781250
6570,-50.781250
6571,-54.687500
6572,-50.781250
6573,-54.687500
6574,-54.687500
6575,-54.687500
6576,-54.687500
6577,-58.593750
6578,-58.593750
6579,-58.593750
6580,-58.593750
6581,-58.593750
6582,-62.500000
6583,-62.500000
6584,-66.406250
6585,-62.500000
6586,-62.500000
6587,-62.500000
6588,-66.406250
6589,-66.406250
6590,-66.406250
6591,-66.406250
6592,-66.406250
6593,-70.312500
6594,-70.312500
6595,-70.312500
6596,-74.218750
6597,-70.312500
6598,-70.312500
6599,-70.312500
6600,-74.218750
6601,-74.218750
6602,-74.218750
6603,-74.218750
6604,-74.218750
6605,-78.125000
6606,-78.125000
6607,-78.125000
6608,-78.125000
6609,-78.125000
6610,-78.125000
6611,-82.031250
6612,-78.125000
6613,-82.031250
6614,-82.031250
6615,-82.031250
6616,-82.031250
6617,-82.031250
6618,-85.937500
6619,-85.937500
6620,-85.937500
6621,-85.937500
6622,-85.937500
6623,-85.937500
6624,-85.937500
6625,-89.843750
6626,-89.843750
6627,-89.843750
6628,-89.843750
6629,-89.843750
6630,-89.843750
6631,-89.843750
6632,-93.750000
6633,-93.750000
6634,-93.750000
6635,-93.750000
6636,-93.750000
6637,-97.656250
6638,-97.656250
6639,-97.656250
6640,-97.656250
6641,-97.656250
6642,-97.656250
6643,-101.562500
6644,-101.562500
6645,-101.562500
6646,-101.562500
6647,-101.562500
6648,-101.562500
6649,-101.562500
6650,-101.562500
6651,-105.468750
6652,-105.468750
6653,-105.468750
6654,-105.468750
6655,-105.468750
6656,-105.468750
6657,-105.468750
6658,-105.468750
6659,-109.375000
6660,-109.375000
6661,-109.375000
6662,-109.375000
6663,-109.375000
6664,-109.375000
6665,-109.375000
6666,-109.375000
6667,-109.375000
6668,-113.281250
6669,-113.281250
6670,-113.281250
6671,-113.281250
6672,-113.281250
6673,-113.281250
6674,-113.281250
6675,-113.281250
6676,-113.281250
6677,-117.187500
6678,-117.187500
6679,-117.187500
6680,-117.187500
6681,-117.187500
6682,-117.187500
6683,-117.187500
6684,-117.187500
6685,-117.187500
6686,-121.093750
6687,-117.187500
6688,-121.093750
6689,-121.093750
6690,-121.093750
6691,-121.093750
6692,-121.093750
6693,-121.093750
6694,-121.093750
6695,-121.093750
6696,-121.093750
6697,-121.093750
6698,-125.000000
6699,-125.000000
6700,-125.000000
6701,-125.000000
6702,-125.000000
6703,-125.000000
6704,-125.000000
6705,-125.000000
6706,-125.000000
6707,-125.000000
6708,-125.000000
6709,-125.000000
6710,-125.000000
6711,-125.000000
6712,-125.000000
6713,-125.000000
6714,-125.000000
6715,-128.906250
6716,-128.906250
6717,-128.906250
6718,-128.906250
6719,-128.906250
6720,-128.906250
6721,-128.906250
6722,-128.906250
6723,-128.906250
6724,-128.906250
6725,-128.906250
6726,-128.906250
6727,-128.906250
6728,-128.906250
6729,-128.906250
6730,-128.906250
6731,-128.906250
6732,-128.906250
6733,-132.812500
6734,-128.906250
6735,-128.906250
6736,-128.906250
6737,-128.906250
6738,-132.812500
6739,-128.906250
6740,-128.906250
6741,-132.812500
6742,-132.812500
6743,-132.812500
6744,-132.812500
6745,-132.812500
6746,-132.812500
6747,-132.812500
6748,-132.812500
6749,-132.812500
6750,-132.812500
6751,-132.812500
6752,-132.812500
6753,-132.812500
6754,-132.812500
6755,-132.812500
6756,-132.812500
6757,-132.812500
6758,-132.812500
6759,-132.812500
6760,-132.812500
6761,-132.812500
6762,-132.812500
6763,-132.812500
6764,-132.812500
6765,-132.812500
6766,-132.812500
6767,-132.812500
6768,-132.812500
6769,-132.812500
6770,-132.812500
6771,-132.812500
6772,-132.812500
6773,-132.812500
6774,-132.812500
6775,-132.812500
6776,-132.812500
6777,-128.906250
6778,-128.906250
6779,-132.812500
6780,-132.812500
6781,-132.812500
6782,-128.906250
6783,-132.812500
6784,-128.906250
6785,-128.906250
6786,-128.906250
6787,-128.906250
6788,-128.906250
6789,-128.906250
6790,-128.906250
6791,-128.906250
6792,-128.906250
6793,-128.906250
6794,-128.906250
6795,-128.906250
6796,-128.906250
6797,-128.906250
6798,-128.906250
6799,-128.906250
6800,-128.906250
6801,-128.906250
6802,-128.906250
6803,-125.000000
6804,-125.000000
6805,-125.000000
6806,-125.000000
6807,-125.000000
6808,-125.000000
6809,-125.000000
6810,-125.000000
6811,-125.000000
6812,-125.000000
6813,-125.000000
6814,-125.000000
6815,-125.000000
6816,-125.000000
6817,-125.000000
6818,-121.093750
6819,-121.093750
6820,-121.093750
6821,-121.093750
6822,-121.093750
6823,-121.093750
6824,-121.093750
6825,-121.093750
6826,-121.093750
6827,-121.093750
6828,-121.093750
6829,-121.093750
6830,-117.187500
6831,-117.187500
6832,-117.187500
6833,-117.187500
6834,-117.187500
6835,-117.187500
6836,-117.187500
6837,-117.187500
6838,-117.187500
6839,-113.281250
6840,-113.281250
6841,-113.281250
6842,-113.281250
6843,-113.281250
6844,-113.281250
6845,-113.281250
6846,-113.281250
6847,-113.281250
6848,-109.375000
6849,-109.375000
6850,-109.375000
6851,-109.375000
6852,-109.375000
6853,-109.375000
6854,-109.375000
6855,-109.375000
6856,-109.375000
6857,-105.468750
6858,-105.468750
6859,-105.468750
6860,-105.468750
6861,-105.468750
6862,-105.468750
6863,-105.468750
6864,-101.562500
6865,-101.562500
6866,-101.562500
6867,-101.562500
6868,-101.562500
6869,-101.562500
6870,-97.656250
6871,-97.656250
6872,-97.656250
6873,-97.656250
6874,-97.656250
6875,-97.656250
6876,-97.656250
6877,-97.656250
6878,-93.750000
6879,-93.750000
6880,-93.750000
6881,-93.750000
6882,-93.750000
6883,-93.750000
6884,-89.843750
6885,-89.843750
6886,-89.843750
6887,-89.843750
6888,-89.843750
6889,-89.843750
6890,-89.843750
6891,-85.937500
6892,-85.937500
6893,-85.937500
6894,-85.937500
6895,-85.937500
6896,-85.937500
6897,-85.937500
6898,-85.937500
6899,-82.031250
6900,-82.031250
6901,-82.031250
6902,-82.031250
6903,-82.031250
6904,-78.125000
6905,-78.125000
6906,-78.125000
6907,-78.125000
6908,-78.125000
6909,-78.125000
6910,-74.218750
6911,-74.218750
6912,-74.218750
6913,-74.218750
6914,-74.218750
6915,-74.218750
6916,-74.218750
6917,-70.312500
6918,-70.312500
6919,-70.312500
6920,-70.312500
6921,-66.406250
6922,-66.406250
6923,-66.406250
6924,-66.406250
6925,-66.406250
6926,-66.406250
6927,-62.500000
6928,-62.500000
6929,-62.500000
6930,-62.500000
6931,-62.500000
6932,-62.500000
6933,-58.593750
6934,-58.593750
6935,-58.593750
6936,-58.593750
6937,-58.593750
6938,-58.593750
6939,-58.593750
6940,-54.687500
6941,-54.687500
6942,-54.687500
6943,-54.687500
6944,-50.781250
6945,-50.781250
6946,-50.781250
6947,-50.781250
6948,-50.781250
6949,-50.781250
6950,-46.875000
6951,-46.875000
6952,-46.875000
6953,-46.875000
6954,-42.968750
6955,-42.968750
6956,-42.968750
6957,-42.968750
6958,-42.968750
6959,-42.968750
6960,-39.062500
6961,-39.062500
6962,-39.062500
6963,-39.062500
6964,-35.156250
6965,-35.156250
6966,-35.156250
6967,-35.156250
6968,-35.156250
6969,-35.156250
6970,-31.250000
6971,-31.250000
6972,-31.250000
6973,-31.250000
6974,-31.250000
6975,-31.250000
6976,-27.343750
6977,-27.343750
6978,-27.343750
6979,-27.343750
6980,-27.343750
6981,-23.437500
6982,-23.437500
6983,-23.437500
6984,-23.437500
6985,-23.437500
6986,-19.531250
6987,-19.531250
6988,-19.531250
6989,-19.531250
6990,-19.531250
6991,-15.625000
6992,-15.625000
6993,-15.625000
6994,-15.625000
6995,-15.625000
6996,-11.718750
6997,-11.718750
6998,-11.718750
6999,-11.718750
7000,-11.718750
7001,-7.812500
7002,-7.812500
7003,-7.812500
7004,-7.812500
7005,-7.812500
7006,-7.812500
7007,-3.906250
7008,-3.906250
7009,-3.906250
7010,-3.906250
7011,-3.906250
7012,0.000000
7013,0.000000
7014,0.000000
7015,0.000000
7016,0.000000
7017,0.000000
7018,3.906250
7019,3.906250
7020,3.906250
7021,3.906250
7022,3.906250
7023,7.812500
7024,7.812500
7025,7.812500
7026,7.812500
7027,7.812500
7028,11.718750
7029,11.718750
7030,11.718750
7031,11.718750
7032,11.718750
7033,11.718750
7034,11.718750
7035,15.625000
7036,15.625000
7037,15.625000
7038,15.625000
7039,15.625000
7040,19.531250
7041,19.531250
7042,19.531250
7043,19.531250
7044,19.531250
7045,19.531250
7046,23.437500
7047,23.437500
7048,23.437500
7049,23.437500
7050,23.437500
7051,23.437500
7052,23.437500
7053,27.343750
7054,27.343750
7055,27.343750
7056,27.343750
7057,27.343750
7058,31.250000
7059,31.250000
7060,31.250000
7061,31.250000
7062,31.250000
7063,31.250000
7064,35.156250
7065,35.156250
7066,35.156250
7067,35.156250
7068,35.156250
7069,35.156250
7070,39.062500
7071,39.062500
7072,39.062500
7073,39.062500
7074,39.062500
7075,39.062500
7076,42.968750
7077,42.968750
7078,42.968750
7079,42.968750
7080,42.968750
7081,42.968750
7082,42.968750
7083,42.968750
7084,46.875000
7085,46.875000
7086,46.875000
7087,46.875000
7088,50.781250
7089,50.781250
7090,50.781250
7091,50.781250
7092,50.781250
7093,50.781250
7094,50.781250
7095,50.781250
7096,54.687500
7097,54.687500
7098,54.687500
7099,54.687500
7100,54.687500
7101,54.687500
7102,54.687500
7103,58.593750
7104,58.593750
7105,58.593750
7106,58.593750
7107,58.593750
7108,58.593750
7109,62.500000
7110,62.500000
7111,62.500000
7112,62.500000
7113,62.500000
7114,62.500000
7115,62.500000
7116,62.500000
7117,62.500000
7118,66.406250
7119,66.406250
7120,66.406250
7121,66.406250
7122,66.406250
7123,66.406250
7124,70.312500
7125,70.312500
7126,70.312500
7127,70.312500
7128,70.312500
7129,70.312500
7130,70.312500
7131,70.312500
7132,70.312500
7133,70.312500
7134,74.218750
7135,74.218750
7136,74.218750
7137,74.218750
7138,74.218750
7139,74.218750
7140,74.218750
7141,74.218750
7142,74.218750
7143,78.125000
7144,78.125000
7145,78.125000
7146,78.125000
7147,78.125000
7148,78.125000
7149,78.125000
7150,78.125000
7151,78.125000
7152,78.125000
7153,82.031250
7154,82.031250
7155,82.031250
7156,82.031250
7157,82.031250
7158,82.031250
7159,82.031250
7160,82.031250
7161,82.031250
7162,82.031250
7163,82.031250
7164,82.031250
7165,82.031250
7166,85.937500
7167,85.937500
7168,85.937500
7169,85.937500
7170,85.937500
7171,85.937500
7172,85.937500
7173,85.937500
7174,85.937500
7175,85.937500
7176,85.937500
7177,85.937500
7178,85.937500
7179,89.843750
7180,89.843750
7181,89.843750
7182,89.843750
7183,89.843750
7184,89.843750
7185,89.843750
7186,89.843750
7187,89.843750
7188,89.843750
7189,89.843750
7190,89.843750
7191,89.843750
7192,89.843750
7193,89.843750
7194,93.750000
7195,93.750000
7196,93.750000
7197,93.750000
7198,93.750000
7199,93.750000
7200,93.750000
7201,93.750000
7202,93.750000
7203,93.750000
7204,93.750000
7205,93.750000
7206,93.750000
7207,93.750000
7208,93.750000
7209,97.656250
7210,93.750000
7211,93.750000
7212,93.750000
7213,93.750000
7214,97.656250
7215,93.750000
7216,97.656250
7217,93.750000
7218,97.656250
7219,97.656250
7220,97.656250
7221,97.656250
7222,97.656250
7223,97.656250
7224,97.656250
7225,97.656250
7226,97.656250
7227,97.656250
7228,97.656250
7229,97.656250
7230,97.656250
7231,97.656250
7232,97.656250
7233,97.656250
7234,97.656250
7235,97.656250
7236,97.656250
7237,97.656250
7238,97.656250
7239,97.656250
7240,97.656250
7241,97.656250
7242,97.656250
7243,97.656250
7244,97.656250
7245,97.656250
7246,97.656250
7247,97.656250
7248,97.656250
7249,97.656250
7250,97.656250
7251,97.656250
7252,97.656250
7253,97.656250
7254,97.656250
7255,97.656250
7256,97.656250
7257,101.562500
7258,97.656250
7259,97.656250
7260,97.656250
7261,97.656250
7262,97.656250
7263,97.656250
7264,97.656250
7265,97.656250
7266,97.656250
7267,97.656250
7268,97.656250
7269,97.656250
7270,97.656250
7271,97.656250
7272,97.656250
7273,97.656250
7274,97.656250
7275,97.656250
7276,97.656250
7277,97.656250
7278,97.656250
7279,97.656250
7280,97.656250
7281,97.656250
7282,97.656250
7283,97.656250
7284,97.656250
7285,97.656250
7286,97.656250
7287,97.656250
7288,97.656250
7289,93.750000
7290,97.656250
7291,97.656250
7292,97.656250
7293,93.750000
7294,93.750000
7295,93.750000
7296,93.750000
7297,93.750000
7298,93.750000
7299,93.750000
7300,93.750000
7301,93.750000
7302,93.750000
7303,93.750000
7304,93.750000
7305,93.750000
7306,93.750000
7307,93.750000
7308,93.750000
7309,93.750000
7310,93.750000
7311,89.843750
7312,89.843750
7313,89.843750
7314,89.843750
7315,89.843750
7316,89.843750
7317,89.843750
7318,89.843750
7319,89.843750
7320,89.843750
7321,89.843750
7322,89.843750
7323,89.843750
7324,85.937500
7325,89.843750
7326,89.843750
7327,89.843750
7328,85.937500
7329,85.937500
7330,85.937500
7331,85.937500
7332,85.937500
7333,85.937500
7334,85.937500
7335,85.937500
7336,85.937500
7337,85.937500
7338,85.937500
7339,85.937500
7340,82.031250
7341,82.031250
7342,82.031250
7343,82.031250
7344,82.031250
7345,82.031250
7346,82.031250
7347,82.031250
7348,82.031250
7349,82.031250
7350,82.031250
7351,82.031250
7352,78.125000
7353,78.125000
7354,78.125000
7355,78.125000
7356,78.125000
7357,78.125000
7358,78.125000
7359,78.125000
7360,78.125000
7361,74.218750
7362,74.218750
7363,74.218750
7364,74.218750
7365,74.218750
7366,74.218750
7367,74.218750
7368,74.218750
7369,74.218750
7370,74.218750
7371,70.312500
7372,70.312500
7373,70.312500
7374,70.312500
7375,70.312500
7376,70.312500
7377,70.312500
7378,70.312500
7379,70.312500
7380,70.312500
7381,66.406250
7382,66.406250
7383,66.406250
7384,66.406250
7385,66.406250
7386,66.406250
7387,66.406250
7388,62.500000
7389,62.500000
7390,62.500000
7391,62.500000
7392,62.500000
7393,62.500000
7394,62.500000
7395,58.593750
7396,58.593750
7397,58.593750
7398,58.593750
7399,58.593750
7400,58.593750
7401,58.593750
7402,58.593750
7403,54.687500
7404,54.687500
7405,54.687500
7406,54.687500
7407,54.687500
7408,54.687500
7409,50.781250
7410,50.781250
7411,50.781250
7412,50.781250
7413,50.781250
7414,50.781250
7415,50.781250
7416,50.781250
7417,46.875000
7418,46.875000
7419,46.875000
7420,46.875000
7421,46.875000
7422,46.875000
7423,46.875000
7424,42.968750
7425,42.968750
7426,42.968750
7427,42.968750
7428,39.062500
7429,39.062500
7430,39.062500
7431,39.062500
7432,39.062500
7433,39.062500
7434,39.062500
7435,39.062500
7436,39.062500
7437,35.156250
7438,35.156250
7439,35.156250
7440,35.156250
7441,35.156250
7442,31.250000
7443,31.250000
7444,31.250000
7445,31.250000
7446,31.250000
7447,31.250000
7448,27.343750
7449,27.343750
7450,27.343750
7451,27.343750
7452,27.343750
7453,27.343750
7454,23.437500
7455,23.437500
7456,23.437500
7457,23.437500
7458,23.437500
7459,19.531250
7460,19.531250
7461,19.531250
7462,19.531250
7463,19.531250
7464,19.531250
7465,15.625000
7466,15.625000
7467,15.625000
7468,15.625000
7469,15.625000
7470,15.625000
7471,11.718750
7472,11.718750
7473,11.718750
7474,11.718750
7475,7.812500
7476,7.812500
7477,7.812500
7478,7.812500
7479,7.812500
7480,7.812500
7481,7.812500
7482,7.812500
7483,3.906250
7484,3.906250
7485,3.906250
7486,3.906250
7487,0.000000
7488,0.000000
7489,0.000000
7490,0.000000
7491,0.000000
7492,0.000000
7493,0.000000
7494,-3.906250
7495,-3.906250
7496,-3.906250
7497,-7.812500
7498,-7.812500
7499,-7.812500
7500,-7.812500
7501,-7.812500
7502,-7.812500
7503,-7.812500
7504,-11.718750
7505,-11.718750
7506,-11.718750
7507,-11.718750
7508,-11.718750
7509,-15.625000
7510,-15.625000
7511,-15.625000
7512,-15.625000
7513,-19.531250
7514,-19.531250
7515,-19.531250
7516,-19.531250
7517,-19.531250
7518,-19.531250
7519,-19.531250
7520,-23.437500
7521,-23.437500
7522,-23.437500
7523,-23.437500
7524,-27.343750
7525,-27.343750
7526,-27.343750
7527,-27.343750
7528,-27.343750
7529,-31.250000
7530,-31.250000
7531,-31.250000
7532,-31.250000
7533,-31.250000
7534,-31.250000
7535,-35.156250
7536,-35.156250
7537,-35.156250
7538,-35.156250
7539,-35.156250
7540,-39.062500
7541,-39.062500
7542,-39.062500
7543,-39.062500
7544,-39.062500
7545,-42.968750
7546,-42.968750
7547,-42.968750
7548,-42.968750
7549,-42.968750
7550,-46.875000
7551,-46.875000
7552,-46.875000
7553,-46.875000
7554,-46.875000
7555,-46.875000
7556,-50.781250
7557,-50.781250
7558,-50.781250
7559,-50.781250
7560,-50.781250
7561,-54.687500
7562,-54.687500
7563,-54.687500
7564,-54.687500
7565,-54.687500
7566,-58.593750
7567,-58.593750
7568,-58.593750
7569,-58.593750
7570,-58.593750
7571,-58.593750
7572,-62.500000
7573,-62.500000
7574,-62.500000
7575,-62.500000
7576,-62.500000
7577,-66.406250
7578,-66.406250
7579,-66.406250
7580,-66.406250
7581,-66.406250
7582,-66.406250
7583,-70.312500
7584,-70.312500
7585,-70.312500
7586,-70.312500
7587,-70.312500
7588,-70.312500
7589,-74.218750
7590,-74.218750
7591,-74.218750
7592,-74.218750
7593,-74.218750
7594,-78.125000
7595,-78.125000
7596,-78.125000
7597,-78.125000
7598,-78.125000
7599,-78.125000
7600,-82.031250
7601,-82.031250
7602,-82.031250
7603,-82.031250
7604,-82.031250
7605,-82.031250
7606,-85.937500
7607,-85.937500
7608,-85.937500
7609,-85.937500
7610,-85.937500
7611,-85.937500
7612,-85.937500
7613,-85.937500
7614,-89.843750
7615,-89.843750
7616,-89.843750
7617,-89.843750
7618,-89.843750
7619,-89.843750
7620,-93.750000
7621,-93.750000
7622,-93.750000
7623,-93.750000
7624,-93.750000
7625,-93.750000
7626,-93.750000
7627,-93.750000
7628,-97.656250
7629,-97.656250
7630,-97.656250
7631,-97.656250
7632,-97.656250
7633,-97.656250
7634,-97.656250
7635,-101.562500
7636,-101.562500
7637,-101.562500
7638,-101.562500
7639,-101.562500
7640,-101.562500
7641,-101.562500
7642,-105.468750
7643,-105.468750
7644,-105.468750
7645,-105.468750
7646,-105.468750
7647,-105.468750
7648,-105.468750
7649,-105.468750
7650,-109.375000
7651,-109.375000
7652,-109.375000
7653,-109.375000
7654,-109.375000
7655,-109.375000
7656,-109.375000
7657,-109.375000
7658,-113.281250
7659,-113.281250
7660,-113.281250
7661,-113.281250
7662,-113.281250
7663,-113.281250
7664,-113.281250
7665,-113.281250
7666,-113.281250
7667,-117.187500
7668,-117.187500
7669,-117.187500
7670,-117.187500
7671,-117.187500
7672,-117.187500
7673,-117.187500
7674,-117.187500
7675,-121.093750
7676,-117.187500
7677,-117.187500
7678,-121.093750
7679,-121.093750
7680,-121.093750
7681,-121.093750
7682,-121.093750
7683,-121.093750
7684,-121.093750
7685,-121.093750
7686,-121.093750
7687,-121.093750
7688,-121.093750
7689,-125.000000
7690,-125.000000
7691,-125.000000
7692,-125.000000
7693,-125.000000
7694,-125.000000
7695,-125.000000
7696,-125.000000
7697,-125.000000
7698,-125.000000
7699,-125.000000
7700,-125.000000
7701,-125.000000
7702,-125.000000
7703,-125.000000
7704,-125.000000
7705,-128.906250
7706,-128.906250
7707,-128.906250
7708,-128.906250
7709,-128.906250
7710,-128.906250
7711,-128.906250
7712,-128.906250
7713,-128.906250
7714,-128.906250
7715,-128.906250
7716,-128.906250
7717,-128.906250
7718,-128.906250
7719,-128.906250
7720,-132.812500
7721,-132.812500
7722,-128.906250
7723,-128.906250
7724,-128.906250
7725,-128.906250
7726,-132.812500
7727,-132.812500
7728,-132.812500
7729,-132.812500
7730,-132.812500
7731,-132.812500
7732,-132.812500
7733,-132.812500
7734,-132.812500
7735,-128.906250
7736,-132.812500
7737,-132.812500
7738,-132.812500
7739,-132.812500
7740,-132.812500
7741,-132.812500
7742,-132.812500
7743,-132.812500
7744,-132.812500
7745,-132.812500
7746,-132.812500
7747,-132.812500
7748,-132.812500
7749,-132.812500
7750,-132.812500
7751,-132.812500
7752,-132.812500
7753,-132.812500
7754,-128.906250
7755,-132.812500
7756,-132.812500
7757,-132.812500
7758,-132.812500
7759,-132.812500
7760,-132.812500
7761,-132.812500
7762,-132.812500
7763,-132.812500
7764,-128.906250
7765,-128.906250
7766,-128.906250
7767,-128.906250
7768,-128.906250
7769,-128.906250
7770,-128.906250
7771,-128.906250
7772,-128.906250
7773,-128.906250
7774,-128.906250
7775,-128.906250
7776,-128.906250
7777,-128.906250
7778,-128.906250
7779,-128.906250
7780,-128.906250
7781,-128.906250
7782,-128.906250
7783,-128.906250
7784,-128.906250
7785,-128.906250
7786,-125.000000
7787,-128.906250
7788,-128.906250
7789,-125.000000
7790,-125.000000
7791,-125.000000
7792,-125.000000
7793,-125.000000
7794,-125.000000
7795,-125.000000
7796,-125.000000
7797,-125.000000
7798,-125.000000
7799,-125.000000
7800,-125.000000
7801,-125.000000
7802,-125.000000
7803,-125.000000
7804,-125.000000
7805,-125.000000
7806,-121.093750
7807,-121.093750
7808,-121.093750
7809,-121.093750
7810,-121.093750
7811,-121.093750
7812,-121.093750
7813,-121.093750
7814,-121.093750
7815,-121.093750
7816,-121.093750
7817,-121.093750
7818,-121.093750
7819,-117.187500
7820,-117.187500
7821,-117.187500
7822,-117.187500
7823,-117.187500
7824,-117.187500
7825,-117.187500
7826,-117.187500
7827,-117.187500
7828,-117.187500
7829,-113.281250
7830,-113.281250
7831,-113.281250
7832,-113.281250
7833,-113.281250
7834,-113.281250
7835,-113.281250
7836,-109.375000
7837,-109.375000
7838,-109.375000
7839,-109.375000
7840,-109.375000
7841,-109.375000
7842,-109.375000
7843,-109.375000
7844,-109.375000
7845,-109.375000
7846,-105.468750
7847,-105.468750
7848,-105.468750
7849,-105.468750
7850,-105.468750
7851,-105.468750
7852,-105.468750
7853,-105.468750
7854,-101.562500
7855,-101.562500
7856,-101.562500
7857,-101.562500
7858,-101.562500
7859,-101.562500
7860,-101.562500
7861,-97.656250
7862,-97.656250
7863,-97.656250
7864,-97.656250
7865,-97.656250
7866,-97.656250
7867,-97.656250
7868,-93.750000
7869,-93.750000
7870,-93.750000
7871,-93.750000
7872,-93.750000
7873,-93.750000
7874,-93.750000
7875,-89.843750
7876,-89.843750
7877,-89.843750
7878,-89.843750
7879,-89.843750
7880,-89.843750
7881,-89.843750
7882,-85.937500
7883,-85.937500
7884,-85.937500
7885,-85.937500
7886,-85.937500
7887,-82.031250
7888,-82.031250
7889,-82.031250
7890,-82.031250
7891,-82.031250
7892,-78.125000
7893,-78.125000
7894,-78.125000
7895,-78.125000
7896,-78.125000
7897,-78.125000
7898,-78.125000
7899,-78.125000
7900,-78.125000
7901,-74.218750
7902,-74.218750
7903,-74.218750
7904,-74.218750
7905,-70.312500
7906,-70.312500
7907,-70.312500
7908,-70.312500
7909,-70.312500
7910,-70.312500
7911,-66.406250
7912,-66.406250
7913,-66.406250
7914,-66.406250
7915,-66.406250
7916,-62.500000
7917,-62.500000
7918,-62.500000
7919,-62.500000
7920,-62.500000
7921,-62.500000
7922,-62.500000
7923,-58.593750
7924,-58.593750
7925,-58.593750
7926,-58.593750
7927,-58.593750
7928,-54.687500
7929,-54.687500
7930,-54.687500
7931,-54.687500
7932,-54.687500
7933,-54.687500
7934,-54.687500
7935,-50.781250
7936,-50.781250
7937,-50.781250
7938,-50.781250
7939,-46.875000
7940,-46.875000
7941,-46.875000
7942,-46.875000
7943,-42.968750
7944,-42.968750
7945,-42.968750
7946,-42.968750
7947,-42.968750
7948,-42.968750
7949,-42.968750
7950,-39.062500
7951,-39.062500
7952,-39.062500
7953,-39.062500
7954,-39.062500
7955,-35.156250
7956,-35.156250
7957,-35.156250
7958,-35.156250
7959,-35.156250
7960,-31.250000
7961,-31.250000
7962,-31.250000
7963,-31.250000
7964,-31.250000
7965,-31.250000
7966,-27.343750
7967,-27.343750
7968,-27.343750
7969,-27.343750
7970,-23.437500
7971,-23.437500
7972,-23.437500
7973,-23.437500
7974,-23.437500
7975,-23.437500
7976,-19.531250
7977,-19.531250
7978,-19.531250
7979,-19.531250
7980,-19.531250
7981,-15.625000
7982,-15.625000
7983,-15.625000
7984,-15.625000
7985,-15.625000
7986,-15.625000
7987,-11.718750
7988,-11.718750
7989,-11.718750
7990,-11.718750
7991,-7.812500
7992,-7.812500
7993,-7.812500
7994,-7.812500
7995,-7.812500
7996,-3.906250
7997,-3.906250
7998,-3.906250
7999,-3.906250
8000,-3.906250
8001,-3.906250
8002,-3.906250
8003,0.000000
8004,0.000000
8005,0.000000
8006,3.906250
8007,3.906250
8008,3.906250
8009,3.906250
8010,3.906250
8011,3.906250
8012,7.812500
8013,3.906250
8014,7.812500
8015,7.812500
8016,7.812500
8017,7.812500
8018,11.718750
8019,11.718750
8020,11.718750
8021,11.718750
8022,11.718750
8023,11.718750
8024,15.625000
8025,15.625000
8026,15.625000
8027,15.625000
8028,19.531250
8029,19.531250
8030,19.531250
8031,19.531250
8032,19.531250
8033,19.531250
8034,23.437500
8035,23.437500
8036,23.437500
8037,23.437500
8038,23.437500
8039,23.437500
8040,27.343750
8041,27.343750
8042,27.343750
8043,27.343750
8044,27.343750
8045,27.343750
8046,31.250000
8047,31.250000
8048,31.250000
8049,31.250000
8050,31.250000
8051,31.250000
8052,35.156250
8053,35.156250
8054,35.156250
8055,35.156250
8056,35.156250
8057,35.156250
8058,35.156250
8059,39.062500
8060,39.062500
8061,39.062500
8062,39.062500
8063,39.062500
8064,39.062500
8065,42.968750
8066,42.968750
8067,42.968750
8068,42.968750
8069,42.968750
8070,46.875000
8071,42.968750
8072,46.875000
8073,46.875000
8074,46.875000
8075,46.875000
8076,46.875000
8077,46.875000
8078,50.781250
8079,50.781250
8080,50.781250
8081,50.781250
8082,50.781250
8083,50.781250
8084,50.781250
8085,54.687500
8086,54.687500
8087,54.687500
8088,54.687500
8089,54.687500
8090,54.687500
8091,54.687500
8092,54.687500
8093,54.687500
8094,58.593750
8095,58.593750
8096,58.593750
8097,58.593750
8098,58.593750
8099,62.500000
8100,62.500000
8101,62.500000
8102,62.500000
8103,62.500000
8104,62.500000
8105,62.500000
8106,62.500000
8107,66.406250
8108,66.406250
8109,66.406250
8110,66.406250
8111,66.406250
8112,66.406250
8113,66.406250
8114,66.406250
8115,66.406250
8116,70.312500
8117,70.312500
8118,70.312500
8119,70.312500
8120,70.312500
8121,70.312500
8122,70.312500
8123,74.218750
8124,74.218750
8125,70.312500
8126,74.218750
8127,74.218750
8128,74.218750
8129,74.218750
8130,74.218750
8131,74.218750
8132,74.218750
8133,78.125000
8134,78.125000
8135,78.125000
8136,78.125000
8137,78.125000
8138,78.125000
8139,78.125000
8140,78.125000
8141,78.125000
8142,78.125000
8143,82.031250
8144,82.031250
8145,82.031250
8146,82.031250
8147,82.031250
8148,82.031250
8149,82.031250
8150,82.031250
8151,82.031250
8152,82.031250
8153,85.937500
8154,82.031250
8155,85.937500
8156,85.937500
8157,85.937500
8158,85.937500
8159,85.937500
8160,85.937500
8161,85.937500
8162,85.937500
8163,85.937500
8164,85.937500
8165,85.937500
8166,85.937500
8167,89.843750
8168,89.843750
8169,89.843750
8170,89.843750
8171,89.843750
8172,89.843750
8173,89.843750
8174,89.843750
8175,89.843750
8176,89.843750
8177,89.843750
8178,89.843750
8179,89.843750
8180,93.750000
8181,93.750000
8182,93.750000
8183,93.750000
8184,93.750000
8185,93.750000
8186,93.750000
8187,93.750000
8188,93.750000
8189,93.750000
8190,93.750000
8191,93.750000
8192,93.750000
8193,93.750000
8194,93.750000
8195,93.750000
8196,93.750000
8197,93.750000
8198,93.750000
8199,93.750000
8200,93.750000
8201,93.750000
8202,93.750000
8203,97.656250
8204,97.656250
8205,93.750000
8206,97.656250
8207,93.750000
8208,97.656250
8209,97.656250
8210,97.656250
8211,97.656250
8212,97.656250
8213,97.656250
8214,97.656250
8215,97.656250
8216,93.750000
8217,97.656250
8218,97.656250
8219,97.656250
8220,97.656250
8221,97.656250
8222,97.656250
8223,97.656250
8224,97.656250
8225,97.656250
8226,97.656250
8227,97.656250
8228,97.656250
8229,97.656250
8230,97.656250
8231,97.656250
8232,97.656250
8233,97.656250
8234,97.656250
8235,97.656250
8236,97.656250
8237,97.656250
8238,97.656250
8239,97.656250
8240,97.656250
8241,97.656250
8242,97.656250
8243,97.656250
8244,97.656250
8245,97.656250
8246,97.656250
8247,97.656250
8248,97.656250
8249,97.656250
8250,97.656250
8251,97.656250
8252,97.656250
8253,97.656250
8254,97.656250
8255,97.656250
8256,97.656250
8257,97.656250
8258,97.656250
8259,97.656250
8260,97.656250
8261,97.656250
8262,97.656250
8263,97.656250
8264,97.656250
8265,97.656250
8266,97.656250
8267,97.656250
8268,97.656250
8269,97.656250
8270,97.656250
8271,97.656250
8272,97.656250
8273,97.656250
8274,97.656250
8275,97.656250
8276,97.656250
8277,97.656250
8278,97.656250
8279,93.750000
8280,97.656250
8281,93.750000
8282,97.656250
8283,93.750000
8284,97.656250
8285,93.750000
8286,97.656250
8287,97.656250
8288,93.750000
8289,93.750000
8290,93.750000
8291,93.750000
8292,93.750000
8293,93.750000
8294,93.750000
8295,93.750000
8296,93.750000
8297,93.750000
8298,93.750000
8299,93.750000
8300,93.750000
8301,93.750000
8302,89.843750
8303,89.843750
8304,89.843750
8305,89.843750
8306,89.843750
8307,89.843750
8308,89.843750
8309,89.843750
8310,89.843750
8311,89.843750
8312,89.843750
8313,89.843750
8314,89.843750
8315,89.843750
8316,89.843750
8317,89.843750
8318,85.937500
8319,85.937500
8320,85.937500
8321,85.937500
8322,85.937500
8323,85.937500
8324,85.937500
8325,85.937500
8326,85.937500
8327,85.937500
8328,82.031250
8329,85.937500
8330,85.937500
8331,82.031250
8332,82.031250
8333,82.031250
8334,82.031250
8335,82.031250
8336,82.031250
8337,82.031250
8338,82.031250
8339,82.031250
8340,82.031250
8341,82.031250
8342,82.031250
8343,78.125000
8344,78.125000
8345,78.125000
8346,78.125000
8347,78.125000
8348,78.125000
8349,78.125000
8350,78.125000
8351,78.125000
8352,74.218750
8353,74.218750
8354,74.218750
8355,74.218750
8356,74.218750
8357,74.218750
8358,74.218750
8359,74.218750
8360,74.218750
8361,70.312500
8362,70.312500
8363,70.312500
8364,70.312500
8365,70.312500
8366,70.312500
8367,70.312500
8368,66.406250
8369,66.406250
8370,66.406250
8371,66.406250
8372,66.406250
8373,66.406250
8374,66.406250
8375,66.406250
8376,66.406250
8377,62.500000
8378,66.406250
8379,62.500000
8380,62.500000
8381,62.500000
8382,62.500000
8383,62.500000
8384,62.500000
8385,62.500000
8386,58.593750
8387,58.593750
8388,58.593750
8389,58.593750
8390,58.593750
8391,58.593750
8392,58.593750
8393,54.687500
8394,54.687500
8395,54.687500
8396,54.687500
8397,54.687500
8398,54.687500
8399,54.687500
8400,50.781250
8401,50.781250
8402,50.781250
8403,50.781250
8404,50.781250
8405,50.781250
8406,50.781250
8407,46.875000
8408,46.875000
8409,46.875000
8410,46.875000
8411,46.875000
8412,42.968750
8413,42.968750
8414,42.968750
8415,42.968750
8416,42.968750
8417,42.968750
8418,42.968750
8419,39.062500
8420,39.062500
8421,39.062500
8422,39.062500
8423,39.062500
8424,39.062500
8425,39.062500
8426,39.062500
8427,39.062500
8428,35.156250
8429,35.156250
8430,35.156250
8431,31.250000
8432,31.250000
8433,31.250000
8434,31.250000
8435,31.250000
8436,31.250000
8437,31.250000
8438,31.250000
8439,27.343750
8440,27.343750
8441,27.343750
8442,27.343750
8443,27.343750
8444,23.437500
8445,23.437500
8446,23.437500
8447,23.437500
8448,23.437500
8449,23.437500
8450,23.437500
8451,19.531250
8452,19.531250
8453,19.531250
8454,19.531250
8455,15.625000
8456,15.625000
8457,15.625000
8458,15.625000
8459,15.625000
8460,15.625000
8461,15.625000
8462,11.718750
8463,11.718750
8464,11.718750
8465,11.718750
8466,11.718750
8467,7.812500
8468,7.812500
8469,7.812500
8470,3.906250
8471,3.906250
8472,3.906250
8473,3.906250
8474,3.906250
8475,3.906250
8476,3.906250
8477,0.000000
8478,0.000000
8479,0.000000
8480,0.000000
8481,0.000000
8482,-3.906250
8483,-3.906250
8484,-3.906250
8485,-3.906250
8486,-3.906250
8487,-7.812500
8488,-7.812500
8489,-7.812500
8490,-7.812500
8491,-7.812500
8492,-7.812500
8493,-7.812500
8494,-11.718750
8495,-11.718750
8496,-11.718750
8497,-11.718750
8498,-15.625000
8499,-15.625000
8500,-15.625000
8501,-15.625000
8502,-15.625000
8503,-15.625000
8504,-19.531250
8505,-15.625000
8506,-19.531250
8507,-19.531250
8508,-19.531250
8509,-23.437500
8510,-23.437500
8511,-23.437500
8512,-23.437500
8513,-23.437500
8514,-23.437500
8515,-23.437500
8516,-27.343750
8517,-31.250000
8518,-27.343750
8519,-31.250000
8520,-31.250000
8521,-31.250000
8522,-31.250000
8523,-35.156250
8524,-35.156250
8525,-35.156250
8526,-35.156250
8527,-35.156250
8528,-35.156250
8529,-39.062500
8530,-39.062500
8531,-39.062500
8532,-39.062500
8533,-39.062500
8534,-39.062500
8535,-39.062500
8536,-42.968750
8537,-42.968750
8538,-42.968750
8539,-42.968750
8540,-46.875000
8541,-46.875000
8542,-46.875000
8543,-46.875000
8544,-46.875000
8545,-46.875000
8546,-46.875000
8547,-50.781250
8548,-50.781250
8549,-50.781250
8550,-50.781250
8551,-54.687500
8552,-54.687500
8553,-54.687500
8554,-54.687500
8555,-54.687500
8556,-58.593750
8557,-54.687500
8558,-58.593750
8559,-58.593750
8560,-58.593750
8561,-62.500000
8562,-62.500000
8563,-62.500000
8564,-62.500000
8565,-62.500000
8566,-62.500000
8567,-62.500000
8568,-66.406250
8569,-66.406250
8570,-66.406250
8571,-66.406250
8572,-66.406250
8573,-70.312500
8574,-70.312500
8575,-70.312500
8576,-70.312500
8577,-70.312500
8578,-70.312500
8579,-74.218750
8580,-74.218750
8581,-74.218750
8582,-74.218750
8583,-74.218750
8584,-74.218750
8585,-78.125000
8586,-78.125000
8587,-78.125000
8588,-78.125000
8589,-78.125000
8590,-78.125000
8591,-78.125000
8592,-82.031250
8593,-82.031250
8594,-82.031250
8595,-82.031250
8596,-85.937500
8597,-85.937500
8598,-85.937500
8599,-85.937500
8600,-85.937500
8601,-85.937500
8602,-85.937500
8603,-89.843750
8604,-89.843750
8605,-89.843750
8606,-89.843750
8607,-89.843750
8608,-89.843750
8609,-93.750000
8610,-93.750000
8611,-93.750000
8612,-93.750000
8613,-93.750000
8614,-93.750000
8615,-93.750000
8616,-97.656250
8617,-97.656250
8618,-97.656250
8619,-97.656250
8620,-97.656250
8621,-97.656250
8622,-97.656250
8623,-97.656250
8624,-101.562500
8625,-101.562500
8626,-101.562500
8627,-101.562500
8628,-101.562500
8629,-101.562500
8630,-101.562500
8631,-105.468750
8632,-105.468750
8633,-105.468750
8634,-105.468750
8635,-105.468750
8636,-105.468750
8637,-105.468750
8638,-109.375000
8639,-109.375000
8640,-109.375000
8641,-109.375000
8642,-109.375000
8643,-109.375000
8644,-109.375000
8645,-109.375000
8646,-109.375000
8647,-109.375000
8648,-113.281250
8649,-113.281250
8650,-113.281250
8651,-113.281250
8652,-113.281250
8653,-113.281250
8654,-117.187500
8655,-117.187500
8656,-113.281250
8657,-117.187500
8658,-117.187500
8659,-117.187500
8660,-117.187500
8661,-117.187500
8662,-117.187500
8663,-117.187500
8664,-117.187500
8665,-117.187500
8666,-117.187500
8667,-121.093750
8668,-121.093750
8669,-121.093750
8670,-121.093750
8671,-121.093750
8672,-121.093750
8673,-121.093750
8674,-121.093750
8675,-121.093750
8676,-121.093750
8677,-121.093750
8678,-121.093750
8679,-125.000000
8680,-125.000000
8681,-125.000000
8682,-125.000000
8683,-125.000000
8684,-125.000000
8685,-125.000000
8686,-125.000000
8687,-125.000000
8688,-125.000000
8689,-125.000000
8690,-125.000000
8691,-125.000000
8692,-125.000000
8693,-125.000000
8694,-128.906250
8695,-125.000000
8696,-128.906250
8697,-128.906250
8698,-128.906250
8699,-128.906250
8700,-128.906250
8701,-128.906250
8702,-128.906250
8703,-128.906250
8704,-128.906250
8705,-128.906250
8706,-128.906250
8707,-128.906250
8708,-128.906250
8709,-128.906250
8710,-128.906250
8711,-128.906250
8712,-128.906250
8713,-128.906250
8714,-128.906250
8715,-128.906250
8716,-132.812500
8717,-132.812500
8718,-132.812500
8719,-132.812500
8720,-132.812500
8721,-128.906250
8722,-132.812500
8723,-128.906250
8724,-128.906250
8725,-132.812500
8726,-132.812500
8727,-132.812500
8728,-132.812500
8729,-132.812500
8730,-132.812500
8731,-132.812500
8732,-132.812500
8733,-132.812500
8734,-132.812500
8735,-132.812500
8736,-132.812500
8737,-132.812500
8738,-132.812500
8739,-132.812500
8740,-132.812500
8741,-132.812500
8742,-132.812500
8743,-132.812500
8744,-132.812500
8745,-132.812500
8746,-132.812500
8747,-132.812500
8748,-132.812500
8749,-132.812500
8750,-132.812500
8751,-132.812500
8752,-132.812500
8753,-132.812500
8754,-128.906250
8755,-132.812500
8756,-128.906250
8757,-128.906250
8758,-132.812500
8759,-132.812500
8760,-132.812500
8761,-128.906250
8762,-128.906250
8763,-132.812500
8764,-128.906250
8765,-132.812500
8766,-128.906250
8767,-128.906250
8768,-128.906250
8769,-128.906250
8770,-128.906250
8771,-128.906250
8772,-128.906250
8773,-128.906250
8774,-128.906250
8775,-128.906250
8776,-128.906250
8777,-128.906250
8778,-128.906250
8779,-125.000000
8780,-125.000000
8781,-125.000000
8782,-125.000000
8783,-125.000000
8784,-125.000000
8785,-125.000000
8786,-125.000000
8787,-125.000000
8788,-125.000000
8789,-125.000000
8790,-125.000000
8791,-125.000000
8792,-125.000000
8793,-125.000000
8794,-125.000000
8795,-121.093750
8796,-121.093750
8797,-121.093750
8798,-121.093750
8799,-121.093750
8800,-121.093750
8801,-121.093750
8802,-121.093750
8803,-121.093750
8804,-121.093750
8805,-121.093750
8806,-117.187500
8807,-117.187500
8808,-117.187500
8809,-117.187500
8810,-117.187500
8811,-117.187500
8812,-117.187500
8813,-117.187500
8814,-117.187500
8815,-117.187500
8816,-117.187500
8817,-113.281250
8818,-113.281250
8819,-113.281250
8820,-113.281250
8821,-113.281250
8822,-113.281250
8823,-113.281250
8824,-113.281250
8825,-113.281250
8826,-109.375000
8827,-109.375000
8828,-109.375000
8829,-109.375000
8830,-109.375000
8831,-109.375000
8832,-109.375000
8833,-105.468750
8834,-105.468750
8835,-105.468750
8836,-105.468750
8837,-105.468750
8838,-105.468750
8839,-105.468750
8840,-105.468750
8841,-105.468750
8842,-105.468750
8843,-101.562500
8844,-101.562500
8845,-101.562500
8846,-101.562500
8847,-101.562500
8848,-101.562500
8849,-101.562500
8850,-101.562500
8851,-97.656250
8852,-97.656250
8853,-97.656250
8854,-97.656250
8855,-97.656250
8856,-97.656250
8857,-97.656250
8858,-93.750000
8859,-93.750000
8860,-93.750000
8861,-93.750000
8862,-93.750000
8863,-93.750000
8864,-93.750000
8865,-89.843750
8866,-89.843750
8867,-89.843750
8868,-89.843750
8869,-89.843750
8870,-89.843750
8871,-89.843750
8872,-85.937500
8873,-85.937500
8874,-85.937500
8875,-85.937500
8876,-85.937500
8877,-82.031250
8878,-82.031250
8879,-82.031250
8880,-82.031250
8881,-82.031250
8882,-82.031250
8883,-82.031250
8884,-78.125000
8885,-78.125000
8886,-78.125000
8887,-78.125000
8888,-78.125000
8889,-78.125000
8890,-78.125000
8891,-74.218750
8892,-74.218750
8893,-74.218750
8894,-74.218750
8895,-74.218750
8896,-70.312500
8897,-70.312500
8898,-70.312500
8899,-70.312500
8900,-70.312500
8901,-66.406250
8902,-66.406250
8903,-66.406250
8904,-66.406250
8905,-66.406250
8906,-66.406250
8907,-62.500000
8908,-62.500000
8909,-62.500000
8910,-62.500000
8911,-58.593750
8912,-58.593750
8913,-58.593750
8914,-58.593750
8915,-58.593750
8916,-58.593750
8917,-54.687500
8918,-54.687500
8919,-54.687500
8920,-54.687500
8921,-54.687500
8922,-50.781250
8923,-50.781250
8924,-50.781250
8925,-50.781250
8926,-50.781250
8927,-50.781250
8928,-46.875000
8929,-46.875000
8930,-46.875000
8931,-46.875000
8932,-46.875000
8933,-42.968750
8934,-42.968750
8935,-42.968750
8936,-42.968750
8937,-42.968750
8938,-42.968750
8939,-39.062500
8940,-39.062500
8941,-39.062500
8942,-39.062500
8943,-39.062500
8944,-35.156250
8945,-35.156250
8946,-35.156250
8947,-35.156250
8948,-35.156250
8949,-31.250000
8950,-31.250000
8951,-31.250000
8952,-31.250000
8953,-27.343750
8954,-31.250000
8955,-27.343750
8956,-27.343750
8957,-27.343750
8958,-27.343750
8959,-23.437500
8960,-23.437500
8961,-23.437500
8962,-23.437500
8963,-23.437500
8964,-23.437500
8965,-19.531250
8966,-19.531250
8967,-19.531250
8968,-19.531250
8969,-19.531250
8970,-15.625000
8971,-15.625000
8972,-15.625000
8973,-15.625000
8974,-15.625000
8975,-15.625000
8976,-11.718750
8977,-11.718750
8978,-11.718750
8979,-11.718750
8980,-7.812500
8981,-7.812500
8982,-7.812500
8983,-7.812500
8984,-7.812500
8985,-3.906250
8986,-3.906250
8987,-3.906250
8988,-3.906250
8989,-3.906250
8990,-3.906250
8991,-3.906250
8992,0.000000
8993,0.000000
8994,0.000000
8995,0.000000
8996,3.906250
8997,0.000000
8998,3.906250
8999,3.906250
9000,3.906250
9001,3.906250
9002,3.906250
9003,7.812500
9004,7.812500
9005,7.812500
9006,7.812500
9007,7.812500
9008,11.718750
9009,11.718750
9010,11.718750
9011,11.718750
9012,11.718750
9013,11.718750
9014,11.718750
9015,15.625000
9016,15.625000
9017,15.625000
9018,19.531250
9019,19.531250
9020,19.531250
9021,19.531250
9022,19.531250
9023,19.531250
9024,19.531250
9025,19.531250
9026,23.437500
9027,23.437500
9028,23.437500
9029,23.437500
9030,27.343750
9031,27.343750
9032,27.343750
9033,27.343750
9034,27.343750
9035,27.343750
9036,27.343750
9037,31.250000
9038,31.250000
9039,31.250000
9040,31.250000
9041,31.250000
9042,35.156250
9043,35.156250
9044,35.156250
9045,35.156250
9046,35.156250
9047,35.156250
9048,39.062500
9049,39.062500
9050,39.062500
9051,39.062500
9052,39.062500
9053,39.062500
9054,42.968750
9055,42.968750
9056,42.968750
9057,42.968750
9058,42.968750
9059,42.968750
9060,42.968750
9061,46.875000
9062,46.875000
9063,46.875000
9064,46.875000
9065,46.875000
9066,46.875000
9067,46.875000
9068,50.781250
9069,50.781250
9070,50.781250
9071,50.781250
9072,50.781250
9073,54.687500
9074,50.781250
9075,54.687500
9076,54.687500
9077,54.687500
9078,54.687500
9079,54.687500
9080,54.687500
9081,54.687500
9082,58.593750
9083,58.593750
9084,58.593750
9085,58.593750
9086,58.593750
9087,62.500000
9088,62.500000
9089,62.500000
9090,62.500000
9091,62.500000
9092,62.500000
9093,62.500000
9094,62.500000
9095,62.500000
9096,62.500000
9097,66.406250
9098,66.406250
9099,66.406250
9100,66.406250
9101,66.406250
9102,66.406250
9103,66.406250
9104,70.312500
9105,70.312500
9106,70.312500
9107,70.312500
9108,70.312500
9109,70.312500
9110,70.312500
9111,70.312500
9112,70.312500
9113,70.312500
9114,74.218750
9115,74.218750
9116,74.218750
9117,74.218750
9118,74.218750
9119,74.218750
9120,74.218750
9121,74.218750
9122,74.218750
9123,78.125000
9124,78.125000
9125,78.125000
9126,78.125000
9127,78.125000
9128,78.125000
9129,78.125000
9130,78.125000
9131,78.125000
9132,82.031250
9133,82.031250
9134,82.031250
9135,82.031250
9136,82.031250
9137,82.031250
9138,82.031250
9139,82.031250
9140,82.031250
9141,82.031250
9142,82.031250
9143,82.031250
9144,85.937500
9145,85.937500
9146,85.937500
9147,85.937500
9148,85.937500
9149,85.937500
9150,85.937500
9151,85.937500
9152,85.937500
9153,85.937500
9154,85.937500
9155,85.937500
9156,89.843750
9157,89.843750
9158,89.843750
9159,89.843750
9160,89.843750
9161,85.937500
9162,89.843750
9163,89.843750
9164,89.843750
9165,89.843750
9166,89.843750
9167,89.843750
9168,89.843750
9169,89.843750
9170,89.843750
9171,89.843750
9172,89.843750
9173,89.843750
9174,93.750000
9175,93.750000
9176,93.750000
9177,93.750000
9178,93.750000
9179,93.750000
9180,93.750000
9181,93.750000
9182,93.750000
9183,93.750000
9184,93.750000
9185,93.750000
9186,97.656250
9187,93.750000
9188,93.750000
9189,93.750000
9190,93.750000
9191,93.750000
9192,93.750000
9193,93.750000
9194,97.656250
9195,97.656250
9196,97.656250
9197,97.656250
9198,97.656250
9199,97.656250
9200,97.656250
9201,97.656250
9202,97.656250
9203,97.656250
9204,97.656250
9205,97.656250
9206,97.656250
9207,97.656250
9208,97.656250
9209,97.656250
9210,97.656250
9211,97.656250
9212,97.656250
9213,97.656250
9214,97.656250
9215,97.656250
9216,97.656250
9217,97.656250
9218,97.656250
9219,97.656250
9220,97.656250
9221,97.656250
9222,97.656250
9223,97.656250
9224,97.656250
9225,97.656250
9226,97.656250
9227,97.656250
9228,97.656250
9229,97.656250
9230,97.656250
9231,97.656250
9232,97.656250
9233,97.656250
9234,97.656250
9235,97.656250
9236,97.656250
9237,97.656250
9238,97.656250
9239,97.656250
9240,97.656250
9241,97.656250
9242,97.656250
9243,97.656250
9244,97.656250
9245,97.656250
9246,97.656250
9247,97.656250
9248,97.656250
9249,97.656250
9250,97.656250
9251,97.656250
9252,97.656250
9253,97.656250
9254,97.656250
9255,97.656250
9256,97.656250
9257,97.656250
9258,97.656250
9259,97.656250
9260,97.656250
9261,97.656250
9262,97.656250
9263,97.656250
9264,97.656250
9265,97.656250
9266,97.656250
9267,97.656250
9268,97.656250
9269,93.750000
9270,93.750000
9271,93.750000
9272,93.750000
9273,97.656250
9274,93.750000
9275,93.750000
9276,93.750000
9277,93.750000
9278,93.750000
9279,93.750000
9280,93.750000
9281,93.750000
9282,93.750000
9283,93.750000
9284,93.750000
9285,93.750000
9286,93.750000
9287,93.750000
9288,93.750000
9289,93.750000
9290,93.750000
9291,89.843750
9292,89.843750
9293,89.843750
9294,89.843750
9295,89.843750
9296,89.843750
9297,89.843750
9298,89.843750
9299,89.843750
9300,89.843750
9301,89.843750
9302,89.843750
9303,89.843750
9304,89.843750
9305,89.843750
9306,89.843750
9307,89.843750
9308,89.843750
9309,85.937500
9310,85.937500
9311,85.937500
9312,85.937500
9313,85.937500
9314,85.937500
9315,85.937500
9316,85.937500
9317,85.937500
9318,85.937500
9319,85.937500
9320,82.031250
9321,85.937500
9322,82.031250
9323,82.031250
9324,82.031250
9325,82.031250
9326,82.031250
9327,82.031250
9328,82.031250
9329,78.125000
9330,82.031250
9331,78.125000
9332,82.031250
9333,78.125000
9334,78.125000
9335,78.125000
9336,78.125000
9337,78.125000
9338,78.125000
9339,78.125000
9340,78.125000
9341,78.125000
9342,74.218750
9343,74.218750
9344,74.218750
9345,74.218750
9346,74.218750
9347,74.218750
9348,74.218750
9349,74.218750
9350,70.312500
9351,70.312500
9352,70.312500
9353,70.312500
9354,70.312500
9355,70.312500
9356,70.312500
9357,70.312500
9358,66.406250
9359,66.406250
9360,66.406250
9361,66.406250
9362,66.406250
9363,66.406250
9364,66.406250
9365,66.406250
9366,66.406250
9367,66.406250
9368,62.500000
9369,62.500000
9370,62.500000
9371,62.500000
9372,62.500000
9373,62.500000
9374,62.500000
9375,62.500000
9376,58.593750
9377,58.593750
9378,58.593750
9379,58.593750
9380,58.593750
9381,58.593750
9382,54.687500
9383,54.687500
9384,54.687500
9385,54.687500
9386,54.687500
9387,54.687500
9388,54.687500
9389,50.781250
9390,50.781250
9391,50.781250
9392,50.781250
9393,50.781250
9394,50.781250
9395,50.781250
9396,46.875000
9397,46.875000
9398,46.875000
9399,46.875000
9400,46.875000
9401,46.875000
9402,42.968750
9403,42.968750
9404,42.968750
9405,42.968750
9406,42.968750
9407,42.968750
9408,42.968750
9409,39.062500
9410,39.062500
9411,39.062500
9412,39.062500
9413,39.062500
9414,35.156250
9415,35.156250
9416,35.156250
9417,35.156250
9418,35.156250
9419,35.156250
9420,35.156250
9421,35.156250
9422,31.250000
9423,31.250000
9424,31.250000
9425,31.250000
9426,31.250000
9427,31.250000
9428,27.343750
9429,27.343750
9430,27.343750
9431,27.343750
9432,27.343750
9433,23.437500
9434,23.437500
9435,23.437500
9436,23.437500
9437,23.437500
9438,23.437500
9439,23.437500
9440,19.531250
9441,19.531250
9442,19.531250
9443,19.531250
9444,19.531250
9445,15.625000
9446,15.625000
9447,15.625000
9448,15.625000
9449,15.625000
9450,15.625000
9451,11.718750
9452,11.718750
9453,11.718750
9454,11.718750
9455,11.718750
9456,11.718750
9457,7.812500
9458,7.812500
9459,7.812500
9460,7.812500
9461,7.812500
9462,3.906250
9463,3.906250
9464,3.906250
9465,3.906250
9466,3.906250
9467,3.906250
9468,0.000000
9469,0.000000
9470,0.000000
9471,0.000000
9472,-3.906250
9473,-3.906250
9474,-3.906250
9475,-3.906250
9476,-3.906250
9477,-7.812500
9478,-7.812500
9479,-7.812500
9480,-7.812500
9481,-7.812500
9482,-7.812500
9483,-11.718750
9484,-11.718750
9485,-11.718750
9486,-11.718750
9487,-11.718750
9488,-15.625000
9489,-15.625000
9490,-15.625000
9491,-15.625000
9492,-15.625000
9493,-15.625000
9494,-19.531250
9495,-19.531250
9496,-19.531250
9497,-19.531250
9498,-19.531250
9499,-23.437500
9500,-23.437500
9501,-23.437500
9502,-23.437500
9503,-27.343750
9504,-27.343750
9505,-27.343750
9506,-27.343750
9507,-27.343750
9508,-27.343750
9509,-31.250000
9510,-31.250000
9511,-31.250000
9512,-31.250000
9513,-35.156250
9514,-35.156250
9515,-35.156250
9516,-35.156250
9517,-35.156250
9518,-35.156250
9519,-39.062500
9520,-39.062500
9521,-39.062500
9522,-39.062500
9523,-39.062500
9524,-42.968750
9525,-42.968750
9526,-42.968750
9527,-42.968750
9528,-42.968750
9529,-46.875000
9530,-46.875000
9531,-46.875000
9532,-46.875000
9533,-46.875000
9534,-50.781250
9535,-50.781250
9536,-50.781250
9537,-50.781250
9538,-50.781250
9539,-50.781250
9540,-50.781250
9541,-54.687500
9542,-54.687500
9543,-54.687500
9544,-54.687500
9545,-58.593750
9546,-58.593750
9547,-58.593750
9548,-58.593750
9549,-58.593750
9550,-58.593750
9551,-62.500000
9552,-62.500000
9553,-62.500000
9554,-62.500000
9555,-62.500000
9556,-62.500000
9557,-62.500000
9558,-66.406250
9559,-66.406250
9560,-66.406250
9561,-66.406250
9562,-70.312500
9563,-66.406250
9564,-70.312500
9565,-70.312500
9566,-70.312500
9567,-70.312500
9568,-70.312500
9569,-74.218750
9570,-74.218750
9571,-74.218750
9572,-74.218750
9573,-74.218750
9574,-74.218750
9575,-78.125000
9576,-78.125000
9577,-78.125000
9578,-78.125000
9579,-78.125000
9580,-78.125000
9581,-82.031250
9582,-82.031250
9583,-82.031250
9584,-82.031250
9585,-82.031250
9586,-82.031250
9587,-82.031250
9588,-82.031250
9589,-85.937500
9590,-85.937500
9591,-85.937500
9592,-85.937500
9593,-89.843750
9594,-89.843750
9595,-89.843750
9596,-89.843750
9597,-89.843750
9598,-93.750000
9599,-89.843750
9600,-93.750000
9601,-93.750000
9602,-93.750000
9603,-93.750000
9604,-93.750000
9605,-93.750000
9606,-97.656250
9607,-97.656250
9608,-97.656250
9609,-97.656250
9610,-97.656250
9611,-97.656250
9612,-97.656250
9613,-101.562500
9614,-101.562500
9615,-101.562500
9616,-101.562500
9617,-101.562500
9618,-101.562500
9619,-105.468750
9620,-101.562500
9621,-105.468750
9622,-105.468750
9623,-105.468750
9624,-105.468750
9625,-105.468750
9626,-105.468750
9627,-109.375000
9628,-109.375000
9629,-109.375000
9630,-109.375000
9631,-109.375000
9632,-109.375000
9633,-109.375000
9634,-109.375000
9635,-109.375000
9636,-109.375000
9637,-113.281250
9638,-113.281250
9639,-113.281250
9640,-113.281250
9641,-113.281250
9642,-113.281250
9643,-113.281250
9644,-113.281250
9645,-113.281250
9646,-113.281250
9647,-117.187500
9648,-117.187500
9649,-117.187500
9650,-117.187500
9651,-117.187500
9652,-117.187500
9653,-117.187500
9654,-117.187500
9655,-121.093750
9656,-117.187500
9657,-121.093750
9658,-117.187500
9659,-121.093750
9660,-121.093750
9661,-121.093750
9662,-121.093750
9663,-121.093750
9664,-121.093750
9665,-121.093750
9666,-121.093750
9667,-121.093750
9668,-121.093750
9669,-125.000000
9670,-125.000000
9671,-125.000000
9672,-125.000000
9673,-125.000000
9674,-125.000000
9675,-125.000000
9676,-125.000000
9677,-125.000000
9678,-125.000000
9679,-125.000000
9680,-125.000000
9681,-125.000000
9682,-125.000000
9683,-128.906250
9684,-125.000000
9685,-125.000000
9686,-125.000000
9687,-128.906250
9688,-125.000000
9689,-132.812500
9690,-128.906250
9691,-128.906250
9692,-128.906250
9693,-128.906250
9694,-128.906250
9695,-128.906250
9696,-128.906250
9697,-128.906250
9698,-128.906250
9699,-128.906250
9700,-128.906250
9701,-128.906250
9702,-128.906250
9703,-128.906250
9704,-128.906250
9705,-128.906250
9706,-128.906250
9707,-132.812500
9708,-132.812500
9709,-128.906250
9710,-132.812500
9711,-132.812500
9712,-132.812500
9713,-128.906250
9714,-128.906250
9715,-132.812500
9716,-132.812500
9717,-132.812500
9718,-132.812500
9719,-128.906250
9720,-132.812500
9721,-132.812500
9722,-132.812500
9723,-132.812500
9724,-132.812500
9725,-132.812500
9726,-132.812500
9727,-132.812500
9728,-132.812500
9729,-132.812500
9730,-132.812500
9731,-132.812500
9732,-132.812500
9733,-132.812500
9734,-132.812500
9735,-132.812500
9736,-132.812500
9737,-132.812500
9738,-132.812500
9739,-132.812500
9740,-132.812500
9741,-132.812500
9742,-132.812500
9743,-128.906250
9744,-128.906250
9745,-128.906250
9746,-132.812500
9747,-128.906250
9748,-128.906250
9749,-128.906250
9750,-128.906250
9751,-128.906250
9752,-132.812500
9753,-128.906250
9754,-128.906250
9755,-125.000000
9756,-128.906250
9757,-128.906250
9758,-128.906250
9759,-128.906250
9760,-128.906250
9761,-128.906250
9762,-128.906250
9763,-128.906250
9764,-128.906250
9765,-128.906250
9766,-128.906250
9767,-128.906250
9768,-128.906250
9769,-128.906250
9770,-128.906250
9771,-128.906250
9772,-125.000000
9773,-125.000000
9774,-125.000000
9775,-125.000000
9776,-125.000000
9777,-125.000000
9778,-125.000000
9779,-125.000000
9780,-125.000000
9781,-125.000000
9782,-125.000000
9783,-125.000000
9784,-121.093750
9785,-121.093750
9786,-121.093750
9787,-121.093750
9788,-121.093750
9789,-121.093750
9790,-121.093750
9791,-121.093750
9792,-121.093750
9793,-121.093750
9794,-121.093750
9795,-121.093750
9796,-121.093750
9797,-117.187500
9798,-117.187500
9799,-117.187500
9800,-117.187500
9801,-117.187500
9802,-117.187500
9803,-117.187500
9804,-117.187500
9805,-117.187500
9806,-117.187500
9807,-117.187500
9808,-113.281250
9809,-113.281250
9810,-113.281250
9811,-113.281250
9812,-113.281250
9813,-113.281250
9814,-113.281250
9815,-113.281250
9816,-113.281250
9817,-109.375000
9818,-109.375000
9819,-109.375000
9820,-109.375000
9821,-109.375000
9822,-109.375000
9823,-109.375000
9824,-105.468750
9825,-105.468750
9826,-105.468750
9827,-105.468750
9828,-105.468750
9829,-105.468750
9830,-105.468750
9831,-105.468750
9832,-101.562500
9833,-101.562500
9834,-101.562500
9835,-101.562500
9836,-101.562500
9837,-101.562500
9838,-97.656250
9839,-101.562500
9840,-97.656250
9841,-97.656250
9842,-97.656250
9843,-97.656250
9844,-97.656250
9845,-97.656250
9846,-97.656250
9847,-93.750000
9848,-93.750000
9849,-93.750000
9850,-93.750000
9851,-93.750000
9852,-93.750000
9853,-89.843750
9854,-89.843750
9855,-89.843750
9856,-89.843750
9857,-89.843750
9858,-89.843750
9859,-89.843750
9860,-85.937500
9861,-85.937500
9862,-85.937500
9863,-85.937500
9864,-85.937500
9865,-85.937500
9866,-85.937500
9867,-85.937500
9868,-82.031250
9869,-82.031250
9870,-82.031250
9871,-82.031250
9872,-78.125000
9873,-78.125000
9874,-78.125000
9875,-78.125000
9876,-78.125000
9877,-78.125000
9878,-78.125000
9879,-78.125000
9880,-74.218750
9881,-74.218750
9882,-74.218750
9883,-74.218750
9884,-70.312500
9885,-70.312500
9886,-70.312500
9887,-70.312500
9888,-70.312500
9889,-70.312500
9890,-70.312500
9891,-66.406250
9892,-66.406250
9893,-66.406250
9894,-66.406250
9895,-66.406250
9896,-66.406250
9897,-62.500000
9898,-62.500000
9899,-62.500000
9900,-62.500000
9901,-62.500000
9902,-58.593750
9903,-58.593750
9904,-58.593750
9905,-58.593750
9906,-58.593750
9907,-54.687500
9908,-54.687500
9909,-54.687500
9910,-54.687500
9911,-54.687500
9912,-54.687500
9913,-54.687500
9914,-50.781250
9915,-50.781250
9916,-50.781250
9917,-46.875000
9918,-46.875000
9919,-46.875000
9920,-46.875000
9921,-46.875000
9922,-46.875000
9923,-42.968750
9924,-46.875000
9925,-42.968750
9926,-42.968750
9927,-42.968750
9928,-39.062500
9929,-39.062500
9930,-39.062500
9931,-39.062500
9932,-39.062500
9933,-39.062500
9934,-35.156250
9935,-35.156250
9936,-35.156250
9937,-35.156250
9938,-31.250000
9939,-31.250000
9940,-31.250000
9941,-31.250000
9942,-31.250000
9943,-31.250000
9944,-31.250000
9945,-27.343750
9946,-27.343750
9947,-27.343750
9948,-27.343750
9949,-23.437500
9950,-23.437500
9951,-23.437500
9952,-23.437500
9953,-23.437500
9954,-23.437500
9955,-19.531250
9956,-19.531250
9957,-19.531250
9958,-19.531250
9959,-15.625000
9960,-15.625000
9961,-15.625000
9962,-15.625000
9963,-15.625000
9964,-15.625000
9965,-11.718750
9966,-11.718750
9967,-11.718750
9968,-11.718750
9969,-11.718750
9970,-7.812500
9971,-7.812500
9972,-7.812500
9973,-7.812500
9974,-7.812500
9975,-3.906250
9976,-3.906250
9977,-3.906250
9978,-3.906250
9979,-3.906250
9980,0.000000
9981,0.000000
9982,0.000000
9983,0.000000
9984,0.000000
9985,0.000000
9986,0.000000
9987,3.906250
9988,3.906250
9989,3.906250
9990,3.906250
9991,7.812500
9992,7.812500
9993,7.812500
9994,7.812500
9995,7.812500
9996,7.812500
9997,7.812500
9998,11.718750
9999,11.718750
10000,11.718750
