Channel              :,CH1
Frequency            :,1.012kHz
Period               :,0.989ms
PK-PK                :,343.8mV
Probe attenuation    :,1X
Voltage per ADC value:,0.244141mV
Time interval        :,1.00000us

index,CH1_Voltage(mV)
1,-82.031250
2,-82.031250
3,-78.125000
4,-78.125000
5,-78.125000
6,-78.125000
7,-78.125000
8,-74.218750
9,-74.218750
10,-70.312500
11,-70.312500
12,-70.312500
13,-66.406250
14,-66.406250
15,-66.406250
16,-66.406250
17,-62.500000
18,-62.500000
19,-62.500000
20,-58.593750
21,-58.593750
22,-58.593750
23,-58.593750
24,-58.593750
25,-54.687500
26,-54.687500
27,-54.687500
28,-50.781250
29,-50.781250
30,-50.781250
31,-46.875000
32,-46.875000
33,-46.875000
34,-46.875000
35,-42.968750
36,-42.968750
37,-42.968750
38,-39.062500
39,-39.062500
40,-39.062500
41,-39.062500
42,-35.156250
43,-35.156250
44,-35.156250
45,-31.250000
46,-31.250000
47,-31.250000
48,-27.343750
49,-27.343750
50,-27.343750
51,-27.343750
52,-23.437500
53,-23.437500
54,-23.437500
55,-19.531250
56,-19.531250
57,-19.531250
58,-19.531250
59,-15.625000
60,-15.625000
61,-15.625000
62,-15.625000
63,-11.718750
64,-11.718750
65,-11.718750
66,-7.812500
67,-7.812500
68,-7.812500
69,-7.812500
70,-3.906250
71,-3.906250
72,-3.906250
73,0.000000
74,0.000000
75,0.000000
76,3.906250
77,3.906250
78,3.906250
79,3.906250
80,3.906250
81,7.812500
82,7.812500
83,7.812500
84,11.718750
85,11.718750
86,11.718750
87,15.625000
88,15.625000
89,15.625000
90,15.625000
91,19.531250
92,19.531250
93,19.531250
94,23.437500
95,23.437500
96,23.437500
97,23.437500
98,27.343750
99,27.343750
100,27.343750
101,27.343750
102,31.250000
103,31.250000
104,31.250000
105,31.250000
106,35.156250
107,35.156250
108,35.156250
109,39.062500
110,39.062500
111,39.062500
112,39.062500
113,39.062500
114,42.968750
115,42.968750
116,42.968750
117,46.875000
118,46.875000
119,46.875000
120,46.875000
121,46.875000
122,50.781250
123,50.781250
124,50.781250
125,50.781250
126,54.687500
127,54.687500
128,54.687500
129,54.687500
130,54.687500
131,58.593750
132,58.593750
133,58.593750
134,62.500000
135,62.500000
136,62.500000
137,62.500000
138,62.500000
139,66.406250
140,66.406250
141,66.406250
142,66.406250
143,70.312500
144,70.312500
145,70.312500
146,70.312500
147,74.218750
148,74.218750
149,74.218750
150,74.218750
151,74.218750
152,78.125000
153,78.125000
154,78.125000
155,78.125000
156,78.125000
157,82.031250
158,82.031250
159,82.031250
160,82.031250
161,82.031250
162,85.937500
163,85.937500
164,85.937500
165,85.937500
166,85.937500
167,89.843750
168,89.843750
169,89.843750
170,89.843750
171,89.843750
172,93.750000
173,93.750000
174,93.750000
175,93.750000
176,93.750000
177,93.750000
178,97.656250
179,97.656250
180,97.656250
181,97.656250
182,97.656250
183,101.562500
184,101.562500
185,101.562500
186,101.562500
187,101.562500
188,101.562500
189,105.468750
190,105.468750
191,105.468750
192,105.468750
193,105.468750
194,109.375000
195,109.375000
196,109.375000
197,109.375000
198,109.375000
199,109.375000
200,109.375000
201,113.281250
202,113.281250
203,113.281250
204,113.281250
205,113.281250
206,113.281250
207,113.281250
208,113.281250
209,117.187500
210,117.187500
211,117.187500
212,117.187500
213,117.187500
214,117.187500
215,121.093750
216,121.093750
217,121.093750
218,121.093750
219,121.093750
220,121.093750
221,121.093750
222,125.000000
223,125.000000
224,125.000000
225,125.000000
226,125.000000
227,125.000000
228,125.000000
229,125.000000
230,128.906250
231,128.906250
232,125.000000
233,128.906250
234,128.906250
235,128.906250
236,128.906250
237,132.812500
238,128.906250
239,132.812500
240,128.906250
241,132.812500
242,128.906250
243,132.812500
244,132.812500
245,132.812500
246,132.812500
247,132.812500
248,132.812500
249,132.812500
250,132.812500
251,132.812500
252,136.718750
253,136.718750
254,136.718750
255,136.718750
256,136.718750
257,136.718750
258,136.718750
259,136.718750
260,136.718750
261,136.718750
262,136.718750
263,136.718750
264,140.625000
265,140.625000
266,140.625000
267,140.625000
268,140.625000
269,140.625000
270,140.625000
271,140.625000
272,140.625000
273,140.625000
274,140.625000
275,144.531250
276,140.625000
277,140.625000
278,140.625000
279,140.625000
280,140.625000
281,140.625000
282,144.531250
283,140.625000
284,144.531250
285,144.531250
286,144.531250
287,144.531250
288,144.531250
289,144.531250
290,144.531250
291,144.531250
292,144.531250
293,144.531250
294,144.531250
295,144.531250
296,144.531250
297,144.531250
298,144.531250
299,144.531250
300,144.531250
301,144.531250
302,144.531250
303,144.531250
304,144.531250
305,144.531250
306,144.531250
307,144.531250
308,144.531250
309,144.531250
310,144.531250
311,144.531250
312,144.531250
313,144.531250
314,144.531250
315,144.531250
316,144.531250
317,144.531250
318,148.437500
319,144.531250
320,144.531250
321,144.531250
322,144.531250
323,144.531250
324,144.531250
325,144.531250
326,144.531250
327,148.437500
328,144.531250
329,144.531250
330,144.531250
331,144.531250
332,144.531250
333,144.531250
334,144.531250
335,144.531250
336,144.531250
337,144.531250
338,144.531250
339,144.531250
340,144.531250
341,144.531250
342,144.531250
343,144.531250
344,144.531250
345,144.531250
346,144.531250
347,144.531250
348,144.531250
349,144.531250
350,144.531250
351,144.531250
352,140.625000
353,140.625000
354,140.625000
355,144.531250
356,140.625000
357,140.625000
358,140.625000
359,140.625000
360,140.625000
361,140.625000
362,140.625000
363,140.625000
364,140.625000
365,140.625000
366,140.625000
367,140.625000
368,140.625000
369,140.625000
370,140.625000
371,136.718750
372,136.718750
373,136.718750
374,136.718750
375,136.718750
376,136.718750
377,136.718750
378,136.718750
379,136.718750
380,136.718750
381,136.718750
382,136.718750
383,132.812500
384,136.718750
385,132.812500
386,132.812500
387,132.812500
388,132.812500
389,132.812500
390,132.812500
391,132.812500
392,132.812500
393,132.812500
394,132.812500
395,132.812500
396,128.906250
397,128.906250
398,128.906250
399,128.906250
400,128.906250
401,128.906250
402,125.000000
403,128.906250
404,128.906250
405,128.906250
406,125.000000
407,125.000000
408,125.000000
409,125.000000
410,125.000000
411,125.000000
412,121.093750
413,121.093750
414,121.093750
415,121.093750
416,121.093750
417,121.093750
418,121.093750
419,117.187500
420,117.187500
421,117.187500
422,117.187500
423,117.187500
424,117.187500
425,117.187500
426,117.187500
427,113.281250
428,113.281250
429,113.281250
430,113.281250
431,113.281250
432,113.281250
433,109.375000
434,109.375000
435,109.375000
436,109.375000
437,109.375000
438,109.375000
439,109.375000
440,105.468750
441,105.468750
442,105.468750
443,105.468750
444,105.468750
445,105.468750
446,105.468750
447,101.562500
448,101.562500
449,101.562500
450,101.562500
451,101.562500
452,97.656250
453,101.562500
454,97.656250
455,97.656250
456,97.656250
457,97.656250
458,93.750000
459,93.750000
460,93.750000
461,93.750000
462,93.750000
463,93.750000
464,89.843750
465,89.843750
466,89.843750
467,89.843750
468,89.843750
469,85.937500
470,85.937500
471,85.937500
472,85.937500
473,82.031250
474,82.031250
475,82.031250
476,82.031250
477,82.031250
478,78.125000
479,78.125000
480,78.125000
481,78.125000
482,78.125000
483,78.125000
484,74.218750
485,74.218750
486,74.218750
487,70.312500
488,70.312500
489,70.312500
490,70.312500
491,70.312500
492,66.406250
493,66.406250
494,66.406250
495,66.406250
496,66.406250
497,62.500000
498,62.500000
499,62.500000
500,58.593750
501,62.500000
502,58.593750
503,58.593750
504,58.593750
505,54.687500
506,54.687500
507,54.687500
508,54.687500
509,50.781250
510,50.781250
511,50.781250
512,50.781250
513,46.875000
514,46.875000
515,46.875000
516,46.875000
517,42.968750
518,42.968750
519,42.968750
520,42.968750
521,39.062500
522,39.062500
523,39.062500
524,35.156250
525,35.156250
526,35.156250
527,35.156250
528,31.250000
529,31.250000
530,31.250000
531,31.250000
532,27.343750
533,27.343750
534,27.343750
535,27.343750
536,23.437500
537,23.437500
538,23.437500
539,23.437500
540,19.531250
541,19.531250
542,19.531250
543,19.531250
544,15.625000
545,15.625000
546,15.625000
547,11.718750
548,11.718750
549,11.718750
550,11.718750
551,7.812500
552,7.812500
553,7.812500
554,7.812500
555,3.906250
556,3.906250
557,3.906250
558,0.000000
559,0.000000
560,0.000000
561,0.000000
562,-3.906250
563,-3.906250
564,-3.906250
565,-3.906250
566,-7.812500
567,-7.812500
568,-11.718750
569,-11.718750
570,-11.718750
571,-11.718750
572,-15.625000
573,-15.625000
574,-15.625000
575,-15.625000
576,-19.531250
577,-19.531250
578,-19.531250
579,-23.437500
580,-23.437500
581,-23.437500
582,-23.437500
583,-27.343750
584,-27.343750
585,-27.343750
586,-31.250000
587,-31.250000
588,-31.250000
589,-31.250000
590,-35.156250
591,-35.156250
592,-35.156250
593,-35.156250
594,-39.062500
595,-39.062500
596,-39.062500
597,-42.968750
598,-42.968750
599,-42.968750
600,-46.875000
601,-46.875000
602,-46.875000
603,-46.875000
604,-50.781250
605,-50.781250
606,-50.781250
607,-54.687500
608,-54.687500
609,-54.687500
610,-54.687500
611,-58.593750
612,-58.593750
613,-58.593750
614,-62.500000
615,-62.500000
616,-62.500000
617,-62.500000
618,-66.406250
619,-66.406250
620,-66.406250
621,-70.312500
622,-70.312500
623,-70.312500
624,-70.312500
625,-74.218750
626,-74.218750
627,-74.218750
628,-78.125000
629,-78.125000
630,-78.125000
631,-78.125000
632,-82.031250
633,-82.031250
634,-82.031250
635,-82.031250
636,-85.937500
637,-85.937500
638,-85.937500
639,-89.843750
640,-89.843750
641,-89.843750
642,-89.843750
643,-93.750000
644,-93.750000
645,-93.750000
646,-97.656250
647,-97.656250
648,-97.656250
649,-97.656250
650,-97.656250
651,-101.562500
652,-101.562500
653,-101.562500
654,-105.468750
655,-105.468750
656,-105.468750
657,-105.468750
658,-109.375000
659,-109.375000
660,-109.375000
661,-109.375000
662,-113.281250
663,-113.281250
664,-113.281250
665,-117.187500
666,-117.187500
667,-117.187500
668,-117.187500
669,-117.187500
670,-121.093750
671,-121.093750
672,-121.093750
673,-121.093750
674,-125.000000
675,-125.000000
676,-125.000000
677,-125.000000
678,-128.906250
679,-128.906250
680,-132.812500
681,-128.906250
682,-128.906250
683,-132.812500
684,-132.812500
685,-132.812500
686,-132.812500
687,-136.718750
688,-136.718750
689,-136.718750
690,-136.718750
691,-140.625000
692,-140.625000
693,-140.625000
694,-140.625000
695,-144.531250
696,-144.531250
697,-144.531250
698,-144.531250
699,-144.531250
700,-144.531250
701,-148.437500
702,-148.437500
703,-148.437500
704,-148.437500
705,-148.437500
706,-152.343750
707,-152.343750
708,-152.343750
709,-152.343750
710,-152.343750
711,-156.250000
712,-156.250000
713,-156.250000
714,-156.250000
715,-156.250000
716,-160.156250
717,-160.156250
718,-160.156250
719,-160.156250
720,-160.156250
721,-160.156250
722,-164.062500
723,-164.062500
724,-164.062500
725,-164.062500
726,-164.062500
727,-164.062500
728,-164.062500
729,-167.968750
730,-167.968750
731,-167.968750
732,-167.968750
733,-167.968750
734,-171.875000
735,-171.875000
736,-171.875000
737,-171.875000
738,-171.875000
739,-171.875000
740,-171.875000
741,-171.875000
742,-175.781250
743,-175.781250
744,-175.781250
745,-175.781250
746,-175.781250
747,-175.781250
748,-175.781250
749,-179.687500
750,-179.687500
751,-179.687500
752,-179.687500
753,-179.687500
754,-179.687500
755,-179.687500
756,-179.687500
757,-179.687500
758,-179.687500
759,-183.593750
760,-183.593750
761,-183.593750
762,-183.593750
763,-183.593750
764,-183.593750
765,-183.593750
766,-183.593750
767,-183.593750
768,-183.593750
769,-183.593750
770,-187.500000
771,-187.500000
772,-187.500000
773,-187.500000
774,-187.500000
775,-187.500000
776,-187.500000
777,-187.500000
778,-187.500000
779,-191.406250
780,-191.406250
781,-187.500000
782,-187.500000
783,-191.406250
784,-191.406250
785,-191.406250
786,-191.406250
787,-191.406250
788,-191.406250
789,-191.406250
790,-191.406250
791,-191.406250
792,-191.406250
793,-191.406250
794,-191.406250
795,-191.406250
796,-195.312500
797,-191.406250
798,-191.406250
799,-191.406250
800,-191.406250
801,-191.406250
802,-195.312500
803,-195.312500
804,-195.312500
805,-195.312500
806,-195.312500
807,-191.406250
808,-195.312500
809,-195.312500
810,-195.312500
811,-191.406250
812,-195.312500
813,-191.406250
814,-191.406250
815,-191.406250
816,-195.312500
817,-191.406250
818,-195.312500
819,-195.312500
820,-195.312500
821,-195.312500
822,-191.406250
823,-191.406250
824,-191.406250
825,-191.406250
826,-191.406250
827,-191.406250
828,-191.406250
829,-191.406250
830,-191.406250
831,-191.406250
832,-191.406250
833,-191.406250
834,-191.406250
835,-191.406250
836,-191.406250
837,-191.406250
838,-191.406250
839,-191.406250
840,-191.406250
841,-191.406250
842,-191.406250
843,-187.500000
844,-187.500000
845,-187.500000
846,-187.500000
847,-187.500000
848,-187.500000
849,-187.500000
850,-187.500000
851,-187.500000
852,-187.500000
853,-187.500000
854,-187.500000
855,-187.500000
856,-187.500000
857,-187.500000
858,-187.500000
859,-183.593750
860,-183.593750
861,-183.593750
862,-183.593750
863,-183.593750
864,-183.593750
865,-183.593750
866,-183.593750
867,-183.593750
868,-179.687500
869,-179.687500
870,-179.687500
871,-179.687500
872,-179.687500
873,-179.687500
874,-179.687500
875,-179.687500
876,-179.687500
877,-175.781250
878,-175.781250
879,-175.781250
880,-175.781250
881,-175.781250
882,-175.781250
883,-171.875000
884,-171.875000
885,-171.875000
886,-171.875000
887,-171.875000
888,-171.875000
889,-171.875000
890,-171.875000
891,-167.968750
892,-167.968750
893,-167.968750
894,-167.968750
895,-167.968750
896,-164.062500
897,-167.968750
898,-164.062500
899,-164.062500
900,-164.062500
901,-164.062500
902,-160.156250
903,-160.156250
904,-160.156250
905,-160.156250
906,-160.156250
907,-160.156250
908,-156.250000
909,-156.250000
910,-156.250000
911,-156.250000
912,-156.250000
913,-152.343750
914,-152.343750
915,-152.343750
916,-152.343750
917,-152.343750
918,-152.343750
919,-148.437500
920,-148.437500
921,-148.437500
922,-148.437500
923,-148.437500
924,-144.531250
925,-144.531250
926,-144.531250
927,-144.531250
928,-140.625000
929,-140.625000
930,-140.625000
931,-140.625000
932,-140.625000
933,-136.718750
934,-136.718750
935,-136.718750
936,-136.718750
937,-136.718750
938,-132.812500
939,-132.812500
940,-132.812500
941,-132.812500
942,-132.812500
943,-128.906250
944,-128.906250
945,-128.906250
946,-125.000000
947,-125.000000
948,-125.000000
949,-125.000000
950,-125.000000
951,-121.093750
952,-121.093750
953,-121.093750
954,-117.187500
955,-117.187500
956,-117.187500
957,-117.187500
958,-117.187500
959,-113.281250
960,-113.281250
961,-113.281250
962,-113.281250
963,-109.375000
964,-109.375000
965,-109.375000
966,-105.468750
967,-105.468750
968,-105.468750
969,-105.468750
970,-101.562500
971,-101.562500
972,-101.562500
973,-101.562500
974,-97.656250
975,-97.656250
976,-97.656250
977,-97.656250
978,-93.750000
979,-93.750000
980,-93.750000
981,-93.750000
982,-89.843750
983,-89.843750
984,-89.843750
985,-85.937500
986,-85.937500
987,-85.937500
988,-85.937500
989,-82.031250
990,-82.031250
991,-82.031250
992,-82.031250
993,-78.125000
994,-78.125000
995,-78.125000
996,-78.125000
997,-74.218750
998,-74.218750
999,-70.312500
1000,-70.312500
1001,-70.312500
1002,-70.312500
1003,-70.312500
1004,-66.406250
1005,-66.406250
1006,-66.406250
1007,-62.500000
1008,-62.500000
1009,-62.500000
1010,-58.593750
1011,-58.593750
1012,-58.593750
1013,-58.593750
1014,-54.687500
1015,-54.687500
1016,-54.687500
1017,-50.781250
1018,-50.781250
1019,-50.781250
1020,-50.781250
1021,-46.875000
1022,-46.875000
1023,-46.875000
1024,-42.968750
1025,-42.968750
1026,-42.968750
1027,-42.968750
1028,-39.062500
1029,-39.062500
1030,-39.062500
1031,-35.156250
1032,-35.156250
1033,-35.156250
1034,-35.156250
1035,-31.250000
1036,-31.250000
1037,-31.250000
1038,-31.250000
1039,-27.343750
1040,-27.343750
1041,-27.343750
1042,-23.437500
1043,-23.437500
1044,-23.437500
1045,-19.531250
1046,-19.531250
1047,-19.531250
1048,-19.531250
1049,-15.625000
1050,-15.625000
1051,-15.625000
1052,-15.625000
1053,-11.718750
1054,-11.718750
1055,-11.718750
1056,-7.812500
1057,-7.812500
1058,-7.812500
1059,-7.812500
1060,-3.906250
1061,-3.906250
1062,-3.906250
1063,0.000000
1064,0.000000
1065,0.000000
1066,0.000000
1067,3.906250
1068,3.906250
1069,3.906250
1070,7.812500
1071,7.812500
1072,7.812500
1073,7.812500
1074,11.718750
1075,11.718750
1076,11.718750
1077,15.625000
1078,15.625000
1079,15.625000
1080,19.531250
1081,19.531250
1082,19.531250
1083,19.531250
1084,19.531250
1085,23.437500
1086,23.437500
1087,23.437500
1088,27.343750
1089,27.343750
1090,27.343750
1091,27.343750
1092,27.343750
1093,31.250000
1094,31.250000
1095,31.250000
1096,31.250000
1097,35.156250
1098,35.156250
1099,39.062500
1100,39.062500
1101,39.062500
1102,39.062500
1103,39.062500
1104,42.968750
1105,42.968750
1106,42.968750
1107,46.875000
1108,46.875000
1109,46.875000
1110,46.875000
1111,46.875000
1112,50.781250
1113,50.781250
1114,50.781250
1115,54.687500
1116,54.687500
1117,54.687500
1118,54.687500
1119,54.687500
1120,58.593750
1121,58.593750
1122,58.593750
1123,58.593750
1124,58.593750
1125,62.500000
1126,62.500000
1127,62.500000
1128,66.406250
1129,66.406250
1130,66.406250
1131,66.406250
1132,66.406250
1133,70.312500
1134,70.312500
1135,70.312500
1136,70.312500
1137,70.312500
1138,74.218750
1139,74.218750
1140,74.218750
1141,74.218750
1142,74.218750
1143,78.125000
1144,78.125000
1145,82.031250
1146,78.125000
1147,82.031250
1148,82.031250
1149,82.031250
1150,82.031250
1151,82.031250
1152,85.937500
1153,85.937500
1154,85.937500
1155,85.937500
1156,85.937500
1157,89.843750
1158,89.843750
1159,89.843750
1160,89.843750
1161,93.750000
1162,93.750000
1163,93.750000
1164,93.750000
1165,93.750000
1166,93.750000
1167,93.750000
1168,93.750000
1169,97.656250
1170,97.656250
1171,97.656250
1172,97.656250
1173,101.562500
1174,101.562500
1175,101.562500
1176,101.562500
1177,101.562500
1178,105.468750
1179,105.468750
1180,105.468750
1181,105.468750
1182,105.468750
1183,105.468750
1184,109.375000
1185,105.468750
1186,109.375000
1187,109.375000
1188,109.375000
1189,109.375000
1190,113.281250
1191,113.281250
1192,113.281250
1193,113.281250
1194,113.281250
1195,113.281250
1196,113.281250
1197,113.281250
1198,113.281250
1199,117.187500
1200,117.187500
1201,117.187500
1202,117.187500
1203,117.187500
1204,117.187500
1205,121.093750
1206,121.093750
1207,121.093750
1208,121.093750
1209,121.093750
1210,121.093750
1211,121.093750
1212,125.000000
1213,125.000000
1214,125.000000
1215,125.000000
1216,125.000000
1217,125.000000
1218,125.000000
1219,125.000000
1220,125.000000
1221,128.906250
1222,128.906250
1223,128.906250
1224,128.906250
1225,128.906250
1226,128.906250
1227,128.906250
1228,128.906250
1229,132.812500
1230,128.906250
1231,132.812500
1232,132.812500
1233,132.812500
1234,132.812500
1235,132.812500
1236,132.812500
1237,132.812500
1238,132.812500
1239,132.812500
1240,136.718750
1241,136.718750
1242,136.718750
1243,136.718750
1244,136.718750
1245,136.718750
1246,136.718750
1247,136.718750
1248,136.718750
1249,136.718750
1250,136.718750
1251,140.625000
1252,136.718750
1253,136.718750
1254,140.625000
1255,140.625000
1256,140.625000
1257,140.625000
1258,140.625000
1259,140.625000
1260,140.625000
1261,140.625000
1262,140.625000
1263,140.625000
1264,140.625000
1265,140.625000
1266,140.625000
1267,140.625000
1268,140.625000
1269,140.625000
1270,140.625000
1271,144.531250
1272,144.531250
1273,144.531250
1274,144.531250
1275,144.531250
1276,144.531250
1277,144.531250
1278,144.531250
1279,144.531250
1280,144.531250
1281,144.531250
1282,144.531250
1283,144.531250
1284,144.531250
1285,144.531250
1286,144.531250
1287,144.531250
1288,144.531250
1289,144.531250
1290,144.531250
1291,144.531250
1292,144.531250
1293,144.531250
1294,148.437500
1295,144.531250
1296,144.531250
1297,144.531250
1298,144.531250
1299,144.531250
1300,144.531250
1301,144.531250
1302,144.531250
1303,144.531250
1304,144.531250
1305,144.531250
1306,144.531250
1307,144.531250
1308,144.531250
1309,144.531250
1310,144.531250
1311,144.531250
1312,144.531250
1313,144.531250
1314,144.531250
1315,144.531250
1316,144.531250
1317,144.531250
1318,144.531250
1319,144.531250
1320,144.531250
1321,144.531250
1322,144.531250
1323,144.531250
1324,144.531250
1325,144.531250
1326,144.531250
1327,144.531250
1328,144.531250
1329,144.531250
1330,144.531250
1331,144.531250
1332,144.531250
1333,144.531250
1334,144.531250
1335,144.531250
1336,144.531250
1337,144.531250
1338,144.531250
1339,144.531250
1340,140.625000
1341,144.531250
1342,140.625000
1343,144.531250
1344,140.625000
1345,144.531250
1346,140.625000
1347,140.625000
1348,140.625000
1349,140.625000
1350,140.625000
1351,140.625000
1352,140.625000
1353,140.625000
1354,140.625000
1355,140.625000
1356,140.625000
1357,140.625000
1358,140.625000
1359,140.625000
1360,136.718750
1361,136.718750
1362,136.718750
1363,136.718750
1364,136.718750
1365,136.718750
1366,136.718750
1367,136.718750
1368,136.718750
1369,136.718750
1370,136.718750
1371,136.718750
1372,136.718750
1373,136.718750
1374,136.718750
1375,136.718750
1376,132.812500
1377,132.812500
1378,132.812500
1379,132.812500
1380,132.812500
1381,132.812500
1382,132.812500
1383,132.812500
1384,128.906250
1385,132.812500
1386,128.906250
1387,132.812500
1388,128.906250
1389,128.906250
1390,128.906250
1391,128.906250
1392,128.906250
1393,128.906250
1394,125.000000
1395,125.000000
1396,125.000000
1397,125.000000
1398,125.000000
1399,125.000000
1400,125.000000
1401,125.000000
1402,125.000000
1403,121.093750
1404,121.093750
1405,121.093750
1406,121.093750
1407,121.093750
1408,121.093750
1409,121.093750
1410,121.093750
1411,121.093750
1412,117.187500
1413,117.187500
1414,117.187500
1415,113.281250
1416,113.281250
1417,117.187500
1418,113.281250
1419,113.281250
1420,113.281250
1421,113.281250
1422,113.281250
1423,109.375000
1424,109.375000
1425,109.375000
1426,109.375000
1427,109.375000
1428,109.375000
1429,109.375000
1430,105.468750
1431,105.468750
1432,105.468750
1433,105.468750
1434,105.468750
1435,105.468750
1436,101.562500
1437,101.562500
1438,101.562500
1439,101.562500
1440,101.562500
1441,101.562500
1442,97.656250
1443,97.656250
1444,97.656250
1445,97.656250
1446,93.750000
1447,93.750000
1448,93.750000
1449,93.750000
1450,93.750000
1451,93.750000
1452,93.750000
1453,89.843750
1454,89.843750
1455,89.843750
1456,89.843750
1457,89.843750
1458,85.937500
1459,85.937500
1460,85.937500
1461,85.937500
1462,82.031250
1463,82.031250
1464,82.031250
1465,82.031250
1466,82.031250
1467,78.125000
1468,78.125000
1469,78.125000
1470,78.125000
1471,78.125000
1472,78.125000
1473,74.218750
1474,74.218750
1475,74.218750
1476,70.312500
1477,70.312500
1478,70.312500
1479,70.312500
1480,70.312500
1481,70.312500
1482,66.406250
1483,66.406250
1484,66.406250
1485,62.500000
1486,62.500000
1487,62.500000
1488,62.500000
1489,62.500000
1490,58.593750
1491,58.593750
1492,58.593750
1493,58.593750
1494,54.687500
1495,54.687500
1496,54.687500
1497,54.687500
1498,50.781250
1499,50.781250
1500,50.781250
1501,50.781250
1502,46.875000
1503,46.875000
1504,46.875000
1505,46.875000
1506,46.875000
1507,42.968750
1508,42.968750
1509,42.968750
1510,42.968750
1511,39.062500
1512,39.062500
1513,39.062500
1514,39.062500
1515,35.156250
1516,35.156250
1517,35.156250
1518,31.250000
1519,31.250000
1520,31.250000
1521,31.250000
1522,27.343750
1523,27.343750
1524,27.343750
1525,27.343750
1526,23.437500
1527,23.437500
1528,23.437500
1529,19.531250
1530,19.531250
1531,19.531250
1532,19.531250
1533,19.531250
1534,15.625000
1535,15.625000
1536,15.625000
1537,11.718750
1538,11.718750
1539,11.718750
1540,11.718750
1541,7.812500
1542,7.812500
1543,7.812500
1544,3.906250
1545,3.906250
1546,3.906250
1547,3.906250
1548,0.000000
1549,0.000000
1550,0.000000
1551,0.000000
1552,-3.906250
1553,-3.906250
1554,-7.812500
1555,-7.812500
1556,-7.812500
1557,-7.812500
1558,-7.812500
1559,-11.718750
1560,-11.718750
1561,-11.718750
1562,-15.625000
1563,-15.625000
1564,-15.625000
1565,-19.531250
1566,-19.531250
1567,-19.531250
1568,-23.437500
1569,-23.437500
1570,-23.437500
1571,-23.437500
1572,-27.343750
1573,-27.343750
1574,-27.343750
1575,-27.343750
1576,-27.343750
1577,-31.250000
1578,-31.250000
1579,-35.156250
1580,-35.156250
1581,-35.156250
1582,-39.062500
1583,-39.062500
1584,-39.062500
1585,-39.062500
1586,-42.968750
1587,-42.968750
1588,-42.968750
1589,-42.968750
1590,-46.875000
1591,-46.875000
1592,-46.875000
1593,-46.875000
1594,-50.781250
1595,-50.781250
1596,-50.781250
1597,-54.687500
1598,-54.687500
1599,-54.687500
1600,-54.687500
1601,-58.593750
1602,-58.593750
1603,-58.593750
1604,-62.500000
1605,-62.500000
1606,-62.500000
1607,-66.406250
1608,-66.406250
1609,-66.406250
1610,-66.406250
1611,-70.312500
1612,-70.312500
1613,-70.312500
1614,-70.312500
1615,-74.218750
1616,-74.218750
1617,-74.218750
1618,-78.125000
1619,-78.125000
1620,-78.125000
1621,-78.125000
1622,-82.031250
1623,-82.031250
1624,-82.031250
1625,-82.031250
1626,-85.937500
1627,-85.937500
1628,-89.843750
1629,-89.843750
1630,-89.843750
1631,-89.843750
1632,-89.843750
1633,-93.750000
1634,-93.750000
1635,-93.750000
1636,-93.750000
1637,-97.656250
1638,-97.656250
1639,-97.656250
1640,-97.656250
1641,-101.562500
1642,-101.562500
1643,-101.562500
1644,-105.468750
1645,-105.468750
1646,-105.468750
1647,-105.468750
1648,-109.375000
1649,-109.375000
1650,-109.375000
1651,-109.375000
1652,-113.281250
1653,-113.281250
1654,-113.281250
1655,-117.187500
1656,-117.187500
1657,-117.187500
1658,-117.187500
1659,-117.187500
1660,-121.093750
1661,-121.093750
1662,-121.093750
1663,-121.093750
1664,-125.000000
1665,-125.000000
1666,-125.000000
1667,-125.000000
1668,-128.906250
1669,-128.906250
1670,-128.906250
1671,-128.906250
1672,-128.906250
1673,-132.812500
1674,-132.812500
1675,-132.812500
1676,-132.812500
1677,-136.718750
1678,-136.718750
1679,-136.718750
1680,-136.718750
1681,-136.718750
1682,-140.625000
1683,-140.625000
1684,-140.625000
1685,-140.625000
1686,-144.531250
1687,-144.531250
1688,-144.531250
1689,-144.531250
1690,-144.531250
1691,-144.531250
1692,-148.437500
1693,-148.437500
1694,-148.437500
1695,-152.343750
1696,-152.343750
1697,-152.343750
1698,-152.343750
1699,-152.343750
1700,-152.343750
1701,-152.343750
1702,-156.250000
1703,-156.250000
1704,-156.250000
1705,-156.250000
1706,-160.156250
1707,-160.156250
1708,-160.156250
1709,-160.156250
1710,-160.156250
1711,-160.156250
1712,-164.062500
1713,-164.062500
1714,-164.062500
1715,-164.062500
1716,-164.062500
1717,-164.062500
1718,-167.968750
1719,-167.968750
1720,-167.968750
1721,-167.968750
1722,-167.968750
1723,-167.968750
1724,-171.875000
1725,-171.875000
1726,-171.875000
1727,-171.875000
1728,-171.875000
1729,-171.875000
1730,-171.875000
1731,-175.781250
1732,-175.781250
1733,-175.781250
1734,-175.781250
1735,-175.781250
1736,-175.781250
1737,-175.781250
1738,-175.781250
1739,-179.687500
1740,-179.687500
1741,-179.687500
1742,-179.687500
1743,-179.687500
1744,-179.687500
1745,-179.687500
1746,-179.687500
1747,-183.593750
1748,-183.593750
1749,-183.593750
1750,-183.593750
1751,-183.593750
1752,-183.593750
1753,-183.593750
1754,-183.593750
1755,-183.593750
1756,-183.593750
1757,-187.500000
1758,-187.500000
1759,-187.500000
1760,-187.500000
1761,-187.500000
1762,-187.500000
1763,-187.500000
1764,-187.500000
1765,-187.500000
1766,-187.500000
1767,-187.500000
1768,-187.500000
1769,-187.500000
1770,-191.406250
1771,-187.500000
1772,-191.406250
1773,-191.406250
1774,-191.406250
1775,-191.406250
1776,-191.406250
1777,-191.406250
1778,-191.406250
1779,-191.406250
1780,-191.406250
1781,-191.406250
1782,-191.406250
1783,-191.406250
1784,-191.406250
1785,-191.406250
1786,-191.406250
1787,-195.312500
1788,-191.406250
1789,-191.406250
1790,-191.406250
1791,-191.406250
1792,-191.406250
1793,-191.406250
1794,-191.406250
1795,-191.406250
1796,-195.312500
1797,-195.312500
1798,-191.406250
1799,-191.406250
1800,-195.312500
1801,-191.406250
1802,-191.406250
1803,-191.406250
1804,-195.312500
1805,-195.312500
1806,-191.406250
1807,-191.406250
1808,-195.312500
1809,-195.312500
1810,-191.406250
1811,-195.312500
1812,-191.406250
1813,-191.406250
1814,-191.406250
1815,-191.406250
1816,-191.406250
1817,-191.406250
1818,-191.406250
1819,-191.406250
1820,-191.406250
1821,-191.406250
1822,-191.406250
1823,-191.406250
1824,-191.406250
1825,-191.406250
1826,-191.406250
1827,-191.406250
1828,-191.406250
1829,-191.406250
1830,-191.406250
1831,-187.500000
1832,-191.406250
1833,-187.500000
1834,-187.500000
1835,-187.500000
1836,-187.500000
1837,-187.500000
1838,-187.500000
1839,-187.500000
1840,-187.500000
1841,-187.500000
1842,-187.500000
1843,-187.500000
1844,-187.500000
1845,-187.500000
1846,-187.500000
1847,-187.500000
1848,-183.593750
1849,-183.593750
1850,-183.593750
1851,-183.593750
1852,-183.593750
1853,-183.593750
1854,-183.593750
1855,-183.593750
1856,-183.593750
1857,-183.593750
1858,-179.687500
1859,-179.687500
1860,-179.687500
1861,-179.687500
1862,-179.687500
1863,-179.687500
1864,-179.687500
1865,-179.687500
1866,-179.687500
1867,-175.781250
1868,-175.781250
1869,-175.781250
1870,-175.781250
1871,-175.781250
1872,-175.781250
1873,-171.875000
1874,-171.875000
1875,-171.875000
1876,-171.875000
1877,-171.875000
1878,-171.875000
1879,-171.875000
1880,-167.968750
1881,-167.968750
1882,-167.968750
1883,-167.968750
1884,-167.968750
1885,-167.968750
1886,-164.062500
1887,-164.062500
1888,-164.062500
1889,-164.062500
1890,-164.062500
1891,-164.062500
1892,-160.156250
1893,-160.156250
1894,-160.156250
1895,-160.156250
1896,-160.156250
1897,-160.156250
1898,-156.250000
1899,-156.250000
1900,-156.250000
1901,-156.250000
1902,-156.250000
1903,-152.343750
1904,-152.343750
1905,-152.343750
1906,-152.343750
1907,-152.343750
1908,-152.343750
1909,-148.437500
1910,-148.437500
1911,-148.437500
1912,-148.437500
1913,-144.531250
1914,-144.531250
1915,-144.531250
1916,-144.531250
1917,-144.531250
1918,-140.625000
1919,-140.625000
1920,-140.625000
1921,-140.625000
1922,-136.718750
1923,-136.718750
1924,-136.718750
1925,-136.718750
1926,-136.718750
1927,-132.812500
1928,-132.812500
1929,-132.812500
1930,-132.812500
1931,-128.906250
1932,-128.906250
1933,-128.906250
1934,-128.906250
1935,-125.000000
1936,-125.000000
1937,-125.000000
1938,-125.000000
1939,-125.000000
1940,-121.093750
1941,-121.093750
1942,-121.093750
1943,-117.187500
1944,-121.093750
1945,-117.187500
1946,-117.187500
1947,-117.187500
1948,-117.187500
1949,-113.281250
1950,-113.281250
1951,-109.375000
1952,-109.375000
1953,-109.375000
1954,-109.375000
1955,-109.375000
1956,-109.375000
1957,-105.468750
1958,-105.468750
1959,-101.562500
1960,-101.562500
1961,-101.562500
1962,-101.562500
1963,-101.562500
1964,-101.562500
1965,-97.656250
1966,-97.656250
1967,-93.750000
1968,-93.750000
1969,-93.750000
1970,-93.750000
1971,-93.750000
1972,-89.843750
1973,-89.843750
1974,-89.843750
1975,-85.937500
1976,-85.937500
1977,-85.937500
1978,-85.937500
1979,-82.031250
1980,-82.031250
1981,-82.031250
1982,-78.125000
1983,-78.125000
1984,-78.125000
1985,-78.125000
1986,-74.218750
1987,-74.218750
1988,-74.218750
1989,-74.218750
1990,-70.312500
1991,-70.312500
1992,-70.312500
1993,-66.406250
1994,-66.406250
1995,-66.406250
1996,-66.406250
1997,-62.500000
1998,-62.500000
1999,-62.500000
2000,-58.593750
2001,-58.593750
2002,-58.593750
2003,-54.687500
2004,-54.687500
2005,-54.687500
2006,-54.687500
2007,-50.781250
2008,-50.781250
2009,-50.781250
2010,-50.781250
2011,-46.875000
2012,-46.875000
2013,-46.875000
2014,-42.968750
2015,-42.968750
2016,-42.968750
2017,-39.062500
2018,-39.062500
2019,-39.062500
2020,-39.062500
2021,-35.156250
2022,-35.156250
2023,-35.156250
2024,-35.156250
2025,-31.250000
2026,-31.250000
2027,-31.250000
2028,-27.343750
2029,-27.343750
2030,-27.343750
2031,-27.343750
2032,-23.437500
2033,-23.437500
2034,-23.437500
2035,-19.531250
2036,-19.531250
2037,-19.531250
2038,-15.625000
2039,-15.625000
2040,-15.625000
2041,-15.625000
2042,-11.718750
2043,-11.718750
2044,-11.718750
2045,-7.812500
2046,-7.812500
2047,-7.812500
2048,-7.812500
2049,-3.906250
2050,-3.906250
2051,-3.906250
2052,0.000000
2053,0.000000
2054,0.000000
2055,3.906250
2056,3.906250
2057,3.906250
2058,3.906250
2059,3.906250
2060,7.812500
2061,7.812500
2062,7.812500
2063,11.718750
2064,11.718750
2065,11.718750
2066,11.718750
2067,15.625000
2068,15.625000
2069,15.625000
2070,19.531250
2071,19.531250
2072,19.531250
2073,23.437500
2074,23.437500
2075,23.437500
2076,23.437500
2077,23.437500
2078,27.343750
2079,27.343750
2080,27.343750
2081,31.250000
2082,31.250000
2083,31.250000
2084,31.250000
2085,35.156250
2086,35.156250
2087,35.156250
2088,35.156250
2089,39.062500
2090,39.062500
2091,39.062500
2092,39.062500
2093,42.968750
2094,42.968750
2095,42.968750
2096,42.968750
2097,42.968750
2098,46.875000
2099,46.875000
2100,46.875000
2101,50.781250
2102,50.781250
2103,50.781250
2104,50.781250
2105,50.781250
2106,50.781250
2107,54.687500
2108,54.687500
2109,58.593750
2110,58.593750
2111,58.593750
2112,58.593750
2113,58.593750
2114,62.500000
2115,62.500000
2116,62.500000
2117,62.500000
2118,62.500000
2119,66.406250
2120,66.406250
2121,66.406250
2122,66.406250
2123,70.312500
2124,70.312500
2125,70.312500
2126,70.312500
2127,70.312500
2128,74.218750
2129,74.218750
2130,74.218750
2131,74.218750
2132,78.125000
2133,74.218750
2134,78.125000
2135,78.125000
2136,82.031250
2137,82.031250
2138,82.031250
2139,82.031250
2140,82.031250
2141,85.937500
2142,85.937500
2143,85.937500
2144,85.937500
2145,85.937500
2146,89.843750
2147,89.843750
2148,89.843750
2149,89.843750
2150,89.843750
2151,93.750000
2152,93.750000
2153,93.750000
2154,93.750000
2155,93.750000
2156,93.750000
2157,97.656250
2158,97.656250
2159,97.656250
2160,97.656250
2161,101.562500
2162,101.562500
2163,101.562500
2164,101.562500
2165,101.562500
2166,101.562500
2167,105.468750
2168,105.468750
2169,105.468750
2170,105.468750
2171,105.468750
2172,105.468750
2173,105.468750
2174,109.375000
2175,109.375000
2176,109.375000
2177,109.375000
2178,109.375000
2179,109.375000
2180,109.375000
2181,113.281250
2182,113.281250
2183,113.281250
2184,113.281250
2185,117.187500
2186,113.281250
2187,117.187500
2188,117.187500
2189,117.187500
2190,117.187500
2191,117.187500
2192,117.187500
2193,117.187500
2194,121.093750
2195,121.093750
2196,121.093750
2197,121.093750
2198,121.093750
2199,121.093750
2200,121.093750
2201,125.000000
2202,125.000000
2203,125.000000
2204,125.000000
2205,125.000000
2206,125.000000
2207,125.000000
2208,125.000000
2209,125.000000
2210,125.000000
2211,128.906250
2212,128.906250
2213,128.906250
2214,128.906250
2215,128.906250
2216,128.906250
2217,128.906250
2218,128.906250
2219,128.906250
2220,132.812500
2221,132.812500
2222,132.812500
2223,132.812500
2224,132.812500
2225,132.812500
2226,132.812500
2227,132.812500
2228,132.812500
2229,132.812500
2230,132.812500
2231,136.718750
2232,136.718750
2233,136.718750
2234,136.718750
2235,136.718750
2236,136.718750
2237,136.718750
2238,136.718750
2239,136.718750
2240,136.718750
2241,136.718750
2242,136.718750
2243,140.625000
2244,140.625000
2245,140.625000
2246,140.625000
2247,140.625000
2248,140.625000
2249,140.625000
2250,140.625000
2251,140.625000
2252,140.625000
2253,140.625000
2254,140.625000
2255,140.625000
2256,140.625000
2257,140.625000
2258,140.625000
2259,140.625000
2260,140.625000
2261,144.531250
2262,144.531250
2263,144.531250
2264,144.531250
2265,144.531250
2266,144.531250
2267,144.531250
2268,144.531250
2269,144.531250
2270,144.531250
2271,144.531250
2272,144.531250
2273,144.531250
2274,144.531250
2275,144.531250
2276,144.531250
2277,144.531250
2278,144.531250
2279,144.531250
2280,144.531250
2281,144.531250
2282,144.531250
2283,144.531250
2284,144.531250
2285,144.531250
2286,144.531250
2287,144.531250
2288,144.531250
2289,144.531250
2290,144.531250
2291,144.531250
2292,144.531250
2293,148.437500
2294,144.531250
2295,148.437500
2296,144.531250
2297,144.531250
2298,144.531250
2299,144.531250
2300,144.531250
2301,144.531250
2302,144.531250
2303,148.437500
2304,148.437500
2305,144.531250
2306,144.531250
2307,144.531250
2308,144.531250
2309,144.531250
2310,144.531250
2311,144.531250
2312,144.531250
2313,144.531250
2314,148.437500
2315,144.531250
2316,144.531250
2317,144.531250
2318,144.531250
2319,144.531250
2320,144.531250
2321,144.531250
2322,144.531250
2323,144.531250
2324,144.531250
2325,144.531250
2326,144.531250
2327,144.531250
2328,144.531250
2329,144.531250
2330,144.531250
2331,144.531250
2332,144.531250
2333,144.531250
2334,140.625000
2335,144.531250
2336,140.625000
2337,140.625000
2338,140.625000
2339,140.625000
2340,140.625000
2341,140.625000
2342,140.625000
2343,140.625000
2344,140.625000
2345,140.625000
2346,140.625000
2347,140.625000
2348,140.625000
2349,136.718750
2350,136.718750
2351,140.625000
2352,136.718750
2353,136.718750
2354,136.718750
2355,136.718750
2356,136.718750
2357,136.718750
2358,136.718750
2359,136.718750
2360,136.718750
2361,136.718750
2362,136.718750
2363,136.718750
2364,132.812500
2365,132.812500
2366,132.812500
2367,132.812500
2368,132.812500
2369,132.812500
2370,132.812500
2371,132.812500
2372,132.812500
2373,132.812500
2374,128.906250
2375,128.906250
2376,128.906250
2377,128.906250
2378,128.906250
2379,128.906250
2380,128.906250
2381,128.906250
2382,128.906250
2383,128.906250
2384,128.906250
2385,125.000000
2386,125.000000
2387,125.000000
2388,125.000000
2389,125.000000
2390,125.000000
2391,125.000000
2392,125.000000
2393,121.093750
2394,121.093750
2395,121.093750
2396,121.093750
2397,121.093750
2398,117.187500
2399,117.187500
2400,117.187500
2401,117.187500
2402,117.187500
2403,117.187500
2404,117.187500
2405,117.187500
2406,113.281250
2407,113.281250
2408,113.281250
2409,113.281250
2410,113.281250
2411,113.281250
2412,113.281250
2413,113.281250
2414,109.375000
2415,109.375000
2416,109.375000
2417,109.375000
2418,109.375000
2419,109.375000
2420,109.375000
2421,105.468750
2422,105.468750
2423,105.468750
2424,105.468750
2425,105.468750
2426,101.562500
2427,101.562500
2428,101.562500
2429,101.562500
2430,101.562500
2431,101.562500
2432,97.656250
2433,97.656250
2434,97.656250
2435,97.656250
2436,97.656250
2437,93.750000
2438,93.750000
2439,93.750000
2440,93.750000
2441,93.750000
2442,93.750000
2443,89.843750
2444,89.843750
2445,89.843750
2446,89.843750
2447,89.843750
2448,85.937500
2449,85.937500
2450,85.937500
2451,82.031250
2452,82.031250
2453,82.031250
2454,82.031250
2455,82.031250
2456,82.031250
2457,82.031250
2458,78.125000
2459,78.125000
2460,78.125000
2461,78.125000
2462,74.218750
2463,74.218750
2464,74.218750
2465,74.218750
2466,70.312500
2467,70.312500
2468,70.312500
2469,70.312500
2470,70.312500
2471,66.406250
2472,66.406250
2473,66.406250
2474,66.406250
2475,66.406250
2476,62.500000
2477,62.500000
2478,62.500000
2479,62.500000
2480,58.593750
2481,58.593750
2482,58.593750
2483,58.593750
2484,58.593750
2485,54.687500
2486,54.687500
2487,54.687500
2488,50.781250
2489,50.781250
2490,50.781250
2491,50.781250
2492,46.875000
2493,46.875000
2494,46.875000
2495,46.875000
2496,42.968750
2497,42.968750
2498,42.968750
2499,42.968750
2500,39.062500
2501,39.062500
2502,39.062500
2503,39.062500
2504,35.156250
2505,35.156250
2506,35.156250
2507,35.156250
2508,31.250000
2509,31.250000
2510,31.250000
2511,31.250000
2512,27.343750
2513,27.343750
2514,27.343750
2515,23.437500
2516,23.437500
2517,23.437500
2518,23.437500
2519,19.531250
2520,19.531250
2521,19.531250
2522,19.531250
2523,15.625000
2524,15.625000
2525,15.625000
2526,11.718750
2527,11.718750
2528,11.718750
2529,11.718750
2530,7.812500
2531,7.812500
2532,7.812500
2533,7.812500
2534,3.906250
2535,3.906250
2536,3.906250
2537,3.906250
2538,0.000000
2539,0.000000
2540,0.000000
2541,-3.906250
2542,-3.906250
2543,-3.906250
2544,-3.906250
2545,-7.812500
2546,-7.812500
2547,-7.812500
2548,-11.718750
2549,-11.718750
2550,-11.718750
2551,-11.718750
2552,-15.625000
2553,-15.625000
2554,-15.625000
2555,-19.531250
2556,-19.531250
2557,-19.531250
2558,-23.437500
2559,-23.437500
2560,-23.437500
2561,-23.437500
2562,-27.343750
2563,-27.343750
2564,-27.343750
2565,-31.250000
2566,-31.250000
2567,-31.250000
2568,-31.250000
2569,-35.156250
2570,-35.156250
2571,-35.156250
2572,-39.062500
2573,-39.062500
2574,-39.062500
2575,-39.062500
2576,-42.968750
2577,-42.968750
2578,-42.968750
2579,-42.968750
2580,-46.875000
2581,-46.875000
2582,-46.875000
2583,-50.781250
2584,-50.781250
2585,-50.781250
2586,-50.781250
2587,-54.687500
2588,-54.687500
2589,-58.593750
2590,-58.593750
2591,-58.593750
2592,-58.593750
2593,-62.500000
2594,-62.500000
2595,-62.500000
2596,-62.500000
2597,-66.406250
2598,-66.406250
2599,-66.406250
2600,-70.312500
2601,-70.312500
2602,-70.312500
2603,-70.312500
2604,-74.218750
2605,-74.218750
2606,-74.218750
2607,-74.218750
2608,-78.125000
2609,-78.125000
2610,-82.031250
2611,-82.031250
2612,-82.031250
2613,-82.031250
2614,-85.937500
2615,-85.937500
2616,-85.937500
2617,-85.937500
2618,-85.937500
2619,-89.843750
2620,-89.843750
2621,-89.843750
2622,-93.750000
2623,-93.750000
2624,-93.750000
2625,-93.750000
2626,-97.656250
2627,-97.656250
2628,-101.562500
2629,-101.562500
2630,-101.562500
2631,-101.562500
2632,-101.562500
2633,-101.562500
2634,-105.468750
2635,-105.468750
2636,-105.468750
2637,-105.468750
2638,-109.375000
2639,-109.375000
2640,-109.375000
2641,-113.281250
2642,-113.281250
2643,-113.281250
2644,-113.281250
2645,-117.187500
2646,-117.187500
2647,-117.187500
2648,-121.093750
2649,-121.093750
2650,-121.093750
2651,-121.093750
2652,-121.093750
2653,-121.093750
2654,-125.000000
2655,-125.000000
2656,-125.000000
2657,-125.000000
2658,-128.906250
2659,-128.906250
2660,-128.906250
2661,-132.812500
2662,-132.812500
2663,-132.812500
2664,-132.812500
2665,-132.812500
2666,-132.812500
2667,-136.718750
2668,-136.718750
2669,-136.718750
2670,-140.625000
2671,-140.625000
2672,-140.625000
2673,-140.625000
2674,-140.625000
2675,-144.531250
2676,-144.531250
2677,-144.531250
2678,-144.531250
2679,-144.531250
2680,-148.437500
2681,-148.437500
2682,-148.437500
2683,-148.437500
2684,-148.437500
2685,-152.343750
2686,-152.343750
2687,-152.343750
2688,-152.343750
2689,-152.343750
2690,-156.250000
2691,-156.250000
2692,-156.250000
2693,-156.250000
2694,-156.250000
2695,-156.250000
2696,-160.156250
2697,-160.156250
2698,-160.156250
2699,-160.156250
2700,-160.156250
2701,-160.156250
2702,-164.062500
2703,-164.062500
2704,-164.062500
2705,-164.062500
2706,-164.062500
2707,-167.968750
2708,-167.968750
2709,-167.968750
2710,-167.968750
2711,-167.968750
2712,-167.968750
2713,-167.968750
2714,-171.875000
2715,-171.875000
2716,-171.875000
2717,-171.875000
2718,-171.875000
2719,-171.875000
2720,-171.875000
2721,-175.781250
2722,-175.781250
2723,-175.781250
2724,-175.781250
2725,-175.781250
2726,-175.781250
2727,-179.687500
2728,-179.687500
2729,-179.687500
2730,-179.687500
2731,-179.687500
2732,-179.687500
2733,-179.687500
2734,-179.687500
2735,-179.687500
2736,-183.593750
2737,-183.593750
2738,-183.593750
2739,-183.593750
2740,-183.593750
2741,-183.593750
2742,-183.593750
2743,-183.593750
2744,-183.593750
2745,-187.500000
2746,-187.500000
2747,-187.500000
2748,-187.500000
2749,-187.500000
2750,-187.500000
2751,-187.500000
2752,-187.500000
2753,-187.500000
2754,-187.500000
2755,-187.500000
2756,-187.500000
2757,-191.406250
2758,-187.500000
2759,-187.500000
2760,-187.500000
2761,-187.500000
2762,-191.406250
2763,-191.406250
2764,-191.406250
2765,-191.406250
2766,-191.406250
2767,-191.406250
2768,-191.406250
2769,-191.406250
2770,-191.406250
2771,-191.406250
2772,-191.406250
2773,-191.406250
2774,-191.406250
2775,-191.406250
2776,-191.406250
2777,-191.406250
2778,-191.406250
2779,-191.406250
2780,-195.312500
2781,-191.406250
2782,-191.406250
2783,-191.406250
2784,-191.406250
2785,-191.406250
2786,-191.406250
2787,-191.406250
2788,-195.312500
2789,-191.406250
2790,-195.312500
2791,-195.312500
2792,-195.312500
2793,-191.406250
2794,-191.406250
2795,-191.406250
2796,-191.406250
2797,-191.406250
2798,-195.312500
2799,-195.312500
2800,-195.312500
2801,-191.406250
2802,-191.406250
2803,-191.406250
2804,-191.406250
2805,-191.406250
2806,-191.406250
2807,-191.406250
2808,-191.406250
2809,-191.406250
2810,-191.406250
2811,-191.406250
2812,-191.406250
2813,-191.406250
2814,-191.406250
2815,-191.406250
2816,-191.406250
2817,-191.406250
2818,-191.406250
2819,-191.406250
2820,-191.406250
2821,-191.406250
2822,-191.406250
2823,-187.500000
2824,-191.406250
2825,-191.406250
2826,-191.406250
2827,-187.500000
2828,-187.500000
2829,-187.500000
2830,-187.500000
2831,-187.500000
2832,-187.500000
2833,-187.500000
2834,-187.500000
2835,-187.500000
2836,-187.500000
2837,-183.593750
2838,-183.593750
2839,-183.593750
2840,-183.593750
2841,-183.593750
2842,-183.593750
2843,-183.593750
2844,-183.593750
2845,-183.593750
2846,-179.687500
2847,-179.687500
2848,-179.687500
2849,-179.687500
2850,-179.687500
2851,-179.687500
2852,-179.687500
2853,-179.687500
2854,-179.687500
2855,-175.781250
2856,-175.781250
2857,-175.781250
2858,-175.781250
2859,-175.781250
2860,-175.781250
2861,-175.781250
2862,-175.781250
2863,-171.875000
2864,-171.875000
2865,-171.875000
2866,-171.875000
2867,-171.875000
2868,-171.875000
2869,-167.968750
2870,-171.875000
2871,-167.968750
2872,-167.968750
2873,-167.968750
2874,-167.968750
2875,-164.062500
2876,-164.062500
2877,-164.062500
2878,-164.062500
2879,-164.062500
2880,-164.062500
2881,-164.062500
2882,-160.156250
2883,-160.156250
2884,-160.156250
2885,-160.156250
2886,-160.156250
2887,-156.250000
2888,-156.250000
2889,-156.250000
2890,-156.250000
2891,-156.250000
2892,-156.250000
2893,-152.343750
2894,-152.343750
2895,-152.343750
2896,-152.343750
2897,-152.343750
2898,-148.437500
2899,-148.437500
2900,-148.437500
2901,-148.437500
2902,-148.437500
2903,-144.531250
2904,-144.531250
2905,-144.531250
2906,-144.531250
2907,-140.625000
2908,-140.625000
2909,-140.625000
2910,-140.625000
2911,-140.625000
2912,-140.625000
2913,-136.718750
2914,-136.718750
2915,-136.718750
2916,-136.718750
2917,-132.812500
2918,-132.812500
2919,-132.812500
2920,-132.812500
2921,-128.906250
2922,-128.906250
2923,-128.906250
2924,-128.906250
2925,-125.000000
2926,-125.000000
2927,-125.000000
2928,-125.000000
2929,-121.093750
2930,-121.093750
2931,-121.093750
2932,-121.093750
2933,-121.093750
2934,-117.187500
2935,-117.187500
2936,-117.187500
2937,-117.187500
2938,-113.281250
2939,-113.281250
2940,-113.281250
2941,-109.375000
2942,-109.375000
2943,-109.375000
2944,-109.375000
2945,-109.375000
2946,-105.468750
2947,-105.468750
2948,-105.468750
2949,-105.468750
2950,-101.562500
2951,-101.562500
2952,-101.562500
2953,-97.656250
2954,-97.656250
2955,-97.656250
2956,-97.656250
2957,-93.750000
2958,-93.750000
2959,-93.750000
2960,-93.750000
2961,-89.843750
2962,-89.843750
2963,-89.843750
2964,-85.937500
2965,-85.937500
2966,-85.937500
2967,-85.937500
2968,-82.031250
2969,-82.031250
2970,-82.031250
2971,-82.031250
2972,-78.125000
2973,-78.125000
2974,-78.125000
2975,-78.125000
2976,-74.218750
2977,-74.218750
2978,-74.218750
2979,-70.312500
2980,-70.312500
2981,-70.312500
2982,-66.406250
2983,-66.406250
2984,-66.406250
2985,-66.406250
2986,-62.500000
2987,-62.500000
2988,-62.500000
2989,-58.593750
2990,-58.593750
2991,-58.593750
2992,-58.593750
2993,-54.687500
2994,-54.687500
2995,-54.687500
2996,-54.687500
2997,-50.781250
2998,-50.781250
2999,-50.781250
3000,-46.875000
3001,-46.875000
3002,-46.875000
3003,-46.875000
3004,-42.968750
3005,-42.968750
3006,-39.062500
3007,-39.062500
3008,-39.062500
3009,-39.062500
3010,-39.062500
3011,-35.156250
3012,-35.156250
3013,-35.156250
3014,-31.250000
3015,-31.250000
3016,-31.250000
3017,-31.250000
3018,-27.343750
3019,-27.343750
3020,-27.343750
3021,-23.437500
3022,-23.437500
3023,-23.437500
3024,-23.437500
3025,-19.531250
3026,-19.531250
3027,-19.531250
3028,-15.625000
3029,-15.625000
3030,-15.625000
3031,-11.718750
3032,-11.718750
3033,-11.718750
3034,-11.718750
3035,-11.718750
3036,-7.812500
3037,-7.812500
3038,-7.812500
3039,-3.906250
3040,-3.906250
3041,-3.906250
3042,0.000000
3043,0.000000
3044,0.000000
3045,0.000000
3046,3.906250
3047,3.906250
3048,7.812500
3049,7.812500
3050,7.812500
3051,7.812500
3052,7.812500
3053,11.718750
3054,11.718750
3055,11.718750
3056,15.625000
3057,15.625000
3058,15.625000
3059,19.531250
3060,19.531250
3061,19.531250
3062,19.531250
3063,19.531250
3064,23.437500
3065,23.437500
3066,23.437500
3067,27.343750
3068,27.343750
3069,27.343750
3070,27.343750
3071,31.250000
3072,31.250000
3073,31.250000
3074,31.250000
3075,35.156250
3076,35.156250
3077,35.156250
3078,35.156250
3079,39.062500
3080,39.062500
3081,39.062500
3082,39.062500
3083,42.968750
3084,42.968750
3085,42.968750
3086,46.875000
3087,46.875000
3088,46.875000
3089,46.875000
3090,46.875000
3091,50.781250
3092,50.781250
3093,50.781250
3094,50.781250
3095,54.687500
3096,54.687500
3097,54.687500
3098,54.687500
3099,58.593750
3100,58.593750
3101,58.593750
3102,58.593750
3103,62.500000
3104,62.500000
3105,62.500000
3106,62.500000
3107,62.500000
3108,66.406250
3109,66.406250
3110,66.406250
3111,66.406250
3112,70.312500
3113,70.312500
3114,70.312500
3115,70.312500
3116,70.312500
3117,74.218750
3118,74.218750
3119,74.218750
3120,74.218750
3121,78.125000
3122,78.125000
3123,78.125000
3124,78.125000
3125,78.125000
3126,82.031250
3127,82.031250
3128,82.031250
3129,82.031250
3130,82.031250
3131,85.937500
3132,85.937500
3133,85.937500
3134,85.937500
3135,85.937500
3136,89.843750
3137,89.843750
3138,89.843750
3139,89.843750
3140,89.843750
3141,93.750000
3142,93.750000
3143,93.750000
3144,93.750000
3145,93.750000
3146,97.656250
3147,97.656250
3148,97.656250
3149,97.656250
3150,97.656250
3151,97.656250
3152,97.656250
3153,101.562500
3154,101.562500
3155,101.562500
3156,101.562500
3157,105.468750
3158,105.468750
3159,105.468750
3160,105.468750
3161,105.468750
3162,105.468750
3163,109.375000
3164,109.375000
3165,109.375000
3166,109.375000
3167,109.375000
3168,109.375000
3169,109.375000
3170,109.375000
3171,113.281250
3172,113.281250
3173,113.281250
3174,113.281250
3175,113.281250
3176,117.187500
3177,117.187500
3178,117.187500
3179,117.187500
3180,117.187500
3181,117.187500
3182,117.187500
3183,117.187500
3184,117.187500
3185,121.093750
3186,121.093750
3187,121.093750
3188,121.093750
3189,121.093750
3190,121.093750
3191,121.093750
3192,121.093750
3193,125.000000
3194,125.000000
3195,125.000000
3196,125.000000
3197,125.000000
3198,125.000000
3199,128.906250
3200,128.906250
3201,128.906250
3202,128.906250
3203,128.906250
3204,128.906250
3205,128.906250
3206,128.906250
3207,132.812500
3208,128.906250
3209,132.812500
3210,132.812500
3211,132.812500
3212,132.812500
3213,132.812500
3214,132.812500
3215,132.812500
3216,132.812500
3217,132.812500
3218,136.718750
3219,136.718750
3220,132.812500
3221,136.718750
3222,136.718750
3223,136.718750
3224,136.718750
3225,136.718750
3226,136.718750
3227,136.718750
3228,136.718750
3229,136.718750
3230,136.718750
3231,140.625000
3232,140.625000
3233,140.625000
3234,140.625000
3235,140.625000
3236,140.625000
3237,140.625000
3238,140.625000
3239,140.625000
3240,140.625000
3241,140.625000
3242,140.625000
3243,140.625000
3244,140.625000
3245,140.625000
3246,140.625000
3247,140.625000
3248,140.625000
3249,144.531250
3250,140.625000
3251,144.531250
3252,144.531250
3253,144.531250
3254,144.531250
3255,144.531250
3256,144.531250
3257,144.531250
3258,144.531250
3259,144.531250
3260,144.531250
3261,144.531250
3262,144.531250
3263,144.531250
3264,144.531250
3265,144.531250
3266,144.531250
3267,144.531250
3268,144.531250
3269,144.531250
3270,144.531250
3271,144.531250
3272,144.531250
3273,144.531250
3274,144.531250
3275,144.531250
3276,144.531250
3277,144.531250
3278,144.531250
3279,144.531250
3280,144.531250
3281,144.531250
3282,144.531250
3283,144.531250
3284,144.531250
3285,144.531250
3286,144.531250
3287,144.531250
3288,144.531250
3289,144.531250
3290,144.531250
3291,144.531250
3292,144.531250
3293,144.531250
3294,144.531250
3295,144.531250
3296,144.531250
3297,144.531250
3298,144.531250
3299,144.531250
3300,144.531250
3301,144.531250
3302,144.531250
3303,144.531250
3304,144.531250
3305,144.531250
3306,144.531250
3307,140.625000
3308,144.531250
3309,144.531250
3310,144.531250
3311,144.531250
3312,144.531250
3313,144.531250
3314,144.531250
3315,144.531250
3316,144.531250
3317,144.531250
3318,144.531250
3319,144.531250
3320,144.531250
3321,144.531250
3322,140.625000
3323,140.625000
3324,140.625000
3325,140.625000
3326,140.625000
3327,144.531250
3328,140.625000
3329,144.531250
3330,140.625000
3331,140.625000
3332,140.625000
3333,140.625000
3334,140.625000
3335,140.625000
3336,140.625000
3337,140.625000
3338,140.625000
3339,140.625000
3340,140.625000
3341,140.625000
3342,140.625000
3343,140.625000
3344,140.625000
3345,136.718750
3346,136.718750
3347,136.718750
3348,136.718750
3349,136.718750
3350,136.718750
3351,136.718750
3352,136.718750
3353,136.718750
3354,132.812500
3355,132.812500
3356,132.812500
3357,132.812500
3358,132.812500
3359,132.812500
3360,132.812500
3361,132.812500
3362,132.812500
3363,132.812500
3364,132.812500
3365,132.812500
3366,128.906250
3367,128.906250
3368,128.906250
3369,128.906250
3370,128.906250
3371,128.906250
3372,125.000000
3373,128.906250
3374,125.000000
3375,125.000000
3376,125.000000
3377,125.000000
3378,125.000000
3379,125.000000
3380,125.000000
3381,121.093750
3382,121.093750
3383,121.093750
3384,121.093750
3385,121.093750
3386,121.093750
3387,121.093750
3388,121.093750
3389,117.187500
3390,117.187500
3391,117.187500
3392,117.187500
3393,117.187500
3394,117.187500
3395,117.187500
3396,117.187500
3397,113.281250
3398,113.281250
3399,113.281250
3400,113.281250
3401,113.281250
3402,109.375000
3403,109.375000
3404,109.375000
3405,109.375000
3406,109.375000
3407,109.375000
3408,109.375000
3409,109.375000
3410,105.468750
3411,109.375000
3412,105.468750
3413,105.468750
3414,105.468750
3415,101.562500
3416,101.562500
3417,101.562500
3418,101.562500
3419,101.562500
3420,101.562500
3421,97.656250
3422,97.656250
3423,97.656250
3424,97.656250
3425,93.750000
3426,93.750000
3427,93.750000
3428,93.750000
3429,93.750000
3430,93.750000
3431,93.750000
3432,89.843750
3433,89.843750
3434,89.843750
3435,89.843750
3436,85.937500
3437,85.937500
3438,85.937500
3439,85.937500
3440,85.937500
3441,85.937500
3442,82.031250
3443,85.937500
3444,82.031250
3445,82.031250
3446,82.031250
3447,78.125000
3448,78.125000
3449,78.125000
3450,78.125000
3451,78.125000
3452,74.218750
3453,74.218750
3454,74.218750
3455,74.218750
3456,70.312500
3457,70.312500
3458,70.312500
3459,70.312500
3460,70.312500
3461,66.406250
3462,66.406250
3463,66.406250
3464,62.500000
3465,62.500000
3466,62.500000
3467,62.500000
3468,62.500000
3469,62.500000
3470,58.593750
3471,58.593750
3472,58.593750
3473,54.687500
3474,54.687500
3475,54.687500
3476,54.687500
3477,54.687500
3478,50.781250
3479,50.781250
3480,50.781250
3481,50.781250
3482,46.875000
3483,46.875000
3484,46.875000
3485,46.875000
3486,42.968750
3487,42.968750
3488,42.968750
3489,42.968750
3490,39.062500
3491,39.062500
3492,39.062500
3493,39.062500
3494,35.156250
3495,35.156250
3496,35.156250
3497,35.156250
3498,31.250000
3499,31.250000
3500,31.250000
3501,31.250000
3502,27.343750
3503,27.343750
3504,27.343750
3505,23.437500
3506,23.437500
3507,23.437500
3508,23.437500
3509,19.531250
3510,19.531250
3511,19.531250
3512,19.531250
3513,15.625000
3514,15.625000
3515,15.625000
3516,11.718750
3517,11.718750
3518,11.718750
3519,11.718750
3520,7.812500
3521,7.812500
3522,7.812500
3523,3.906250
3524,3.906250
3525,3.906250
3526,3.906250
3527,0.000000
3528,0.000000
3529,0.000000
3530,-3.906250
3531,-3.906250
3532,-3.906250
3533,-3.906250
3534,-7.812500
3535,-7.812500
3536,-7.812500
3537,-11.718750
3538,-11.718750
3539,-11.718750
3540,-11.718750
3541,-15.625000
3542,-15.625000
3543,-15.625000
3544,-19.531250
3545,-19.531250
3546,-19.531250
3547,-19.531250
3548,-23.437500
3549,-23.437500
3550,-23.437500
3551,-23.437500
3552,-27.343750
3553,-27.343750
3554,-27.343750
3555,-31.250000
3556,-31.250000
3557,-31.250000
3558,-31.250000
3559,-35.156250
3560,-35.156250
3561,-35.156250
3562,-39.062500
3563,-39.062500
3564,-39.062500
3565,-42.968750
3566,-42.968750
3567,-42.968750
3568,-42.968750
3569,-46.875000
3570,-46.875000
3571,-46.875000
3572,-50.781250
3573,-50.781250
3574,-50.781250
3575,-50.781250
3576,-50.781250
3577,-54.687500
3578,-54.687500
3579,-54.687500
3580,-58.593750
3581,-58.593750
3582,-58.593750
3583,-62.500000
3584,-62.500000
3585,-62.500000
3586,-62.500000
3587,-66.406250
3588,-66.406250
3589,-66.406250
3590,-70.312500
3591,-70.312500
3592,-70.312500
3593,-70.312500
3594,-74.218750
3595,-74.218750
3596,-74.218750
3597,-78.125000
3598,-78.125000
3599,-78.125000
3600,-78.125000
3601,-82.031250
3602,-82.031250
3603,-82.031250
3604,-85.937500
3605,-85.937500
3606,-85.937500
3607,-85.937500
3608,-85.937500
3609,-89.843750
3610,-89.843750
3611,-93.750000
3612,-93.750000
3613,-93.750000
3614,-93.750000
3615,-97.656250
3616,-97.656250
3617,-97.656250
3618,-97.656250
3619,-97.656250
3620,-101.562500
3621,-101.562500
3622,-105.468750
3623,-105.468750
3624,-105.468750
3625,-105.468750
3626,-105.468750
3627,-109.375000
3628,-109.375000
3629,-109.375000
3630,-109.375000
3631,-109.375000
3632,-113.281250
3633,-113.281250
3634,-113.281250
3635,-117.187500
3636,-117.187500
3637,-117.187500
3638,-117.187500
3639,-121.093750
3640,-121.093750
3641,-121.093750
3642,-121.093750
3643,-125.000000
3644,-125.000000
3645,-125.000000
3646,-125.000000
3647,-128.906250
3648,-128.906250
3649,-128.906250
3650,-128.906250
3651,-132.812500
3652,-132.812500
3653,-132.812500
3654,-132.812500
3655,-136.718750
3656,-136.718750
3657,-136.718750
3658,-136.718750
3659,-136.718750
3660,-140.625000
3661,-140.625000
3662,-140.625000
3663,-140.625000
3664,-144.531250
3665,-144.531250
3666,-144.531250
3667,-144.531250
3668,-144.531250
3669,-144.531250
3670,-148.437500
3671,-148.437500
3672,-148.437500
3673,-148.437500
3674,-148.437500
3675,-152.343750
3676,-152.343750
3677,-152.343750
3678,-152.343750
3679,-152.343750
3680,-156.250000
3681,-156.250000
3682,-156.250000
3683,-156.250000
3684,-156.250000
3685,-160.156250
3686,-160.156250
3687,-160.156250
3688,-160.156250
3689,-160.156250
3690,-164.062500
3691,-164.062500
3692,-167.968750
3693,-164.062500
3694,-164.062500
3695,-164.062500
3696,-164.062500
3697,-167.968750
3698,-167.968750
3699,-167.968750
3700,-167.968750
3701,-167.968750
3702,-167.968750
3703,-171.875000
3704,-171.875000
3705,-171.875000
3706,-171.875000
3707,-171.875000
3708,-171.875000
3709,-175.781250
3710,-171.875000
3711,-175.781250
3712,-175.781250
3713,-175.781250
3714,-175.781250
3715,-175.781250
3716,-175.781250
3717,-175.781250
3718,-175.781250
3719,-179.687500
3720,-179.687500
3721,-179.687500
3722,-179.687500
3723,-179.687500
3724,-179.687500
3725,-179.687500
3726,-179.687500
3727,-179.687500
3728,-183.593750
3729,-183.593750
3730,-183.593750
3731,-183.593750
3732,-183.593750
3733,-183.593750
3734,-183.593750
3735,-183.593750
3736,-183.593750
3737,-187.500000
3738,-187.500000
3739,-187.500000
3740,-187.500000
3741,-187.500000
3742,-187.500000
3743,-187.500000
3744,-187.500000
3745,-187.500000
3746,-187.500000
3747,-187.500000
3748,-187.500000
3749,-187.500000
3750,-191.406250
3751,-191.406250
3752,-191.406250
3753,-191.406250
3754,-191.406250
3755,-191.406250
3756,-191.406250
3757,-191.406250
3758,-191.406250
3759,-191.406250
3760,-191.406250
3761,-191.406250
3762,-191.406250
3763,-191.406250
3764,-191.406250
3765,-191.406250
3766,-191.406250
3767,-191.406250
3768,-191.406250
3769,-195.312500
3770,-191.406250
3771,-191.406250
3772,-191.406250
3773,-191.406250
3774,-191.406250
3775,-195.312500
3776,-195.312500
3777,-191.406250
3778,-195.312500
3779,-191.406250
3780,-191.406250
3781,-195.312500
3782,-195.312500
3783,-195.312500
3784,-195.312500
3785,-195.312500
3786,-195.312500
3787,-191.406250
3788,-191.406250
3789,-191.406250
3790,-195.312500
3791,-191.406250
3792,-191.406250
3793,-191.406250
3794,-191.406250
3795,-191.406250
3796,-195.312500
3797,-191.406250
3798,-191.406250
3799,-191.406250
3800,-191.406250
3801,-191.406250
3802,-191.406250
3803,-191.406250
3804,-191.406250
3805,-191.406250
3806,-191.406250
3807,-191.406250
3808,-191.406250
3809,-191.406250
3810,-191.406250
3811,-191.406250
3812,-191.406250
3813,-187.500000
3814,-191.406250
3815,-187.500000
3816,-187.500000
3817,-187.500000
3818,-187.500000
3819,-187.500000
3820,-187.500000
3821,-187.500000
3822,-187.500000
3823,-187.500000
3824,-187.500000
3825,-187.500000
3826,-187.500000
3827,-183.593750
3828,-183.593750
3829,-183.593750
3830,-183.593750
3831,-183.593750
3832,-183.593750
3833,-183.593750
3834,-183.593750
3835,-179.687500
3836,-183.593750
3837,-183.593750
3838,-179.687500
3839,-179.687500
3840,-179.687500
3841,-179.687500
3842,-179.687500
3843,-179.687500
3844,-179.687500
3845,-175.781250
3846,-175.781250
3847,-175.781250
3848,-175.781250
3849,-175.781250
3850,-175.781250
3851,-175.781250
3852,-171.875000
3853,-171.875000
3854,-171.875000
3855,-171.875000
3856,-171.875000
3857,-171.875000
3858,-171.875000
3859,-171.875000
3860,-167.968750
3861,-167.968750
3862,-167.968750
3863,-167.968750
3864,-167.968750
3865,-164.062500
3866,-164.062500
3867,-164.062500
3868,-164.062500
3869,-164.062500
3870,-164.062500
3871,-160.156250
3872,-160.156250
3873,-160.156250
3874,-160.156250
3875,-160.156250
3876,-160.156250
3877,-156.250000
3878,-156.250000
3879,-156.250000
3880,-156.250000
3881,-156.250000
3882,-152.343750
3883,-152.343750
3884,-152.343750
3885,-152.343750
3886,-152.343750
3887,-148.437500
3888,-148.437500
3889,-148.437500
3890,-148.437500
3891,-148.437500
3892,-148.437500
3893,-144.531250
3894,-144.531250
3895,-144.531250
3896,-144.531250
3897,-140.625000
3898,-140.625000
3899,-140.625000
3900,-140.625000
3901,-140.625000
3902,-136.718750
3903,-136.718750
3904,-136.718750
3905,-136.718750
3906,-136.718750
3907,-132.812500
3908,-132.812500
3909,-132.812500
3910,-128.906250
3911,-128.906250
3912,-128.906250
3913,-128.906250
3914,-128.906250
3915,-125.000000
3916,-125.000000
3917,-125.000000
3918,-125.000000
3919,-121.093750
3920,-121.093750
3921,-121.093750
3922,-121.093750
3923,-117.187500
3924,-117.187500
3925,-117.187500
3926,-117.187500
3927,-113.281250
3928,-113.281250
3929,-113.281250
3930,-113.281250
3931,-113.281250
3932,-109.375000
3933,-109.375000
3934,-109.375000
3935,-105.468750
3936,-105.468750
3937,-105.468750
3938,-105.468750
3939,-101.562500
3940,-101.562500
3941,-101.562500
3942,-97.656250
3943,-97.656250
3944,-97.656250
3945,-97.656250
3946,-97.656250
3947,-93.750000
3948,-93.750000
3949,-93.750000
3950,-93.750000
3951,-89.843750
3952,-89.843750
3953,-89.843750
3954,-85.937500
3955,-85.937500
3956,-85.937500
3957,-85.937500
3958,-82.031250
3959,-82.031250
3960,-82.031250
3961,-78.125000
3962,-78.125000
3963,-78.125000
3964,-78.125000
3965,-74.218750
3966,-74.218750
3967,-74.218750
3968,-70.312500
3969,-70.312500
3970,-70.312500
3971,-70.312500
3972,-66.406250
3973,-66.406250
3974,-66.406250
3975,-66.406250
3976,-62.500000
3977,-62.500000
3978,-62.500000
3979,-58.593750
3980,-58.593750
3981,-58.593750
3982,-54.687500
3983,-54.687500
3984,-54.687500
3985,-54.687500
3986,-50.781250
3987,-50.781250
3988,-50.781250
3989,-46.875000
3990,-46.875000
3991,-46.875000
3992,-46.875000
3993,-42.968750
3994,-42.968750
3995,-42.968750
3996,-39.062500
3997,-35.156250
3998,-39.062500
3999,-39.062500
4000,-39.062500
4001,-35.156250
4002,-35.156250
4003,-31.250000
4004,-31.250000
4005,-31.250000
4006,-27.343750
4007,-27.343750
4008,-27.343750
4009,-27.343750
4010,-23.437500
4011,-23.437500
4012,-23.437500
4013,-23.437500
4014,-19.531250
4015,-19.531250
4016,-19.531250
4017,-15.625000
4018,-15.625000
4019,-15.625000
4020,-15.625000
4021,-11.718750
4022,-11.718750
4023,-11.718750
4024,-11.718750
4025,-7.812500
4026,-7.812500
4027,-7.812500
4028,-3.906250
4029,-3.906250
4030,-3.906250
4031,-3.906250
4032,0.000000
4033,0.000000
4034,0.000000
4035,3.906250
4036,3.906250
4037,3.906250
4038,3.906250
4039,7.812500
4040,7.812500
4041,7.812500
4042,11.718750
4043,11.718750
4044,11.718750
4045,11.718750
4046,11.718750
4047,15.625000
4048,15.625000
4049,19.531250
4050,19.531250
4051,19.531250
4052,19.531250
4053,23.437500
4054,23.437500
4055,23.437500
4056,23.437500
4057,27.343750
4058,27.343750
4059,27.343750
4060,27.343750
4061,31.250000
4062,31.250000
4063,31.250000
4064,31.250000
4065,31.250000
4066,35.156250
4067,35.156250
4068,35.156250
4069,39.062500
4070,39.062500
4071,39.062500
4072,42.968750
4073,42.968750
4074,42.968750
4075,39.062500
4076,42.968750
4077,46.875000
4078,46.875000
4079,46.875000
4080,46.875000
4081,50.781250
4082,50.781250
4083,50.781250
4084,54.687500
4085,54.687500
4086,54.687500
4087,54.687500
4088,54.687500
4089,58.593750
4090,58.593750
4091,58.593750
4092,58.593750
4093,62.500000
4094,62.500000
4095,62.500000
4096,62.500000
4097,66.406250
4098,66.406250
4099,66.406250
4100,66.406250
4101,70.312500
4102,70.312500
4103,70.312500
4104,70.312500
4105,70.312500
4106,74.218750
4107,74.218750
4108,74.218750
4109,74.218750
4110,74.218750
4111,78.125000
4112,78.125000
4113,78.125000
4114,78.125000
4115,78.125000
4116,82.031250
4117,82.031250
4118,82.031250
4119,82.031250
4120,82.031250
4121,85.937500
4122,85.937500
4123,85.937500
4124,85.937500
4125,89.843750
4126,89.843750
4127,89.843750
4128,89.843750
4129,89.843750
4130,93.750000
4131,93.750000
4132,93.750000
4133,93.750000
4134,93.750000
4135,97.656250
4136,93.750000
4137,97.656250
4138,97.656250
4139,97.656250
4140,97.656250
4141,101.562500
4142,101.562500
4143,101.562500
4144,101.562500
4145,101.562500
4146,105.468750
4147,105.468750
4148,105.468750
4149,105.468750
4150,105.468750
4151,105.468750
4152,105.468750
4153,109.375000
4154,109.375000
4155,109.375000
4156,109.375000
4157,109.375000
4158,109.375000
4159,109.375000
4160,109.375000
4161,113.281250
4162,113.281250
4163,113.281250
4164,113.281250
4165,117.187500
4166,113.281250
4167,117.187500
4168,117.187500
4169,117.187500
4170,117.187500
4171,117.187500
4172,117.187500
4173,117.187500
4174,117.187500
4175,121.093750
4176,121.093750
4177,121.093750
4178,121.093750
4179,121.093750
4180,121.093750
4181,125.000000
4182,121.093750
4183,128.906250
4184,125.000000
4185,125.000000
4186,125.000000
4187,125.000000
4188,125.000000
4189,125.000000
4190,125.000000
4191,128.906250
4192,128.906250
4193,128.906250
4194,128.906250
4195,128.906250
4196,128.906250
4197,128.906250
4198,128.906250
4199,132.812500
4200,128.906250
4201,132.812500
4202,128.906250
4203,132.812500
4204,132.812500
4205,132.812500
4206,132.812500
4207,132.812500
4208,132.812500
4209,132.812500
4210,136.718750
4211,136.718750
4212,136.718750
4213,136.718750
4214,136.718750
4215,136.718750
4216,136.718750
4217,136.718750
4218,136.718750
4219,136.718750
4220,136.718750
4221,136.718750
4222,140.625000
4223,136.718750
4224,136.718750
4225,136.718750
4226,140.625000
4227,140.625000
4228,140.625000
4229,140.625000
4230,140.625000
4231,140.625000
4232,140.625000
4233,140.625000
4234,140.625000
4235,140.625000
4236,140.625000
4237,140.625000
4238,140.625000
4239,140.625000
4240,144.531250
4241,144.531250
4242,144.531250
4243,144.531250
4244,144.531250
4245,144.531250
4246,144.531250
4247,144.531250
4248,144.531250
4249,144.531250
4250,144.531250
4251,144.531250
4252,144.531250
4253,144.531250
4254,144.531250
4255,144.531250
4256,144.531250
4257,144.531250
4258,144.531250
4259,144.531250
4260,144.531250
4261,144.531250
4262,144.531250
4263,144.531250
4264,144.531250
4265,144.531250
4266,144.531250
4267,144.531250
4268,144.531250
4269,144.531250
4270,144.531250
4271,144.531250
4272,148.437500
4273,144.531250
4274,144.531250
4275,144.531250
4276,148.437500
4277,144.531250
4278,144.531250
4279,144.531250
4280,144.531250
4281,144.531250
4282,144.531250
4283,144.531250
4284,144.531250
4285,144.531250
4286,144.531250
4287,144.531250
4288,144.531250
4289,144.531250
4290,144.531250
4291,144.531250
4292,144.531250
4293,144.531250
4294,144.531250
4295,144.531250
4296,144.531250
4297,144.531250
4298,144.531250
4299,144.531250
4300,144.531250
4301,144.531250
4302,144.531250
4303,144.531250
4304,144.531250
4305,144.531250
4306,144.531250
4307,144.531250
4308,140.625000
4309,144.531250
4310,140.625000
4311,140.625000
4312,140.625000
4313,140.625000
4314,140.625000
4315,140.625000
4316,140.625000
4317,140.625000
4318,140.625000
4319,140.625000
4320,140.625000
4321,140.625000
4322,140.625000
4323,140.625000
4324,140.625000
4325,140.625000
4326,140.625000
4327,140.625000
4328,136.718750
4329,136.718750
4330,140.625000
4331,140.625000
4332,136.718750
4333,136.718750
4334,136.718750
4335,136.718750
4336,136.718750
4337,136.718750
4338,136.718750
4339,136.718750
4340,136.718750
4341,136.718750
4342,136.718750
4343,132.812500
4344,132.812500
4345,132.812500
4346,132.812500
4347,132.812500
4348,132.812500
4349,132.812500
4350,132.812500
4351,132.812500
4352,128.906250
4353,132.812500
4354,132.812500
4355,132.812500
4356,128.906250
4357,128.906250
4358,128.906250
4359,128.906250
4360,128.906250
4361,128.906250
4362,128.906250
4363,128.906250
4364,125.000000
4365,125.000000
4366,125.000000
4367,125.000000
4368,125.000000
4369,125.000000
4370,125.000000
4371,121.093750
4372,121.093750
4373,121.093750
4374,121.093750
4375,121.093750
4376,121.093750
4377,121.093750
4378,121.093750
4379,117.187500
4380,117.187500
4381,117.187500
4382,117.187500
4383,117.187500
4384,117.187500
4385,113.281250
4386,113.281250
4387,113.281250
4388,113.281250
4389,113.281250
4390,113.281250
4391,113.281250
4392,109.375000
4393,109.375000
4394,109.375000
4395,109.375000
4396,109.375000
4397,105.468750
4398,105.468750
4399,109.375000
4400,105.468750
4401,105.468750
4402,105.468750
4403,105.468750
4404,101.562500
4405,105.468750
4406,101.562500
4407,101.562500
4408,101.562500
4409,101.562500
4410,97.656250
4411,97.656250
4412,97.656250
4413,97.656250
4414,97.656250
4415,97.656250
4416,93.750000
4417,93.750000
4418,93.750000
4419,93.750000
4420,93.750000
4421,93.750000
4422,89.843750
4423,89.843750
4424,89.843750
4425,89.843750
4426,85.937500
4427,85.937500
4428,85.937500
4429,85.937500
4430,85.937500
4431,85.937500
4432,82.031250
4433,82.031250
4434,82.031250
4435,82.031250
4436,78.125000
4437,78.125000
4438,78.125000
4439,78.125000
4440,78.125000
4441,78.125000
4442,74.218750
4443,74.218750
4444,74.218750
4445,70.312500
4446,70.312500
4447,70.312500
4448,70.312500
4449,70.312500
4450,66.406250
4451,66.406250
4452,66.406250
4453,66.406250
4454,62.500000
4455,62.500000
4456,62.500000
4457,62.500000
4458,62.500000
4459,58.593750
4460,58.593750
4461,58.593750
4462,58.593750
4463,54.687500
4464,54.687500
4465,54.687500
4466,54.687500
4467,50.781250
4468,50.781250
4469,50.781250
4470,50.781250
4471,50.781250
4472,46.875000
4473,46.875000
4474,46.875000
4475,42.968750
4476,42.968750
4477,42.968750
4478,42.968750
4479,42.968750
4480,39.062500
4481,39.062500
4482,39.062500
4483,35.156250
4484,35.156250
4485,35.156250
4486,35.156250
4487,31.250000
4488,31.250000
4489,31.250000
4490,27.343750
4491,27.343750
4492,27.343750
4493,27.343750
4494,23.437500
4495,23.437500
4496,23.437500
4497,23.437500
4498,19.531250
4499,19.531250
4500,19.531250
4501,15.625000
4502,15.625000
4503,15.625000
4504,15.625000
4505,15.625000
4506,11.718750
4507,11.718750
4508,11.718750
4509,7.812500
4510,7.812500
4511,7.812500
4512,7.812500
4513,3.906250
4514,3.906250
4515,3.906250
4516,3.906250
4517,0.000000
4518,0.000000
4519,0.000000
4520,-3.906250
4521,-3.906250
4522,-3.906250
4523,-3.906250
4524,-7.812500
4525,-7.812500
4526,-7.812500
4527,-11.718750
4528,-11.718750
4529,-11.718750
4530,-11.718750
4531,-15.625000
4532,-15.625000
4533,-19.531250
4534,-19.531250
4535,-19.531250
4536,-23.437500
4537,-23.437500
4538,-23.437500
4539,-23.437500
4540,-23.437500
4541,-27.343750
4542,-27.343750
4543,-27.343750
4544,-31.250000
4545,-31.250000
4546,-31.250000
4547,-31.250000
4548,-31.250000
4549,-35.156250
4550,-35.156250
4551,-39.062500
4552,-39.062500
4553,-39.062500
4554,-42.968750
4555,-42.968750
4556,-42.968750
4557,-42.968750
4558,-46.875000
4559,-46.875000
4560,-46.875000
4561,-46.875000
4562,-50.781250
4563,-50.781250
4564,-50.781250
4565,-54.687500
4566,-54.687500
4567,-54.687500
4568,-58.593750
4569,-58.593750
4570,-58.593750
4571,-58.593750
4572,-62.500000
4573,-62.500000
4574,-62.500000
4575,-62.500000
4576,-66.406250
4577,-66.406250
4578,-66.406250
4579,-70.312500
4580,-70.312500
4581,-70.312500
4582,-74.218750
4583,-74.218750
4584,-74.218750
4585,-78.125000
4586,-78.125000
4587,-78.125000
4588,-78.125000
4589,-78.125000
4590,-78.125000
4591,-82.031250
4592,-82.031250
4593,-85.937500
4594,-85.937500
4595,-85.937500
4596,-85.937500
4597,-89.843750
4598,-89.843750
4599,-89.843750
4600,-89.843750
4601,-93.750000
4602,-93.750000
4603,-93.750000
4604,-93.750000
4605,-97.656250
4606,-97.656250
4607,-97.656250
4608,-101.562500
4609,-101.562500
4610,-101.562500
4611,-101.562500
4612,-105.468750
4613,-105.468750
4614,-105.468750
4615,-105.468750
4616,-109.375000
4617,-109.375000
4618,-109.375000
4619,-109.375000
4620,-113.281250
4621,-113.281250
4622,-113.281250
4623,-113.281250
4624,-117.187500
4625,-117.187500
4626,-117.187500
4627,-117.187500
4628,-121.093750
4629,-121.093750
4630,-121.093750
4631,-121.093750
4632,-125.000000
4633,-125.000000
4634,-125.000000
4635,-125.000000
4636,-125.000000
4637,-128.906250
4638,-128.906250
4639,-128.906250
4640,-128.906250
4641,-132.812500
4642,-132.812500
4643,-132.812500
4644,-132.812500
4645,-136.718750
4646,-136.718750
4647,-136.718750
4648,-136.718750
4649,-136.718750
4650,-140.625000
4651,-140.625000
4652,-140.625000
4653,-140.625000
4654,-144.531250
4655,-144.531250
4656,-144.531250
4657,-144.531250
4658,-144.531250
4659,-148.437500
4660,-148.437500
4661,-148.437500
4662,-148.437500
4663,-148.437500
4664,-152.343750
4665,-152.343750
4666,-152.343750
4667,-152.343750
4668,-152.343750
4669,-156.250000
4670,-156.250000
4671,-156.250000
4672,-156.250000
4673,-156.250000
4674,-156.250000
4675,-160.156250
4676,-160.156250
4677,-160.156250
4678,-160.156250
4679,-160.156250
4680,-164.062500
4681,-164.062500
4682,-164.062500
4683,-164.062500
4684,-164.062500
4685,-167.968750
4686,-167.968750
4687,-167.968750
4688,-167.968750
4689,-167.968750
4690,-167.968750
4691,-167.968750
4692,-167.968750
4693,-171.875000
4694,-171.875000
4695,-171.875000
4696,-171.875000
4697,-171.875000
4698,-171.875000
4699,-175.781250
4700,-175.781250
4701,-175.781250
4702,-175.781250
4703,-175.781250
4704,-175.781250
4705,-175.781250
4706,-179.687500
4707,-179.687500
4708,-179.687500
4709,-179.687500
4710,-179.687500
4711,-179.687500
4712,-179.687500
4713,-179.687500
4714,-179.687500
4715,-179.687500
4716,-183.593750
4717,-183.593750
4718,-183.593750
4719,-183.593750
4720,-183.593750
4721,-183.593750
4722,-183.593750
4723,-183.593750
4724,-183.593750
4725,-183.593750
4726,-183.593750
4727,-187.500000
4728,-187.500000
4729,-187.500000
4730,-187.500000
4731,-187.500000
4732,-187.500000
4733,-187.500000
4734,-187.500000
4735,-187.500000
4736,-187.500000
4737,-187.500000
4738,-191.406250
4739,-191.406250
4740,-191.406250
4741,-191.406250
4742,-191.406250
4743,-191.406250
4744,-191.406250
4745,-191.406250
4746,-191.406250
4747,-191.406250
4748,-191.406250
4749,-191.406250
4750,-191.406250
4751,-191.406250
4752,-191.406250
4753,-191.406250
4754,-191.406250
4755,-191.406250
4756,-191.406250
4757,-191.406250
4758,-195.312500
4759,-195.312500
4760,-191.406250
4761,-195.312500
4762,-191.406250
4763,-195.312500
4764,-191.406250
4765,-195.312500
4766,-191.406250
4767,-191.406250
4768,-191.406250
4769,-191.406250
4770,-195.312500
4771,-191.406250
4772,-195.312500
4773,-195.312500
4774,-195.312500
4775,-195.312500
4776,-191.406250
4777,-191.406250
4778,-195.312500
4779,-191.406250
4780,-195.312500
4781,-191.406250
4782,-191.406250
4783,-191.406250
4784,-191.406250
4785,-191.406250
4786,-191.406250
4787,-191.406250
4788,-191.406250
4789,-191.406250
4790,-191.406250
4791,-191.406250
4792,-191.406250
4793,-191.406250
4794,-191.406250
4795,-191.406250
4796,-191.406250
4797,-191.406250
4798,-191.406250
4799,-191.406250
4800,-191.406250
4801,-191.406250
4802,-191.406250
4803,-187.500000
4804,-187.500000
4805,-191.406250
4806,-187.500000
4807,-187.500000
4808,-187.500000
4809,-187.500000
4810,-187.500000
4811,-187.500000
4812,-187.500000
4813,-187.500000
4814,-187.500000
4815,-187.500000
4816,-183.593750
4817,-183.593750
4818,-183.593750
4819,-183.593750
4820,-183.593750
4821,-183.593750
4822,-183.593750
4823,-183.593750
4824,-183.593750
4825,-183.593750
4826,-179.687500
4827,-179.687500
4828,-179.687500
4829,-179.687500
4830,-179.687500
4831,-179.687500
4832,-179.687500
4833,-179.687500
4834,-179.687500
4835,-179.687500
4836,-175.781250
4837,-175.781250
4838,-175.781250
4839,-175.781250
4840,-175.781250
4841,-171.875000
4842,-175.781250
4843,-171.875000
4844,-171.875000
4845,-171.875000
4846,-171.875000
4847,-167.968750
4848,-167.968750
4849,-167.968750
4850,-167.968750
4851,-167.968750
4852,-167.968750
4853,-167.968750
4854,-167.968750
4855,-164.062500
4856,-164.062500
4857,-167.968750
4858,-164.062500
4859,-164.062500
4860,-164.062500
4861,-160.156250
4862,-160.156250
4863,-160.156250
4864,-160.156250
4865,-160.156250
4866,-156.250000
4867,-156.250000
4868,-156.250000
4869,-156.250000
4870,-156.250000
4871,-156.250000
4872,-156.250000
4873,-152.343750
4874,-152.343750
4875,-152.343750
4876,-152.343750
4877,-148.437500
4878,-148.437500
4879,-148.437500
4880,-148.437500
4881,-148.437500
4882,-144.531250
4883,-144.531250
4884,-144.531250
4885,-144.531250
4886,-140.625000
4887,-140.625000
4888,-140.625000
4889,-140.625000
4890,-140.625000
4891,-140.625000
4892,-136.718750
4893,-136.718750
4894,-136.718750
4895,-136.718750
4896,-132.812500
4897,-132.812500
4898,-132.812500
4899,-132.812500
4900,-128.906250
4901,-132.812500
4902,-128.906250
4903,-128.906250
4904,-125.000000
4905,-125.000000
4906,-125.000000
4907,-125.000000
4908,-125.000000
4909,-121.093750
4910,-121.093750
4911,-121.093750
4912,-121.093750
4913,-117.187500
4914,-117.187500
4915,-117.187500
4916,-117.187500
4917,-113.281250
4918,-113.281250
4919,-113.281250
4920,-109.375000
4921,-109.375000
4922,-109.375000
4923,-109.375000
4924,-109.375000
4925,-105.468750
4926,-105.468750
4927,-105.468750
4928,-105.468750
4929,-101.562500
4930,-101.562500
4931,-101.562500
4932,-101.562500
4933,-97.656250
4934,-97.656250
4935,-97.656250
4936,-93.750000
4937,-93.750000
4938,-93.750000
4939,-93.750000
4940,-89.843750
4941,-89.843750
4942,-89.843750
4943,-85.937500
4944,-85.937500
4945,-85.937500
4946,-85.937500
4947,-85.937500
4948,-82.031250
4949,-82.031250
4950,-82.031250
4951,-78.125000
4952,-78.125000
4953,-78.125000
4954,-78.125000
4955,-74.218750
4956,-74.218750
4957,-74.218750
4958,-74.218750
4959,-70.312500
4960,-70.312500
4961,-70.312500
4962,-66.406250
4963,-66.406250
4964,-66.406250
4965,-62.500000
4966,-62.500000
4967,-62.500000
4968,-62.500000
4969,-58.593750
4970,-58.593750
4971,-58.593750
4972,-58.593750
4973,-54.687500
4974,-54.687500
4975,-54.687500
4976,-50.781250
4977,-50.781250
4978,-50.781250
4979,-46.875000
4980,-46.875000
4981,-46.875000
4982,-46.875000
4983,-42.968750
4984,-42.968750
4985,-42.968750
4986,-42.968750
4987,-39.062500
4988,-39.062500
4989,-35.156250
4990,-35.156250
4991,-35.156250
4992,-35.156250
4993,-31.250000
4994,-31.250000
4995,-31.250000
4996,-27.343750
4997,-27.343750
4998,-27.343750
4999,-27.343750
5000,-27.343750
5001,-23.437500
5002,-23.437500
5003,-23.437500
5004,-19.531250
5005,-19.531250
5006,-19.531250
5007,-15.625000
5008,-15.625000
5009,-15.625000
5010,-15.625000
5011,-11.718750
5012,-11.718750
5013,-11.718750
5014,-7.812500
5015,-7.812500
5016,-7.812500
5017,-3.906250
5018,-3.906250
5019,-3.906250
5020,-3.906250
5021,0.000000
5022,0.000000
5023,0.000000
5024,3.906250
5025,3.906250
5026,3.906250
5027,3.906250
5028,3.906250
5029,7.812500
5030,7.812500
5031,7.812500
5032,11.718750
5033,11.718750
5034,11.718750
5035,11.718750
5036,15.625000
5037,15.625000
5038,15.625000
5039,19.531250
5040,19.531250
5041,19.531250
5042,23.437500
5043,23.437500
5044,23.437500
5045,23.437500
5046,23.437500
5047,27.343750
5048,27.343750
5049,27.343750
5050,27.343750
5051,31.250000
5052,31.250000
5053,31.250000
5054,31.250000
5055,35.156250
5056,35.156250
5057,35.156250
5058,39.062500
5059,39.062500
5060,39.062500
5061,39.062500
5062,39.062500
5063,42.968750
5064,42.968750
5065,42.968750
5066,46.875000
5067,46.875000
5068,46.875000
5069,46.875000
5070,46.875000
5071,50.781250
5072,50.781250
5073,50.781250
5074,54.687500
5075,54.687500
5076,54.687500
5077,54.687500
5078,54.687500
5079,58.593750
5080,58.593750
5081,58.593750
5082,58.593750
5083,62.500000
5084,62.500000
5085,62.500000
5086,62.500000
5087,66.406250
5088,66.406250
5089,66.406250
5090,66.406250
5091,66.406250
5092,70.312500
5093,70.312500
5094,70.312500
5095,70.312500
5096,70.312500
5097,74.218750
5098,74.218750
5099,74.218750
5100,74.218750
5101,78.125000
5102,78.125000
5103,78.125000
5104,78.125000
5105,78.125000
5106,82.031250
5107,82.031250
5108,82.031250
5109,82.031250
5110,85.937500
5111,85.937500
5112,85.937500
5113,85.937500
5114,85.937500
5115,89.843750
5116,89.843750
5117,89.843750
5118,89.843750
5119,89.843750
5120,89.843750
5121,93.750000
5122,93.750000
5123,93.750000
5124,93.750000
5125,93.750000
5126,97.656250
5127,97.656250
5128,97.656250
5129,97.656250
5130,97.656250
5131,101.562500
5132,101.562500
5133,101.562500
5134,101.562500
5135,101.562500
5136,101.562500
5137,105.468750
5138,105.468750
5139,105.468750
5140,105.468750
5141,105.468750
5142,105.468750
5143,109.375000
5144,109.375000
5145,109.375000
5146,109.375000
5147,109.375000
5148,109.375000
5149,109.375000
5150,113.281250
5151,113.281250
5152,113.281250
5153,113.281250
5154,113.281250
5155,117.187500
5156,113.281250
5157,117.187500
5158,117.187500
5159,117.187500
5160,117.187500
5161,117.187500
5162,117.187500
5163,117.187500
5164,121.093750
5165,121.093750
5166,121.093750
5167,121.093750
5168,121.093750
5169,121.093750
5170,125.000000
5171,125.000000
5172,125.000000
5173,125.000000
5174,125.000000
5175,125.000000
5176,125.000000
5177,125.000000
5178,125.000000
5179,128.906250
5180,128.906250
5181,128.906250
5182,128.906250
5183,128.906250
5184,128.906250
5185,128.906250
5186,128.906250
5187,128.906250
5188,128.906250
5189,132.812500
5190,128.906250
5191,132.812500
5192,132.812500
5193,132.812500
5194,132.812500
5195,132.812500
5196,132.812500
5197,132.812500
5198,132.812500
5199,136.718750
5200,132.812500
5201,136.718750
5202,136.718750
5203,136.718750
5204,136.718750
5205,136.718750
5206,136.718750
5207,136.718750
5208,136.718750
5209,136.718750
5210,136.718750
5211,140.625000
5212,136.718750
5213,140.625000
5214,136.718750
5215,140.625000
5216,140.625000
5217,140.625000
5218,140.625000
5219,140.625000
5220,140.625000
5221,140.625000
5222,140.625000
5223,140.625000
5224,140.625000
5225,140.625000
5226,140.625000
5227,144.531250
5228,140.625000
5229,140.625000
5230,140.625000
5231,140.625000
5232,140.625000
5233,140.625000
5234,144.531250
5235,144.531250
5236,144.531250
5237,144.531250
5238,144.531250
5239,144.531250
5240,144.531250
5241,144.531250
5242,144.531250
5243,144.531250
5244,144.531250
5245,144.531250
5246,144.531250
5247,144.531250
5248,144.531250
5249,144.531250
5250,144.531250
5251,144.531250
5252,144.531250
5253,144.531250
5254,144.531250
5255,144.531250
5256,144.531250
5257,144.531250
5258,144.531250
5259,144.531250
5260,144.531250
5261,144.531250
5262,144.531250
5263,144.531250
5264,144.531250
5265,144.531250
5266,144.531250
5267,144.531250
5268,144.531250
5269,148.437500
5270,144.531250
5271,144.531250
5272,144.531250
5273,144.531250
5274,144.531250
5275,144.531250
5276,144.531250
5277,144.531250
5278,144.531250
5279,144.531250
5280,144.531250
5281,144.531250
5282,144.531250
5283,144.531250
5284,144.531250
5285,144.531250
5286,144.531250
5287,144.531250
5288,144.531250
5289,144.531250
5290,144.531250
5291,144.531250
5292,144.531250
5293,144.531250
5294,144.531250
5295,144.531250
5296,144.531250
5297,144.531250
5298,144.531250
5299,144.531250
5300,144.531250
5301,144.531250
5302,140.625000
5303,140.625000
5304,140.625000
5305,140.625000
5306,140.625000
5307,140.625000
5308,140.625000
5309,140.625000
5310,140.625000
5311,140.625000
5312,140.625000
5313,140.625000
5314,140.625000
5315,140.625000
5316,140.625000
5317,140.625000
5318,136.718750
5319,136.718750
5320,136.718750
5321,136.718750
5322,136.718750
5323,136.718750
5324,136.718750
5325,136.718750
5326,136.718750
5327,136.718750
5328,136.718750
5329,136.718750
5330,136.718750
5331,136.718750
5332,132.812500
5333,132.812500
5334,132.812500
5335,132.812500
5336,132.812500
5337,132.812500
5338,132.812500
5339,132.812500
5340,132.812500
5341,132.812500
5342,128.906250
5343,128.906250
5344,128.906250
5345,128.906250
5346,128.906250
5347,128.906250
5348,128.906250
5349,128.906250
5350,128.906250
5351,128.906250
5352,125.000000
5353,125.000000
5354,125.000000
5355,125.000000
5356,125.000000
5357,125.000000
5358,125.000000
5359,125.000000
5360,121.093750
5361,121.093750
5362,121.093750
5363,121.093750
5364,121.093750
5365,121.093750
5366,121.093750
5367,121.093750
5368,117.187500
5369,117.187500
5370,117.187500
5371,117.187500
5372,117.187500
5373,117.187500
5374,113.281250
5375,113.281250
5376,113.281250
5377,113.281250
5378,113.281250
5379,113.281250
5380,113.281250
5381,113.281250
5382,109.375000
5383,109.375000
5384,109.375000
5385,109.375000
5386,109.375000
5387,109.375000
5388,105.468750
5389,105.468750
5390,105.468750
5391,105.468750
5392,105.468750
5393,105.468750
5394,105.468750
5395,101.562500
5396,101.562500
5397,101.562500
5398,101.562500
5399,101.562500
5400,101.562500
5401,97.656250
5402,97.656250
5403,97.656250
5404,97.656250
5405,97.656250
5406,93.750000
5407,93.750000
5408,93.750000
5409,93.750000
5410,93.750000
5411,89.843750
5412,89.843750
5413,89.843750
5414,89.843750
5415,89.843750
5416,89.843750
5417,85.937500
5418,85.937500
5419,85.937500
5420,85.937500
5421,82.031250
5422,82.031250
5423,82.031250
5424,82.031250
5425,82.031250
5426,78.125000
5427,78.125000
5428,78.125000
5429,78.125000
5430,74.218750
5431,74.218750
5432,74.218750
5433,74.218750
5434,74.218750
5435,70.312500
5436,70.312500
5437,70.312500
5438,70.312500
5439,70.312500
5440,66.406250
5441,66.406250
5442,66.406250
5443,66.406250
5444,62.500000
5445,62.500000
5446,62.500000
5447,62.500000
5448,58.593750
5449,58.593750
5450,58.593750
5451,58.593750
5452,54.687500
5453,54.687500
5454,54.687500
5455,54.687500
5456,54.687500
5457,50.781250
5458,50.781250
5459,50.781250
5460,50.781250
5461,46.875000
5462,46.875000
5463,46.875000
5464,46.875000
5465,42.968750
5466,42.968750
5467,42.968750
5468,42.968750
5469,39.062500
5470,39.062500
5471,39.062500
5472,39.062500
5473,35.156250
5474,35.156250
5475,35.156250
5476,35.156250
5477,31.250000
5478,31.250000
5479,31.250000
5480,27.343750
5481,27.343750
5482,27.343750
5483,27.343750
5484,27.343750
5485,23.437500
5486,23.437500
5487,23.437500
5488,19.531250
5489,19.531250
5490,19.531250
5491,19.531250
5492,15.625000
5493,15.625000
5494,15.625000
5495,15.625000
5496,11.718750
5497,11.718750
5498,11.718750
5499,7.812500
5500,7.812500
5501,7.812500
5502,3.906250
5503,3.906250
5504,3.906250
5505,3.906250
5506,0.000000
5507,0.000000
5508,0.000000
5509,0.000000
5510,-3.906250
5511,-3.906250
5512,-3.906250
5513,-3.906250
5514,-7.812500
5515,-7.812500
5516,-7.812500
5517,-11.718750
5518,-11.718750
5519,-11.718750
5520,-15.625000
5521,-15.625000
5522,-15.625000
5523,-15.625000
5524,-15.625000
5525,-19.531250
5526,-19.531250
5527,-23.437500
5528,-23.437500
5529,-23.437500
5530,-23.437500
5531,-27.343750
5532,-27.343750
5533,-27.343750
5534,-31.250000
5535,-31.250000
5536,-31.250000
5537,-35.156250
5538,-35.156250
5539,-35.156250
5540,-35.156250
5541,-39.062500
5542,-39.062500
5543,-39.062500
5544,-39.062500
5545,-42.968750
5546,-42.968750
5547,-42.968750
5548,-46.875000
5549,-46.875000
5550,-46.875000
5551,-46.875000
5552,-50.781250
5553,-50.781250
5554,-50.781250
5555,-54.687500
5556,-54.687500
5557,-54.687500
5558,-58.593750
5559,-58.593750
5560,-58.593750
5561,-58.593750
5562,-62.500000
5563,-62.500000
5564,-62.500000
5565,-62.500000
5566,-66.406250
5567,-66.406250
5568,-66.406250
5569,-66.406250
5570,-70.312500
5571,-70.312500
5572,-70.312500
5573,-74.218750
5574,-74.218750
5575,-74.218750
5576,-78.125000
5577,-78.125000
5578,-78.125000
5579,-78.125000
5580,-82.031250
5581,-82.031250
5582,-82.031250
5583,-85.937500
5584,-85.937500
5585,-85.937500
5586,-89.843750
5587,-89.843750
5588,-89.843750
5589,-89.843750
5590,-89.843750
5591,-93.750000
5592,-93.750000
5593,-93.750000
5594,-93.750000
5595,-97.656250
5596,-97.656250
5597,-97.656250
5598,-101.562500
5599,-101.562500
5600,-101.562500
5601,-101.562500
5602,-105.468750
5603,-105.468750
5604,-105.468750
5605,-105.468750
5606,-109.375000
5607,-109.375000
5608,-109.375000
5609,-109.375000
5610,-113.281250
5611,-113.281250
5612,-113.281250
5613,-113.281250
5614,-117.187500
5615,-117.187500
5616,-117.187500
5617,-117.187500
5618,-121.093750
5619,-121.093750
5620,-121.093750
5621,-125.000000
5622,-125.000000
5623,-125.000000
5624,-125.000000
5625,-128.906250
5626,-128.906250
5627,-128.906250
5628,-128.906250
5629,-128.906250
5630,-132.812500
5631,-132.812500
5632,-132.812500
5633,-132.812500
5634,-132.812500
5635,-136.718750
5636,-136.718750
5637,-136.718750
5638,-136.718750
5639,-140.625000
5640,-140.625000
5641,-140.625000
5642,-140.625000
5643,-140.625000
5644,-144.531250
5645,-144.531250
5646,-144.531250
5647,-144.531250
5648,-148.437500
5649,-148.437500
5650,-148.437500
5651,-148.437500
5652,-148.437500
5653,-148.437500
5654,-152.343750
5655,-152.343750
5656,-152.343750
5657,-152.343750
5658,-156.250000
5659,-156.250000
5660,-156.250000
5661,-156.250000
5662,-156.250000
5663,-156.250000
5664,-156.250000
5665,-160.156250
5666,-160.156250
5667,-160.156250
5668,-160.156250
5669,-160.156250
5670,-160.156250
5671,-164.062500
5672,-164.062500
5673,-164.062500
5674,-164.062500
5675,-167.968750
5676,-164.062500
5677,-167.968750
5678,-167.968750
5679,-167.968750
5680,-167.968750
5681,-167.968750
5682,-167.968750
5683,-171.875000
5684,-171.875000
5685,-171.875000
5686,-171.875000
5687,-171.875000
5688,-171.875000
5689,-171.875000
5690,-175.781250
5691,-175.781250
5692,-175.781250
5693,-175.781250
5694,-175.781250
5695,-175.781250
5696,-175.781250
5697,-179.687500
5698,-179.687500
5699,-179.687500
5700,-179.687500
5701,-179.687500
5702,-179.687500
5703,-179.687500
5704,-179.687500
5705,-183.593750
5706,-183.593750
5707,-183.593750
5708,-183.593750
5709,-183.593750
5710,-183.593750
5711,-183.593750
5712,-183.593750
5713,-183.593750
5714,-183.593750
5715,-183.593750
5716,-187.500000
5717,-187.500000
5718,-187.500000
5719,-187.500000
5720,-187.500000
5721,-187.500000
5722,-187.500000
5723,-187.500000
5724,-191.406250
5725,-191.406250
5726,-191.406250
5727,-191.406250
5728,-191.406250
5729,-191.406250
5730,-191.406250
5731,-191.406250
5732,-191.406250
5733,-191.406250
5734,-191.406250
5735,-191.406250
5736,-191.406250
5737,-191.406250
5738,-191.406250
5739,-191.406250
5740,-191.406250
5741,-191.406250
5742,-191.406250
5743,-191.406250
5744,-195.312500
5745,-191.406250
5746,-191.406250
5747,-191.406250
5748,-191.406250
5749,-195.312500
5750,-195.312500
5751,-191.406250
5752,-191.406250
5753,-195.312500
5754,-195.312500
5755,-195.312500
5756,-195.312500
5757,-195.312500
5758,-195.312500
5759,-195.312500
5760,-195.312500
5761,-195.312500
5762,-195.312500
5763,-191.406250
5764,-191.406250
5765,-191.406250
5766,-195.312500
5767,-195.312500
5768,-195.312500
5769,-191.406250
5770,-195.312500
5771,-191.406250
5772,-191.406250
5773,-191.406250
5774,-191.406250
5775,-191.406250
5776,-191.406250
5777,-191.406250
5778,-191.406250
5779,-191.406250
5780,-191.406250
5781,-191.406250
5782,-191.406250
5783,-191.406250
5784,-191.406250
5785,-191.406250
5786,-191.406250
5787,-191.406250
5788,-191.406250
5789,-191.406250
5790,-191.406250
5791,-187.500000
5792,-187.500000
5793,-187.500000
5794,-187.500000
5795,-187.500000
5796,-187.500000
5797,-187.500000
5798,-187.500000
5799,-187.500000
5800,-187.500000
5801,-187.500000
5802,-187.500000
5803,-187.500000
5804,-183.593750
5805,-183.593750
5806,-183.593750
5807,-183.593750
5808,-183.593750
5809,-183.593750
5810,-183.593750
5811,-183.593750
5812,-183.593750
5813,-183.593750
5814,-183.593750
5815,-183.593750
5816,-179.687500
5817,-179.687500
5818,-179.687500
5819,-179.687500
5820,-179.687500
5821,-179.687500
5822,-179.687500
5823,-179.687500
5824,-179.687500
5825,-175.781250
5826,-175.781250
5827,-175.781250
5828,-175.781250
5829,-175.781250
5830,-175.781250
5831,-171.875000
5832,-175.781250
5833,-171.875000
5834,-171.875000
5835,-171.875000
5836,-171.875000
5837,-171.875000
5838,-171.875000
5839,-167.968750
5840,-167.968750
5841,-167.968750
5842,-167.968750
5843,-167.968750
5844,-167.968750
5845,-164.062500
5846,-164.062500
5847,-164.062500
5848,-164.062500
5849,-164.062500
5850,-164.062500
5851,-160.156250
5852,-160.156250
5853,-160.156250
5854,-160.156250
5855,-160.156250
5856,-156.250000
5857,-156.250000
5858,-156.250000
5859,-156.250000
5860,-156.250000
5861,-156.250000
5862,-152.343750
5863,-152.343750
5864,-152.343750
5865,-152.343750
5866,-152.343750
5867,-148.437500
5868,-148.437500
5869,-148.437500
5870,-148.437500
5871,-148.437500
5872,-144.531250
5873,-144.531250
5874,-144.531250
5875,-144.531250
5876,-144.531250
5877,-140.625000
5878,-140.625000
5879,-140.625000
5880,-140.625000
5881,-136.718750
5882,-136.718750
5883,-136.718750
5884,-136.718750
5885,-136.718750
5886,-136.718750
5887,-132.812500
5888,-132.812500
5889,-132.812500
5890,-132.812500
5891,-128.906250
5892,-128.906250
5893,-125.000000
5894,-125.000000
5895,-125.000000
5896,-125.000000
5897,-125.000000
5898,-125.000000
5899,-121.093750
5900,-121.093750
5901,-121.093750
5902,-121.093750
5903,-117.187500
5904,-117.187500
5905,-117.187500
5906,-117.187500
5907,-113.281250
5908,-113.281250
5909,-113.281250
5910,-113.281250
5911,-109.375000
5912,-109.375000
5913,-109.375000
5914,-109.375000
5915,-105.468750
5916,-105.468750
5917,-105.468750
5918,-101.562500
5919,-101.562500
5920,-101.562500
5921,-97.656250
5922,-101.562500
5923,-97.656250
5924,-97.656250
5925,-97.656250
5926,-93.750000
5927,-93.750000
5928,-93.750000
5929,-89.843750
5930,-89.843750
5931,-89.843750
5932,-89.843750
5933,-85.937500
5934,-85.937500
5935,-85.937500
5936,-85.937500
5937,-85.937500
5938,-82.031250
5939,-82.031250
5940,-78.125000
5941,-78.125000
5942,-78.125000
5943,-78.125000
5944,-74.218750
5945,-74.218750
5946,-74.218750
5947,-74.218750
5948,-70.312500
5949,-70.312500
5950,-70.312500
5951,-70.312500
5952,-66.406250
5953,-66.406250
5954,-66.406250
5955,-62.500000
5956,-62.500000
5957,-62.500000
5958,-58.593750
5959,-58.593750
5960,-58.593750
5961,-58.593750
5962,-54.687500
5963,-54.687500
5964,-54.687500
5965,-50.781250
5966,-50.781250
5967,-50.781250
5968,-50.781250
5969,-46.875000
5970,-46.875000
5971,-46.875000
5972,-46.875000
5973,-42.968750
5974,-42.968750
5975,-42.968750
5976,-42.968750
5977,-39.062500
5978,-39.062500
5979,-39.062500
5980,-35.156250
5981,-35.156250
5982,-35.156250
5983,-31.250000
5984,-31.250000
5985,-31.250000
5986,-31.250000
5987,-27.343750
5988,-27.343750
5989,-27.343750
5990,-23.437500
5991,-23.437500
5992,-23.437500
5993,-19.531250
5994,-19.531250
5995,-19.531250
5996,-19.531250
5997,-15.625000
5998,-15.625000
5999,-15.625000
6000,-11.718750
6001,-11.718750
6002,-11.718750
6003,-11.718750
6004,-7.812500
6005,-7.812500
6006,-7.812500
6007,-3.906250
6008,-3.906250
6009,-3.906250
6010,-3.906250
6011,0.000000
6012,0.000000
6013,0.000000
6014,3.906250
6015,3.906250
6016,3.906250
6017,3.906250
6018,7.812500
6019,7.812500
6020,7.812500
6021,7.812500
6022,11.718750
6023,11.718750
6024,11.718750
6025,15.625000
6026,15.625000
6027,15.625000
6028,15.625000
6029,19.531250
6030,19.531250
6031,19.531250
6032,23.437500
6033,23.437500
6034,19.531250
6035,23.437500
6036,23.437500
6037,27.343750
6038,27.343750
6039,27.343750
6040,31.250000
6041,31.250000
6042,31.250000
6043,31.250000
6044,31.250000
6045,35.156250
6046,39.062500
6047,35.156250
6048,39.062500
6049,39.062500
6050,39.062500
6051,39.062500
6052,42.968750
6053,42.968750
6054,42.968750
6055,46.875000
6056,46.875000
6057,46.875000
6058,46.875000
6059,46.875000
6060,46.875000
6061,50.781250
6062,50.781250
6063,54.687500
6064,54.687500
6065,54.687500
6066,54.687500
6067,54.687500
6068,58.593750
6069,58.593750
6070,58.593750
6071,58.593750
6072,58.593750
6073,62.500000
6074,62.500000
6075,62.500000
6076,66.406250
6077,66.406250
6078,66.406250
6079,66.406250
6080,66.406250
6081,70.312500
6082,70.312500
6083,70.312500
6084,70.312500
6085,74.218750
6086,74.218750
6087,74.218750
6088,74.218750
6089,74.218750
6090,78.125000
6091,78.125000
6092,78.125000
6093,78.125000
6094,78.125000
6095,82.031250
6096,82.031250
6097,82.031250
6098,82.031250
6099,85.937500
6100,85.937500
6101,82.031250
6102,85.937500
6103,85.937500
6104,85.937500
6105,89.843750
6106,89.843750
6107,89.843750
6108,89.843750
6109,89.843750
6110,89.843750
6111,93.750000
6112,93.750000
6113,93.750000
6114,93.750000
6115,93.750000
6116,97.656250
6117,97.656250
6118,97.656250
6119,97.656250
6120,97.656250
6121,101.562500
6122,101.562500
6123,101.562500
6124,101.562500
6125,101.562500
6126,101.562500
6127,105.468750
6128,105.468750
6129,105.468750
6130,105.468750
6131,105.468750
6132,105.468750
6133,109.375000
6134,109.375000
6135,109.375000
6136,109.375000
6137,109.375000
6138,109.375000
6139,113.281250
6140,113.281250
6141,113.281250
6142,113.281250
6143,113.281250
6144,113.281250
6145,117.187500
6146,117.187500
6147,117.187500
6148,117.187500
6149,117.187500
6150,117.187500
6151,117.187500
6152,117.187500
6153,121.093750
6154,121.093750
6155,121.093750
6156,121.093750
6157,121.093750
6158,121.093750
6159,121.093750
6160,121.093750
6161,125.000000
6162,121.093750
6163,125.000000
6164,125.000000
6165,125.000000
6166,125.000000
6167,125.000000
6168,128.906250
6169,128.906250
6170,128.906250
6171,128.906250
6172,128.906250
6173,128.906250
6174,128.906250
6175,128.906250
6176,128.906250
6177,128.906250
6178,128.906250
6179,132.812500
6180,132.812500
6181,132.812500
6182,132.812500
6183,132.812500
6184,132.812500
6185,132.812500
6186,132.812500
6187,132.812500
6188,132.812500
6189,132.812500
6190,136.718750
6191,136.718750
6192,136.718750
6193,136.718750
6194,136.718750
6195,136.718750
6196,136.718750
6197,136.718750
6198,136.718750
6199,140.625000
6200,136.718750
6201,136.718750
6202,140.625000
6203,140.625000
6204,140.625000
6205,140.625000
6206,140.625000
6207,140.625000
6208,140.625000
6209,140.625000
6210,140.625000
6211,140.625000
6212,140.625000
6213,140.625000
6214,140.625000
6215,140.625000
6216,140.625000
6217,140.625000
6218,140.625000
6219,144.531250
6220,144.531250
6221,144.531250
6222,140.625000
6223,144.531250
6224,144.531250
6225,144.531250
6226,144.531250
6227,144.531250
6228,144.531250
6229,144.531250
6230,144.531250
6231,144.531250
6232,144.531250
6233,144.531250
6234,144.531250
6235,144.531250
6236,144.531250
6237,144.531250
6238,144.531250
6239,144.531250
6240,144.531250
6241,144.531250
6242,144.531250
6243,144.531250
6244,144.531250
6245,144.531250
6246,144.531250
6247,144.531250
6248,144.531250
6249,144.531250
6250,144.531250
6251,144.531250
6252,144.531250
6253,144.531250
6254,144.531250
6255,144.531250
6256,144.531250
6257,144.531250
6258,144.531250
6259,144.531250
6260,144.531250
6261,144.531250
6262,144.531250
6263,144.531250
6264,144.531250
6265,144.531250
6266,144.531250
6267,144.531250
6268,144.531250
6269,144.531250
6270,144.531250
6271,144.531250
6272,144.531250
6273,144.531250
6274,144.531250
6275,144.531250
6276,144.531250
6277,144.531250
6278,144.531250
6279,144.531250
6280,144.531250
6281,144.531250
6282,144.531250
6283,144.531250
6284,144.531250
6285,144.531250
6286,144.531250
6287,144.531250
6288,144.531250
6289,144.531250
6290,144.531250
6291,144.531250
6292,144.531250
6293,140.625000
6294,140.625000
6295,140.625000
6296,140.625000
6297,140.625000
6298,140.625000
6299,140.625000
6300,140.625000
6301,140.625000
6302,140.625000
6303,140.625000
6304,140.625000
6305,140.625000
6306,140.625000
6307,140.625000
6308,140.625000
6309,140.625000
6310,136.718750
6311,136.718750
6312,136.718750
6313,136.718750
6314,136.718750
6315,136.718750
6316,136.718750
6317,136.718750
6318,136.718750
6319,136.718750
6320,136.718750
6321,136.718750
6322,132.812500
6323,132.812500
6324,132.812500
6325,132.812500
6326,132.812500
6327,132.812500
6328,132.812500
6329,132.812500
6330,132.812500
6331,132.812500
6332,132.812500
6333,128.906250
6334,128.906250
6335,128.906250
6336,128.906250
6337,128.906250
6338,128.906250
6339,128.906250
6340,128.906250
6341,128.906250
6342,125.000000
6343,128.906250
6344,125.000000
6345,125.000000
6346,125.000000
6347,125.000000
6348,125.000000
6349,125.000000
6350,121.093750
6351,121.093750
6352,121.093750
6353,121.093750
6354,121.093750
6355,121.093750
6356,121.093750
6357,121.093750
6358,117.187500
6359,117.187500
6360,117.187500
6361,117.187500
6362,117.187500
6363,117.187500
6364,113.281250
6365,113.281250
6366,113.281250
6367,113.281250
6368,113.281250
6369,113.281250
6370,113.281250
6371,113.281250
6372,109.375000
6373,109.375000
6374,109.375000
6375,109.375000
6376,109.375000
6377,109.375000
6378,105.468750
6379,105.468750
6380,105.468750
6381,105.468750
6382,105.468750
6383,105.468750
6384,105.468750
6385,101.562500
6386,101.562500
6387,101.562500
6388,101.562500
6389,101.562500
6390,101.562500
6391,97.656250
6392,97.656250
6393,97.656250
6394,93.750000
6395,93.750000
6396,93.750000
6397,93.750000
6398,93.750000
6399,93.750000
6400,93.750000
6401,89.843750
6402,89.843750
6403,89.843750
6404,89.843750
6405,89.843750
6406,89.843750
6407,85.937500
6408,85.937500
6409,85.937500
6410,85.937500
6411,82.031250
6412,82.031250
6413,82.031250
6414,82.031250
6415,82.031250
6416,78.125000
6417,78.125000
6418,78.125000
6419,78.125000
6420,78.125000
6421,74.218750
6422,74.218750
6423,74.218750
6424,74.218750
6425,74.218750
6426,70.312500
6427,70.312500
6428,70.312500
6429,70.312500
6430,70.312500
6431,66.406250
6432,66.406250
6433,66.406250
6434,62.500000
6435,62.500000
6436,62.500000
6437,62.500000
6438,58.593750
6439,58.593750
6440,58.593750
6441,58.593750
6442,58.593750
6443,54.687500
6444,54.687500
6445,54.687500
6446,54.687500
6447,54.687500
6448,50.781250
6449,50.781250
6450,50.781250
6451,46.875000
6452,46.875000
6453,46.875000
6454,46.875000
6455,42.968750
6456,42.968750
6457,42.968750
6458,42.968750
6459,39.062500
6460,39.062500
6461,39.062500
6462,39.062500
6463,39.062500
6464,35.156250
6465,35.156250
6466,31.250000
6467,31.250000
6468,31.250000
6469,31.250000
6470,27.343750
6471,27.343750
6472,27.343750
6473,27.343750
6474,23.437500
6475,23.437500
6476,23.437500
6477,23.437500
6478,19.531250
6479,19.531250
6480,19.531250
6481,15.625000
6482,15.625000
6483,15.625000
6484,15.625000
6485,11.718750
6486,11.718750
6487,11.718750
6488,11.718750
6489,7.812500
6490,7.812500
6491,7.812500
6492,3.906250
6493,3.906250
6494,3.906250
6495,3.906250
6496,0.000000
6497,0.000000
6498,0.000000
6499,0.000000
6500,-3.906250
6501,-3.906250
6502,-3.906250
6503,-7.812500
6504,-7.812500
6505,-7.812500
6506,-11.718750
6507,-11.718750
6508,-11.718750
6509,-11.718750
6510,-15.625000
6511,-15.625000
6512,-15.625000
6513,-15.625000
6514,-19.531250
6515,-19.531250
6516,-19.531250
6517,-23.437500
6518,-23.437500
6519,-23.437500
6520,-27.343750
6521,-27.343750
6522,-27.343750
6523,-27.343750
6524,-31.250000
6525,-31.250000
6526,-31.250000
6527,-35.156250
6528,-35.156250
6529,-35.156250
6530,-35.156250
6531,-39.062500
6532,-39.062500
6533,-39.062500
6534,-42.968750
6535,-42.968750
6536,-42.968750
6537,-42.968750
6538,-46.875000
6539,-46.875000
6540,-46.875000
6541,-50.781250
6542,-50.781250
6543,-50.781250
6544,-54.687500
6545,-54.687500
6546,-54.687500
6547,-54.687500
6548,-54.687500
6549,-58.593750
6550,-58.593750
6551,-58.593750
6552,-62.500000
6553,-62.500000
6554,-62.500000
6555,-66.406250
6556,-66.406250
6557,-66.406250
6558,-66.406250
6559,-66.406250
6560,-70.312500
6561,-70.312500
6562,-74.218750
6563,-74.218750
6564,-74.218750
6565,-74.218750
6566,-78.125000
6567,-78.125000
6568,-78.125000
6569,-82.031250
6570,-82.031250
6571,-82.031250
6572,-82.031250
6573,-82.031250
6574,-85.937500
6575,-85.937500
6576,-89.843750
6577,-89.843750
6578,-89.843750
6579,-89.843750
6580,-89.843750
6581,-93.750000
6582,-93.750000
6583,-93.750000
6584,-97.656250
6585,-97.656250
6586,-97.656250
6587,-97.656250
6588,-101.562500
6589,-101.562500
6590,-101.562500
6591,-101.562500
6592,-105.468750
6593,-105.468750
6594,-105.468750
6595,-105.468750
6596,-109.375000
6597,-109.375000
6598,-109.375000
6599,-109.375000
6600,-113.281250
6601,-113.281250
6602,-113.281250
6603,-113.281250
6604,-113.281250
6605,-117.187500
6606,-117.187500
6607,-117.187500
6608,-121.093750
6609,-121.093750
6610,-121.093750
6611,-121.093750
6612,-125.000000
6613,-125.000000
6614,-125.000000
6615,-125.000000
6616,-125.000000
6617,-128.906250
6618,-128.906250
6619,-128.906250
6620,-132.812500
6621,-132.812500
6622,-132.812500
6623,-132.812500
6624,-132.812500
6625,-136.718750
6626,-136.718750
6627,-136.718750
6628,-136.718750
6629,-140.625000
6630,-140.625000
6631,-140.625000
6632,-140.625000
6633,-140.625000
6634,-144.531250
6635,-144.531250
6636,-144.531250
6637,-144.531250
6638,-148.437500
6639,-148.437500
6640,-148.437500
6641,-148.437500
6642,-148.437500
6643,-148.437500
6644,-152.343750
6645,-152.343750
6646,-152.343750
6647,-152.343750
6648,-152.343750
6649,-156.250000
6650,-156.250000
6651,-156.250000
6652,-156.250000
6653,-156.250000
6654,-160.156250
6655,-160.156250
6656,-160.156250
6657,-160.156250
6658,-160.156250
6659,-164.062500
6660,-164.062500
6661,-164.062500
6662,-164.062500
6663,-164.062500
6664,-164.062500
6665,-164.062500
6666,-167.968750
6667,-167.968750
6668,-167.968750
6669,-167.968750
6670,-167.968750
6671,-167.968750
6672,-171.875000
6673,-171.875000
6674,-171.875000
6675,-171.875000
6676,-171.875000
6677,-171.875000
6678,-171.875000
6679,-175.781250
6680,-175.781250
6681,-175.781250
6682,-175.781250
6683,-175.781250
6684,-175.781250
6685,-175.781250
6686,-175.781250
6687,-179.687500
6688,-179.687500
6689,-179.687500
6690,-179.687500
6691,-179.687500
6692,-179.687500
6693,-179.687500
6694,-179.687500
6695,-179.687500
6696,-183.593750
6697,-183.593750
6698,-183.593750
6699,-183.593750
6700,-183.593750
6701,-183.593750
6702,-183.593750
6703,-183.593750
6704,-183.593750
6705,-183.593750
6706,-187.500000
6707,-187.500000
6708,-187.500000
6709,-187.500000
6710,-187.500000
6711,-187.500000
6712,-187.500000
6713,-187.500000
6714,-187.500000
6715,-187.500000
6716,-187.500000
6717,-187.500000
6718,-187.500000
6719,-187.500000
6720,-191.406250
6721,-187.500000
6722,-191.406250
6723,-191.406250
6724,-191.406250
6725,-191.406250
6726,-191.406250
6727,-191.406250
6728,-191.406250
6729,-191.406250
6730,-191.406250
6731,-191.406250
6732,-191.406250
6733,-191.406250
6734,-191.406250
6735,-191.406250
6736,-191.406250
6737,-191.406250
6738,-191.406250
6739,-191.406250
6740,-195.312500
6741,-191.406250
6742,-191.406250
6743,-191.406250
6744,-191.406250
6745,-191.406250
6746,-191.406250
6747,-195.312500
6748,-191.406250
6749,-195.312500
6750,-195.312500
6751,-195.312500
6752,-195.312500
6753,-195.312500
6754,-195.312500
6755,-191.406250
6756,-195.312500
6757,-195.312500
6758,-195.312500
6759,-191.406250
6760,-191.406250
6761,-195.312500
6762,-191.406250
6763,-191.406250
6764,-191.406250
6765,-191.406250
6766,-191.406250
6767,-191.406250
6768,-191.406250
6769,-191.406250
6770,-191.406250
6771,-191.406250
6772,-191.406250
6773,-191.406250
6774,-191.406250
6775,-191.406250
6776,-191.406250
6777,-191.406250
6778,-191.406250
6779,-191.406250
6780,-191.406250
6781,-191.406250
6782,-191.406250
6783,-187.500000
6784,-187.500000
6785,-187.500000
6786,-187.500000
6787,-187.500000
6788,-187.500000
6789,-187.500000
6790,-187.500000
6791,-187.500000
6792,-187.500000
6793,-183.593750
6794,-183.593750
6795,-183.593750
6796,-187.500000
6797,-187.500000
6798,-183.593750
6799,-183.593750
6800,-183.593750
6801,-183.593750
6802,-183.593750
6803,-183.593750
6804,-183.593750
6805,-179.687500
6806,-179.687500
6807,-179.687500
6808,-175.781250
6809,-179.687500
6810,-179.687500
6811,-179.687500
6812,-179.687500
6813,-179.687500
6814,-175.781250
6815,-175.781250
6816,-175.781250
6817,-175.781250
6818,-175.781250
6819,-175.781250
6820,-171.875000
6821,-171.875000
6822,-171.875000
6823,-171.875000
6824,-171.875000
6825,-171.875000
6826,-171.875000
6827,-167.968750
6828,-167.968750
6829,-167.968750
6830,-167.968750
6831,-167.968750
6832,-167.968750
6833,-167.968750
6834,-167.968750
6835,-164.062500
6836,-164.062500
6837,-164.062500
6838,-164.062500
6839,-164.062500
6840,-160.156250
6841,-160.156250
6842,-160.156250
6843,-160.156250
6844,-160.156250
6845,-160.156250
6846,-156.250000
6847,-156.250000
6848,-156.250000
6849,-156.250000
6850,-156.250000
6851,-152.343750
6852,-152.343750
6853,-152.343750
6854,-152.343750
6855,-152.343750
6856,-148.437500
6857,-148.437500
6858,-148.437500
6859,-148.437500
6860,-148.437500
6861,-144.531250
6862,-144.531250
6863,-144.531250
6864,-144.531250
6865,-144.531250
6866,-140.625000
6867,-140.625000
6868,-140.625000
6869,-140.625000
6870,-140.625000
6871,-136.718750
6872,-136.718750
6873,-136.718750
6874,-136.718750
6875,-132.812500
6876,-132.812500
6877,-132.812500
6878,-132.812500
6879,-128.906250
6880,-128.906250
6881,-128.906250
6882,-128.906250
6883,-128.906250
6884,-125.000000
6885,-125.000000
6886,-125.000000
6887,-125.000000
6888,-121.093750
6889,-121.093750
6890,-121.093750
6891,-121.093750
6892,-117.187500
6893,-117.187500
6894,-117.187500
6895,-117.187500
6896,-117.187500
6897,-113.281250
6898,-113.281250
6899,-113.281250
6900,-109.375000
6901,-109.375000
6902,-109.375000
6903,-109.375000
6904,-105.468750
6905,-105.468750
6906,-105.468750
6907,-105.468750
6908,-105.468750
6909,-101.562500
6910,-101.562500
6911,-101.562500
6912,-97.656250
6913,-97.656250
6914,-97.656250
6915,-93.750000
6916,-93.750000
6917,-93.750000
6918,-93.750000
6919,-93.750000
6920,-89.843750
6921,-89.843750
6922,-89.843750
6923,-85.937500
6924,-85.937500
6925,-85.937500
6926,-85.937500
6927,-82.031250
6928,-82.031250
6929,-82.031250
6930,-82.031250
6931,-78.125000
6932,-78.125000
6933,-78.125000
6934,-74.218750
6935,-74.218750
6936,-74.218750
6937,-74.218750
6938,-70.312500
6939,-70.312500
6940,-70.312500
6941,-66.406250
6942,-66.406250
6943,-66.406250
6944,-62.500000
6945,-62.500000
6946,-62.500000
6947,-58.593750
6948,-58.593750
6949,-58.593750
6950,-58.593750
6951,-58.593750
6952,-54.687500
6953,-54.687500
6954,-54.687500
6955,-50.781250
6956,-50.781250
6957,-50.781250
6958,-50.781250
6959,-46.875000
6960,-46.875000
6961,-46.875000
6962,-42.968750
6963,-42.968750
6964,-42.968750
6965,-42.968750
6966,-39.062500
6967,-39.062500
6968,-39.062500
6969,-35.156250
6970,-35.156250
6971,-35.156250
6972,-31.250000
6973,-31.250000
6974,-31.250000
6975,-31.250000
6976,-27.343750
6977,-27.343750
6978,-27.343750
6979,-23.437500
6980,-23.437500
6981,-23.437500
6982,-23.437500
6983,-23.437500
6984,-19.531250
6985,-19.531250
6986,-15.625000
6987,-15.625000
6988,-15.625000
6989,-11.718750
6990,-11.718750
6991,-11.718750
6992,-11.718750
6993,-7.812500
6994,-7.812500
6995,-7.812500
6996,-7.812500
6997,-3.906250
6998,-3.906250
6999,-3.906250
7000,0.000000
7001,0.000000
7002,0.000000
7003,0.000000
7004,3.906250
7005,3.906250
7006,3.906250
7007,3.906250
7008,7.812500
7009,7.812500
7010,7.812500
7011,11.718750
7012,11.718750
7013,11.718750
7014,11.718750
7015,15.625000
7016,15.625000
7017,15.625000
7018,15.625000
7019,19.531250
7020,19.531250
7021,19.531250
7022,19.531250
7023,23.437500
7024,23.437500
7025,23.437500
7026,27.343750
7027,27.343750
7028,27.343750
7029,27.343750
7030,31.250000
7031,31.250000
7032,31.250000
7033,31.250000
7034,35.156250
7035,35.156250
7036,35.156250
7037,35.156250
7038,39.062500
7039,39.062500
7040,39.062500
7041,42.968750
7042,42.968750
7043,42.968750
7044,42.968750
7045,46.875000
7046,46.875000
7047,46.875000
7048,46.875000
7049,46.875000
7050,50.781250
7051,50.781250
7052,50.781250
7053,54.687500
7054,54.687500
7055,54.687500
7056,54.687500
7057,54.687500
7058,58.593750
7059,58.593750
7060,58.593750
7061,58.593750
7062,62.500000
7063,62.500000
7064,62.500000
7065,62.500000
7066,66.406250
7067,66.406250
7068,66.406250
7069,66.406250
7070,66.406250
7071,70.312500
7072,70.312500
7073,70.312500
7074,70.312500
7075,74.218750
7076,74.218750
7077,74.218750
7078,74.218750
7079,74.218750
7080,78.125000
7081,78.125000
7082,78.125000
7083,78.125000
7084,82.031250
7085,82.031250
7086,82.031250
7087,82.031250
7088,82.031250
7089,85.937500
7090,85.937500
7091,85.937500
7092,85.937500
7093,85.937500
7094,85.937500
7095,89.843750
7096,89.843750
7097,89.843750
7098,89.843750
7099,89.843750
7100,93.750000
7101,93.750000
7102,93.750000
7103,93.750000
7104,97.656250
7105,97.656250
7106,97.656250
7107,97.656250
7108,97.656250
7109,101.562500
7110,97.656250
7111,101.562500
7112,101.562500
7113,101.562500
7114,101.562500
7115,101.562500
7116,105.468750
7117,105.468750
7118,105.468750
7119,105.468750
7120,105.468750
7121,105.468750
7122,109.375000
7123,109.375000
7124,109.375000
7125,109.375000
7126,109.375000
7127,109.375000
7128,113.281250
7129,113.281250
7130,113.281250
7131,113.281250
7132,113.281250
7133,113.281250
7134,113.281250
7135,117.187500
7136,117.187500
7137,117.187500
7138,117.187500
7139,117.187500
7140,117.187500
7141,117.187500
7142,117.187500
7143,121.093750
7144,121.093750
7145,121.093750
7146,121.093750
7147,121.093750
7148,121.093750
7149,121.093750
7150,121.093750
7151,125.000000
7152,125.000000
7153,125.000000
7154,125.000000
7155,125.000000
7156,125.000000
7157,125.000000
7158,125.000000
7159,128.906250
7160,128.906250
7161,128.906250
7162,128.906250
7163,128.906250
7164,128.906250
7165,128.906250
7166,128.906250
7167,132.812500
7168,128.906250
7169,132.812500
7170,132.812500
7171,132.812500
7172,132.812500
7173,132.812500
7174,132.812500
7175,132.812500
7176,132.812500
7177,132.812500
7178,136.718750
7179,136.718750
7180,136.718750
7181,136.718750
7182,136.718750
7183,136.718750
7184,136.718750
7185,136.718750
7186,136.718750
7187,136.718750
7188,136.718750
7189,136.718750
7190,136.718750
7191,136.718750
7192,136.718750
7193,136.718750
7194,140.625000
7195,140.625000
7196,140.625000
7197,140.625000
7198,140.625000
7199,140.625000
7200,140.625000
7201,140.625000
7202,140.625000
7203,140.625000
7204,136.718750
7205,140.625000
7206,140.625000
7207,144.531250
7208,144.531250
7209,140.625000
7210,140.625000
7211,148.437500
7212,144.531250
7213,144.531250
7214,144.531250
7215,144.531250
7216,144.531250
7217,144.531250
7218,144.531250
7219,144.531250
7220,144.531250
7221,144.531250
7222,144.531250
7223,144.531250
7224,140.625000
7225,144.531250
7226,144.531250
7227,144.531250
7228,144.531250
7229,144.531250
7230,144.531250
7231,144.531250
7232,144.531250
7233,144.531250
7234,144.531250
7235,144.531250
7236,144.531250
7237,144.531250
7238,144.531250
7239,144.531250
7240,144.531250
7241,144.531250
7242,148.437500
7243,148.437500
7244,148.437500
7245,144.531250
7246,144.531250
7247,148.437500
7248,144.531250
7249,144.531250
7250,144.531250
7251,144.531250
7252,144.531250
7253,148.437500
7254,148.437500
7255,144.531250
7256,144.531250
7257,144.531250
7258,144.531250
7259,144.531250
7260,144.531250
7261,144.531250
7262,144.531250
7263,144.531250
7264,144.531250
7265,144.531250
7266,144.531250
7267,144.531250
7268,144.531250
7269,144.531250
7270,144.531250
7271,144.531250
7272,144.531250
7273,144.531250
7274,144.531250
7275,144.531250
7276,144.531250
7277,144.531250
7278,144.531250
7279,144.531250
7280,144.531250
7281,140.625000
7282,144.531250
7283,140.625000
7284,140.625000
7285,144.531250
7286,140.625000
7287,140.625000
7288,140.625000
7289,140.625000
7290,140.625000
7291,140.625000
7292,140.625000
7293,140.625000
7294,140.625000
7295,140.625000
7296,140.625000
7297,140.625000
7298,136.718750
7299,140.625000
7300,136.718750
7301,136.718750
7302,136.718750
7303,136.718750
7304,136.718750
7305,136.718750
7306,136.718750
7307,136.718750
7308,136.718750
7309,136.718750
7310,136.718750
7311,132.812500
7312,132.812500
7313,132.812500
7314,132.812500
7315,132.812500
7316,132.812500
7317,132.812500
7318,132.812500
7319,132.812500
7320,132.812500
7321,132.812500
7322,128.906250
7323,128.906250
7324,128.906250
7325,128.906250
7326,128.906250
7327,128.906250
7328,128.906250
7329,128.906250
7330,128.906250
7331,128.906250
7332,128.906250
7333,125.000000
7334,125.000000
7335,125.000000
7336,125.000000
7337,125.000000
7338,125.000000
7339,125.000000
7340,121.093750
7341,121.093750
7342,121.093750
7343,121.093750
7344,121.093750
7345,121.093750
7346,121.093750
7347,121.093750
7348,117.187500
7349,117.187500
7350,117.187500
7351,117.187500
7352,117.187500
7353,117.187500
7354,117.187500
7355,117.187500
7356,113.281250
7357,113.281250
7358,113.281250
7359,113.281250
7360,113.281250
7361,113.281250
7362,109.375000
7363,109.375000
7364,109.375000
7365,109.375000
7366,109.375000
7367,109.375000
7368,109.375000
7369,105.468750
7370,105.468750
7371,105.468750
7372,105.468750
7373,105.468750
7374,101.562500
7375,105.468750
7376,101.562500
7377,101.562500
7378,101.562500
7379,101.562500
7380,97.656250
7381,97.656250
7382,97.656250
7383,97.656250
7384,97.656250
7385,97.656250
7386,93.750000
7387,93.750000
7388,93.750000
7389,93.750000
7390,93.750000
7391,89.843750
7392,89.843750
7393,89.843750
7394,89.843750
7395,89.843750
7396,85.937500
7397,85.937500
7398,85.937500
7399,85.937500
7400,82.031250
7401,82.031250
7402,82.031250
7403,82.031250
7404,82.031250
7405,82.031250
7406,78.125000
7407,78.125000
7408,78.125000
7409,78.125000
7410,78.125000
7411,74.218750
7412,74.218750
7413,74.218750
7414,74.218750
7415,70.312500
7416,70.312500
7417,70.312500
7418,70.312500
7419,66.406250
7420,66.406250
7421,66.406250
7422,66.406250
7423,66.406250
7424,62.500000
7425,62.500000
7426,62.500000
7427,62.500000
7428,58.593750
7429,58.593750
7430,58.593750
7431,58.593750
7432,54.687500
7433,54.687500
7434,54.687500
7435,50.781250
7436,50.781250
7437,50.781250
7438,50.781250
7439,50.781250
7440,46.875000
7441,46.875000
7442,46.875000
7443,46.875000
7444,42.968750
7445,42.968750
7446,42.968750
7447,42.968750
7448,39.062500
7449,39.062500
7450,39.062500
7451,39.062500
7452,39.062500
7453,35.156250
7454,35.156250
7455,35.156250
7456,31.250000
7457,31.250000
7458,31.250000
7459,31.250000
7460,27.343750
7461,27.343750
7462,27.343750
7463,27.343750
7464,27.343750
7465,23.437500
7466,23.437500
7467,23.437500
7468,19.531250
7469,19.531250
7470,19.531250
7471,15.625000
7472,15.625000
7473,15.625000
7474,15.625000
7475,11.718750
7476,11.718750
7477,11.718750
7478,11.718750
7479,7.812500
7480,7.812500
7481,7.812500
7482,7.812500
7483,3.906250
7484,3.906250
7485,3.906250
7486,0.000000
7487,0.000000
7488,0.000000
7489,-3.906250
7490,-3.906250
7491,-3.906250
7492,-3.906250
7493,-3.906250
7494,-7.812500
7495,-7.812500
7496,-7.812500
7497,-11.718750
7498,-11.718750
7499,-11.718750
7500,-15.625000
7501,-15.625000
7502,-15.625000
7503,-19.531250
7504,-19.531250
7505,-19.531250
7506,-23.437500
7507,-19.531250
7508,-23.437500
7509,-23.437500
7510,-27.343750
7511,-27.343750
7512,-27.343750
7513,-27.343750
7514,-27.343750
7515,-31.250000
7516,-31.250000
7517,-31.250000
7518,-35.156250
7519,-35.156250
7520,-39.062500
7521,-39.062500
7522,-39.062500
7523,-39.062500
7524,-42.968750
7525,-42.968750
7526,-42.968750
7527,-42.968750
7528,-46.875000
7529,-46.875000
7530,-46.875000
7531,-50.781250
7532,-50.781250
7533,-50.781250
7534,-50.781250
7535,-54.687500
7536,-54.687500
7537,-54.687500
7538,-58.593750
7539,-58.593750
7540,-58.593750
7541,-58.593750
7542,-62.500000
7543,-62.500000
7544,-62.500000
7545,-66.406250
7546,-66.406250
7547,-66.406250
7548,-66.406250
7549,-70.312500
7550,-70.312500
7551,-70.312500
7552,-70.312500
7553,-74.218750
7554,-74.218750
7555,-78.125000
7556,-78.125000
7557,-78.125000
7558,-78.125000
7559,-82.031250
7560,-82.031250
7561,-82.031250
7562,-82.031250
7563,-85.937500
7564,-85.937500
7565,-85.937500
7566,-85.937500
7567,-89.843750
7568,-89.843750
7569,-89.843750
7570,-89.843750
7571,-89.843750
7572,-93.750000
7573,-93.750000
7574,-97.656250
7575,-97.656250
7576,-101.562500
7577,-97.656250
7578,-101.562500
7579,-101.562500
7580,-101.562500
7581,-101.562500
7582,-105.468750
7583,-105.468750
7584,-105.468750
7585,-109.375000
7586,-109.375000
7587,-109.375000
7588,-109.375000
7589,-113.281250
7590,-113.281250
7591,-113.281250
7592,-113.281250
7593,-113.281250
7594,-117.187500
7595,-117.187500
7596,-117.187500
7597,-117.187500
7598,-121.093750
7599,-121.093750
7600,-117.187500
7601,-121.093750
7602,-125.000000
7603,-125.000000
7604,-125.000000
7605,-125.000000
7606,-128.906250
7607,-128.906250
7608,-128.906250
7609,-128.906250
7610,-128.906250
7611,-132.812500
7612,-132.812500
7613,-132.812500
7614,-132.812500
7615,-136.718750
7616,-136.718750
7617,-136.718750
7618,-136.718750
7619,-140.625000
7620,-140.625000
7621,-140.625000
7622,-140.625000
7623,-140.625000
7624,-144.531250
7625,-144.531250
7626,-144.531250
7627,-144.531250
7628,-148.437500
7629,-148.437500
7630,-148.437500
7631,-148.437500
7632,-148.437500
7633,-148.437500
7634,-152.343750
7635,-152.343750
7636,-152.343750
7637,-152.343750
7638,-152.343750
7639,-152.343750
7640,-156.250000
7641,-156.250000
7642,-160.156250
7643,-156.250000
7644,-160.156250
7645,-160.156250
7646,-160.156250
7647,-160.156250
7648,-160.156250
7649,-164.062500
7650,-164.062500
7651,-164.062500
7652,-164.062500
7653,-164.062500
7654,-164.062500
7655,-164.062500
7656,-167.968750
7657,-167.968750
7658,-167.968750
7659,-167.968750
7660,-167.968750
7661,-171.875000
7662,-171.875000
7663,-171.875000
7664,-171.875000
7665,-171.875000
7666,-171.875000
7667,-171.875000
7668,-171.875000
7669,-175.781250
7670,-175.781250
7671,-175.781250
7672,-175.781250
7673,-175.781250
7674,-175.781250
7675,-175.781250
7676,-179.687500
7677,-179.687500
7678,-179.687500
7679,-179.687500
7680,-179.687500
7681,-179.687500
7682,-179.687500
7683,-179.687500
7684,-183.593750
7685,-183.593750
7686,-183.593750
7687,-183.593750
7688,-183.593750
7689,-183.593750
7690,-183.593750
7691,-183.593750
7692,-187.500000
7693,-183.593750
7694,-187.500000
7695,-187.500000
7696,-187.500000
7697,-187.500000
7698,-187.500000
7699,-187.500000
7700,-187.500000
7701,-187.500000
7702,-187.500000
7703,-187.500000
7704,-187.500000
7705,-187.500000
7706,-187.500000
7707,-191.406250
7708,-191.406250
7709,-191.406250
7710,-191.406250
7711,-191.406250
7712,-191.406250
7713,-191.406250
7714,-191.406250
7715,-191.406250
7716,-191.406250
7717,-191.406250
7718,-191.406250
7719,-191.406250
7720,-191.406250
7721,-191.406250
7722,-191.406250
7723,-191.406250
7724,-191.406250
7725,-191.406250
7726,-191.406250
7727,-191.406250
7728,-191.406250
7729,-191.406250
7730,-191.406250
7731,-191.406250
7732,-191.406250
7733,-191.406250
7734,-195.312500
7735,-191.406250
7736,-195.312500
7737,-195.312500
7738,-195.312500
7739,-191.406250
7740,-195.312500
7741,-195.312500
7742,-195.312500
7743,-191.406250
7744,-191.406250
7745,-191.406250
7746,-191.406250
7747,-191.406250
7748,-191.406250
7749,-191.406250
7750,-191.406250
7751,-191.406250
7752,-195.312500
7753,-191.406250
7754,-191.406250
7755,-191.406250
7756,-191.406250
7757,-191.406250
7758,-191.406250
7759,-191.406250
7760,-191.406250
7761,-191.406250
7762,-191.406250
7763,-191.406250
7764,-191.406250
7765,-191.406250
7766,-191.406250
7767,-191.406250
7768,-191.406250
7769,-187.500000
7770,-187.500000
7771,-191.406250
7772,-187.500000
7773,-187.500000
7774,-187.500000
7775,-187.500000
7776,-187.500000
7777,-187.500000
7778,-187.500000
7779,-187.500000
7780,-187.500000
7781,-187.500000
7782,-187.500000
7783,-187.500000
7784,-187.500000
7785,-183.593750
7786,-183.593750
7787,-183.593750
7788,-183.593750
7789,-183.593750
7790,-183.593750
7791,-183.593750
7792,-183.593750
7793,-183.593750
7794,-179.687500
7795,-179.687500
7796,-179.687500
7797,-179.687500
7798,-179.687500
7799,-179.687500
7800,-179.687500
7801,-179.687500
7802,-179.687500
7803,-179.687500
7804,-175.781250
7805,-175.781250
7806,-175.781250
7807,-175.781250
7808,-175.781250
7809,-175.781250
7810,-175.781250
7811,-171.875000
7812,-171.875000
7813,-171.875000
7814,-171.875000
7815,-171.875000
7816,-171.875000
7817,-171.875000
7818,-167.968750
7819,-167.968750
7820,-167.968750
7821,-167.968750
7822,-167.968750
7823,-164.062500
7824,-164.062500
7825,-164.062500
7826,-164.062500
7827,-164.062500
7828,-164.062500
7829,-160.156250
7830,-160.156250
7831,-160.156250
7832,-160.156250
7833,-160.156250
7834,-160.156250
7835,-160.156250
7836,-156.250000
7837,-156.250000
7838,-156.250000
7839,-156.250000
7840,-156.250000
7841,-152.343750
7842,-152.343750
7843,-152.343750
7844,-152.343750
7845,-152.343750
7846,-148.437500
7847,-148.437500
7848,-148.437500
7849,-148.437500
7850,-144.531250
7851,-144.531250
7852,-144.531250
7853,-144.531250
7854,-144.531250
7855,-144.531250
7856,-140.625000
7857,-140.625000
7858,-140.625000
7859,-140.625000
7860,-136.718750
7861,-136.718750
7862,-136.718750
7863,-136.718750
7864,-132.812500
7865,-132.812500
7866,-132.812500
7867,-132.812500
7868,-128.906250
7869,-128.906250
7870,-128.906250
7871,-128.906250
7872,-128.906250
7873,-125.000000
7874,-125.000000
7875,-125.000000
7876,-125.000000
7877,-121.093750
7878,-121.093750
7879,-121.093750
7880,-121.093750
7881,-121.093750
7882,-117.187500
7883,-117.187500
7884,-117.187500
7885,-113.281250
7886,-113.281250
7887,-113.281250
7888,-113.281250
7889,-109.375000
7890,-109.375000
7891,-109.375000
7892,-109.375000
7893,-105.468750
7894,-105.468750
7895,-105.468750
7896,-105.468750
7897,-101.562500
7898,-101.562500
7899,-101.562500
7900,-101.562500
7901,-97.656250
7902,-97.656250
7903,-97.656250
7904,-97.656250
7905,-93.750000
7906,-93.750000
7907,-93.750000
7908,-93.750000
7909,-89.843750
7910,-89.843750
7911,-89.843750
7912,-85.937500
7913,-85.937500
7914,-85.937500
7915,-85.937500
7916,-85.937500
7917,-82.031250
7918,-82.031250
7919,-82.031250
7920,-78.125000
7921,-78.125000
7922,-78.125000
7923,-74.218750
7924,-74.218750
7925,-74.218750
7926,-74.218750
7927,-70.312500
7928,-70.312500
7929,-70.312500
7930,-70.312500
7931,-66.406250
7932,-66.406250
7933,-66.406250
7934,-62.500000
7935,-62.500000
7936,-62.500000
7937,-62.500000
7938,-62.500000
7939,-58.593750
7940,-58.593750
7941,-54.687500
7942,-54.687500
7943,-54.687500
7944,-54.687500
7945,-50.781250
7946,-50.781250
7947,-50.781250
7948,-50.781250
7949,-46.875000
7950,-46.875000
7951,-42.968750
7952,-42.968750
7953,-42.968750
7954,-42.968750
7955,-39.062500
7956,-39.062500
7957,-39.062500
7958,-39.062500
7959,-35.156250
7960,-35.156250
7961,-35.156250
7962,-35.156250
7963,-31.250000
7964,-31.250000
7965,-27.343750
7966,-31.250000
7967,-27.343750
7968,-23.437500
7969,-27.343750
7970,-23.437500
7971,-23.437500
7972,-23.437500
7973,-19.531250
7974,-19.531250
7975,-19.531250
7976,-15.625000
7977,-15.625000
7978,-15.625000
7979,-11.718750
7980,-11.718750
7981,-11.718750
7982,-7.812500
7983,-7.812500
7984,-7.812500
7985,-7.812500
7986,-3.906250
7987,-3.906250
7988,-3.906250
7989,-3.906250
7990,0.000000
7991,0.000000
7992,0.000000
7993,3.906250
7994,3.906250
7995,3.906250
7996,3.906250
7997,7.812500
7998,7.812500
7999,7.812500
8000,7.812500
8001,11.718750
8002,11.718750
8003,11.718750
8004,15.625000
8005,15.625000
8006,15.625000
8007,15.625000
8008,19.531250
8009,19.531250
8010,19.531250
8011,23.437500
8012,23.437500
8013,23.437500
8014,23.437500
8015,23.437500
8016,27.343750
8017,27.343750
8018,27.343750
8019,31.250000
8020,31.250000
8021,31.250000
8022,31.250000
8023,35.156250
8024,35.156250
8025,35.156250
8026,39.062500
8027,39.062500
8028,39.062500
8029,39.062500
8030,39.062500
8031,42.968750
8032,42.968750
8033,42.968750
8034,42.968750
8035,46.875000
8036,46.875000
8037,46.875000
8038,50.781250
8039,50.781250
8040,50.781250
8041,50.781250
8042,50.781250
8043,50.781250
8044,54.687500
8045,54.687500
8046,54.687500
8047,58.593750
8048,58.593750
8049,58.593750
8050,58.593750
8051,62.500000
8052,62.500000
8053,62.500000
8054,62.500000
8055,62.500000
8056,62.500000
8057,66.406250
8058,66.406250
8059,70.312500
8060,70.312500
8061,70.312500
8062,70.312500
8063,70.312500
8064,70.312500
8065,74.218750
8066,74.218750
8067,74.218750
8068,74.218750
8069,74.218750
8070,78.125000
8071,78.125000
8072,78.125000
8073,78.125000
8074,82.031250
8075,82.031250
8076,82.031250
8077,82.031250
8078,82.031250
8079,85.937500
8080,85.937500
8081,85.937500
8082,85.937500
8083,85.937500
8084,89.843750
8085,89.843750
8086,89.843750
8087,89.843750
8088,89.843750
8089,93.750000
8090,93.750000
8091,93.750000
8092,93.750000
8093,93.750000
8094,93.750000
8095,97.656250
8096,97.656250
8097,97.656250
8098,97.656250
8099,101.562500
8100,101.562500
8101,101.562500
8102,101.562500
8103,101.562500
8104,101.562500
8105,105.468750
8106,105.468750
8107,105.468750
8108,105.468750
8109,105.468750
8110,105.468750
8111,109.375000
8112,109.375000
8113,109.375000
8114,109.375000
8115,109.375000
8116,109.375000
8117,109.375000
8118,109.375000
8119,113.281250
8120,113.281250
8121,113.281250
8122,113.281250
8123,117.187500
8124,117.187500
8125,117.187500
8126,117.187500
8127,117.187500
8128,117.187500
8129,117.187500
8130,117.187500
8131,117.187500
8132,117.187500
8133,121.093750
8134,121.093750
8135,121.093750
8136,121.093750
8137,121.093750
8138,121.093750
8139,125.000000
8140,125.000000
8141,125.000000
8142,125.000000
8143,125.000000
8144,125.000000
8145,125.000000
8146,125.000000
8147,128.906250
8148,125.000000
8149,128.906250
8150,128.906250
8151,128.906250
8152,128.906250
8153,128.906250
8154,128.906250
8155,128.906250
8156,128.906250
8157,132.812500
8158,132.812500
8159,132.812500
8160,132.812500
8161,132.812500
8162,132.812500
8163,132.812500
8164,132.812500
8165,132.812500
8166,132.812500
8167,136.718750
8168,136.718750
8169,136.718750
8170,136.718750
8171,136.718750
8172,136.718750
8173,136.718750
8174,136.718750
8175,136.718750
8176,136.718750
8177,136.718750
8178,136.718750
8179,140.625000
8180,136.718750
8181,136.718750
8182,136.718750
8183,140.625000
8184,140.625000
8185,140.625000
8186,140.625000
8187,140.625000
8188,140.625000
8189,140.625000
8190,140.625000
8191,140.625000
8192,140.625000
8193,140.625000
8194,140.625000
8195,140.625000
8196,140.625000
8197,144.531250
8198,140.625000
8199,144.531250
8200,144.531250
8201,144.531250
8202,144.531250
8203,144.531250
8204,144.531250
8205,144.531250
8206,144.531250
8207,144.531250
8208,144.531250
8209,144.531250
8210,144.531250
8211,144.531250
8212,144.531250
8213,144.531250
8214,144.531250
8215,144.531250
8216,144.531250
8217,144.531250
8218,144.531250
8219,144.531250
8220,144.531250
8221,144.531250
8222,144.531250
8223,144.531250
8224,144.531250
8225,144.531250
8226,144.531250
8227,144.531250
8228,144.531250
8229,144.531250
8230,144.531250
8231,144.531250
8232,144.531250
8233,148.437500
8234,144.531250
8235,148.437500
8236,144.531250
8237,144.531250
8238,144.531250
8239,144.531250
8240,144.531250
8241,144.531250
8242,144.531250
8243,144.531250
8244,144.531250
8245,144.531250
8246,144.531250
8247,144.531250
8248,144.531250
8249,144.531250
8250,144.531250
8251,144.531250
8252,144.531250
8253,144.531250
8254,144.531250
8255,144.531250
8256,144.531250
8257,144.531250
8258,144.531250
8259,144.531250
8260,144.531250
8261,144.531250
8262,144.531250
8263,144.531250
8264,144.531250
8265,144.531250
8266,144.531250
8267,144.531250
8268,144.531250
8269,144.531250
8270,144.531250
8271,144.531250
8272,144.531250
8273,144.531250
8274,144.531250
8275,140.625000
8276,140.625000
8277,140.625000
8278,140.625000
8279,140.625000
8280,140.625000
8281,140.625000
8282,140.625000
8283,140.625000
8284,140.625000
8285,140.625000
8286,140.625000
8287,140.625000
8288,140.625000
8289,140.625000
8290,136.718750
8291,136.718750
8292,136.718750
8293,136.718750
8294,136.718750
8295,136.718750
8296,136.718750
8297,136.718750
8298,136.718750
8299,136.718750
8300,136.718750
8301,136.718750
8302,132.812500
8303,136.718750
8304,132.812500
8305,132.812500
8306,132.812500
8307,132.812500
8308,132.812500
8309,132.812500
8310,132.812500
8311,132.812500
8312,132.812500
8313,132.812500
8314,128.906250
8315,128.906250
8316,128.906250
8317,128.906250
8318,128.906250
8319,128.906250
8320,128.906250
8321,128.906250
8322,125.000000
8323,125.000000
8324,125.000000
8325,125.000000
8326,125.000000
8327,125.000000
8328,125.000000
8329,121.093750
8330,121.093750
8331,121.093750
8332,121.093750
8333,121.093750
8334,121.093750
8335,121.093750
8336,121.093750
8337,121.093750
8338,117.187500
8339,117.187500
8340,117.187500
8341,117.187500
8342,117.187500
8343,117.187500
8344,113.281250
8345,117.187500
8346,113.281250
8347,113.281250
8348,113.281250
8349,113.281250
8350,113.281250
8351,113.281250
8352,109.375000
8353,109.375000
8354,109.375000
8355,109.375000
8356,109.375000
8357,109.375000
8358,109.375000
8359,105.468750
8360,105.468750
8361,105.468750
8362,105.468750
8363,105.468750
8364,105.468750
8365,101.562500
8366,101.562500
8367,101.562500
8368,101.562500
8369,101.562500
8370,97.656250
8371,97.656250
8372,97.656250
8373,97.656250
8374,97.656250
8375,93.750000
8376,93.750000
8377,93.750000
8378,93.750000
8379,93.750000
8380,89.843750
8381,93.750000
8382,89.843750
8383,89.843750
8384,89.843750
8385,89.843750
8386,85.937500
8387,85.937500
8388,85.937500
8389,85.937500
8390,85.937500
8391,85.937500
8392,82.031250
8393,82.031250
8394,82.031250
8395,78.125000
8396,78.125000
8397,78.125000
8398,78.125000
8399,78.125000
8400,78.125000
8401,74.218750
8402,74.218750
8403,74.218750
8404,74.218750
8405,70.312500
8406,70.312500
8407,70.312500
8408,70.312500
8409,70.312500
8410,66.406250
8411,66.406250
8412,66.406250
8413,66.406250
8414,62.500000
8415,62.500000
8416,62.500000
8417,62.500000
8418,58.593750
8419,58.593750
8420,58.593750
8421,58.593750
8422,58.593750
8423,54.687500
8424,54.687500
8425,54.687500
8426,54.687500
8427,50.781250
8428,50.781250
8429,50.781250
8430,50.781250
8431,46.875000
8432,46.875000
8433,46.875000
8434,46.875000
8435,42.968750
8436,42.968750
8437,42.968750
8438,39.062500
8439,39.062500
8440,39.062500
8441,39.062500
8442,35.156250
8443,35.156250
8444,35.156250
8445,35.156250
8446,35.156250
8447,31.250000
8448,31.250000
8449,31.250000
8450,27.343750
8451,27.343750
8452,27.343750
8453,23.437500
8454,23.437500
8455,23.437500
8456,23.437500
8457,23.437500
8458,19.531250
8459,19.531250
8460,15.625000
8461,19.531250
8462,15.625000
8463,15.625000
8464,11.718750
8465,11.718750
8466,11.718750
8467,11.718750
8468,11.718750
8469,7.812500
8470,7.812500
8471,7.812500
8472,3.906250
8473,3.906250
8474,3.906250
8475,3.906250
8476,0.000000
8477,0.000000
8478,0.000000
8479,-3.906250
8480,-3.906250
8481,-3.906250
8482,-3.906250
8483,-7.812500
8484,-7.812500
8485,-7.812500
8486,-11.718750
8487,-11.718750
8488,-11.718750
8489,-11.718750
8490,-15.625000
8491,-15.625000
8492,-15.625000
8493,-19.531250
8494,-19.531250
8495,-19.531250
8496,-23.437500
8497,-23.437500
8498,-23.437500
8499,-23.437500
8500,-27.343750
8501,-27.343750
8502,-27.343750
8503,-27.343750
8504,-31.250000
8505,-31.250000
8506,-31.250000
8507,-35.156250
8508,-35.156250
8509,-35.156250
8510,-35.156250
8511,-39.062500
8512,-39.062500
8513,-39.062500
8514,-42.968750
8515,-42.968750
8516,-42.968750
8517,-42.968750
8518,-46.875000
8519,-46.875000
8520,-46.875000
8521,-50.781250
8522,-50.781250
8523,-50.781250
8524,-54.687500
8525,-54.687500
8526,-54.687500
8527,-54.687500
8528,-58.593750
8529,-58.593750
8530,-58.593750
8531,-62.500000
8532,-62.500000
8533,-62.500000
8534,-62.500000
8535,-66.406250
8536,-66.406250
8537,-66.406250
8538,-66.406250
8539,-70.312500
8540,-70.312500
8541,-70.312500
8542,-74.218750
8543,-74.218750
8544,-74.218750
8545,-74.218750
8546,-78.125000
8547,-78.125000
8548,-78.125000
8549,-82.031250
8550,-82.031250
8551,-82.031250
8552,-85.937500
8553,-85.937500
8554,-85.937500
8555,-85.937500
8556,-85.937500
8557,-89.843750
8558,-89.843750
8559,-89.843750
8560,-93.750000
8561,-93.750000
8562,-93.750000
8563,-93.750000
8564,-97.656250
8565,-97.656250
8566,-97.656250
8567,-97.656250
8568,-101.562500
8569,-101.562500
8570,-101.562500
8571,-101.562500
8572,-105.468750
8573,-105.468750
8574,-105.468750
8575,-109.375000
8576,-109.375000
8577,-109.375000
8578,-109.375000
8579,-109.375000
8580,-113.281250
8581,-113.281250
8582,-113.281250
8583,-117.187500
8584,-117.187500
8585,-117.187500
8586,-117.187500
8587,-121.093750
8588,-121.093750
8589,-121.093750
8590,-121.093750
8591,-121.093750
8592,-125.000000
8593,-125.000000
8594,-125.000000
8595,-125.000000
8596,-128.906250
8597,-128.906250
8598,-128.906250
8599,-128.906250
8600,-128.906250
8601,-132.812500
8602,-132.812500
8603,-132.812500
8604,-136.718750
8605,-136.718750
8606,-136.718750
8607,-136.718750
8608,-136.718750
8609,-140.625000
8610,-140.625000
8611,-140.625000
8612,-140.625000
8613,-144.531250
8614,-144.531250
8615,-144.531250
8616,-144.531250
8617,-144.531250
8618,-144.531250
8619,-148.437500
8620,-148.437500
8621,-148.437500
8622,-148.437500
8623,-152.343750
8624,-152.343750
8625,-152.343750
8626,-152.343750
8627,-152.343750
8628,-156.250000
8629,-156.250000
8630,-156.250000
8631,-156.250000
8632,-156.250000
8633,-156.250000
8634,-160.156250
8635,-160.156250
8636,-160.156250
8637,-160.156250
8638,-160.156250
8639,-164.062500
8640,-164.062500
8641,-164.062500
8642,-164.062500
8643,-164.062500
8644,-164.062500
8645,-164.062500
8646,-167.968750
8647,-167.968750
8648,-167.968750
8649,-167.968750
8650,-167.968750
8651,-167.968750
8652,-167.968750
8653,-171.875000
8654,-171.875000
8655,-171.875000
8656,-171.875000
8657,-171.875000
8658,-171.875000
8659,-171.875000
8660,-175.781250
8661,-175.781250
8662,-175.781250
8663,-175.781250
8664,-175.781250
8665,-175.781250
8666,-179.687500
8667,-179.687500
8668,-179.687500
8669,-179.687500
8670,-179.687500
8671,-179.687500
8672,-179.687500
8673,-179.687500
8674,-179.687500
8675,-183.593750
8676,-183.593750
8677,-183.593750
8678,-183.593750
8679,-183.593750
8680,-183.593750
8681,-183.593750
8682,-183.593750
8683,-183.593750
8684,-187.500000
8685,-187.500000
8686,-187.500000
8687,-187.500000
8688,-187.500000
8689,-187.500000
8690,-187.500000
8691,-187.500000
8692,-187.500000
8693,-187.500000
8694,-187.500000
8695,-187.500000
8696,-187.500000
8697,-187.500000
8698,-187.500000
8699,-191.406250
8700,-191.406250
8701,-191.406250
8702,-191.406250
8703,-191.406250
8704,-191.406250
8705,-191.406250
8706,-191.406250
8707,-191.406250
8708,-191.406250
8709,-191.406250
8710,-191.406250
8711,-191.406250
8712,-191.406250
8713,-191.406250
8714,-191.406250
8715,-191.406250
8716,-191.406250
8717,-191.406250
8718,-191.406250
8719,-191.406250
8720,-191.406250
8721,-191.406250
8722,-195.312500
8723,-191.406250
8724,-195.312500
8725,-195.312500
8726,-195.312500
8727,-195.312500
8728,-195.312500
8729,-191.406250
8730,-191.406250
8731,-195.312500
8732,-191.406250
8733,-191.406250
8734,-191.406250
8735,-195.312500
8736,-195.312500
8737,-195.312500
8738,-191.406250
8739,-191.406250
8740,-191.406250
8741,-191.406250
8742,-191.406250
8743,-191.406250
8744,-191.406250
8745,-191.406250
8746,-191.406250
8747,-191.406250
8748,-191.406250
8749,-191.406250
8750,-191.406250
8751,-191.406250
8752,-191.406250
8753,-191.406250
8754,-191.406250
8755,-191.406250
8756,-191.406250
8757,-191.406250
8758,-191.406250
8759,-191.406250
8760,-191.406250
8761,-191.406250
8762,-187.500000
8763,-187.500000
8764,-187.500000
8765,-187.500000
8766,-187.500000
8767,-187.500000
8768,-187.500000
8769,-187.500000
8770,-187.500000
8771,-187.500000
8772,-187.500000
8773,-187.500000
8774,-187.500000
8775,-183.593750
8776,-183.593750
8777,-183.593750
8778,-183.593750
8779,-183.593750
8780,-183.593750
8781,-183.593750
8782,-179.687500
8783,-179.687500
8784,-179.687500
8785,-179.687500
8786,-179.687500
8787,-179.687500
8788,-179.687500
8789,-179.687500
8790,-179.687500
8791,-175.781250
8792,-175.781250
8793,-175.781250
8794,-175.781250
8795,-175.781250
8796,-175.781250
8797,-175.781250
8798,-175.781250
8799,-175.781250
8800,-175.781250
8801,-171.875000
8802,-171.875000
8803,-171.875000
8804,-171.875000
8805,-171.875000
8806,-167.968750
8807,-167.968750
8808,-167.968750
8809,-167.968750
8810,-167.968750
8811,-167.968750
8812,-167.968750
8813,-167.968750
8814,-164.062500
8815,-164.062500
8816,-164.062500
8817,-164.062500
8818,-164.062500
8819,-160.156250
8820,-160.156250
8821,-160.156250
8822,-160.156250
8823,-160.156250
8824,-160.156250
8825,-156.250000
8826,-156.250000
8827,-156.250000
8828,-156.250000
8829,-156.250000
8830,-156.250000
8831,-152.343750
8832,-152.343750
8833,-152.343750
8834,-152.343750
8835,-148.437500
8836,-148.437500
8837,-148.437500
8838,-148.437500
8839,-148.437500
8840,-144.531250
8841,-144.531250
8842,-144.531250
8843,-144.531250
8844,-144.531250
8845,-140.625000
8846,-140.625000
8847,-140.625000
8848,-140.625000
8849,-140.625000
8850,-136.718750
8851,-136.718750
8852,-136.718750
8853,-132.812500
8854,-136.718750
8855,-132.812500
8856,-132.812500
8857,-132.812500
8858,-132.812500
8859,-128.906250
8860,-128.906250
8861,-128.906250
8862,-128.906250
8863,-125.000000
8864,-125.000000
8865,-125.000000
8866,-121.093750
8867,-121.093750
8868,-121.093750
8869,-121.093750
8870,-121.093750
8871,-117.187500
8872,-117.187500
8873,-117.187500
8874,-117.187500
8875,-113.281250
8876,-113.281250
8877,-113.281250
8878,-113.281250
8879,-109.375000
8880,-109.375000
8881,-109.375000
8882,-109.375000
8883,-105.468750
8884,-105.468750
8885,-105.468750
8886,-101.562500
8887,-101.562500
8888,-101.562500
8889,-101.562500
8890,-101.562500
8891,-97.656250
8892,-97.656250
8893,-97.656250
8894,-97.656250
8895,-93.750000
8896,-93.750000
8897,-93.750000
8898,-89.843750
8899,-89.843750
8900,-89.843750
8901,-85.937500
8902,-85.937500
8903,-85.937500
8904,-85.937500
8905,-82.031250
8906,-82.031250
8907,-82.031250
8908,-82.031250
8909,-78.125000
8910,-78.125000
8911,-78.125000
8912,-78.125000
8913,-74.218750
8914,-74.218750
8915,-74.218750
8916,-70.312500
8917,-70.312500
8918,-70.312500
8919,-66.406250
8920,-66.406250
8921,-66.406250
8922,-66.406250
8923,-62.500000
8924,-62.500000
8925,-62.500000
8926,-62.500000
8927,-58.593750
8928,-58.593750
8929,-58.593750
8930,-58.593750
8931,-54.687500
8932,-54.687500
8933,-54.687500
8934,-50.781250
8935,-50.781250
8936,-50.781250
8937,-46.875000
8938,-46.875000
8939,-46.875000
8940,-46.875000
8941,-42.968750
8942,-42.968750
8943,-42.968750
8944,-39.062500
8945,-39.062500
8946,-39.062500
8947,-39.062500
8948,-39.062500
8949,-35.156250
8950,-35.156250
8951,-31.250000
8952,-31.250000
8953,-31.250000
8954,-31.250000
8955,-27.343750
8956,-27.343750
8957,-27.343750
8958,-23.437500
8959,-23.437500
8960,-23.437500
8961,-23.437500
8962,-19.531250
8963,-19.531250
8964,-19.531250
8965,-15.625000
8966,-15.625000
8967,-15.625000
8968,-15.625000
8969,-15.625000
8970,-11.718750
8971,-11.718750
8972,-11.718750
8973,-7.812500
8974,-7.812500
8975,-7.812500
8976,-3.906250
8977,-3.906250
8978,-3.906250
8979,0.000000
8980,0.000000
8981,0.000000
8982,0.000000
8983,0.000000
8984,3.906250
8985,3.906250
8986,3.906250
8987,7.812500
8988,7.812500
8989,7.812500
8990,7.812500
8991,11.718750
8992,11.718750
8993,11.718750
8994,15.625000
8995,15.625000
8996,15.625000
8997,19.531250
8998,19.531250
8999,19.531250
9000,19.531250
9001,23.437500
9002,23.437500
9003,23.437500
9004,23.437500
9005,27.343750
9006,27.343750
9007,27.343750
9008,27.343750
9009,31.250000
9010,31.250000
9011,31.250000
9012,31.250000
9013,35.156250
9014,35.156250
9015,35.156250
9016,35.156250
9017,39.062500
9018,39.062500
9019,39.062500
9020,42.968750
9021,42.968750
9022,42.968750
9023,42.968750
9024,46.875000
9025,46.875000
9026,46.875000
9027,46.875000
9028,46.875000
9029,50.781250
9030,50.781250
9031,50.781250
9032,54.687500
9033,54.687500
9034,54.687500
9035,54.687500
9036,58.593750
9037,58.593750
9038,58.593750
9039,58.593750
9040,58.593750
9041,62.500000
9042,62.500000
9043,62.500000
9044,62.500000
9045,66.406250
9046,66.406250
9047,66.406250
9048,66.406250
9049,70.312500
9050,70.312500
9051,70.312500
9052,70.312500
9053,70.312500
9054,70.312500
9055,74.218750
9056,74.218750
9057,74.218750
9058,78.125000
9059,78.125000
9060,78.125000
9061,78.125000
9062,78.125000
9063,82.031250
9064,82.031250
9065,82.031250
9066,82.031250
9067,82.031250
9068,82.031250
9069,85.937500
9070,85.937500
9071,85.937500
9072,85.937500
9073,89.843750
9074,89.843750
9075,89.843750
9076,89.843750
9077,89.843750
9078,93.750000
9079,93.750000
9080,93.750000
9081,93.750000
9082,93.750000
9083,97.656250
9084,97.656250
9085,97.656250
9086,97.656250
9087,97.656250
9088,97.656250
9089,101.562500
9090,101.562500
9091,101.562500
9092,101.562500
9093,101.562500
9094,101.562500
9095,105.468750
9096,105.468750
9097,105.468750
9098,105.468750
9099,105.468750
9100,105.468750
9101,105.468750
9102,109.375000
9103,109.375000
9104,109.375000
9105,109.375000
9106,109.375000
9107,113.281250
9108,113.281250
9109,113.281250
9110,113.281250
9111,113.281250
9112,113.281250
9113,113.281250
9114,113.281250
9115,117.187500
9116,117.187500
9117,117.187500
9118,117.187500
9119,117.187500
9120,117.187500
9121,121.093750
9122,121.093750
9123,121.093750
9124,121.093750
9125,121.093750
9126,121.093750
9127,125.000000
9128,121.093750
9129,125.000000
9130,125.000000
9131,125.000000
9132,125.000000
9133,125.000000
9134,125.000000
9135,125.000000
9136,125.000000
9137,128.906250
9138,128.906250
9139,132.812500
9140,128.906250
9141,128.906250
9142,128.906250
9143,128.906250
9144,128.906250
9145,128.906250
9146,128.906250
9147,132.812500
9148,132.812500
9149,132.812500
9150,132.812500
9151,132.812500
9152,132.812500
9153,132.812500
9154,132.812500
9155,132.812500
9156,132.812500
9157,136.718750
9158,136.718750
9159,136.718750
9160,136.718750
9161,136.718750
9162,136.718750
9163,136.718750
9164,136.718750
9165,136.718750
9166,136.718750
9167,140.625000
9168,136.718750
9169,140.625000
9170,140.625000
9171,140.625000
9172,140.625000
9173,140.625000
9174,140.625000
9175,140.625000
9176,140.625000
9177,140.625000
9178,140.625000
9179,140.625000
9180,140.625000
9181,144.531250
9182,140.625000
9183,144.531250
9184,140.625000
9185,144.531250
9186,140.625000
9187,144.531250
9188,144.531250
9189,144.531250
9190,144.531250
9191,144.531250
9192,144.531250
9193,144.531250
9194,144.531250
9195,144.531250
9196,144.531250
9197,144.531250
9198,144.531250
9199,144.531250
9200,144.531250
9201,144.531250
9202,144.531250
9203,144.531250
9204,144.531250
9205,144.531250
9206,144.531250
9207,144.531250
9208,144.531250
9209,144.531250
9210,148.437500
9211,144.531250
9212,144.531250
9213,148.437500
9214,144.531250
9215,144.531250
9216,148.437500
9217,144.531250
9218,144.531250
9219,144.531250
9220,144.531250
9221,144.531250
9222,144.531250
9223,148.437500
9224,144.531250
9225,144.531250
9226,144.531250
9227,144.531250
9228,144.531250
9229,144.531250
9230,144.531250
9231,144.531250
9232,144.531250
9233,144.531250
9234,144.531250
9235,144.531250
9236,144.531250
9237,144.531250
9238,144.531250
9239,144.531250
9240,144.531250
9241,144.531250
9242,144.531250
9243,144.531250
9244,144.531250
9245,144.531250
9246,144.531250
9247,144.531250
9248,144.531250
9249,144.531250
9250,144.531250
9251,144.531250
9252,144.531250
9253,144.531250
9254,144.531250
9255,144.531250
9256,144.531250
9257,144.531250
9258,144.531250
9259,144.531250
9260,144.531250
9261,144.531250
9262,144.531250
9263,140.625000
9264,140.625000
9265,140.625000
9266,140.625000
9267,140.625000
9268,140.625000
9269,140.625000
9270,140.625000
9271,140.625000
9272,140.625000
9273,140.625000
9274,140.625000
9275,140.625000
9276,140.625000
9277,140.625000
9278,136.718750
9279,140.625000
9280,136.718750
9281,136.718750
9282,136.718750
9283,136.718750
9284,136.718750
9285,136.718750
9286,136.718750
9287,136.718750
9288,136.718750
9289,136.718750
9290,136.718750
9291,132.812500
9292,136.718750
9293,132.812500
9294,132.812500
9295,132.812500
9296,132.812500
9297,132.812500
9298,132.812500
9299,132.812500
9300,132.812500
9301,132.812500
9302,128.906250
9303,132.812500
9304,128.906250
9305,128.906250
9306,128.906250
9307,128.906250
9308,128.906250
9309,128.906250
9310,125.000000
9311,128.906250
9312,125.000000
9313,125.000000
9314,125.000000
9315,125.000000
9316,125.000000
9317,125.000000
9318,125.000000
9319,121.093750
9320,125.000000
9321,121.093750
9322,121.093750
9323,121.093750
9324,121.093750
9325,121.093750
9326,121.093750
9327,121.093750
9328,117.187500
9329,117.187500
9330,117.187500
9331,117.187500
9332,117.187500
9333,117.187500
9334,117.187500
9335,113.281250
9336,113.281250
9337,113.281250
9338,113.281250
9339,113.281250
9340,113.281250
9341,109.375000
9342,109.375000
9343,109.375000
9344,109.375000
9345,109.375000
9346,109.375000
9347,109.375000
9348,105.468750
9349,105.468750
9350,105.468750
9351,105.468750
9352,105.468750
9353,101.562500
9354,101.562500
9355,101.562500
9356,101.562500
9357,101.562500
9358,101.562500
9359,101.562500
9360,97.656250
9361,97.656250
9362,97.656250
9363,97.656250
9364,93.750000
9365,93.750000
9366,93.750000
9367,93.750000
9368,93.750000
9369,93.750000
9370,93.750000
9371,89.843750
9372,89.843750
9373,89.843750
9374,89.843750
9375,85.937500
9376,85.937500
9377,85.937500
9378,85.937500
9379,85.937500
9380,85.937500
9381,82.031250
9382,82.031250
9383,82.031250
9384,82.031250
9385,82.031250
9386,78.125000
9387,78.125000
9388,78.125000
9389,78.125000
9390,74.218750
9391,74.218750
9392,74.218750
9393,74.218750
9394,74.218750
9395,70.312500
9396,70.312500
9397,70.312500
9398,70.312500
9399,70.312500
9400,66.406250
9401,66.406250
9402,66.406250
9403,66.406250
9404,62.500000
9405,62.500000
9406,62.500000
9407,62.500000
9408,58.593750
9409,58.593750
9410,58.593750
9411,54.687500
9412,54.687500
9413,54.687500
9414,54.687500
9415,54.687500
9416,50.781250
9417,50.781250
9418,50.781250
9419,50.781250
9420,46.875000
9421,46.875000
9422,46.875000
9423,46.875000
9424,42.968750
9425,42.968750
9426,42.968750
9427,42.968750
9428,39.062500
9429,39.062500
9430,39.062500
9431,39.062500
9432,35.156250
9433,35.156250
9434,35.156250
9435,35.156250
9436,31.250000
9437,31.250000
9438,31.250000
9439,27.343750
9440,27.343750
9441,27.343750
9442,27.343750
9443,23.437500
9444,23.437500
9445,23.437500
9446,23.437500
9447,19.531250
9448,19.531250
9449,19.531250
9450,19.531250
9451,15.625000
9452,15.625000
9453,15.625000
9454,11.718750
9455,11.718750
9456,11.718750
9457,11.718750
9458,7.812500
9459,7.812500
9460,7.812500
9461,7.812500
9462,3.906250
9463,3.906250
9464,3.906250
9465,0.000000
9466,0.000000
9467,0.000000
9468,0.000000
9469,-3.906250
9470,-3.906250
9471,-3.906250
9472,-7.812500
9473,-7.812500
9474,-7.812500
9475,-7.812500
9476,-11.718750
9477,-11.718750
9478,-11.718750
9479,-11.718750
9480,-15.625000
9481,-15.625000
9482,-15.625000
9483,-19.531250
9484,-19.531250
9485,-19.531250
9486,-23.437500
9487,-23.437500
9488,-23.437500
9489,-23.437500
9490,-27.343750
9491,-27.343750
9492,-27.343750
9493,-27.343750
9494,-31.250000
9495,-31.250000
9496,-35.156250
9497,-35.156250
9498,-35.156250
9499,-35.156250
9500,-35.156250
9501,-39.062500
9502,-39.062500
9503,-39.062500
9504,-42.968750
9505,-42.968750
9506,-46.875000
9507,-46.875000
9508,-46.875000
9509,-46.875000
9510,-50.781250
9511,-50.781250
9512,-50.781250
9513,-50.781250
9514,-54.687500
9515,-54.687500
9516,-54.687500
9517,-54.687500
9518,-58.593750
9519,-58.593750
9520,-58.593750
9521,-58.593750
9522,-62.500000
9523,-62.500000
9524,-66.406250
9525,-66.406250
9526,-66.406250
9527,-66.406250
9528,-66.406250
9529,-70.312500
9530,-70.312500
9531,-70.312500
9532,-74.218750
9533,-74.218750
9534,-74.218750
9535,-78.125000
9536,-78.125000
9537,-78.125000
9538,-78.125000
9539,-82.031250
9540,-82.031250
9541,-82.031250
9542,-82.031250
9543,-85.937500
9544,-85.937500
9545,-85.937500
9546,-89.843750
9547,-89.843750
9548,-89.843750
9549,-89.843750
9550,-93.750000
9551,-93.750000
9552,-93.750000
9553,-93.750000
9554,-97.656250
9555,-97.656250
9556,-97.656250
9557,-97.656250
9558,-101.562500
9559,-101.562500
9560,-101.562500
9561,-101.562500
9562,-105.468750
9563,-105.468750
9564,-105.468750
9565,-105.468750
9566,-109.375000
9567,-109.375000
9568,-109.375000
9569,-113.281250
9570,-113.281250
9571,-113.281250
9572,-113.281250
9573,-113.281250
9574,-117.187500
9575,-117.187500
9576,-117.187500
9577,-117.187500
9578,-121.093750
9579,-121.093750
9580,-121.093750
9581,-125.000000
9582,-125.000000
9583,-125.000000
9584,-125.000000
9585,-125.000000
9586,-128.906250
9587,-128.906250
9588,-128.906250
9589,-128.906250
9590,-132.812500
9591,-132.812500
9592,-132.812500
9593,-132.812500
9594,-136.718750
9595,-136.718750
9596,-136.718750
9597,-136.718750
9598,-136.718750
9599,-140.625000
9600,-140.625000
9601,-140.625000
9602,-140.625000
9603,-144.531250
9604,-144.531250
9605,-144.531250
9606,-144.531250
9607,-144.531250
9608,-148.437500
9609,-148.437500
9610,-148.437500
9611,-148.437500
9612,-152.343750
9613,-152.343750
9614,-152.343750
9615,-152.343750
9616,-152.343750
9617,-152.343750
9618,-156.250000
9619,-156.250000
9620,-156.250000
9621,-156.250000
9622,-160.156250
9623,-156.250000
9624,-160.156250
9625,-160.156250
9626,-160.156250
9627,-160.156250
9628,-160.156250
9629,-164.062500
9630,-164.062500
9631,-164.062500
9632,-164.062500
9633,-164.062500
9634,-164.062500
9635,-167.968750
9636,-167.968750
9637,-167.968750
9638,-167.968750
9639,-167.968750
9640,-167.968750
9641,-171.875000
9642,-171.875000
9643,-171.875000
9644,-171.875000
9645,-171.875000
9646,-171.875000
9647,-171.875000
9648,-171.875000
9649,-175.781250
9650,-175.781250
9651,-175.781250
9652,-175.781250
9653,-175.781250
9654,-175.781250
9655,-175.781250
9656,-175.781250
9657,-179.687500
9658,-179.687500
9659,-179.687500
9660,-179.687500
9661,-179.687500
9662,-179.687500
9663,-179.687500
9664,-179.687500
9665,-179.687500
9666,-183.593750
9667,-183.593750
9668,-183.593750
9669,-183.593750
9670,-183.593750
9671,-183.593750
9672,-183.593750
9673,-183.593750
9674,-183.593750
9675,-183.593750
9676,-187.500000
9677,-187.500000
9678,-187.500000
9679,-187.500000
9680,-187.500000
9681,-187.500000
9682,-187.500000
9683,-187.500000
9684,-187.500000
9685,-187.500000
9686,-191.406250
9687,-187.500000
9688,-187.500000
9689,-187.500000
9690,-191.406250
9691,-191.406250
9692,-191.406250
9693,-191.406250
9694,-191.406250
9695,-191.406250
9696,-191.406250
9697,-191.406250
9698,-191.406250
9699,-191.406250
9700,-191.406250
9701,-191.406250
9702,-191.406250
9703,-191.406250
9704,-191.406250
9705,-191.406250
9706,-191.406250
9707,-191.406250
9708,-191.406250
9709,-191.406250
9710,-191.406250
9711,-191.406250
9712,-191.406250
9713,-191.406250
9714,-191.406250
9715,-191.406250
9716,-191.406250
9717,-195.312500
9718,-195.312500
9719,-191.406250
9720,-191.406250
9721,-191.406250
9722,-191.406250
9723,-191.406250
9724,-191.406250
9725,-191.406250
9726,-191.406250
9727,-191.406250
9728,-191.406250
9729,-191.406250
9730,-191.406250
9731,-191.406250
9732,-191.406250
9733,-191.406250
9734,-191.406250
9735,-191.406250
9736,-191.406250
9737,-191.406250
9738,-191.406250
9739,-191.406250
9740,-191.406250
9741,-191.406250
9742,-191.406250
9743,-191.406250
9744,-191.406250
9745,-191.406250
9746,-191.406250
9747,-191.406250
9748,-191.406250
9749,-187.500000
9750,-191.406250
9751,-187.500000
9752,-187.500000
9753,-187.500000
9754,-187.500000
9755,-187.500000
9756,-187.500000
9757,-187.500000
9758,-187.500000
9759,-187.500000
9760,-187.500000
9761,-187.500000
9762,-187.500000
9763,-187.500000
9764,-183.593750
9765,-183.593750
9766,-183.593750
9767,-183.593750
9768,-183.593750
9769,-183.593750
9770,-183.593750
9771,-183.593750
9772,-179.687500
9773,-179.687500
9774,-179.687500
9775,-179.687500
9776,-179.687500
9777,-179.687500
9778,-179.687500
9779,-179.687500
9780,-179.687500
9781,-179.687500
9782,-179.687500
9783,-175.781250
9784,-175.781250
9785,-175.781250
9786,-175.781250
9787,-175.781250
9788,-175.781250
9789,-171.875000
9790,-175.781250
9791,-171.875000
9792,-171.875000
9793,-171.875000
9794,-171.875000
9795,-171.875000
9796,-167.968750
9797,-167.968750
9798,-167.968750
9799,-167.968750
9800,-167.968750
9801,-167.968750
9802,-167.968750
9803,-164.062500
9804,-164.062500
9805,-164.062500
9806,-164.062500
9807,-164.062500
9808,-160.156250
9809,-160.156250
9810,-160.156250
9811,-160.156250
9812,-160.156250
9813,-160.156250
9814,-156.250000
9815,-156.250000
9816,-156.250000
9817,-156.250000
9818,-156.250000
9819,-152.343750
9820,-152.343750
9821,-152.343750
9822,-152.343750
9823,-152.343750
9824,-152.343750
9825,-148.437500
9826,-148.437500
9827,-148.437500
9828,-148.437500
9829,-148.437500
9830,-144.531250
9831,-144.531250
9832,-144.531250
9833,-144.531250
9834,-144.531250
9835,-140.625000
9836,-140.625000
9837,-140.625000
9838,-140.625000
9839,-136.718750
9840,-136.718750
9841,-136.718750
9842,-136.718750
9843,-132.812500
9844,-132.812500
9845,-132.812500
9846,-132.812500
9847,-132.812500
9848,-132.812500
9849,-128.906250
9850,-128.906250
9851,-128.906250
9852,-125.000000
9853,-125.000000
9854,-125.000000
9855,-125.000000
9856,-125.000000
9857,-121.093750
9858,-121.093750
9859,-121.093750
9860,-117.187500
9861,-117.187500
9862,-117.187500
9863,-117.187500
9864,-117.187500
9865,-113.281250
9866,-113.281250
9867,-113.281250
9868,-113.281250
9869,-109.375000
9870,-109.375000
9871,-109.375000
9872,-109.375000
9873,-105.468750
9874,-105.468750
9875,-105.468750
9876,-105.468750
9877,-101.562500
9878,-101.562500
9879,-101.562500
9880,-97.656250
9881,-97.656250
9882,-97.656250
9883,-97.656250
9884,-93.750000
9885,-93.750000
9886,-93.750000
9887,-93.750000
9888,-89.843750
9889,-89.843750
9890,-89.843750
9891,-89.843750
9892,-85.937500
9893,-85.937500
9894,-85.937500
9895,-82.031250
9896,-82.031250
9897,-82.031250
9898,-82.031250
9899,-78.125000
9900,-78.125000
9901,-78.125000
9902,-74.218750
9903,-74.218750
9904,-74.218750
9905,-74.218750
9906,-70.312500
9907,-70.312500
9908,-70.312500
9909,-66.406250
9910,-66.406250
9911,-66.406250
9912,-66.406250
9913,-62.500000
9914,-62.500000
9915,-62.500000
9916,-62.500000
9917,-58.593750
9918,-58.593750
9919,-58.593750
9920,-58.593750
9921,-54.687500
9922,-54.687500
9923,-50.781250
9924,-50.781250
9925,-50.781250
9926,-50.781250
9927,-46.875000
9928,-46.875000
9929,-46.875000
9930,-46.875000
9931,-42.968750
9932,-42.968750
9933,-42.968750
9934,-39.062500
9935,-39.062500
9936,-39.062500
9937,-35.156250
9938,-35.156250
9939,-35.156250
9940,-35.156250
9941,-31.250000
9942,-31.250000
9943,-31.250000
9944,-27.343750
9945,-27.343750
9946,-27.343750
9947,-27.343750
9948,-23.437500
9949,-23.437500
9950,-23.437500
9951,-19.531250
9952,-19.531250
9953,-19.531250
9954,-19.531250
9955,-15.625000
9956,-15.625000
9957,-15.625000
9958,-15.625000
9959,-11.718750
9960,-11.718750
9961,-11.718750
9962,-7.812500
9963,-7.812500
9964,-7.812500
9965,-3.906250
9966,-7.812500
9967,-3.906250
9968,-3.906250
9969,-3.906250
9970,0.000000
9971,0.000000
9972,0.000000
9973,3.906250
9974,3.906250
9975,3.906250
9976,7.812500
9977,7.812500
9978,7.812500
9979,7.812500
9980,7.812500
9981,11.718750
9982,11.718750
9983,15.625000
9984,11.718750
9985,15.625000
9986,15.625000
9987,19.531250
9988,19.531250
9989,19.531250
9990,19.531250
9991,23.437500
9992,23.437500
9993,23.437500
9994,23.437500
9995,27.343750
9996,27.343750
9997,27.343750
9998,31.250000
9999,31.250000
10000,31.250000
