Channel              :,CH1
Frequency            :,1.010kHz
Period               :,0.990ms
PK-PK                :,187.5mV
Probe attenuation    :,1X
Voltage per ADC value:,0.244141mV
Time interval        :,1.00000us

index,CH1_Voltage(mV)
1,-50.781250
2,-50.781250
3,-50.781250
4,-50.781250
5,-50.781250
6,-50.781250
7,-50.781250
8,-46.875000
9,-46.875000
10,-46.875000
11,-46.875000
12,-46.875000
13,-46.875000
14,-42.968750
15,-42.968750
16,-42.968750
17,-42.968750
18,-42.968750
19,-42.968750
20,-42.968750
21,-39.062500
22,-39.062500
23,-39.062500
24,-39.062500
25,-39.062500
26,-39.062500
27,-39.062500
28,-35.156250
29,-35.156250
30,-35.156250
31,-35.156250
32,-35.156250
33,-35.156250
34,-31.250000
35,-31.250000
36,-31.250000
37,-31.250000
38,-31.250000
39,-31.250000
40,-27.343750
41,-27.343750
42,-27.343750
43,-27.343750
44,-27.343750
45,-27.343750
46,-27.343750
47,-23.437500
48,-23.437500
49,-23.437500
50,-23.437500
51,-23.437500
52,-23.437500
53,-23.437500
54,-23.437500
55,-19.531250
56,-19.531250
57,-19.531250
58,-19.531250
59,-19.531250
60,-19.531250
61,-15.625000
62,-15.625000
63,-15.625000
64,-15.625000
65,-15.625000
66,-15.625000
67,-11.718750
68,-11.718750
69,-11.718750
70,-11.718750
71,-11.718750
72,-11.718750
73,-11.718750
74,-11.718750
75,-7.812500
76,-7.812500
77,-7.812500
78,-7.812500
79,-7.812500
80,-7.812500
81,-3.906250
82,-3.906250
83,-3.906250
84,-3.906250
85,-3.906250
86,-3.906250
87,-3.906250
88,-3.906250
89,0.000000
90,0.000000
91,0.000000
92,0.000000
93,0.000000
94,0.000000
95,3.906250
96,3.906250
97,3.906250
98,3.906250
99,3.906250
100,3.906250
101,3.906250
102,7.812500
103,7.812500
104,7.812500
105,7.812500
106,7.812500
107,7.812500
108,7.812500
109,11.718750
110,11.718750
111,11.718750
112,11.718750
113,11.718750
114,11.718750
115,11.718750
116,15.625000
117,15.625000
118,15.625000
119,15.625000
120,15.625000
121,15.625000
122,15.625000
123,15.625000
124,19.531250
125,19.531250
126,19.531250
127,23.437500
128,19.531250
129,19.531250
130,19.531250
131,23.437500
132,23.437500
133,23.437500
134,23.437500
135,23.437500
136,23.437500
137,23.437500
138,27.343750
139,27.343750
140,27.343750
141,27.343750
142,27.343750
143,27.343750
144,27.343750
145,31.250000
146,31.250000
147,31.250000
148,31.250000
149,31.250000
150,31.250000
151,31.250000
152,31.250000
153,31.250000
154,31.250000
155,35.156250
156,35.156250
157,35.156250
158,35.156250
159,35.156250
160,35.156250
161,35.156250
162,39.062500
163,39.062500
164,39.062500
165,39.062500
166,39.062500
167,39.062500
168,39.062500
169,42.968750
170,42.968750
171,42.968750
172,42.968750
173,42.968750
174,42.968750
175,42.968750
176,42.968750
177,42.968750
178,46.875000
179,46.875000
180,46.875000
181,46.875000
182,46.875000
183,46.875000
184,46.875000
185,46.875000
186,46.875000
187,46.875000
188,46.875000
189,50.781250
190,50.781250
191,50.781250
192,50.781250
193,50.781250
194,50.781250
195,50.781250
196,50.781250
197,54.687500
198,54.687500
199,54.687500
200,54.687500
201,54.687500
202,54.687500
203,54.687500
204,54.687500
205,54.687500
206,54.687500
207,54.687500
208,54.687500
209,58.593750
210,58.593750
211,58.593750
212,58.593750
213,58.593750
214,58.593750
215,58.593750
216,58.593750
217,58.593750
218,58.593750
219,58.593750
220,58.593750
221,62.500000
222,62.500000
223,62.500000
224,62.500000
225,62.500000
226,62.500000
227,62.500000
228,62.500000
229,62.500000
230,62.500000
231,66.406250
232,62.500000
233,66.406250
234,62.500000
235,66.406250
236,66.406250
237,66.406250
238,66.406250
239,66.406250
240,66.406250
241,66.406250
242,66.406250
243,66.406250
244,66.406250
245,70.312500
246,66.406250
247,66.406250
248,70.312500
249,66.406250
250,70.312500
251,70.312500
252,70.312500
253,70.312500
254,70.312500
255,70.312500
256,70.312500
257,70.312500
258,70.312500
259,70.312500
260,70.312500
261,70.312500
262,70.312500
263,70.312500
264,70.312500
265,70.312500
266,74.218750
267,74.218750
268,74.218750
269,74.218750
270,74.218750
271,74.218750
272,74.218750
273,74.218750
274,74.218750
275,74.218750
276,74.218750
277,74.218750
278,74.218750
279,74.218750
280,74.218750
281,74.218750
282,74.218750
283,74.218750
284,74.218750
285,74.218750
286,74.218750
287,74.218750
288,74.218750
289,78.125000
290,78.125000
291,78.125000
292,74.218750
293,78.125000
294,78.125000
295,78.125000
296,78.125000
297,78.125000
298,78.125000
299,78.125000
300,78.125000
301,78.125000
302,78.125000
303,78.125000
304,78.125000
305,78.125000
306,78.125000
307,78.125000
308,78.125000
309,78.125000
310,78.125000
311,78.125000
312,78.125000
313,78.125000
314,78.125000
315,78.125000
316,78.125000
317,78.125000
318,78.125000
319,78.125000
320,78.125000
321,78.125000
322,78.125000
323,78.125000
324,78.125000
325,78.125000
326,78.125000
327,78.125000
328,78.125000
329,78.125000
330,78.125000
331,78.125000
332,78.125000
333,78.125000
334,78.125000
335,78.125000
336,78.125000
337,78.125000
338,78.125000
339,78.125000
340,78.125000
341,78.125000
342,78.125000
343,78.125000
344,78.125000
345,78.125000
346,78.125000
347,78.125000
348,78.125000
349,78.125000
350,78.125000
351,78.125000
352,78.125000
353,78.125000
354,78.125000
355,78.125000
356,78.125000
357,78.125000
358,78.125000
359,78.125000
360,78.125000
361,78.125000
362,78.125000
363,74.218750
364,74.218750
365,74.218750
366,78.125000
367,74.218750
368,74.218750
369,74.218750
370,74.218750
371,74.218750
372,74.218750
373,74.218750
374,74.218750
375,74.218750
376,74.218750
377,74.218750
378,74.218750
379,74.218750
380,74.218750
381,74.218750
382,74.218750
383,74.218750
384,74.218750
385,74.218750
386,74.218750
387,74.218750
388,70.312500
389,70.312500
390,70.312500
391,70.312500
392,70.312500
393,70.312500
394,70.312500
395,70.312500
396,70.312500
397,70.312500
398,70.312500
399,70.312500
400,70.312500
401,70.312500
402,70.312500
403,70.312500
404,66.406250
405,70.312500
406,66.406250
407,66.406250
408,70.312500
409,66.406250
410,66.406250
411,66.406250
412,66.406250
413,66.406250
414,66.406250
415,66.406250
416,66.406250
417,66.406250
418,66.406250
419,66.406250
420,66.406250
421,66.406250
422,62.500000
423,62.500000
424,62.500000
425,62.500000
426,62.500000
427,62.500000
428,62.500000
429,62.500000
430,62.500000
431,62.500000
432,62.500000
433,58.593750
434,62.500000
435,62.500000
436,58.593750
437,58.593750
438,58.593750
439,58.593750
440,58.593750
441,58.593750
442,58.593750
443,58.593750
444,58.593750
445,58.593750
446,58.593750
447,54.687500
448,54.687500
449,54.687500
450,54.687500
451,54.687500
452,54.687500
453,54.687500
454,54.687500
455,54.687500
456,54.687500
457,50.781250
458,50.781250
459,50.781250
460,50.781250
461,50.781250
462,50.781250
463,50.781250
464,50.781250
465,46.875000
466,46.875000
467,46.875000
468,46.875000
469,46.875000
470,46.875000
471,46.875000
472,46.875000
473,46.875000
474,46.875000
475,42.968750
476,42.968750
477,42.968750
478,42.968750
479,42.968750
480,42.968750
481,42.968750
482,42.968750
483,39.062500
484,39.062500
485,39.062500
486,39.062500
487,39.062500
488,39.062500
489,39.062500
490,39.062500
491,35.156250
492,35.156250
493,35.156250
494,35.156250
495,35.156250
496,35.156250
497,35.156250
498,35.156250
499,35.156250
500,31.250000
501,31.250000
502,31.250000
503,31.250000
504,31.250000
505,31.250000
506,31.250000
507,31.250000
508,27.343750
509,27.343750
510,27.343750
511,27.343750
512,27.343750
513,27.343750
514,23.437500
515,23.437500
516,23.437500
517,23.437500
518,23.437500
519,23.437500
520,23.437500
521,23.437500
522,23.437500
523,23.437500
524,19.531250
525,19.531250
526,19.531250
527,19.531250
528,19.531250
529,15.625000
530,15.625000
531,15.625000
532,15.625000
533,15.625000
534,15.625000
535,15.625000
536,11.718750
537,11.718750
538,11.718750
539,11.718750
540,11.718750
541,11.718750
542,11.718750
543,7.812500
544,7.812500
545,7.812500
546,7.812500
547,7.812500
548,7.812500
549,7.812500
550,3.906250
551,3.906250
552,3.906250
553,3.906250
554,3.906250
555,3.906250
556,3.906250
557,3.906250
558,0.000000
559,0.000000
560,0.000000
561,0.000000
562,0.000000
563,0.000000
564,-3.906250
565,-3.906250
566,-3.906250
567,-3.906250
568,-3.906250
569,-3.906250
570,-3.906250
571,-7.812500
572,-7.812500
573,-7.812500
574,-7.812500
575,-7.812500
576,-7.812500
577,-7.812500
578,-11.718750
579,-11.718750
580,-11.718750
581,-11.718750
582,-11.718750
583,-11.718750
584,-15.625000
585,-15.625000
586,-15.625000
587,-15.625000
588,-15.625000
589,-15.625000
590,-19.531250
591,-19.531250
592,-19.531250
593,-19.531250
594,-19.531250
595,-19.531250
596,-19.531250
597,-23.437500
598,-23.437500
599,-23.437500
600,-23.437500
601,-23.437500
602,-23.437500
603,-23.437500
604,-27.343750
605,-27.343750
606,-27.343750
607,-27.343750
608,-27.343750
609,-27.343750
610,-27.343750
611,-27.343750
612,-31.250000
613,-31.250000
614,-31.250000
615,-31.250000
616,-35.156250
617,-31.250000
618,-35.156250
619,-35.156250
620,-35.156250
621,-35.156250
622,-35.156250
623,-35.156250
624,-39.062500
625,-39.062500
626,-39.062500
627,-39.062500
628,-39.062500
629,-39.062500
630,-42.968750
631,-42.968750
632,-42.968750
633,-42.968750
634,-42.968750
635,-42.968750
636,-42.968750
637,-42.968750
638,-46.875000
639,-46.875000
640,-46.875000
641,-46.875000
642,-46.875000
643,-46.875000
644,-50.781250
645,-50.781250
646,-50.781250
647,-50.781250
648,-50.781250
649,-50.781250
650,-50.781250
651,-50.781250
652,-54.687500
653,-54.687500
654,-54.687500
655,-54.687500
656,-54.687500
657,-54.687500
658,-58.593750
659,-58.593750
660,-58.593750
661,-58.593750
662,-58.593750
663,-58.593750
664,-58.593750
665,-62.500000
666,-62.500000
667,-62.500000
668,-62.500000
669,-62.500000
670,-62.500000
671,-62.500000
672,-62.500000
673,-62.500000
674,-66.406250
675,-66.406250
676,-66.406250
677,-66.406250
678,-66.406250
679,-66.406250
680,-66.406250
681,-66.406250
682,-70.312500
683,-70.312500
684,-70.312500
685,-70.312500
686,-70.312500
687,-70.312500
688,-70.312500
689,-70.312500
690,-74.218750
691,-74.218750
692,-74.218750
693,-74.218750
694,-74.218750
695,-74.218750
696,-78.125000
697,-74.218750
698,-74.218750
699,-74.218750
700,-78.125000
701,-78.125000
702,-78.125000
703,-78.125000
704,-78.125000
705,-78.125000
706,-78.125000
707,-78.125000
708,-78.125000
709,-82.031250
710,-82.031250
711,-82.031250
712,-82.031250
713,-82.031250
714,-82.031250
715,-82.031250
716,-85.937500
717,-82.031250
718,-82.031250
719,-85.937500
720,-85.937500
721,-85.937500
722,-85.937500
723,-85.937500
724,-85.937500
725,-85.937500
726,-85.937500
727,-89.843750
728,-89.843750
729,-89.843750
730,-89.843750
731,-89.843750
732,-89.843750
733,-89.843750
734,-89.843750
735,-89.843750
736,-89.843750
737,-89.843750
738,-93.750000
739,-93.750000
740,-89.843750
741,-93.750000
742,-93.750000
743,-93.750000
744,-93.750000
745,-93.750000
746,-93.750000
747,-93.750000
748,-97.656250
749,-93.750000
750,-93.750000
751,-97.656250
752,-97.656250
753,-97.656250
754,-97.656250
755,-97.656250
756,-97.656250
757,-97.656250
758,-97.656250
759,-97.656250
760,-97.656250
761,-97.656250
762,-97.656250
763,-97.656250
764,-97.656250
765,-97.656250
766,-101.562500
767,-97.656250
768,-97.656250
769,-101.562500
770,-101.562500
771,-101.562500
772,-101.562500
773,-101.562500
774,-101.562500
775,-101.562500
776,-101.562500
777,-101.562500
778,-101.562500
779,-101.562500
780,-101.562500
781,-101.562500
782,-101.562500
783,-101.562500
784,-101.562500
785,-101.562500
786,-105.468750
787,-105.468750
788,-101.562500
789,-101.562500
790,-105.468750
791,-105.468750
792,-105.468750
793,-101.562500
794,-101.562500
795,-105.468750
796,-105.468750
797,-105.468750
798,-105.468750
799,-105.468750
800,-105.468750
801,-105.468750
802,-105.468750
803,-105.468750
804,-105.468750
805,-105.468750
806,-105.468750
807,-105.468750
808,-105.468750
809,-105.468750
810,-105.468750
811,-105.468750
812,-105.468750
813,-105.468750
814,-105.468750
815,-105.468750
816,-105.468750
817,-105.468750
818,-105.468750
819,-105.468750
820,-105.468750
821,-105.468750
822,-105.468750
823,-105.468750
824,-105.468750
825,-105.468750
826,-105.468750
827,-105.468750
828,-105.468750
829,-105.468750
830,-105.468750
831,-105.468750
832,-105.468750
833,-105.468750
834,-105.468750
835,-105.468750
836,-105.468750
837,-105.468750
838,-105.468750
839,-105.468750
840,-105.468750
841,-105.468750
842,-101.562500
843,-101.562500
844,-105.468750
845,-105.468750
846,-105.468750
847,-105.468750
848,-105.468750
849,-105.468750
850,-105.468750
851,-101.562500
852,-101.562500
853,-101.562500
854,-101.562500
855,-101.562500
856,-101.562500
857,-101.562500
858,-101.562500
859,-101.562500
860,-101.562500
861,-101.562500
862,-101.562500
863,-101.562500
864,-101.562500
865,-101.562500
866,-101.562500
867,-101.562500
868,-101.562500
869,-101.562500
870,-97.656250
871,-101.562500
872,-101.562500
873,-97.656250
874,-97.656250
875,-101.562500
876,-97.656250
877,-97.656250
878,-97.656250
879,-97.656250
880,-97.656250
881,-97.656250
882,-97.656250
883,-97.656250
884,-97.656250
885,-97.656250
886,-97.656250
887,-97.656250
888,-93.750000
889,-97.656250
890,-97.656250
891,-97.656250
892,-97.656250
893,-93.750000
894,-93.750000
895,-93.750000
896,-93.750000
897,-93.750000
898,-93.750000
899,-93.750000
900,-93.750000
901,-93.750000
902,-93.750000
903,-89.843750
904,-89.843750
905,-89.843750
906,-89.843750
907,-89.843750
908,-89.843750
909,-89.843750
910,-89.843750
911,-89.843750
912,-89.843750
913,-85.937500
914,-85.937500
915,-85.937500
916,-85.937500
917,-85.937500
918,-85.937500
919,-85.937500
920,-85.937500
921,-85.937500
922,-85.937500
923,-85.937500
924,-82.031250
925,-82.031250
926,-82.031250
927,-82.031250
928,-82.031250
929,-82.031250
930,-82.031250
931,-82.031250
932,-82.031250
933,-82.031250
934,-82.031250
935,-78.125000
936,-78.125000
937,-78.125000
938,-78.125000
939,-78.125000
940,-78.125000
941,-78.125000
942,-74.218750
943,-74.218750
944,-74.218750
945,-74.218750
946,-74.218750
947,-74.218750
948,-74.218750
949,-74.218750
950,-70.312500
951,-74.218750
952,-70.312500
953,-70.312500
954,-70.312500
955,-70.312500
956,-70.312500
957,-66.406250
958,-70.312500
959,-66.406250
960,-66.406250
961,-66.406250
962,-66.406250
963,-66.406250
964,-66.406250
965,-66.406250
966,-66.406250
967,-62.500000
968,-62.500000
969,-62.500000
970,-62.500000
971,-62.500000
972,-62.500000
973,-62.500000
974,-58.593750
975,-58.593750
976,-58.593750
977,-58.593750
978,-58.593750
979,-58.593750
980,-58.593750
981,-54.687500
982,-54.687500
983,-54.687500
984,-54.687500
985,-54.687500
986,-54.687500
987,-54.687500
988,-54.687500
989,-50.781250
990,-50.781250
991,-50.781250
992,-50.781250
993,-50.781250
994,-50.781250
995,-50.781250
996,-46.875000
997,-46.875000
998,-46.875000
999,-46.875000
1000,-46.875000
1001,-46.875000
1002,-42.968750
1003,-46.875000
1004,-42.968750
1005,-42.968750
1006,-42.968750
1007,-42.968750
1008,-42.968750
1009,-42.968750
1010,-42.968750
1011,-39.062500
1012,-39.062500
1013,-39.062500
1014,-39.062500
1015,-39.062500
1016,-39.062500
1017,-39.062500
1018,-35.156250
1019,-35.156250
1020,-35.156250
1021,-35.156250
1022,-35.156250
1023,-35.156250
1024,-31.250000
1025,-31.250000
1026,-31.250000
1027,-31.250000
1028,-31.250000
1029,-31.250000
1030,-27.343750
1031,-27.343750
1032,-27.343750
1033,-27.343750
1034,-27.343750
1035,-27.343750
1036,-27.343750
1037,-27.343750
1038,-23.437500
1039,-23.437500
1040,-23.437500
1041,-23.437500
1042,-23.437500
1043,-23.437500
1044,-19.531250
1045,-19.531250
1046,-19.531250
1047,-19.531250
1048,-19.531250
1049,-19.531250
1050,-19.531250
1051,-15.625000
1052,-15.625000
1053,-15.625000
1054,-15.625000
1055,-15.625000
1056,-15.625000
1057,-11.718750
1058,-11.718750
1059,-11.718750
1060,-11.718750
1061,-11.718750
1062,-11.718750
1063,-11.718750
1064,-7.812500
1065,-7.812500
1066,-7.812500
1067,-7.812500
1068,-7.812500
1069,-7.812500
1070,-3.906250
1071,-3.906250
1072,-3.906250
1073,-3.906250
1074,-3.906250
1075,-3.906250
1076,0.000000
1077,0.000000
1078,0.000000
1079,0.000000
1080,0.000000
1081,0.000000
1082,0.000000
1083,0.000000
1084,3.906250
1085,3.906250
1086,3.906250
1087,3.906250
1088,3.906250
1089,3.906250
1090,7.812500
1091,7.812500
1092,7.812500
1093,7.812500
1094,7.812500
1095,7.812500
1096,7.812500
1097,7.812500
1098,11.718750
1099,11.718750
1100,11.718750
1101,11.718750
1102,11.718750
1103,11.718750
1104,11.718750
1105,15.625000
1106,15.625000
1107,15.625000
1108,15.625000
1109,15.625000
1110,15.625000
1111,19.531250
1112,19.531250
1113,19.531250
1114,19.531250
1115,19.531250
1116,19.531250
1117,19.531250
1118,19.531250
1119,23.437500
1120,23.437500
1121,23.437500
1122,23.437500
1123,23.437500
1124,23.437500
1125,23.437500
1126,27.343750
1127,27.343750
1128,27.343750
1129,27.343750
1130,27.343750
1131,27.343750
1132,27.343750
1133,27.343750
1134,27.343750
1135,31.250000
1136,31.250000
1137,31.250000
1138,31.250000
1139,31.250000
1140,31.250000
1141,31.250000
1142,31.250000
1143,35.156250
1144,35.156250
1145,35.156250
1146,35.156250
1147,35.156250
1148,35.156250
1149,39.062500
1150,39.062500
1151,39.062500
1152,39.062500
1153,39.062500
1154,39.062500
1155,39.062500
1156,39.062500
1157,39.062500
1158,39.062500
1159,39.062500
1160,39.062500
1161,42.968750
1162,42.968750
1163,42.968750
1164,42.968750
1165,42.968750
1166,42.968750
1167,46.875000
1168,46.875000
1169,46.875000
1170,46.875000
1171,46.875000
1172,46.875000
1173,46.875000
1174,46.875000
1175,46.875000
1176,46.875000
1177,46.875000
1178,50.781250
1179,50.781250
1180,50.781250
1181,50.781250
1182,50.781250
1183,50.781250
1184,50.781250
1185,50.781250
1186,50.781250
1187,50.781250
1188,54.687500
1189,54.687500
1190,54.687500
1191,54.687500
1192,54.687500
1193,54.687500
1194,54.687500
1195,54.687500
1196,54.687500
1197,54.687500
1198,58.593750
1199,58.593750
1200,58.593750
1201,58.593750
1202,58.593750
1203,58.593750
1204,58.593750
1205,58.593750
1206,58.593750
1207,58.593750
1208,58.593750
1209,62.500000
1210,62.500000
1211,62.500000
1212,62.500000
1213,62.500000
1214,62.500000
1215,62.500000
1216,62.500000
1217,62.500000
1218,62.500000
1219,62.500000
1220,66.406250
1221,66.406250
1222,66.406250
1223,66.406250
1224,66.406250
1225,66.406250
1226,66.406250
1227,66.406250
1228,66.406250
1229,66.406250
1230,66.406250
1231,66.406250
1232,66.406250
1233,66.406250
1234,70.312500
1235,70.312500
1236,70.312500
1237,70.312500
1238,70.312500
1239,70.312500
1240,70.312500
1241,70.312500
1242,70.312500
1243,70.312500
1244,70.312500
1245,70.312500
1246,70.312500
1247,70.312500
1248,70.312500
1249,70.312500
1250,70.312500
1251,70.312500
1252,74.218750
1253,74.218750
1254,70.312500
1255,74.218750
1256,74.218750
1257,74.218750
1258,74.218750
1259,74.218750
1260,74.218750
1261,74.218750
1262,74.218750
1263,74.218750
1264,74.218750
1265,74.218750
1266,74.218750
1267,74.218750
1268,74.218750
1269,74.218750
1270,74.218750
1271,74.218750
1272,74.218750
1273,74.218750
1274,74.218750
1275,74.218750
1276,74.218750
1277,74.218750
1278,74.218750
1279,74.218750
1280,74.218750
1281,78.125000
1282,78.125000
1283,78.125000
1284,74.218750
1285,78.125000
1286,78.125000
1287,78.125000
1288,74.218750
1289,78.125000
1290,78.125000
1291,78.125000
1292,78.125000
1293,78.125000
1294,78.125000
1295,78.125000
1296,78.125000
1297,78.125000
1298,78.125000
1299,78.125000
1300,78.125000
1301,78.125000
1302,78.125000
1303,78.125000
1304,78.125000
1305,78.125000
1306,78.125000
1307,78.125000
1308,78.125000
1309,78.125000
1310,78.125000
1311,78.125000
1312,78.125000
1313,78.125000
1314,78.125000
1315,78.125000
1316,78.125000
1317,78.125000
1318,78.125000
1319,78.125000
1320,78.125000
1321,78.125000
1322,78.125000
1323,78.125000
1324,78.125000
1325,78.125000
1326,78.125000
1327,78.125000
1328,78.125000
1329,78.125000
1330,78.125000
1331,78.125000
1332,78.125000
1333,78.125000
1334,78.125000
1335,78.125000
1336,78.125000
1337,78.125000
1338,78.125000
1339,78.125000
1340,78.125000
1341,78.125000
1342,78.125000
1343,78.125000
1344,78.125000
1345,78.125000
1346,78.125000
1347,78.125000
1348,78.125000
1349,78.125000
1350,78.125000
1351,78.125000
1352,78.125000
1353,78.125000
1354,78.125000
1355,74.218750
1356,78.125000
1357,78.125000
1358,74.218750
1359,74.218750
1360,74.218750
1361,74.218750
1362,74.218750
1363,74.218750
1364,74.218750
1365,74.218750
1366,74.218750
1367,74.218750
1368,74.218750
1369,74.218750
1370,74.218750
1371,74.218750
1372,74.218750
1373,74.218750
1374,74.218750
1375,74.218750
1376,74.218750
1377,74.218750
1378,70.312500
1379,74.218750
1380,74.218750
1381,74.218750
1382,70.312500
1383,70.312500
1384,70.312500
1385,70.312500
1386,70.312500
1387,70.312500
1388,70.312500
1389,70.312500
1390,70.312500
1391,70.312500
1392,70.312500
1393,70.312500
1394,70.312500
1395,70.312500
1396,66.406250
1397,66.406250
1398,66.406250
1399,66.406250
1400,66.406250
1401,66.406250
1402,66.406250
1403,66.406250
1404,66.406250
1405,66.406250
1406,66.406250
1407,66.406250
1408,66.406250
1409,66.406250
1410,62.500000
1411,66.406250
1412,62.500000
1413,62.500000
1414,62.500000
1415,62.500000
1416,62.500000
1417,62.500000
1418,62.500000
1419,62.500000
1420,62.500000
1421,62.500000
1422,62.500000
1423,58.593750
1424,58.593750
1425,58.593750
1426,58.593750
1427,58.593750
1428,58.593750
1429,58.593750
1430,58.593750
1431,58.593750
1432,58.593750
1433,58.593750
1434,58.593750
1435,58.593750
1436,54.687500
1437,54.687500
1438,54.687500
1439,54.687500
1440,54.687500
1441,54.687500
1442,54.687500
1443,54.687500
1444,54.687500
1445,54.687500
1446,50.781250
1447,50.781250
1448,50.781250
1449,50.781250
1450,50.781250
1451,50.781250
1452,50.781250
1453,50.781250
1454,46.875000
1455,50.781250
1456,46.875000
1457,46.875000
1458,46.875000
1459,46.875000
1460,46.875000
1461,46.875000
1462,46.875000
1463,46.875000
1464,42.968750
1465,42.968750
1466,42.968750
1467,42.968750
1468,42.968750
1469,42.968750
1470,42.968750
1471,42.968750
1472,39.062500
1473,42.968750
1474,39.062500
1475,39.062500
1476,39.062500
1477,39.062500
1478,39.062500
1479,39.062500
1480,39.062500
1481,35.156250
1482,35.156250
1483,35.156250
1484,35.156250
1485,35.156250
1486,35.156250
1487,35.156250
1488,35.156250
1489,35.156250
1490,31.250000
1491,31.250000
1492,31.250000
1493,31.250000
1494,31.250000
1495,31.250000
1496,31.250000
1497,31.250000
1498,31.250000
1499,27.343750
1500,27.343750
1501,27.343750
1502,27.343750
1503,27.343750
1504,27.343750
1505,27.343750
1506,23.437500
1507,23.437500
1508,23.437500
1509,23.437500
1510,23.437500
1511,23.437500
1512,23.437500
1513,19.531250
1514,19.531250
1515,19.531250
1516,19.531250
1517,19.531250
1518,19.531250
1519,19.531250
1520,15.625000
1521,15.625000
1522,15.625000
1523,15.625000
1524,15.625000
1525,15.625000
1526,15.625000
1527,11.718750
1528,11.718750
1529,11.718750
1530,11.718750
1531,11.718750
1532,7.812500
1533,7.812500
1534,7.812500
1535,7.812500
1536,7.812500
1537,7.812500
1538,7.812500
1539,7.812500
1540,3.906250
1541,3.906250
1542,3.906250
1543,3.906250
1544,3.906250
1545,3.906250
1546,3.906250
1547,0.000000
1548,0.000000
1549,0.000000
1550,0.000000
1551,0.000000
1552,-3.906250
1553,-3.906250
1554,-3.906250
1555,-3.906250
1556,-3.906250
1557,-3.906250
1558,-3.906250
1559,-3.906250
1560,-7.812500
1561,-7.812500
1562,-7.812500
1563,-7.812500
1564,-7.812500
1565,-7.812500
1566,-11.718750
1567,-11.718750
1568,-11.718750
1569,-11.718750
1570,-11.718750
1571,-11.718750
1572,-11.718750
1573,-11.718750
1574,-15.625000
1575,-15.625000
1576,-15.625000
1577,-15.625000
1578,-15.625000
1579,-15.625000
1580,-19.531250
1581,-19.531250
1582,-19.531250
1583,-19.531250
1584,-19.531250
1585,-19.531250
1586,-23.437500
1587,-23.437500
1588,-23.437500
1589,-23.437500
1590,-23.437500
1591,-23.437500
1592,-23.437500
1593,-27.343750
1594,-27.343750
1595,-27.343750
1596,-27.343750
1597,-27.343750
1598,-27.343750
1599,-27.343750
1600,-27.343750
1601,-31.250000
1602,-31.250000
1603,-31.250000
1604,-31.250000
1605,-31.250000
1606,-35.156250
1607,-35.156250
1608,-35.156250
1609,-35.156250
1610,-35.156250
1611,-35.156250
1612,-35.156250
1613,-35.156250
1614,-39.062500
1615,-39.062500
1616,-39.062500
1617,-39.062500
1618,-39.062500
1619,-39.062500
1620,-42.968750
1621,-42.968750
1622,-42.968750
1623,-42.968750
1624,-42.968750
1625,-42.968750
1626,-42.968750
1627,-42.968750
1628,-46.875000
1629,-46.875000
1630,-46.875000
1631,-46.875000
1632,-46.875000
1633,-46.875000
1634,-50.781250
1635,-50.781250
1636,-50.781250
1637,-50.781250
1638,-50.781250
1639,-54.687500
1640,-50.781250
1641,-54.687500
1642,-54.687500
1643,-54.687500
1644,-54.687500
1645,-54.687500
1646,-54.687500
1647,-58.593750
1648,-58.593750
1649,-58.593750
1650,-58.593750
1651,-62.500000
1652,-58.593750
1653,-58.593750
1654,-58.593750
1655,-62.500000
1656,-62.500000
1657,-62.500000
1658,-62.500000
1659,-62.500000
1660,-62.500000
1661,-62.500000
1662,-66.406250
1663,-66.406250
1664,-66.406250
1665,-66.406250
1666,-66.406250
1667,-66.406250
1668,-66.406250
1669,-66.406250
1670,-70.312500
1671,-70.312500
1672,-70.312500
1673,-70.312500
1674,-70.312500
1675,-70.312500
1676,-70.312500
1677,-70.312500
1678,-70.312500
1679,-74.218750
1680,-74.218750
1681,-74.218750
1682,-74.218750
1683,-74.218750
1684,-74.218750
1685,-74.218750
1686,-78.125000
1687,-78.125000
1688,-78.125000
1689,-78.125000
1690,-78.125000
1691,-78.125000
1692,-78.125000
1693,-78.125000
1694,-78.125000
1695,-78.125000
1696,-82.031250
1697,-78.125000
1698,-82.031250
1699,-82.031250
1700,-82.031250
1701,-82.031250
1702,-82.031250
1703,-82.031250
1704,-82.031250
1705,-82.031250
1706,-85.937500
1707,-82.031250
1708,-85.937500
1709,-85.937500
1710,-85.937500
1711,-85.937500
1712,-85.937500
1713,-85.937500
1714,-85.937500
1715,-89.843750
1716,-89.843750
1717,-89.843750
1718,-85.937500
1719,-89.843750
1720,-89.843750
1721,-89.843750
1722,-89.843750
1723,-89.843750
1724,-89.843750
1725,-89.843750
1726,-89.843750
1727,-89.843750
1728,-93.750000
1729,-89.843750
1730,-93.750000
1731,-89.843750
1732,-93.750000
1733,-93.750000
1734,-93.750000
1735,-93.750000
1736,-93.750000
1737,-93.750000
1738,-93.750000
1739,-93.750000
1740,-93.750000
1741,-93.750000
1742,-93.750000
1743,-97.656250
1744,-97.656250
1745,-97.656250
1746,-97.656250
1747,-97.656250
1748,-97.656250
1749,-97.656250
1750,-97.656250
1751,-97.656250
1752,-97.656250
1753,-97.656250
1754,-97.656250
1755,-97.656250
1756,-97.656250
1757,-97.656250
1758,-97.656250
1759,-97.656250
1760,-101.562500
1761,-101.562500
1762,-101.562500
1763,-101.562500
1764,-101.562500
1765,-101.562500
1766,-101.562500
1767,-101.562500
1768,-101.562500
1769,-101.562500
1770,-101.562500
1771,-101.562500
1772,-101.562500
1773,-101.562500
1774,-101.562500
1775,-101.562500
1776,-101.562500
1777,-101.562500
1778,-101.562500
1779,-101.562500
1780,-105.468750
1781,-101.562500
1782,-105.468750
1783,-105.468750
1784,-105.468750
1785,-105.468750
1786,-105.468750
1787,-105.468750
1788,-105.468750
1789,-105.468750
1790,-105.468750
1791,-105.468750
1792,-105.468750
1793,-105.468750
1794,-105.468750
1795,-105.468750
1796,-105.468750
1797,-105.468750
1798,-105.468750
1799,-105.468750
1800,-105.468750
1801,-105.468750
1802,-105.468750
1803,-105.468750
1804,-105.468750
1805,-105.468750
1806,-105.468750
1807,-105.468750
1808,-105.468750
1809,-105.468750
1810,-105.468750
1811,-105.468750
1812,-105.468750
1813,-105.468750
1814,-105.468750
1815,-105.468750
1816,-105.468750
1817,-105.468750
1818,-105.468750
1819,-105.468750
1820,-105.468750
1821,-105.468750
1822,-105.468750
1823,-105.468750
1824,-105.468750
1825,-105.468750
1826,-105.468750
1827,-105.468750
1828,-105.468750
1829,-105.468750
1830,-105.468750
1831,-105.468750
1832,-105.468750
1833,-105.468750
1834,-105.468750
1835,-101.562500
1836,-105.468750
1837,-101.562500
1838,-101.562500
1839,-101.562500
1840,-101.562500
1841,-101.562500
1842,-105.468750
1843,-101.562500
1844,-101.562500
1845,-101.562500
1846,-101.562500
1847,-101.562500
1848,-101.562500
1849,-101.562500
1850,-101.562500
1851,-101.562500
1852,-101.562500
1853,-101.562500
1854,-101.562500
1855,-97.656250
1856,-101.562500
1857,-101.562500
1858,-101.562500
1859,-101.562500
1860,-101.562500
1861,-97.656250
1862,-101.562500
1863,-97.656250
1864,-97.656250
1865,-97.656250
1866,-97.656250
1867,-97.656250
1868,-97.656250
1869,-97.656250
1870,-97.656250
1871,-97.656250
1872,-97.656250
1873,-97.656250
1874,-97.656250
1875,-97.656250
1876,-93.750000
1877,-93.750000
1878,-93.750000
1879,-93.750000
1880,-93.750000
1881,-93.750000
1882,-93.750000
1883,-93.750000
1884,-93.750000
1885,-93.750000
1886,-93.750000
1887,-93.750000
1888,-93.750000
1889,-93.750000
1890,-89.843750
1891,-93.750000
1892,-93.750000
1893,-89.843750
1894,-89.843750
1895,-89.843750
1896,-89.843750
1897,-89.843750
1898,-89.843750
1899,-89.843750
1900,-89.843750
1901,-89.843750
1902,-89.843750
1903,-89.843750
1904,-85.937500
1905,-85.937500
1906,-85.937500
1907,-85.937500
1908,-85.937500
1909,-85.937500
1910,-85.937500
1911,-85.937500
1912,-85.937500
1913,-85.937500
1914,-82.031250
1915,-82.031250
1916,-82.031250
1917,-82.031250
1918,-82.031250
1919,-82.031250
1920,-82.031250
1921,-82.031250
1922,-82.031250
1923,-78.125000
1924,-78.125000
1925,-78.125000
1926,-78.125000
1927,-78.125000
1928,-78.125000
1929,-78.125000
1930,-78.125000
1931,-78.125000
1932,-74.218750
1933,-74.218750
1934,-74.218750
1935,-74.218750
1936,-74.218750
1937,-74.218750
1938,-74.218750
1939,-74.218750
1940,-74.218750
1941,-70.312500
1942,-70.312500
1943,-70.312500
1944,-70.312500
1945,-70.312500
1946,-70.312500
1947,-70.312500
1948,-70.312500
1949,-70.312500
1950,-66.406250
1951,-66.406250
1952,-66.406250
1953,-66.406250
1954,-66.406250
1955,-62.500000
1956,-66.406250
1957,-62.500000
1958,-62.500000
1959,-62.500000
1960,-62.500000
1961,-62.500000
1962,-62.500000
1963,-58.593750
1964,-58.593750
1965,-58.593750
1966,-58.593750
1967,-58.593750
1968,-58.593750
1969,-58.593750
1970,-58.593750
1971,-58.593750
1972,-54.687500
1973,-54.687500
1974,-54.687500
1975,-54.687500
1976,-54.687500
1977,-54.687500
1978,-54.687500
1979,-54.687500
1980,-50.781250
1981,-50.781250
1982,-50.781250
1983,-50.781250
1984,-50.781250
1985,-46.875000
1986,-46.875000
1987,-50.781250
1988,-46.875000
1989,-46.875000
1990,-46.875000
1991,-46.875000
1992,-42.968750
1993,-42.968750
1994,-42.968750
1995,-42.968750
1996,-42.968750
1997,-42.968750
1998,-42.968750
1999,-42.968750
2000,-39.062500
2001,-39.062500
2002,-39.062500
2003,-39.062500
2004,-39.062500
2005,-39.062500
2006,-39.062500
2007,-35.156250
2008,-35.156250
2009,-35.156250
2010,-35.156250
2011,-35.156250
2012,-31.250000
2013,-35.156250
2014,-31.250000
2015,-31.250000
2016,-31.250000
2017,-31.250000
2018,-31.250000
2019,-31.250000
2020,-27.343750
2021,-27.343750
2022,-27.343750
2023,-27.343750
2024,-27.343750
2025,-27.343750
2026,-27.343750
2027,-23.437500
2028,-23.437500
2029,-23.437500
2030,-23.437500
2031,-23.437500
2032,-23.437500
2033,-19.531250
2034,-19.531250
2035,-19.531250
2036,-19.531250
2037,-19.531250
2038,-19.531250
2039,-19.531250
2040,-15.625000
2041,-15.625000
2042,-15.625000
2043,-15.625000
2044,-15.625000
2045,-15.625000
2046,-15.625000
2047,-15.625000
2048,-11.718750
2049,-11.718750
2050,-11.718750
2051,-11.718750
2052,-11.718750
2053,-11.718750
2054,-7.812500
2055,-7.812500
2056,-7.812500
2057,-7.812500
2058,-7.812500
2059,-7.812500
2060,-3.906250
2061,-3.906250
2062,-3.906250
2063,-3.906250
2064,-3.906250
2065,-3.906250
2066,-3.906250
2067,0.000000
2068,0.000000
2069,0.000000
2070,0.000000
2071,0.000000
2072,0.000000
2073,0.000000
2074,0.000000
2075,3.906250
2076,3.906250
2077,3.906250
2078,3.906250
2079,3.906250
2080,3.906250
2081,7.812500
2082,7.812500
2083,7.812500
2084,7.812500
2085,7.812500
2086,7.812500
2087,7.812500
2088,11.718750
2089,11.718750
2090,11.718750
2091,11.718750
2092,11.718750
2093,11.718750
2094,11.718750
2095,15.625000
2096,15.625000
2097,15.625000
2098,15.625000
2099,15.625000
2100,15.625000
2101,15.625000
2102,19.531250
2103,19.531250
2104,19.531250
2105,19.531250
2106,19.531250
2107,19.531250
2108,23.437500
2109,23.437500
2110,23.437500
2111,23.437500
2112,23.437500
2113,23.437500
2114,23.437500
2115,23.437500
2116,23.437500
2117,23.437500
2118,27.343750
2119,27.343750
2120,27.343750
2121,27.343750
2122,27.343750
2123,27.343750
2124,31.250000
2125,31.250000
2126,31.250000
2127,31.250000
2128,31.250000
2129,31.250000
2130,31.250000
2131,31.250000
2132,35.156250
2133,35.156250
2134,35.156250
2135,35.156250
2136,35.156250
2137,35.156250
2138,35.156250
2139,39.062500
2140,39.062500
2141,39.062500
2142,39.062500
2143,39.062500
2144,39.062500
2145,39.062500
2146,39.062500
2147,39.062500
2148,42.968750
2149,42.968750
2150,42.968750
2151,42.968750
2152,42.968750
2153,42.968750
2154,42.968750
2155,42.968750
2156,42.968750
2157,46.875000
2158,46.875000
2159,46.875000
2160,46.875000
2161,46.875000
2162,46.875000
2163,46.875000
2164,46.875000
2165,46.875000
2166,50.781250
2167,50.781250
2168,46.875000
2169,50.781250
2170,50.781250
2171,50.781250
2172,50.781250
2173,50.781250
2174,50.781250
2175,50.781250
2176,50.781250
2177,50.781250
2178,54.687500
2179,54.687500
2180,54.687500
2181,54.687500
2182,54.687500
2183,54.687500
2184,54.687500
2185,54.687500
2186,54.687500
2187,58.593750
2188,58.593750
2189,58.593750
2190,58.593750
2191,58.593750
2192,58.593750
2193,58.593750
2194,58.593750
2195,58.593750
2196,58.593750
2197,62.500000
2198,62.500000
2199,62.500000
2200,62.500000
2201,62.500000
2202,62.500000
2203,62.500000
2204,62.500000
2205,62.500000
2206,62.500000
2207,62.500000
2208,62.500000
2209,66.406250
2210,62.500000
2211,62.500000
2212,62.500000
2213,62.500000
2214,66.406250
2215,66.406250
2216,66.406250
2217,66.406250
2218,66.406250
2219,66.406250
2220,66.406250
2221,66.406250
2222,66.406250
2223,66.406250
2224,70.312500
2225,70.312500
2226,66.406250
2227,66.406250
2228,66.406250
2229,70.312500
2230,70.312500
2231,70.312500
2232,70.312500
2233,70.312500
2234,70.312500
2235,70.312500
2236,70.312500
2237,70.312500
2238,70.312500
2239,70.312500
2240,70.312500
2241,70.312500
2242,74.218750
2243,74.218750
2244,74.218750
2245,74.218750
2246,74.218750
2247,74.218750
2248,74.218750
2249,74.218750
2250,74.218750
2251,74.218750
2252,74.218750
2253,74.218750
2254,74.218750
2255,74.218750
2256,74.218750
2257,74.218750
2258,74.218750
2259,74.218750
2260,74.218750
2261,74.218750
2262,78.125000
2263,78.125000
2264,74.218750
2265,74.218750
2266,74.218750
2267,78.125000
2268,78.125000
2269,78.125000
2270,78.125000
2271,78.125000
2272,78.125000
2273,78.125000
2274,78.125000
2275,78.125000
2276,78.125000
2277,78.125000
2278,78.125000
2279,78.125000
2280,78.125000
2281,78.125000
2282,78.125000
2283,78.125000
2284,78.125000
2285,78.125000
2286,78.125000
2287,78.125000
2288,78.125000
2289,78.125000
2290,78.125000
2291,78.125000
2292,78.125000
2293,78.125000
2294,78.125000
2295,78.125000
2296,78.125000
2297,78.125000
2298,78.125000
2299,78.125000
2300,78.125000
2301,78.125000
2302,78.125000
2303,78.125000
2304,78.125000
2305,78.125000
2306,78.125000
2307,78.125000
2308,78.125000
2309,78.125000
2310,78.125000
2311,78.125000
2312,78.125000
2313,78.125000
2314,78.125000
2315,78.125000
2316,78.125000
2317,78.125000
2318,78.125000
2319,78.125000
2320,78.125000
2321,78.125000
2322,78.125000
2323,78.125000
2324,78.125000
2325,78.125000
2326,78.125000
2327,78.125000
2328,78.125000
2329,78.125000
2330,78.125000
2331,78.125000
2332,78.125000
2333,78.125000
2334,78.125000
2335,78.125000
2336,78.125000
2337,78.125000
2338,78.125000
2339,74.218750
2340,78.125000
2341,74.218750
2342,74.218750
2343,78.125000
2344,78.125000
2345,74.218750
2346,78.125000
2347,74.218750
2348,78.125000
2349,74.218750
2350,74.218750
2351,74.218750
2352,74.218750
2353,74.218750
2354,74.218750
2355,74.218750
2356,74.218750
2357,74.218750
2358,74.218750
2359,74.218750
2360,74.218750
2361,74.218750
2362,74.218750
2363,74.218750
2364,74.218750
2365,74.218750
2366,74.218750
2367,74.218750
2368,74.218750
2369,70.312500
2370,70.312500
2371,70.312500
2372,70.312500
2373,70.312500
2374,70.312500
2375,70.312500
2376,70.312500
2377,70.312500
2378,70.312500
2379,70.312500
2380,70.312500
2381,70.312500
2382,70.312500
2383,70.312500
2384,70.312500
2385,70.312500
2386,70.312500
2387,66.406250
2388,66.406250
2389,66.406250
2390,66.406250
2391,66.406250
2392,66.406250
2393,66.406250
2394,66.406250
2395,66.406250
2396,66.406250
2397,66.406250
2398,66.406250
2399,66.406250
2400,66.406250
2401,62.500000
2402,62.500000
2403,62.500000
2404,62.500000
2405,62.500000
2406,62.500000
2407,62.500000
2408,62.500000
2409,62.500000
2410,62.500000
2411,62.500000
2412,58.593750
2413,62.500000
2414,58.593750
2415,58.593750
2416,58.593750
2417,58.593750
2418,58.593750
2419,58.593750
2420,58.593750
2421,58.593750
2422,58.593750
2423,58.593750
2424,54.687500
2425,54.687500
2426,54.687500
2427,54.687500
2428,54.687500
2429,54.687500
2430,54.687500
2431,54.687500
2432,54.687500
2433,54.687500
2434,50.781250
2435,50.781250
2436,50.781250
2437,50.781250
2438,50.781250
2439,50.781250
2440,50.781250
2441,50.781250
2442,50.781250
2443,46.875000
2444,50.781250
2445,46.875000
2446,46.875000
2447,46.875000
2448,46.875000
2449,46.875000
2450,46.875000
2451,42.968750
2452,42.968750
2453,42.968750
2454,42.968750
2455,42.968750
2456,42.968750
2457,42.968750
2458,42.968750
2459,42.968750
2460,42.968750
2461,39.062500
2462,42.968750
2463,39.062500
2464,39.062500
2465,39.062500
2466,39.062500
2467,39.062500
2468,39.062500
2469,39.062500
2470,35.156250
2471,35.156250
2472,35.156250
2473,35.156250
2474,35.156250
2475,35.156250
2476,35.156250
2477,31.250000
2478,31.250000
2479,31.250000
2480,31.250000
2481,31.250000
2482,31.250000
2483,31.250000
2484,31.250000
2485,31.250000
2486,31.250000
2487,27.343750
2488,27.343750
2489,27.343750
2490,27.343750
2491,27.343750
2492,27.343750
2493,27.343750
2494,23.437500
2495,23.437500
2496,23.437500
2497,23.437500
2498,23.437500
2499,23.437500
2500,23.437500
2501,23.437500
2502,19.531250
2503,19.531250
2504,19.531250
2505,19.531250
2506,19.531250
2507,19.531250
2508,19.531250
2509,15.625000
2510,15.625000
2511,15.625000
2512,15.625000
2513,15.625000
2514,15.625000
2515,15.625000
2516,15.625000
2517,11.718750
2518,11.718750
2519,11.718750
2520,11.718750
2521,11.718750
2522,11.718750
2523,11.718750
2524,7.812500
2525,7.812500
2526,7.812500
2527,7.812500
2528,7.812500
2529,3.906250
2530,7.812500
2531,3.906250
2532,3.906250
2533,3.906250
2534,3.906250
2535,3.906250
2536,0.000000
2537,0.000000
2538,0.000000
2539,0.000000
2540,0.000000
2541,0.000000
2542,0.000000
2543,-3.906250
2544,-3.906250
2545,-3.906250
2546,-3.906250
2547,-3.906250
2548,-3.906250
2549,-7.812500
2550,-7.812500
2551,-7.812500
2552,-7.812500
2553,-7.812500
2554,-7.812500
2555,-7.812500
2556,-11.718750
2557,-11.718750
2558,-11.718750
2559,-11.718750
2560,-11.718750
2561,-11.718750
2562,-11.718750
2563,-11.718750
2564,-15.625000
2565,-15.625000
2566,-15.625000
2567,-15.625000
2568,-15.625000
2569,-15.625000
2570,-19.531250
2571,-19.531250
2572,-19.531250
2573,-19.531250
2574,-19.531250
2575,-19.531250
2576,-23.437500
2577,-23.437500
2578,-23.437500
2579,-23.437500
2580,-23.437500
2581,-23.437500
2582,-27.343750
2583,-27.343750
2584,-27.343750
2585,-27.343750
2586,-27.343750
2587,-27.343750
2588,-31.250000
2589,-31.250000
2590,-31.250000
2591,-31.250000
2592,-31.250000
2593,-31.250000
2594,-31.250000
2595,-35.156250
2596,-35.156250
2597,-35.156250
2598,-35.156250
2599,-35.156250
2600,-35.156250
2601,-35.156250
2602,-39.062500
2603,-39.062500
2604,-39.062500
2605,-39.062500
2606,-39.062500
2607,-39.062500
2608,-39.062500
2609,-39.062500
2610,-42.968750
2611,-42.968750
2612,-42.968750
2613,-42.968750
2614,-42.968750
2615,-42.968750
2616,-46.875000
2617,-46.875000
2618,-46.875000
2619,-46.875000
2620,-46.875000
2621,-46.875000
2622,-46.875000
2623,-46.875000
2624,-50.781250
2625,-50.781250
2626,-50.781250
2627,-50.781250
2628,-50.781250
2629,-50.781250
2630,-54.687500
2631,-54.687500
2632,-54.687500
2633,-54.687500
2634,-54.687500
2635,-54.687500
2636,-54.687500
2637,-54.687500
2638,-54.687500
2639,-58.593750
2640,-58.593750
2641,-58.593750
2642,-58.593750
2643,-58.593750
2644,-58.593750
2645,-58.593750
2646,-58.593750
2647,-62.500000
2648,-62.500000
2649,-62.500000
2650,-62.500000
2651,-62.500000
2652,-62.500000
2653,-62.500000
2654,-66.406250
2655,-66.406250
2656,-66.406250
2657,-66.406250
2658,-66.406250
2659,-66.406250
2660,-66.406250
2661,-70.312500
2662,-70.312500
2663,-66.406250
2664,-70.312500
2665,-70.312500
2666,-70.312500
2667,-70.312500
2668,-74.218750
2669,-74.218750
2670,-74.218750
2671,-74.218750
2672,-74.218750
2673,-74.218750
2674,-74.218750
2675,-74.218750
2676,-74.218750
2677,-74.218750
2678,-78.125000
2679,-78.125000
2680,-78.125000
2681,-78.125000
2682,-78.125000
2683,-78.125000
2684,-78.125000
2685,-78.125000
2686,-82.031250
2687,-82.031250
2688,-82.031250
2689,-82.031250
2690,-82.031250
2691,-82.031250
2692,-82.031250
2693,-82.031250
2694,-82.031250
2695,-82.031250
2696,-85.937500
2697,-85.937500
2698,-85.937500
2699,-85.937500
2700,-85.937500
2701,-85.937500
2702,-85.937500
2703,-85.937500
2704,-85.937500
2705,-85.937500
2706,-89.843750
2707,-89.843750
2708,-89.843750
2709,-89.843750
2710,-89.843750
2711,-89.843750
2712,-89.843750
2713,-89.843750
2714,-89.843750
2715,-89.843750
2716,-89.843750
2717,-93.750000
2718,-93.750000
2719,-93.750000
2720,-93.750000
2721,-93.750000
2722,-93.750000
2723,-93.750000
2724,-93.750000
2725,-93.750000
2726,-93.750000
2727,-93.750000
2728,-93.750000
2729,-93.750000
2730,-93.750000
2731,-93.750000
2732,-97.656250
2733,-97.656250
2734,-97.656250
2735,-97.656250
2736,-97.656250
2737,-97.656250
2738,-97.656250
2739,-97.656250
2740,-97.656250
2741,-97.656250
2742,-97.656250
2743,-97.656250
2744,-97.656250
2745,-97.656250
2746,-97.656250
2747,-101.562500
2748,-101.562500
2749,-101.562500
2750,-101.562500
2751,-101.562500
2752,-101.562500
2753,-101.562500
2754,-101.562500
2755,-101.562500
2756,-101.562500
2757,-101.562500
2758,-101.562500
2759,-101.562500
2760,-101.562500
2761,-101.562500
2762,-101.562500
2763,-101.562500
2764,-101.562500
2765,-105.468750
2766,-101.562500
2767,-101.562500
2768,-101.562500
2769,-101.562500
2770,-101.562500
2771,-101.562500
2772,-105.468750
2773,-101.562500
2774,-105.468750
2775,-105.468750
2776,-105.468750
2777,-105.468750
2778,-105.468750
2779,-105.468750
2780,-105.468750
2781,-105.468750
2782,-105.468750
2783,-105.468750
2784,-105.468750
2785,-105.468750
2786,-105.468750
2787,-105.468750
2788,-105.468750
2789,-105.468750
2790,-105.468750
2791,-105.468750
2792,-105.468750
2793,-105.468750
2794,-105.468750
2795,-105.468750
2796,-105.468750
2797,-105.468750
2798,-105.468750
2799,-105.468750
2800,-105.468750
2801,-105.468750
2802,-105.468750
2803,-105.468750
2804,-105.468750
2805,-105.468750
2806,-105.468750
2807,-105.468750
2808,-105.468750
2809,-105.468750
2810,-105.468750
2811,-105.468750
2812,-105.468750
2813,-105.468750
2814,-105.468750
2815,-105.468750
2816,-105.468750
2817,-105.468750
2818,-105.468750
2819,-105.468750
2820,-105.468750
2821,-105.468750
2822,-105.468750
2823,-105.468750
2824,-105.468750
2825,-101.562500
2826,-105.468750
2827,-105.468750
2828,-101.562500
2829,-101.562500
2830,-101.562500
2831,-101.562500
2832,-101.562500
2833,-101.562500
2834,-101.562500
2835,-101.562500
2836,-101.562500
2837,-101.562500
2838,-101.562500
2839,-101.562500
2840,-101.562500
2841,-101.562500
2842,-101.562500
2843,-101.562500
2844,-101.562500
2845,-101.562500
2846,-101.562500
2847,-101.562500
2848,-101.562500
2849,-101.562500
2850,-101.562500
2851,-101.562500
2852,-101.562500
2853,-101.562500
2854,-97.656250
2855,-97.656250
2856,-97.656250
2857,-97.656250
2858,-97.656250
2859,-97.656250
2860,-97.656250
2861,-97.656250
2862,-97.656250
2863,-97.656250
2864,-97.656250
2865,-97.656250
2866,-97.656250
2867,-97.656250
2868,-97.656250
2869,-93.750000
2870,-93.750000
2871,-93.750000
2872,-93.750000
2873,-93.750000
2874,-93.750000
2875,-93.750000
2876,-93.750000
2877,-93.750000
2878,-93.750000
2879,-93.750000
2880,-93.750000
2881,-89.843750
2882,-89.843750
2883,-89.843750
2884,-89.843750
2885,-89.843750
2886,-89.843750
2887,-89.843750
2888,-89.843750
2889,-89.843750
2890,-89.843750
2891,-85.937500
2892,-89.843750
2893,-85.937500
2894,-85.937500
2895,-85.937500
2896,-85.937500
2897,-85.937500
2898,-85.937500
2899,-85.937500
2900,-85.937500
2901,-85.937500
2902,-85.937500
2903,-82.031250
2904,-85.937500
2905,-82.031250
2906,-82.031250
2907,-82.031250
2908,-82.031250
2909,-82.031250
2910,-82.031250
2911,-82.031250
2912,-82.031250
2913,-82.031250
2914,-78.125000
2915,-78.125000
2916,-78.125000
2917,-78.125000
2918,-78.125000
2919,-78.125000
2920,-74.218750
2921,-74.218750
2922,-74.218750
2923,-74.218750
2924,-74.218750
2925,-74.218750
2926,-74.218750
2927,-74.218750
2928,-74.218750
2929,-70.312500
2930,-70.312500
2931,-74.218750
2932,-70.312500
2933,-70.312500
2934,-70.312500
2935,-70.312500
2936,-70.312500
2937,-70.312500
2938,-66.406250
2939,-66.406250
2940,-66.406250
2941,-66.406250
2942,-66.406250
2943,-66.406250
2944,-66.406250
2945,-62.500000
2946,-66.406250
2947,-62.500000
2948,-62.500000
2949,-62.500000
2950,-62.500000
2951,-62.500000
2952,-62.500000
2953,-58.593750
2954,-58.593750
2955,-58.593750
2956,-58.593750
2957,-58.593750
2958,-58.593750
2959,-58.593750
2960,-58.593750
2961,-54.687500
2962,-54.687500
2963,-54.687500
2964,-54.687500
2965,-54.687500
2966,-54.687500
2967,-54.687500
2968,-50.781250
2969,-50.781250
2970,-50.781250
2971,-50.781250
2972,-50.781250
2973,-50.781250
2974,-50.781250
2975,-46.875000
2976,-46.875000
2977,-46.875000
2978,-46.875000
2979,-46.875000
2980,-46.875000
2981,-46.875000
2982,-46.875000
2983,-46.875000
2984,-42.968750
2985,-42.968750
2986,-42.968750
2987,-42.968750
2988,-42.968750
2989,-42.968750
2990,-39.062500
2991,-39.062500
2992,-39.062500
2993,-39.062500
2994,-39.062500
2995,-39.062500
2996,-39.062500
2997,-35.156250
2998,-35.156250
2999,-35.156250
3000,-35.156250
3001,-35.156250
3002,-31.250000
3003,-31.250000
3004,-31.250000
3005,-31.250000
3006,-31.250000
3007,-31.250000
3008,-31.250000
3009,-27.343750
3010,-27.343750
3011,-27.343750
3012,-27.343750
3013,-27.343750
3014,-27.343750
3015,-27.343750
3016,-23.437500
3017,-23.437500
3018,-23.437500
3019,-23.437500
3020,-23.437500
3021,-23.437500
3022,-19.531250
3023,-23.437500
3024,-19.531250
3025,-19.531250
3026,-19.531250
3027,-19.531250
3028,-19.531250
3029,-19.531250
3030,-15.625000
3031,-15.625000
3032,-15.625000
3033,-15.625000
3034,-15.625000
3035,-15.625000
3036,-11.718750
3037,-11.718750
3038,-11.718750
3039,-11.718750
3040,-11.718750
3041,-7.812500
3042,-7.812500
3043,-7.812500
3044,-7.812500
3045,-7.812500
3046,-7.812500
3047,-3.906250
3048,-7.812500
3049,-3.906250
3050,-3.906250
3051,-3.906250
3052,-3.906250
3053,-3.906250
3054,-3.906250
3055,-3.906250
3056,0.000000
3057,0.000000
3058,0.000000
3059,0.000000
3060,0.000000
3061,0.000000
3062,0.000000
3063,3.906250
3064,3.906250
3065,3.906250
3066,3.906250
3067,3.906250
3068,3.906250
3069,3.906250
3070,7.812500
3071,7.812500
3072,7.812500
3073,7.812500
3074,7.812500
3075,7.812500
3076,7.812500
3077,11.718750
3078,11.718750
3079,11.718750
3080,11.718750
3081,11.718750
3082,11.718750
3083,15.625000
3084,15.625000
3085,15.625000
3086,15.625000
3087,15.625000
3088,15.625000
3089,15.625000
3090,15.625000
3091,19.531250
3092,19.531250
3093,19.531250
3094,19.531250
3095,19.531250
3096,19.531250
3097,19.531250
3098,19.531250
3099,23.437500
3100,23.437500
3101,23.437500
3102,23.437500
3103,23.437500
3104,23.437500
3105,23.437500
3106,27.343750
3107,27.343750
3108,27.343750
3109,27.343750
3110,27.343750
3111,27.343750
3112,27.343750
3113,31.250000
3114,27.343750
3115,31.250000
3116,31.250000
3117,31.250000
3118,31.250000
3119,31.250000
3120,31.250000
3121,31.250000
3122,35.156250
3123,35.156250
3124,35.156250
3125,35.156250
3126,35.156250
3127,35.156250
3128,35.156250
3129,35.156250
3130,35.156250
3131,39.062500
3132,39.062500
3133,39.062500
3134,39.062500
3135,39.062500
3136,39.062500
3137,39.062500
3138,39.062500
3139,42.968750
3140,42.968750
3141,42.968750
3142,42.968750
3143,42.968750
3144,42.968750
3145,42.968750
3146,46.875000
3147,46.875000
3148,46.875000
3149,46.875000
3150,46.875000
3151,46.875000
3152,46.875000
3153,46.875000
3154,46.875000
3155,46.875000
3156,50.781250
3157,50.781250
3158,50.781250
3159,50.781250
3160,50.781250
3161,50.781250
3162,50.781250
3163,50.781250
3164,54.687500
3165,54.687500
3166,54.687500
3167,54.687500
3168,54.687500
3169,54.687500
3170,54.687500
3171,54.687500
3172,54.687500
3173,54.687500
3174,54.687500
3175,54.687500
3176,58.593750
3177,58.593750
3178,58.593750
3179,58.593750
3180,58.593750
3181,58.593750
3182,58.593750
3183,58.593750
3184,58.593750
3185,62.500000
3186,58.593750
3187,62.500000
3188,62.500000
3189,62.500000
3190,62.500000
3191,62.500000
3192,62.500000
3193,62.500000
3194,62.500000
3195,62.500000
3196,62.500000
3197,66.406250
3198,62.500000
3199,62.500000
3200,66.406250
3201,66.406250
3202,66.406250
3203,66.406250
3204,66.406250
3205,66.406250
3206,66.406250
3207,66.406250
3208,66.406250
3209,66.406250
3210,66.406250
3211,66.406250
3212,66.406250
3213,66.406250
3214,70.312500
3215,70.312500
3216,70.312500
3217,70.312500
3218,70.312500
3219,70.312500
3220,70.312500
3221,70.312500
3222,70.312500
3223,70.312500
3224,70.312500
3225,70.312500
3226,70.312500
3227,70.312500
3228,70.312500
3229,70.312500
3230,70.312500
3231,70.312500
3232,70.312500
3233,74.218750
3234,74.218750
3235,74.218750
3236,74.218750
3237,74.218750
3238,70.312500
3239,74.218750
3240,74.218750
3241,74.218750
3242,74.218750
3243,74.218750
3244,74.218750
3245,74.218750
3246,74.218750
3247,74.218750
3248,74.218750
3249,74.218750
3250,74.218750
3251,78.125000
3252,74.218750
3253,74.218750
3254,74.218750
3255,74.218750
3256,78.125000
3257,74.218750
3258,78.125000
3259,78.125000
3260,78.125000
3261,78.125000
3262,78.125000
3263,78.125000
3264,78.125000
3265,78.125000
3266,78.125000
3267,78.125000
3268,78.125000
3269,78.125000
3270,78.125000
3271,78.125000
3272,78.125000
3273,78.125000
3274,78.125000
3275,78.125000
3276,78.125000
3277,78.125000
3278,78.125000
3279,78.125000
3280,78.125000
3281,78.125000
3282,78.125000
3283,78.125000
3284,78.125000
3285,78.125000
3286,78.125000
3287,78.125000
3288,78.125000
3289,78.125000
3290,78.125000
3291,78.125000
3292,78.125000
3293,78.125000
3294,78.125000
3295,78.125000
3296,78.125000
3297,78.125000
3298,78.125000
3299,78.125000
3300,78.125000
3301,78.125000
3302,78.125000
3303,78.125000
3304,78.125000
3305,78.125000
3306,78.125000
3307,78.125000
3308,78.125000
3309,78.125000
3310,78.125000
3311,78.125000
3312,78.125000
3313,78.125000
3314,78.125000
3315,78.125000
3316,78.125000
3317,78.125000
3318,78.125000
3319,78.125000
3320,78.125000
3321,78.125000
3322,78.125000
3323,78.125000
3324,78.125000
3325,78.125000
3326,78.125000
3327,78.125000
3328,78.125000
3329,78.125000
3330,78.125000
3331,74.218750
3332,74.218750
3333,78.125000
3334,78.125000
3335,78.125000
3336,78.125000
3337,74.218750
3338,74.218750
3339,74.218750
3340,74.218750
3341,74.218750
3342,74.218750
3343,74.218750
3344,74.218750
3345,74.218750
3346,74.218750
3347,74.218750
3348,74.218750
3349,74.218750
3350,74.218750
3351,74.218750
3352,74.218750
3353,74.218750
3354,74.218750
3355,74.218750
3356,74.218750
3357,70.312500
3358,70.312500
3359,70.312500
3360,70.312500
3361,70.312500
3362,70.312500
3363,70.312500
3364,70.312500
3365,70.312500
3366,70.312500
3367,70.312500
3368,70.312500
3369,70.312500
3370,70.312500
3371,70.312500
3372,70.312500
3373,66.406250
3374,70.312500
3375,66.406250
3376,66.406250
3377,66.406250
3378,66.406250
3379,66.406250
3380,66.406250
3381,66.406250
3382,66.406250
3383,66.406250
3384,66.406250
3385,66.406250
3386,66.406250
3387,66.406250
3388,66.406250
3389,66.406250
3390,66.406250
3391,66.406250
3392,62.500000
3393,62.500000
3394,62.500000
3395,62.500000
3396,62.500000
3397,62.500000
3398,62.500000
3399,62.500000
3400,62.500000
3401,62.500000
3402,62.500000
3403,58.593750
3404,58.593750
3405,58.593750
3406,58.593750
3407,58.593750
3408,58.593750
3409,58.593750
3410,58.593750
3411,58.593750
3412,58.593750
3413,58.593750
3414,54.687500
3415,54.687500
3416,54.687500
3417,54.687500
3418,54.687500
3419,54.687500
3420,54.687500
3421,54.687500
3422,54.687500
3423,54.687500
3424,54.687500
3425,50.781250
3426,50.781250
3427,50.781250
3428,50.781250
3429,50.781250
3430,50.781250
3431,50.781250
3432,50.781250
3433,46.875000
3434,46.875000
3435,46.875000
3436,46.875000
3437,46.875000
3438,46.875000
3439,46.875000
3440,46.875000
3441,46.875000
3442,46.875000
3443,42.968750
3444,42.968750
3445,42.968750
3446,42.968750
3447,42.968750
3448,42.968750
3449,42.968750
3450,42.968750
3451,42.968750
3452,39.062500
3453,39.062500
3454,39.062500
3455,39.062500
3456,39.062500
3457,39.062500
3458,39.062500
3459,39.062500
3460,39.062500
3461,35.156250
3462,35.156250
3463,35.156250
3464,35.156250
3465,35.156250
3466,35.156250
3467,35.156250
3468,31.250000
3469,31.250000
3470,31.250000
3471,31.250000
3472,31.250000
3473,31.250000
3474,31.250000
3475,31.250000
3476,27.343750
3477,27.343750
3478,27.343750
3479,27.343750
3480,27.343750
3481,27.343750
3482,27.343750
3483,23.437500
3484,23.437500
3485,23.437500
3486,23.437500
3487,23.437500
3488,23.437500
3489,23.437500
3490,19.531250
3491,23.437500
3492,19.531250
3493,19.531250
3494,19.531250
3495,19.531250
3496,19.531250
3497,15.625000
3498,15.625000
3499,15.625000
3500,15.625000
3501,15.625000
3502,15.625000
3503,15.625000
3504,15.625000
3505,11.718750
3506,11.718750
3507,11.718750
3508,11.718750
3509,11.718750
3510,11.718750
3511,7.812500
3512,7.812500
3513,7.812500
3514,7.812500
3515,7.812500
3516,7.812500
3517,7.812500
3518,7.812500
3519,3.906250
3520,3.906250
3521,3.906250
3522,3.906250
3523,3.906250
3524,3.906250
3525,3.906250
3526,3.906250
3527,0.000000
3528,0.000000
3529,0.000000
3530,0.000000
3531,0.000000
3532,-3.906250
3533,0.000000
3534,-3.906250
3535,-3.906250
3536,-3.906250
3537,-3.906250
3538,-3.906250
3539,-3.906250
3540,-7.812500
3541,-7.812500
3542,-7.812500
3543,-7.812500
3544,-7.812500
3545,-7.812500
3546,-7.812500
3547,-11.718750
3548,-11.718750
3549,-11.718750
3550,-11.718750
3551,-11.718750
3552,-15.625000
3553,-11.718750
3554,-11.718750
3555,-15.625000
3556,-15.625000
3557,-15.625000
3558,-19.531250
3559,-19.531250
3560,-19.531250
3561,-19.531250
3562,-19.531250
3563,-19.531250
3564,-19.531250
3565,-19.531250
3566,-19.531250
3567,-23.437500
3568,-23.437500
3569,-23.437500
3570,-23.437500
3571,-23.437500
3572,-23.437500
3573,-27.343750
3574,-27.343750
3575,-27.343750
3576,-27.343750
3577,-27.343750
3578,-31.250000
3579,-31.250000
3580,-31.250000
3581,-31.250000
3582,-31.250000
3583,-31.250000
3584,-31.250000
3585,-35.156250
3586,-31.250000
3587,-35.156250
3588,-35.156250
3589,-35.156250
3590,-35.156250
3591,-35.156250
3592,-35.156250
3593,-39.062500
3594,-39.062500
3595,-39.062500
3596,-39.062500
3597,-39.062500
3598,-39.062500
3599,-42.968750
3600,-42.968750
3601,-42.968750
3602,-42.968750
3603,-42.968750
3604,-42.968750
3605,-42.968750
3606,-46.875000
3607,-46.875000
3608,-46.875000
3609,-46.875000
3610,-46.875000
3611,-46.875000
3612,-50.781250
3613,-50.781250
3614,-50.781250
3615,-50.781250
3616,-50.781250
3617,-50.781250
3618,-50.781250
3619,-54.687500
3620,-54.687500
3621,-54.687500
3622,-54.687500
3623,-54.687500
3624,-54.687500
3625,-54.687500
3626,-54.687500
3627,-58.593750
3628,-58.593750
3629,-58.593750
3630,-58.593750
3631,-58.593750
3632,-58.593750
3633,-58.593750
3634,-62.500000
3635,-62.500000
3636,-62.500000
3637,-62.500000
3638,-62.500000
3639,-62.500000
3640,-62.500000
3641,-62.500000
3642,-66.406250
3643,-66.406250
3644,-66.406250
3645,-66.406250
3646,-66.406250
3647,-66.406250
3648,-66.406250
3649,-70.312500
3650,-70.312500
3651,-70.312500
3652,-70.312500
3653,-70.312500
3654,-70.312500
3655,-70.312500
3656,-70.312500
3657,-74.218750
3658,-70.312500
3659,-74.218750
3660,-74.218750
3661,-74.218750
3662,-74.218750
3663,-74.218750
3664,-74.218750
3665,-74.218750
3666,-74.218750
3667,-74.218750
3668,-78.125000
3669,-78.125000
3670,-78.125000
3671,-78.125000
3672,-78.125000
3673,-78.125000
3674,-78.125000
3675,-78.125000
3676,-82.031250
3677,-82.031250
3678,-82.031250
3679,-82.031250
3680,-82.031250
3681,-82.031250
3682,-82.031250
3683,-82.031250
3684,-82.031250
3685,-82.031250
3686,-85.937500
3687,-85.937500
3688,-85.937500
3689,-85.937500
3690,-85.937500
3691,-85.937500
3692,-85.937500
3693,-85.937500
3694,-85.937500
3695,-85.937500
3696,-89.843750
3697,-89.843750
3698,-89.843750
3699,-89.843750
3700,-89.843750
3701,-89.843750
3702,-89.843750
3703,-89.843750
3704,-89.843750
3705,-89.843750
3706,-89.843750
3707,-93.750000
3708,-93.750000
3709,-93.750000
3710,-93.750000
3711,-93.750000
3712,-93.750000
3713,-93.750000
3714,-93.750000
3715,-93.750000
3716,-93.750000
3717,-93.750000
3718,-93.750000
3719,-97.656250
3720,-97.656250
3721,-97.656250
3722,-97.656250
3723,-97.656250
3724,-97.656250
3725,-97.656250
3726,-97.656250
3727,-97.656250
3728,-97.656250
3729,-97.656250
3730,-97.656250
3731,-97.656250
3732,-97.656250
3733,-97.656250
3734,-101.562500
3735,-101.562500
3736,-101.562500
3737,-97.656250
3738,-101.562500
3739,-101.562500
3740,-101.562500
3741,-101.562500
3742,-101.562500
3743,-101.562500
3744,-101.562500
3745,-101.562500
3746,-101.562500
3747,-101.562500
3748,-101.562500
3749,-101.562500
3750,-101.562500
3751,-101.562500
3752,-101.562500
3753,-101.562500
3754,-101.562500
3755,-101.562500
3756,-105.468750
3757,-101.562500
3758,-105.468750
3759,-105.468750
3760,-105.468750
3761,-105.468750
3762,-105.468750
3763,-105.468750
3764,-105.468750
3765,-101.562500
3766,-105.468750
3767,-105.468750
3768,-105.468750
3769,-105.468750
3770,-105.468750
3771,-105.468750
3772,-105.468750
3773,-105.468750
3774,-105.468750
3775,-105.468750
3776,-105.468750
3777,-105.468750
3778,-105.468750
3779,-105.468750
3780,-105.468750
3781,-105.468750
3782,-105.468750
3783,-105.468750
3784,-105.468750
3785,-105.468750
3786,-105.468750
3787,-105.468750
3788,-105.468750
3789,-105.468750
3790,-105.468750
3791,-105.468750
3792,-105.468750
3793,-105.468750
3794,-105.468750
3795,-105.468750
3796,-105.468750
3797,-105.468750
3798,-105.468750
3799,-105.468750
3800,-105.468750
3801,-105.468750
3802,-105.468750
3803,-105.468750
3804,-105.468750
3805,-105.468750
3806,-105.468750
3807,-105.468750
3808,-105.468750
3809,-105.468750
3810,-105.468750
3811,-105.468750
3812,-105.468750
3813,-101.562500
3814,-101.562500
3815,-101.562500
3816,-101.562500
3817,-101.562500
3818,-101.562500
3819,-105.468750
3820,-101.562500
3821,-101.562500
3822,-101.562500
3823,-101.562500
3824,-101.562500
3825,-101.562500
3826,-101.562500
3827,-101.562500
3828,-101.562500
3829,-101.562500
3830,-101.562500
3831,-101.562500
3832,-101.562500
3833,-101.562500
3834,-101.562500
3835,-101.562500
3836,-101.562500
3837,-101.562500
3838,-97.656250
3839,-101.562500
3840,-101.562500
3841,-97.656250
3842,-97.656250
3843,-97.656250
3844,-97.656250
3845,-97.656250
3846,-97.656250
3847,-97.656250
3848,-97.656250
3849,-97.656250
3850,-97.656250
3851,-97.656250
3852,-97.656250
3853,-97.656250
3854,-97.656250
3855,-93.750000
3856,-93.750000
3857,-97.656250
3858,-97.656250
3859,-97.656250
3860,-93.750000
3861,-93.750000
3862,-93.750000
3863,-93.750000
3864,-93.750000
3865,-93.750000
3866,-93.750000
3867,-93.750000
3868,-93.750000
3869,-93.750000
3870,-93.750000
3871,-89.843750
3872,-89.843750
3873,-89.843750
3874,-89.843750
3875,-89.843750
3876,-89.843750
3877,-89.843750
3878,-89.843750
3879,-89.843750
3880,-89.843750
3881,-89.843750
3882,-89.843750
3883,-85.937500
3884,-85.937500
3885,-85.937500
3886,-85.937500
3887,-85.937500
3888,-85.937500
3889,-85.937500
3890,-85.937500
3891,-85.937500
3892,-85.937500
3893,-85.937500
3894,-82.031250
3895,-82.031250
3896,-82.031250
3897,-82.031250
3898,-82.031250
3899,-82.031250
3900,-82.031250
3901,-82.031250
3902,-82.031250
3903,-78.125000
3904,-78.125000
3905,-78.125000
3906,-78.125000
3907,-78.125000
3908,-78.125000
3909,-78.125000
3910,-78.125000
3911,-78.125000
3912,-74.218750
3913,-74.218750
3914,-74.218750
3915,-74.218750
3916,-74.218750
3917,-74.218750
3918,-74.218750
3919,-74.218750
3920,-70.312500
3921,-70.312500
3922,-74.218750
3923,-70.312500
3924,-70.312500
3925,-70.312500
3926,-70.312500
3927,-66.406250
3928,-66.406250
3929,-66.406250
3930,-66.406250
3931,-66.406250
3932,-66.406250
3933,-66.406250
3934,-66.406250
3935,-62.500000
3936,-62.500000
3937,-62.500000
3938,-62.500000
3939,-62.500000
3940,-62.500000
3941,-62.500000
3942,-62.500000
3943,-58.593750
3944,-58.593750
3945,-58.593750
3946,-58.593750
3947,-58.593750
3948,-58.593750
3949,-58.593750
3950,-58.593750
3951,-54.687500
3952,-54.687500
3953,-54.687500
3954,-54.687500
3955,-54.687500
3956,-54.687500
3957,-54.687500
3958,-50.781250
3959,-50.781250
3960,-50.781250
3961,-50.781250
3962,-50.781250
3963,-50.781250
3964,-46.875000
3965,-46.875000
3966,-46.875000
3967,-46.875000
3968,-46.875000
3969,-46.875000
3970,-46.875000
3971,-42.968750
3972,-42.968750
3973,-42.968750
3974,-42.968750
3975,-42.968750
3976,-42.968750
3977,-42.968750
3978,-39.062500
3979,-39.062500
3980,-39.062500
3981,-39.062500
3982,-39.062500
3983,-39.062500
3984,-39.062500
3985,-39.062500
3986,-35.156250
3987,-39.062500
3988,-35.156250
3989,-35.156250
3990,-35.156250
3991,-35.156250
3992,-35.156250
3993,-31.250000
3994,-35.156250
3995,-31.250000
3996,-31.250000
3997,-31.250000
3998,-31.250000
3999,-27.343750
4000,-27.343750
4001,-27.343750
4002,-27.343750
4003,-27.343750
4004,-27.343750
4005,-27.343750
4006,-27.343750
4007,-23.437500
4008,-23.437500
4009,-23.437500
4010,-23.437500
4011,-23.437500
4012,-23.437500
4013,-19.531250
4014,-19.531250
4015,-19.531250
4016,-19.531250
4017,-19.531250
4018,-19.531250
4019,-19.531250
4020,-15.625000
4021,-15.625000
4022,-15.625000
4023,-15.625000
4024,-15.625000
4025,-15.625000
4026,-15.625000
4027,-11.718750
4028,-11.718750
4029,-11.718750
4030,-11.718750
4031,-11.718750
4032,-11.718750
4033,-11.718750
4034,-7.812500
4035,-7.812500
4036,-7.812500
4037,-7.812500
4038,-7.812500
4039,-3.906250
4040,-3.906250
4041,-3.906250
4042,-3.906250
4043,-3.906250
4044,-3.906250
4045,0.000000
4046,0.000000
4047,0.000000
4048,0.000000
4049,0.000000
4050,0.000000
4051,0.000000
4052,3.906250
4053,3.906250
4054,3.906250
4055,3.906250
4056,3.906250
4057,3.906250
4058,3.906250
4059,3.906250
4060,7.812500
4061,7.812500
4062,7.812500
4063,7.812500
4064,7.812500
4065,7.812500
4066,11.718750
4067,11.718750
4068,11.718750
4069,11.718750
4070,11.718750
4071,11.718750
4072,11.718750
4073,15.625000
4074,15.625000
4075,15.625000
4076,15.625000
4077,15.625000
4078,15.625000
4079,15.625000
4080,19.531250
4081,19.531250
4082,19.531250
4083,19.531250
4084,19.531250
4085,19.531250
4086,19.531250
4087,23.437500
4088,23.437500
4089,23.437500
4090,23.437500
4091,23.437500
4092,23.437500
4093,23.437500
4094,23.437500
4095,23.437500
4096,27.343750
4097,27.343750
4098,27.343750
4099,27.343750
4100,27.343750
4101,27.343750
4102,31.250000
4103,31.250000
4104,31.250000
4105,31.250000
4106,31.250000
4107,31.250000
4108,31.250000
4109,31.250000
4110,35.156250
4111,31.250000
4112,35.156250
4113,35.156250
4114,35.156250
4115,35.156250
4116,35.156250
4117,35.156250
4118,35.156250
4119,39.062500
4120,39.062500
4121,39.062500
4122,39.062500
4123,39.062500
4124,39.062500
4125,39.062500
4126,39.062500
4127,42.968750
4128,39.062500
4129,42.968750
4130,42.968750
4131,42.968750
4132,42.968750
4133,42.968750
4134,42.968750
4135,42.968750
4136,42.968750
4137,46.875000
4138,46.875000
4139,46.875000
4140,46.875000
4141,46.875000
4142,46.875000
4143,46.875000
4144,46.875000
4145,46.875000
4146,46.875000
4147,50.781250
4148,50.781250
4149,50.781250
4150,50.781250
4151,50.781250
4152,50.781250
4153,50.781250
4154,50.781250
4155,54.687500
4156,54.687500
4157,54.687500
4158,54.687500
4159,54.687500
4160,54.687500
4161,54.687500
4162,54.687500
4163,54.687500
4164,54.687500
4165,54.687500
4166,54.687500
4167,58.593750
4168,58.593750
4169,58.593750
4170,58.593750
4171,58.593750
4172,58.593750
4173,58.593750
4174,58.593750
4175,58.593750
4176,58.593750
4177,62.500000
4178,62.500000
4179,62.500000
4180,62.500000
4181,62.500000
4182,62.500000
4183,62.500000
4184,62.500000
4185,62.500000
4186,62.500000
4187,66.406250
4188,62.500000
4189,66.406250
4190,66.406250
4191,62.500000
4192,66.406250
4193,66.406250
4194,66.406250
4195,66.406250
4196,66.406250
4197,66.406250
4198,66.406250
4199,66.406250
4200,66.406250
4201,66.406250
4202,66.406250
4203,70.312500
4204,66.406250
4205,70.312500
4206,70.312500
4207,70.312500
4208,70.312500
4209,70.312500
4210,70.312500
4211,70.312500
4212,70.312500
4213,70.312500
4214,70.312500
4215,70.312500
4216,70.312500
4217,70.312500
4218,74.218750
4219,74.218750
4220,74.218750
4221,74.218750
4222,74.218750
4223,74.218750
4224,74.218750
4225,74.218750
4226,74.218750
4227,74.218750
4228,74.218750
4229,74.218750
4230,74.218750
4231,74.218750
4232,74.218750
4233,74.218750
4234,74.218750
4235,74.218750
4236,74.218750
4237,74.218750
4238,74.218750
4239,74.218750
4240,74.218750
4241,74.218750
4242,74.218750
4243,78.125000
4244,74.218750
4245,78.125000
4246,78.125000
4247,78.125000
4248,78.125000
4249,78.125000
4250,78.125000
4251,78.125000
4252,78.125000
4253,78.125000
4254,78.125000
4255,78.125000
4256,78.125000
4257,78.125000
4258,78.125000
4259,78.125000
4260,78.125000
4261,78.125000
4262,78.125000
4263,78.125000
4264,78.125000
4265,78.125000
4266,78.125000
4267,78.125000
4268,78.125000
4269,78.125000
4270,78.125000
4271,78.125000
4272,78.125000
4273,78.125000
4274,78.125000
4275,78.125000
4276,78.125000
4277,78.125000
4278,78.125000
4279,82.031250
4280,78.125000
4281,78.125000
4282,74.218750
4283,78.125000
4284,78.125000
4285,78.125000
4286,78.125000
4287,78.125000
4288,74.218750
4289,78.125000
4290,78.125000
4291,78.125000
4292,78.125000
4293,78.125000
4294,78.125000
4295,82.031250
4296,78.125000
4297,78.125000
4298,78.125000
4299,78.125000
4300,78.125000
4301,78.125000
4302,78.125000
4303,78.125000
4304,78.125000
4305,78.125000
4306,78.125000
4307,82.031250
4308,74.218750
4309,78.125000
4310,78.125000
4311,78.125000
4312,78.125000
4313,78.125000
4314,78.125000
4315,78.125000
4316,78.125000
4317,78.125000
4318,78.125000
4319,78.125000
4320,78.125000
4321,78.125000
4322,78.125000
4323,78.125000
4324,74.218750
4325,78.125000
4326,74.218750
4327,74.218750
4328,74.218750
4329,78.125000
4330,74.218750
4331,78.125000
4332,74.218750
4333,74.218750
4334,74.218750
4335,74.218750
4336,74.218750
4337,74.218750
4338,74.218750
4339,74.218750
4340,74.218750
4341,74.218750
4342,74.218750
4343,74.218750
4344,74.218750
4345,74.218750
4346,74.218750
4347,74.218750
4348,74.218750
4349,74.218750
4350,70.312500
4351,70.312500
4352,74.218750
4353,70.312500
4354,70.312500
4355,74.218750
4356,70.312500
4357,70.312500
4358,70.312500
4359,70.312500
4360,70.312500
4361,70.312500
4362,66.406250
4363,70.312500
4364,66.406250
4365,66.406250
4366,66.406250
4367,66.406250
4368,66.406250
4369,66.406250
4370,66.406250
4371,66.406250
4372,66.406250
4373,66.406250
4374,66.406250
4375,66.406250
4376,66.406250
4377,66.406250
4378,66.406250
4379,66.406250
4380,62.500000
4381,62.500000
4382,62.500000
4383,62.500000
4384,62.500000
4385,62.500000
4386,62.500000
4387,62.500000
4388,62.500000
4389,62.500000
4390,62.500000
4391,58.593750
4392,58.593750
4393,62.500000
4394,58.593750
4395,58.593750
4396,58.593750
4397,58.593750
4398,58.593750
4399,58.593750
4400,58.593750
4401,58.593750
4402,58.593750
4403,54.687500
4404,54.687500
4405,54.687500
4406,54.687500
4407,54.687500
4408,54.687500
4409,54.687500
4410,54.687500
4411,54.687500
4412,54.687500
4413,50.781250
4414,50.781250
4415,50.781250
4416,50.781250
4417,50.781250
4418,50.781250
4419,50.781250
4420,50.781250
4421,50.781250
4422,46.875000
4423,46.875000
4424,46.875000
4425,46.875000
4426,46.875000
4427,46.875000
4428,46.875000
4429,46.875000
4430,46.875000
4431,46.875000
4432,42.968750
4433,46.875000
4434,42.968750
4435,42.968750
4436,42.968750
4437,42.968750
4438,42.968750
4439,42.968750
4440,42.968750
4441,39.062500
4442,39.062500
4443,39.062500
4444,39.062500
4445,39.062500
4446,39.062500
4447,39.062500
4448,39.062500
4449,35.156250
4450,35.156250
4451,35.156250
4452,35.156250
4453,35.156250
4454,35.156250
4455,35.156250
4456,35.156250
4457,31.250000
4458,31.250000
4459,31.250000
4460,31.250000
4461,31.250000
4462,31.250000
4463,31.250000
4464,31.250000
4465,31.250000
4466,27.343750
4467,27.343750
4468,27.343750
4469,27.343750
4470,27.343750
4471,27.343750
4472,27.343750
4473,23.437500
4474,23.437500
4475,23.437500
4476,23.437500
4477,23.437500
4478,23.437500
4479,23.437500
4480,23.437500
4481,19.531250
4482,19.531250
4483,19.531250
4484,19.531250
4485,19.531250
4486,19.531250
4487,19.531250
4488,15.625000
4489,15.625000
4490,15.625000
4491,15.625000
4492,15.625000
4493,15.625000
4494,15.625000
4495,11.718750
4496,11.718750
4497,11.718750
4498,11.718750
4499,11.718750
4500,11.718750
4501,7.812500
4502,7.812500
4503,7.812500
4504,7.812500
4505,7.812500
4506,7.812500
4507,7.812500
4508,7.812500
4509,3.906250
4510,3.906250
4511,3.906250
4512,3.906250
4513,3.906250
4514,3.906250
4515,3.906250
4516,0.000000
4517,0.000000
4518,0.000000
4519,0.000000
4520,0.000000
4521,0.000000
4522,-3.906250
4523,-3.906250
4524,-3.906250
4525,-3.906250
4526,-3.906250
4527,-3.906250
4528,-3.906250
4529,-7.812500
4530,-7.812500
4531,-7.812500
4532,-7.812500
4533,-7.812500
4534,-7.812500
4535,-7.812500
4536,-11.718750
4537,-11.718750
4538,-11.718750
4539,-11.718750
4540,-11.718750
4541,-15.625000
4542,-15.625000
4543,-15.625000
4544,-15.625000
4545,-15.625000
4546,-15.625000
4547,-15.625000
4548,-19.531250
4549,-19.531250
4550,-19.531250
4551,-19.531250
4552,-19.531250
4553,-19.531250
4554,-19.531250
4555,-19.531250
4556,-23.437500
4557,-23.437500
4558,-23.437500
4559,-23.437500
4560,-27.343750
4561,-23.437500
4562,-27.343750
4563,-27.343750
4564,-27.343750
4565,-27.343750
4566,-27.343750
4567,-27.343750
4568,-31.250000
4569,-31.250000
4570,-31.250000
4571,-31.250000
4572,-31.250000
4573,-31.250000
4574,-31.250000
4575,-35.156250
4576,-35.156250
4577,-35.156250
4578,-35.156250
4579,-35.156250
4580,-35.156250
4581,-35.156250
4582,-39.062500
4583,-39.062500
4584,-39.062500
4585,-39.062500
4586,-39.062500
4587,-39.062500
4588,-42.968750
4589,-42.968750
4590,-42.968750
4591,-42.968750
4592,-42.968750
4593,-42.968750
4594,-42.968750
4595,-42.968750
4596,-46.875000
4597,-46.875000
4598,-46.875000
4599,-46.875000
4600,-46.875000
4601,-46.875000
4602,-50.781250
4603,-50.781250
4604,-50.781250
4605,-50.781250
4606,-50.781250
4607,-50.781250
4608,-50.781250
4609,-50.781250
4610,-54.687500
4611,-54.687500
4612,-54.687500
4613,-54.687500
4614,-54.687500
4615,-54.687500
4616,-54.687500
4617,-58.593750
4618,-58.593750
4619,-58.593750
4620,-58.593750
4621,-58.593750
4622,-58.593750
4623,-58.593750
4624,-62.500000
4625,-62.500000
4626,-62.500000
4627,-62.500000
4628,-62.500000
4629,-62.500000
4630,-62.500000
4631,-66.406250
4632,-66.406250
4633,-66.406250
4634,-66.406250
4635,-66.406250
4636,-66.406250
4637,-66.406250
4638,-66.406250
4639,-66.406250
4640,-70.312500
4641,-70.312500
4642,-70.312500
4643,-70.312500
4644,-70.312500
4645,-70.312500
4646,-70.312500
4647,-70.312500
4648,-74.218750
4649,-74.218750
4650,-74.218750
4651,-74.218750
4652,-74.218750
4653,-74.218750
4654,-74.218750
4655,-74.218750
4656,-78.125000
4657,-78.125000
4658,-78.125000
4659,-78.125000
4660,-78.125000
4661,-78.125000
4662,-78.125000
4663,-78.125000
4664,-82.031250
4665,-82.031250
4666,-82.031250
4667,-82.031250
4668,-82.031250
4669,-82.031250
4670,-82.031250
4671,-82.031250
4672,-82.031250
4673,-82.031250
4674,-85.937500
4675,-85.937500
4676,-85.937500
4677,-85.937500
4678,-85.937500
4679,-85.937500
4680,-85.937500
4681,-85.937500
4682,-85.937500
4683,-85.937500
4684,-89.843750
4685,-89.843750
4686,-89.843750
4687,-89.843750
4688,-89.843750
4689,-89.843750
4690,-89.843750
4691,-89.843750
4692,-89.843750
4693,-89.843750
4694,-89.843750
4695,-89.843750
4696,-89.843750
4697,-89.843750
4698,-93.750000
4699,-93.750000
4700,-93.750000
4701,-93.750000
4702,-93.750000
4703,-93.750000
4704,-93.750000
4705,-93.750000
4706,-93.750000
4707,-93.750000
4708,-93.750000
4709,-93.750000
4710,-97.656250
4711,-93.750000
4712,-97.656250
4713,-97.656250
4714,-97.656250
4715,-97.656250
4716,-97.656250
4717,-97.656250
4718,-97.656250
4719,-97.656250
4720,-97.656250
4721,-97.656250
4722,-97.656250
4723,-97.656250
4724,-97.656250
4725,-97.656250
4726,-101.562500
4727,-101.562500
4728,-101.562500
4729,-101.562500
4730,-101.562500
4731,-97.656250
4732,-101.562500
4733,-101.562500
4734,-101.562500
4735,-101.562500
4736,-101.562500
4737,-101.562500
4738,-101.562500
4739,-101.562500
4740,-101.562500
4741,-101.562500
4742,-101.562500
4743,-105.468750
4744,-105.468750
4745,-101.562500
4746,-105.468750
4747,-101.562500
4748,-105.468750
4749,-105.468750
4750,-105.468750
4751,-101.562500
4752,-105.468750
4753,-105.468750
4754,-105.468750
4755,-105.468750
4756,-105.468750
4757,-105.468750
4758,-105.468750
4759,-105.468750
4760,-105.468750
4761,-105.468750
4762,-105.468750
4763,-105.468750
4764,-105.468750
4765,-105.468750
4766,-105.468750
4767,-105.468750
4768,-105.468750
4769,-105.468750
4770,-105.468750
4771,-105.468750
4772,-105.468750
4773,-105.468750
4774,-105.468750
4775,-105.468750
4776,-105.468750
4777,-105.468750
4778,-105.468750
4779,-105.468750
4780,-105.468750
4781,-105.468750
4782,-105.468750
4783,-105.468750
4784,-105.468750
4785,-105.468750
4786,-105.468750
4787,-105.468750
4788,-105.468750
4789,-105.468750
4790,-105.468750
4791,-105.468750
4792,-105.468750
4793,-105.468750
4794,-105.468750
4795,-105.468750
4796,-105.468750
4797,-105.468750
4798,-105.468750
4799,-105.468750
4800,-105.468750
4801,-105.468750
4802,-105.468750
4803,-105.468750
4804,-105.468750
4805,-105.468750
4806,-105.468750
4807,-105.468750
4808,-105.468750
4809,-105.468750
4810,-105.468750
4811,-105.468750
4812,-101.562500
4813,-101.562500
4814,-101.562500
4815,-101.562500
4816,-101.562500
4817,-101.562500
4818,-101.562500
4819,-101.562500
4820,-101.562500
4821,-101.562500
4822,-101.562500
4823,-101.562500
4824,-101.562500
4825,-101.562500
4826,-101.562500
4827,-101.562500
4828,-101.562500
4829,-101.562500
4830,-101.562500
4831,-101.562500
4832,-97.656250
4833,-97.656250
4834,-97.656250
4835,-97.656250
4836,-97.656250
4837,-97.656250
4838,-97.656250
4839,-97.656250
4840,-97.656250
4841,-97.656250
4842,-97.656250
4843,-97.656250
4844,-93.750000
4845,-97.656250
4846,-97.656250
4847,-93.750000
4848,-93.750000
4849,-93.750000
4850,-93.750000
4851,-93.750000
4852,-93.750000
4853,-93.750000
4854,-93.750000
4855,-93.750000
4856,-93.750000
4857,-93.750000
4858,-93.750000
4859,-89.843750
4860,-93.750000
4861,-89.843750
4862,-89.843750
4863,-89.843750
4864,-89.843750
4865,-89.843750
4866,-89.843750
4867,-89.843750
4868,-89.843750
4869,-89.843750
4870,-89.843750
4871,-89.843750
4872,-85.937500
4873,-85.937500
4874,-85.937500
4875,-85.937500
4876,-85.937500
4877,-85.937500
4878,-85.937500
4879,-85.937500
4880,-85.937500
4881,-85.937500
4882,-85.937500
4883,-82.031250
4884,-82.031250
4885,-82.031250
4886,-82.031250
4887,-82.031250
4888,-82.031250
4889,-82.031250
4890,-82.031250
4891,-78.125000
4892,-82.031250
4893,-78.125000
4894,-78.125000
4895,-78.125000
4896,-78.125000
4897,-78.125000
4898,-78.125000
4899,-78.125000
4900,-78.125000
4901,-78.125000
4902,-74.218750
4903,-74.218750
4904,-74.218750
4905,-74.218750
4906,-74.218750
4907,-74.218750
4908,-74.218750
4909,-74.218750
4910,-74.218750
4911,-70.312500
4912,-70.312500
4913,-70.312500
4914,-70.312500
4915,-70.312500
4916,-70.312500
4917,-70.312500
4918,-66.406250
4919,-66.406250
4920,-66.406250
4921,-66.406250
4922,-66.406250
4923,-66.406250
4924,-66.406250
4925,-62.500000
4926,-62.500000
4927,-62.500000
4928,-62.500000
4929,-62.500000
4930,-62.500000
4931,-62.500000
4932,-62.500000
4933,-58.593750
4934,-58.593750
4935,-58.593750
4936,-58.593750
4937,-58.593750
4938,-58.593750
4939,-58.593750
4940,-54.687500
4941,-54.687500
4942,-54.687500
4943,-54.687500
4944,-54.687500
4945,-54.687500
4946,-50.781250
4947,-54.687500
4948,-50.781250
4949,-50.781250
4950,-50.781250
4951,-50.781250
4952,-50.781250
4953,-50.781250
4954,-46.875000
4955,-46.875000
4956,-46.875000
4957,-46.875000
4958,-46.875000
4959,-46.875000
4960,-46.875000
4961,-42.968750
4962,-42.968750
4963,-42.968750
4964,-42.968750
4965,-42.968750
4966,-42.968750
4967,-42.968750
4968,-42.968750
4969,-39.062500
4970,-39.062500
4971,-39.062500
4972,-39.062500
4973,-39.062500
4974,-39.062500
4975,-35.156250
4976,-35.156250
4977,-35.156250
4978,-35.156250
4979,-35.156250
4980,-35.156250
4981,-35.156250
4982,-35.156250
4983,-31.250000
4984,-31.250000
4985,-31.250000
4986,-31.250000
4987,-31.250000
4988,-31.250000
4989,-27.343750
4990,-27.343750
4991,-27.343750
4992,-27.343750
4993,-27.343750
4994,-27.343750
4995,-27.343750
4996,-23.437500
4997,-23.437500
4998,-23.437500
4999,-23.437500
5000,-23.437500
5001,-23.437500
5002,-23.437500
5003,-19.531250
5004,-19.531250
5005,-19.531250
5006,-19.531250
5007,-19.531250
5008,-15.625000
5009,-15.625000
5010,-15.625000
5011,-15.625000
5012,-15.625000
5013,-15.625000
5014,-15.625000
5015,-15.625000
5016,-11.718750
5017,-11.718750
5018,-11.718750
5019,-11.718750
5020,-11.718750
5021,-7.812500
5022,-7.812500
5023,-7.812500
5024,-7.812500
5025,-7.812500
5026,-7.812500
5027,-7.812500
5028,-3.906250
5029,-3.906250
5030,-3.906250
5031,-3.906250
5032,-3.906250
5033,-3.906250
5034,-3.906250
5035,0.000000
5036,-3.906250
5037,0.000000
5038,0.000000
5039,0.000000
5040,0.000000
5041,0.000000
5042,0.000000
5043,3.906250
5044,3.906250
5045,3.906250
5046,3.906250
5047,3.906250
5048,3.906250
5049,7.812500
5050,7.812500
5051,7.812500
5052,7.812500
5053,7.812500
5054,7.812500
5055,7.812500
5056,11.718750
5057,11.718750
5058,11.718750
5059,11.718750
5060,11.718750
5061,11.718750
5062,11.718750
5063,15.625000
5064,15.625000
5065,15.625000
5066,15.625000
5067,15.625000
5068,15.625000
5069,15.625000
5070,15.625000
5071,19.531250
5072,19.531250
5073,19.531250
5074,19.531250
5075,19.531250
5076,19.531250
5077,19.531250
5078,23.437500
5079,23.437500
5080,23.437500
5081,23.437500
5082,23.437500
5083,23.437500
5084,23.437500
5085,27.343750
5086,27.343750
5087,27.343750
5088,27.343750
5089,27.343750
5090,27.343750
5091,27.343750
5092,31.250000
5093,27.343750
5094,31.250000
5095,31.250000
5096,31.250000
5097,31.250000
5098,31.250000
5099,31.250000
5100,35.156250
5101,35.156250
5102,35.156250
5103,35.156250
5104,35.156250
5105,35.156250
5106,35.156250
5107,35.156250
5108,39.062500
5109,39.062500
5110,39.062500
5111,39.062500
5112,39.062500
5113,39.062500
5114,39.062500
5115,39.062500
5116,39.062500
5117,42.968750
5118,42.968750
5119,42.968750
5120,42.968750
5121,42.968750
5122,42.968750
5123,42.968750
5124,42.968750
5125,46.875000
5126,46.875000
5127,46.875000
5128,46.875000
5129,46.875000
5130,46.875000
5131,46.875000
5132,46.875000
5133,46.875000
5134,46.875000
5135,50.781250
5136,50.781250
5137,50.781250
5138,50.781250
5139,50.781250
5140,50.781250
5141,50.781250
5142,50.781250
5143,54.687500
5144,54.687500
5145,54.687500
5146,50.781250
5147,54.687500
5148,54.687500
5149,54.687500
5150,54.687500
5151,54.687500
5152,54.687500
5153,54.687500
5154,54.687500
5155,54.687500
5156,58.593750
5157,54.687500
5158,58.593750
5159,58.593750
5160,58.593750
5161,58.593750
5162,58.593750
5163,58.593750
5164,58.593750
5165,58.593750
5166,58.593750
5167,62.500000
5168,62.500000
5169,62.500000
5170,62.500000
5171,62.500000
5172,62.500000
5173,62.500000
5174,62.500000
5175,62.500000
5176,62.500000
5177,62.500000
5178,62.500000
5179,62.500000
5180,66.406250
5181,66.406250
5182,66.406250
5183,66.406250
5184,66.406250
5185,66.406250
5186,66.406250
5187,66.406250
5188,66.406250
5189,66.406250
5190,66.406250
5191,66.406250
5192,66.406250
5193,66.406250
5194,66.406250
5195,70.312500
5196,70.312500
5197,70.312500
5198,70.312500
5199,70.312500
5200,70.312500
5201,70.312500
5202,70.312500
5203,70.312500
5204,70.312500
5205,70.312500
5206,70.312500
5207,70.312500
5208,70.312500
5209,70.312500
5210,70.312500
5211,74.218750
5212,74.218750
5213,74.218750
5214,74.218750
5215,74.218750
5216,74.218750
5217,74.218750
5218,74.218750
5219,74.218750
5220,74.218750
5221,74.218750
5222,74.218750
5223,74.218750
5224,74.218750
5225,74.218750
5226,74.218750
5227,74.218750
5228,74.218750
5229,78.125000
5230,78.125000
5231,74.218750
5232,74.218750
5233,78.125000
5234,78.125000
5235,78.125000
5236,78.125000
5237,74.218750
5238,78.125000
5239,78.125000
5240,78.125000
5241,78.125000
5242,78.125000
5243,78.125000
5244,78.125000
5245,78.125000
5246,78.125000
5247,78.125000
5248,78.125000
5249,78.125000
5250,78.125000
5251,78.125000
5252,78.125000
5253,78.125000
5254,78.125000
5255,78.125000
5256,78.125000
5257,78.125000
5258,78.125000
5259,78.125000
5260,78.125000
5261,78.125000
5262,78.125000
5263,78.125000
5264,78.125000
5265,78.125000
5266,78.125000
5267,78.125000
5268,78.125000
5269,78.125000
5270,78.125000
5271,78.125000
5272,78.125000
5273,78.125000
5274,78.125000
5275,78.125000
5276,78.125000
5277,78.125000
5278,78.125000
5279,78.125000
5280,78.125000
5281,78.125000
5282,78.125000
5283,78.125000
5284,78.125000
5285,78.125000
5286,78.125000
5287,78.125000
5288,78.125000
5289,78.125000
5290,78.125000
5291,78.125000
5292,78.125000
5293,78.125000
5294,78.125000
5295,78.125000
5296,78.125000
5297,78.125000
5298,78.125000
5299,78.125000
5300,78.125000
5301,78.125000
5302,78.125000
5303,78.125000
5304,78.125000
5305,78.125000
5306,74.218750
5307,78.125000
5308,78.125000
5309,78.125000
5310,78.125000
5311,78.125000
5312,78.125000
5313,74.218750
5314,74.218750
5315,74.218750
5316,74.218750
5317,78.125000
5318,74.218750
5319,74.218750
5320,74.218750
5321,74.218750
5322,74.218750
5323,74.218750
5324,74.218750
5325,74.218750
5326,74.218750
5327,74.218750
5328,74.218750
5329,74.218750
5330,74.218750
5331,74.218750
5332,74.218750
5333,74.218750
5334,74.218750
5335,74.218750
5336,74.218750
5337,74.218750
5338,70.312500
5339,74.218750
5340,74.218750
5341,70.312500
5342,70.312500
5343,70.312500
5344,70.312500
5345,70.312500
5346,70.312500
5347,70.312500
5348,70.312500
5349,70.312500
5350,70.312500
5351,70.312500
5352,70.312500
5353,70.312500
5354,66.406250
5355,66.406250
5356,66.406250
5357,66.406250
5358,66.406250
5359,66.406250
5360,66.406250
5361,66.406250
5362,66.406250
5363,66.406250
5364,66.406250
5365,66.406250
5366,66.406250
5367,66.406250
5368,66.406250
5369,62.500000
5370,62.500000
5371,62.500000
5372,62.500000
5373,62.500000
5374,62.500000
5375,62.500000
5376,62.500000
5377,62.500000
5378,62.500000
5379,62.500000
5380,62.500000
5381,62.500000
5382,62.500000
5383,58.593750
5384,58.593750
5385,58.593750
5386,58.593750
5387,58.593750
5388,58.593750
5389,58.593750
5390,58.593750
5391,58.593750
5392,58.593750
5393,54.687500
5394,54.687500
5395,54.687500
5396,54.687500
5397,54.687500
5398,54.687500
5399,54.687500
5400,54.687500
5401,54.687500
5402,50.781250
5403,50.781250
5404,50.781250
5405,50.781250
5406,50.781250
5407,50.781250
5408,50.781250
5409,50.781250
5410,50.781250
5411,50.781250
5412,46.875000
5413,46.875000
5414,46.875000
5415,46.875000
5416,46.875000
5417,46.875000
5418,46.875000
5419,46.875000
5420,46.875000
5421,42.968750
5422,42.968750
5423,42.968750
5424,42.968750
5425,42.968750
5426,42.968750
5427,42.968750
5428,42.968750
5429,42.968750
5430,42.968750
5431,39.062500
5432,39.062500
5433,39.062500
5434,39.062500
5435,39.062500
5436,39.062500
5437,39.062500
5438,35.156250
5439,39.062500
5440,35.156250
5441,35.156250
5442,35.156250
5443,35.156250
5444,35.156250
5445,35.156250
5446,35.156250
5447,31.250000
5448,31.250000
5449,31.250000
5450,31.250000
5451,31.250000
5452,31.250000
5453,31.250000
5454,31.250000
5455,27.343750
5456,27.343750
5457,27.343750
5458,27.343750
5459,27.343750
5460,27.343750
5461,27.343750
5462,23.437500
5463,23.437500
5464,23.437500
5465,23.437500
5466,23.437500
5467,23.437500
5468,23.437500
5469,23.437500
5470,23.437500
5471,19.531250
5472,19.531250
5473,19.531250
5474,19.531250
5475,19.531250
5476,19.531250
5477,15.625000
5478,19.531250
5479,15.625000
5480,15.625000
5481,15.625000
5482,15.625000
5483,15.625000
5484,15.625000
5485,11.718750
5486,11.718750
5487,11.718750
5488,11.718750
5489,11.718750
5490,11.718750
5491,11.718750
5492,7.812500
5493,7.812500
5494,7.812500
5495,7.812500
5496,7.812500
5497,7.812500
5498,7.812500
5499,3.906250
5500,3.906250
5501,3.906250
5502,3.906250
5503,3.906250
5504,3.906250
5505,3.906250
5506,0.000000
5507,0.000000
5508,0.000000
5509,0.000000
5510,0.000000
5511,0.000000
5512,0.000000
5513,0.000000
5514,-3.906250
5515,-3.906250
5516,-3.906250
5517,-3.906250
5518,-7.812500
5519,-7.812500
5520,-7.812500
5521,-7.812500
5522,-7.812500
5523,-7.812500
5524,-7.812500
5525,-7.812500
5526,-11.718750
5527,-11.718750
5528,-11.718750
5529,-11.718750
5530,-11.718750
5531,-11.718750
5532,-15.625000
5533,-15.625000
5534,-15.625000
5535,-15.625000
5536,-19.531250
5537,-19.531250
5538,-19.531250
5539,-19.531250
5540,-19.531250
5541,-19.531250
5542,-19.531250
5543,-19.531250
5544,-19.531250
5545,-23.437500
5546,-23.437500
5547,-23.437500
5548,-23.437500
5549,-23.437500
5550,-23.437500
5551,-27.343750
5552,-27.343750
5553,-27.343750
5554,-27.343750
5555,-27.343750
5556,-31.250000
5557,-31.250000
5558,-31.250000
5559,-31.250000
5560,-31.250000
5561,-31.250000
5562,-31.250000
5563,-31.250000
5564,-31.250000
5565,-35.156250
5566,-35.156250
5567,-35.156250
5568,-35.156250
5569,-35.156250
5570,-35.156250
5571,-35.156250
5572,-39.062500
5573,-39.062500
5574,-39.062500
5575,-39.062500
5576,-42.968750
5577,-42.968750
5578,-42.968750
5579,-42.968750
5580,-42.968750
5581,-42.968750
5582,-42.968750
5583,-42.968750
5584,-42.968750
5585,-46.875000
5586,-46.875000
5587,-46.875000
5588,-46.875000
5589,-46.875000
5590,-46.875000
5591,-46.875000
5592,-50.781250
5593,-50.781250
5594,-50.781250
5595,-50.781250
5596,-50.781250
5597,-50.781250
5598,-54.687500
5599,-54.687500
5600,-54.687500
5601,-54.687500
5602,-54.687500
5603,-54.687500
5604,-54.687500
5605,-54.687500
5606,-58.593750
5607,-58.593750
5608,-58.593750
5609,-58.593750
5610,-58.593750
5611,-58.593750
5612,-58.593750
5613,-58.593750
5614,-62.500000
5615,-62.500000
5616,-62.500000
5617,-62.500000
5618,-62.500000
5619,-62.500000
5620,-62.500000
5621,-66.406250
5622,-66.406250
5623,-66.406250
5624,-66.406250
5625,-66.406250
5626,-66.406250
5627,-66.406250
5628,-66.406250
5629,-66.406250
5630,-70.312500
5631,-70.312500
5632,-70.312500
5633,-70.312500
5634,-70.312500
5635,-70.312500
5636,-74.218750
5637,-70.312500
5638,-74.218750
5639,-70.312500
5640,-74.218750
5641,-74.218750
5642,-74.218750
5643,-74.218750
5644,-74.218750
5645,-78.125000
5646,-78.125000
5647,-74.218750
5648,-78.125000
5649,-78.125000
5650,-78.125000
5651,-78.125000
5652,-78.125000
5653,-78.125000
5654,-82.031250
5655,-82.031250
5656,-82.031250
5657,-82.031250
5658,-82.031250
5659,-82.031250
5660,-82.031250
5661,-82.031250
5662,-82.031250
5663,-82.031250
5664,-85.937500
5665,-85.937500
5666,-85.937500
5667,-85.937500
5668,-85.937500
5669,-85.937500
5670,-85.937500
5671,-85.937500
5672,-85.937500
5673,-85.937500
5674,-89.843750
5675,-89.843750
5676,-89.843750
5677,-89.843750
5678,-89.843750
5679,-89.843750
5680,-89.843750
5681,-89.843750
5682,-89.843750
5683,-89.843750
5684,-89.843750
5685,-89.843750
5686,-89.843750
5687,-93.750000
5688,-93.750000
5689,-93.750000
5690,-93.750000
5691,-93.750000
5692,-93.750000
5693,-93.750000
5694,-93.750000
5695,-93.750000
5696,-93.750000
5697,-93.750000
5698,-93.750000
5699,-97.656250
5700,-97.656250
5701,-97.656250
5702,-97.656250
5703,-97.656250
5704,-97.656250
5705,-97.656250
5706,-97.656250
5707,-97.656250
5708,-97.656250
5709,-97.656250
5710,-97.656250
5711,-97.656250
5712,-97.656250
5713,-97.656250
5714,-101.562500
5715,-97.656250
5716,-101.562500
5717,-97.656250
5718,-101.562500
5719,-101.562500
5720,-101.562500
5721,-101.562500
5722,-101.562500
5723,-101.562500
5724,-101.562500
5725,-101.562500
5726,-101.562500
5727,-101.562500
5728,-101.562500
5729,-101.562500
5730,-101.562500
5731,-101.562500
5732,-101.562500
5733,-101.562500
5734,-101.562500
5735,-101.562500
5736,-105.468750
5737,-105.468750
5738,-101.562500
5739,-105.468750
5740,-105.468750
5741,-105.468750
5742,-105.468750
5743,-105.468750
5744,-105.468750
5745,-101.562500
5746,-105.468750
5747,-105.468750
5748,-105.468750
5749,-105.468750
5750,-105.468750
5751,-105.468750
5752,-105.468750
5753,-105.468750
5754,-105.468750
5755,-105.468750
5756,-105.468750
5757,-105.468750
5758,-105.468750
5759,-105.468750
5760,-105.468750
5761,-105.468750
5762,-105.468750
5763,-105.468750
5764,-105.468750
5765,-105.468750
5766,-105.468750
5767,-105.468750
5768,-105.468750
5769,-101.562500
5770,-105.468750
5771,-105.468750
5772,-105.468750
5773,-105.468750
5774,-105.468750
5775,-105.468750
5776,-105.468750
5777,-105.468750
5778,-105.468750
5779,-105.468750
5780,-105.468750
5781,-105.468750
5782,-105.468750
5783,-105.468750
5784,-105.468750
5785,-105.468750
5786,-105.468750
5787,-105.468750
5788,-105.468750
5789,-105.468750
5790,-105.468750
5791,-101.562500
5792,-101.562500
5793,-105.468750
5794,-105.468750
5795,-105.468750
5796,-101.562500
5797,-101.562500
5798,-105.468750
5799,-101.562500
5800,-101.562500
5801,-101.562500
5802,-101.562500
5803,-101.562500
5804,-101.562500
5805,-101.562500
5806,-101.562500
5807,-101.562500
5808,-101.562500
5809,-101.562500
5810,-101.562500
5811,-101.562500
5812,-101.562500
5813,-101.562500
5814,-101.562500
5815,-101.562500
5816,-101.562500
5817,-101.562500
5818,-101.562500
5819,-101.562500
5820,-101.562500
5821,-97.656250
5822,-101.562500
5823,-97.656250
5824,-97.656250
5825,-97.656250
5826,-97.656250
5827,-97.656250
5828,-97.656250
5829,-97.656250
5830,-97.656250
5831,-97.656250
5832,-97.656250
5833,-97.656250
5834,-97.656250
5835,-93.750000
5836,-93.750000
5837,-93.750000
5838,-93.750000
5839,-93.750000
5840,-93.750000
5841,-93.750000
5842,-93.750000
5843,-93.750000
5844,-93.750000
5845,-93.750000
5846,-93.750000
5847,-93.750000
5848,-93.750000
5849,-89.843750
5850,-93.750000
5851,-89.843750
5852,-89.843750
5853,-89.843750
5854,-89.843750
5855,-89.843750
5856,-93.750000
5857,-89.843750
5858,-89.843750
5859,-89.843750
5860,-89.843750
5861,-89.843750
5862,-85.937500
5863,-85.937500
5864,-85.937500
5865,-85.937500
5866,-85.937500
5867,-85.937500
5868,-85.937500
5869,-85.937500
5870,-85.937500
5871,-85.937500
5872,-82.031250
5873,-82.031250
5874,-82.031250
5875,-82.031250
5876,-82.031250
5877,-82.031250
5878,-82.031250
5879,-82.031250
5880,-78.125000
5881,-78.125000
5882,-78.125000
5883,-78.125000
5884,-78.125000
5885,-78.125000
5886,-78.125000
5887,-78.125000
5888,-78.125000
5889,-74.218750
5890,-74.218750
5891,-74.218750
5892,-74.218750
5893,-74.218750
5894,-74.218750
5895,-74.218750
5896,-74.218750
5897,-74.218750
5898,-70.312500
5899,-70.312500
5900,-70.312500
5901,-70.312500
5902,-70.312500
5903,-70.312500
5904,-70.312500
5905,-70.312500
5906,-70.312500
5907,-70.312500
5908,-70.312500
5909,-66.406250
5910,-66.406250
5911,-66.406250
5912,-66.406250
5913,-66.406250
5914,-62.500000
5915,-62.500000
5916,-62.500000
5917,-62.500000
5918,-62.500000
5919,-62.500000
5920,-62.500000
5921,-62.500000
5922,-58.593750
5923,-58.593750
5924,-58.593750
5925,-58.593750
5926,-58.593750
5927,-58.593750
5928,-58.593750
5929,-58.593750
5930,-58.593750
5931,-54.687500
5932,-54.687500
5933,-54.687500
5934,-50.781250
5935,-54.687500
5936,-50.781250
5937,-50.781250
5938,-54.687500
5939,-50.781250
5940,-50.781250
5941,-50.781250
5942,-50.781250
5943,-50.781250
5944,-46.875000
5945,-46.875000
5946,-46.875000
5947,-46.875000
5948,-46.875000
5949,-46.875000
5950,-46.875000
5951,-46.875000
5952,-46.875000
5953,-42.968750
5954,-42.968750
5955,-42.968750
5956,-42.968750
5957,-42.968750
5958,-42.968750
5959,-39.062500
5960,-42.968750
5961,-39.062500
5962,-39.062500
5963,-39.062500
5964,-35.156250
5965,-35.156250
5966,-35.156250
5967,-35.156250
5968,-35.156250
5969,-35.156250
5970,-35.156250
5971,-35.156250
5972,-35.156250
5973,-31.250000
5974,-31.250000
5975,-31.250000
5976,-31.250000
5977,-31.250000
5978,-27.343750
5979,-27.343750
5980,-27.343750
5981,-27.343750
5982,-27.343750
5983,-27.343750
5984,-23.437500
5985,-23.437500
5986,-23.437500
5987,-23.437500
5988,-23.437500
5989,-23.437500
5990,-23.437500
5991,-19.531250
5992,-23.437500
5993,-19.531250
5994,-19.531250
5995,-19.531250
5996,-19.531250
5997,-19.531250
5998,-19.531250
5999,-15.625000
6000,-15.625000
6001,-15.625000
6002,-15.625000
6003,-15.625000
6004,-11.718750
6005,-11.718750
6006,-11.718750
6007,-11.718750
6008,-11.718750
6009,-11.718750
6010,-11.718750
6011,-11.718750
6012,-7.812500
6013,-7.812500
6014,-7.812500
6015,-7.812500
6016,-7.812500
6017,-7.812500
6018,-3.906250
6019,-3.906250
6020,-3.906250
6021,-3.906250
6022,-3.906250
6023,-3.906250
6024,-3.906250
6025,0.000000
6026,0.000000
6027,0.000000
6028,0.000000
6029,3.906250
6030,0.000000
6031,0.000000
6032,3.906250
6033,3.906250
6034,3.906250
6035,3.906250
6036,3.906250
6037,3.906250
6038,7.812500
6039,7.812500
6040,7.812500
6041,7.812500
6042,7.812500
6043,7.812500
6044,7.812500
6045,11.718750
6046,11.718750
6047,11.718750
6048,11.718750
6049,11.718750
6050,11.718750
6051,11.718750
6052,15.625000
6053,15.625000
6054,15.625000
6055,15.625000
6056,15.625000
6057,15.625000
6058,15.625000
6059,15.625000
6060,19.531250
6061,19.531250
6062,19.531250
6063,19.531250
6064,19.531250
6065,19.531250
6066,23.437500
6067,19.531250
6068,23.437500
6069,23.437500
6070,23.437500
6071,23.437500
6072,23.437500
6073,23.437500
6074,27.343750
6075,27.343750
6076,27.343750
6077,27.343750
6078,27.343750
6079,27.343750
6080,27.343750
6081,27.343750
6082,31.250000
6083,27.343750
6084,31.250000
6085,31.250000
6086,31.250000
6087,31.250000
6088,31.250000
6089,31.250000
6090,35.156250
6091,35.156250
6092,35.156250
6093,35.156250
6094,35.156250
6095,35.156250
6096,35.156250
6097,39.062500
6098,35.156250
6099,39.062500
6100,39.062500
6101,39.062500
6102,39.062500
6103,39.062500
6104,39.062500
6105,39.062500
6106,42.968750
6107,42.968750
6108,42.968750
6109,42.968750
6110,42.968750
6111,42.968750
6112,42.968750
6113,42.968750
6114,42.968750
6115,42.968750
6116,42.968750
6117,46.875000
6118,46.875000
6119,46.875000
6120,46.875000
6121,46.875000
6122,46.875000
6123,50.781250
6124,46.875000
6125,50.781250
6126,50.781250
6127,50.781250
6128,50.781250
6129,50.781250
6130,50.781250
6131,54.687500
6132,50.781250
6133,54.687500
6134,54.687500
6135,54.687500
6136,54.687500
6137,54.687500
6138,54.687500
6139,54.687500
6140,54.687500
6141,54.687500
6142,54.687500
6143,54.687500
6144,54.687500
6145,58.593750
6146,58.593750
6147,58.593750
6148,58.593750
6149,58.593750
6150,58.593750
6151,58.593750
6152,58.593750
6153,58.593750
6154,58.593750
6155,62.500000
6156,62.500000
6157,62.500000
6158,62.500000
6159,62.500000
6160,62.500000
6161,62.500000
6162,62.500000
6163,62.500000
6164,62.500000
6165,62.500000
6166,62.500000
6167,62.500000
6168,62.500000
6169,66.406250
6170,66.406250
6171,66.406250
6172,66.406250
6173,66.406250
6174,66.406250
6175,66.406250
6176,66.406250
6177,66.406250
6178,66.406250
6179,66.406250
6180,66.406250
6181,70.312500
6182,66.406250
6183,66.406250
6184,66.406250
6185,70.312500
6186,70.312500
6187,70.312500
6188,70.312500
6189,70.312500
6190,70.312500
6191,70.312500
6192,70.312500
6193,70.312500
6194,70.312500
6195,70.312500
6196,70.312500
6197,70.312500
6198,70.312500
6199,70.312500
6200,70.312500
6201,74.218750
6202,74.218750
6203,74.218750
6204,74.218750
6205,74.218750
6206,74.218750
6207,74.218750
6208,74.218750
6209,74.218750
6210,74.218750
6211,74.218750
6212,74.218750
6213,74.218750
6214,74.218750
6215,74.218750
6216,74.218750
6217,74.218750
6218,74.218750
6219,74.218750
6220,74.218750
6221,74.218750
6222,74.218750
6223,74.218750
6224,78.125000
6225,78.125000
6226,74.218750
6227,78.125000
6228,74.218750
6229,78.125000
6230,78.125000
6231,78.125000
6232,78.125000
6233,78.125000
6234,78.125000
6235,78.125000
6236,78.125000
6237,78.125000
6238,78.125000
6239,78.125000
6240,78.125000
6241,78.125000
6242,78.125000
6243,78.125000
6244,78.125000
6245,78.125000
6246,78.125000
6247,78.125000
6248,78.125000
6249,78.125000
6250,78.125000
6251,78.125000
6252,78.125000
6253,78.125000
6254,78.125000
6255,78.125000
6256,82.031250
6257,82.031250
6258,78.125000
6259,78.125000
6260,78.125000
6261,78.125000
6262,82.031250
6263,78.125000
6264,78.125000
6265,82.031250
6266,78.125000
6267,78.125000
6268,78.125000
6269,78.125000
6270,78.125000
6271,78.125000
6272,78.125000
6273,78.125000
6274,78.125000
6275,78.125000
6276,78.125000
6277,78.125000
6278,78.125000
6279,78.125000
6280,78.125000
6281,78.125000
6282,78.125000
6283,78.125000
6284,78.125000
6285,78.125000
6286,78.125000
6287,78.125000
6288,78.125000
6289,78.125000
6290,78.125000
6291,78.125000
6292,78.125000
6293,78.125000
6294,78.125000
6295,78.125000
6296,78.125000
6297,78.125000
6298,78.125000
6299,74.218750
6300,78.125000
6301,78.125000
6302,74.218750
6303,78.125000
6304,74.218750
6305,78.125000
6306,78.125000
6307,74.218750
6308,74.218750
6309,74.218750
6310,74.218750
6311,74.218750
6312,74.218750
6313,74.218750
6314,74.218750
6315,74.218750
6316,74.218750
6317,74.218750
6318,74.218750
6319,74.218750
6320,74.218750
6321,74.218750
6322,74.218750
6323,74.218750
6324,74.218750
6325,74.218750
6326,74.218750
6327,70.312500
6328,70.312500
6329,70.312500
6330,70.312500
6331,70.312500
6332,70.312500
6333,70.312500
6334,70.312500
6335,70.312500
6336,70.312500
6337,70.312500
6338,70.312500
6339,70.312500
6340,70.312500
6341,70.312500
6342,70.312500
6343,66.406250
6344,70.312500
6345,66.406250
6346,66.406250
6347,66.406250
6348,66.406250
6349,66.406250
6350,66.406250
6351,66.406250
6352,66.406250
6353,66.406250
6354,66.406250
6355,66.406250
6356,66.406250
6357,66.406250
6358,62.500000
6359,62.500000
6360,62.500000
6361,62.500000
6362,62.500000
6363,62.500000
6364,62.500000
6365,62.500000
6366,62.500000
6367,62.500000
6368,62.500000
6369,62.500000
6370,62.500000
6371,58.593750
6372,58.593750
6373,58.593750
6374,58.593750
6375,58.593750
6376,58.593750
6377,58.593750
6378,58.593750
6379,58.593750
6380,58.593750
6381,58.593750
6382,54.687500
6383,54.687500
6384,54.687500
6385,54.687500
6386,54.687500
6387,54.687500
6388,54.687500
6389,54.687500
6390,54.687500
6391,54.687500
6392,54.687500
6393,54.687500
6394,50.781250
6395,50.781250
6396,50.781250
6397,50.781250
6398,50.781250
6399,50.781250
6400,50.781250
6401,50.781250
6402,46.875000
6403,46.875000
6404,46.875000
6405,46.875000
6406,46.875000
6407,46.875000
6408,46.875000
6409,46.875000
6410,46.875000
6411,42.968750
6412,42.968750
6413,42.968750
6414,42.968750
6415,42.968750
6416,42.968750
6417,42.968750
6418,42.968750
6419,42.968750
6420,42.968750
6421,39.062500
6422,39.062500
6423,39.062500
6424,39.062500
6425,39.062500
6426,39.062500
6427,39.062500
6428,35.156250
6429,35.156250
6430,35.156250
6431,35.156250
6432,35.156250
6433,35.156250
6434,35.156250
6435,35.156250
6436,31.250000
6437,31.250000
6438,31.250000
6439,31.250000
6440,31.250000
6441,31.250000
6442,31.250000
6443,31.250000
6444,31.250000
6445,27.343750
6446,27.343750
6447,27.343750
6448,27.343750
6449,27.343750
6450,27.343750
6451,27.343750
6452,27.343750
6453,23.437500
6454,23.437500
6455,23.437500
6456,23.437500
6457,23.437500
6458,19.531250
6459,23.437500
6460,19.531250
6461,19.531250
6462,19.531250
6463,19.531250
6464,19.531250
6465,19.531250
6466,19.531250
6467,15.625000
6468,15.625000
6469,15.625000
6470,15.625000
6471,15.625000
6472,15.625000
6473,15.625000
6474,11.718750
6475,11.718750
6476,11.718750
6477,11.718750
6478,11.718750
6479,11.718750
6480,7.812500
6481,7.812500
6482,7.812500
6483,7.812500
6484,7.812500
6485,7.812500
6486,7.812500
6487,7.812500
6488,3.906250
6489,3.906250
6490,3.906250
6491,3.906250
6492,3.906250
6493,3.906250
6494,0.000000
6495,0.000000
6496,0.000000
6497,0.000000
6498,0.000000
6499,0.000000
6500,0.000000
6501,-3.906250
6502,-3.906250
6503,-3.906250
6504,-3.906250
6505,-3.906250
6506,-3.906250
6507,-3.906250
6508,-3.906250
6509,-7.812500
6510,-7.812500
6511,-7.812500
6512,-7.812500
6513,-7.812500
6514,-7.812500
6515,-11.718750
6516,-11.718750
6517,-11.718750
6518,-11.718750
6519,-11.718750
6520,-11.718750
6521,-15.625000
6522,-15.625000
6523,-15.625000
6524,-15.625000
6525,-15.625000
6526,-15.625000
6527,-15.625000
6528,-19.531250
6529,-19.531250
6530,-19.531250
6531,-19.531250
6532,-19.531250
6533,-19.531250
6534,-23.437500
6535,-23.437500
6536,-23.437500
6537,-23.437500
6538,-23.437500
6539,-23.437500
6540,-23.437500
6541,-23.437500
6542,-27.343750
6543,-27.343750
6544,-27.343750
6545,-27.343750
6546,-27.343750
6547,-27.343750
6548,-31.250000
6549,-31.250000
6550,-31.250000
6551,-31.250000
6552,-31.250000
6553,-31.250000
6554,-35.156250
6555,-35.156250
6556,-35.156250
6557,-35.156250
6558,-35.156250
6559,-35.156250
6560,-39.062500
6561,-39.062500
6562,-39.062500
6563,-39.062500
6564,-39.062500
6565,-39.062500
6566,-39.062500
6567,-39.062500
6568,-39.062500
6569,-42.968750
6570,-42.968750
6571,-42.968750
6572,-42.968750
6573,-42.968750
6574,-46.875000
6575,-46.875000
6576,-46.875000
6577,-46.875000
6578,-46.875000
6579,-46.875000
6580,-46.875000
6581,-46.875000
6582,-50.781250
6583,-50.781250
6584,-50.781250
6585,-50.781250
6586,-50.781250
6587,-50.781250
6588,-54.687500
6589,-54.687500
6590,-54.687500
6591,-54.687500
6592,-54.687500
6593,-54.687500
6594,-54.687500
6595,-58.593750
6596,-58.593750
6597,-58.593750
6598,-58.593750
6599,-58.593750
6600,-58.593750
6601,-58.593750
6602,-58.593750
6603,-58.593750
6604,-62.500000
6605,-62.500000
6606,-62.500000
6607,-62.500000
6608,-62.500000
6609,-66.406250
6610,-66.406250
6611,-66.406250
6612,-66.406250
6613,-66.406250
6614,-66.406250
6615,-66.406250
6616,-66.406250
6617,-66.406250
6618,-66.406250
6619,-70.312500
6620,-70.312500
6621,-70.312500
6622,-70.312500
6623,-70.312500
6624,-70.312500
6625,-70.312500
6626,-70.312500
6627,-70.312500
6628,-74.218750
6629,-74.218750
6630,-74.218750
6631,-74.218750
6632,-74.218750
6633,-74.218750
6634,-74.218750
6635,-74.218750
6636,-74.218750
6637,-78.125000
6638,-78.125000
6639,-78.125000
6640,-78.125000
6641,-78.125000
6642,-78.125000
6643,-78.125000
6644,-82.031250
6645,-82.031250
6646,-82.031250
6647,-82.031250
6648,-82.031250
6649,-82.031250
6650,-82.031250
6651,-82.031250
6652,-82.031250
6653,-85.937500
6654,-85.937500
6655,-85.937500
6656,-85.937500
6657,-85.937500
6658,-85.937500
6659,-85.937500
6660,-85.937500
6661,-85.937500
6662,-85.937500
6663,-85.937500
6664,-89.843750
6665,-89.843750
6666,-89.843750
6667,-89.843750
6668,-89.843750
6669,-89.843750
6670,-89.843750
6671,-89.843750
6672,-89.843750
6673,-89.843750
6674,-89.843750
6675,-89.843750
6676,-89.843750
6677,-93.750000
6678,-93.750000
6679,-93.750000
6680,-93.750000
6681,-93.750000
6682,-93.750000
6683,-93.750000
6684,-93.750000
6685,-93.750000
6686,-93.750000
6687,-93.750000
6688,-93.750000
6689,-97.656250
6690,-97.656250
6691,-97.656250
6692,-97.656250
6693,-97.656250
6694,-97.656250
6695,-97.656250
6696,-97.656250
6697,-97.656250
6698,-97.656250
6699,-97.656250
6700,-97.656250
6701,-97.656250
6702,-97.656250
6703,-101.562500
6704,-101.562500
6705,-97.656250
6706,-97.656250
6707,-101.562500
6708,-101.562500
6709,-101.562500
6710,-101.562500
6711,-101.562500
6712,-101.562500
6713,-101.562500
6714,-101.562500
6715,-101.562500
6716,-101.562500
6717,-101.562500
6718,-101.562500
6719,-101.562500
6720,-101.562500
6721,-101.562500
6722,-101.562500
6723,-101.562500
6724,-105.468750
6725,-101.562500
6726,-105.468750
6727,-105.468750
6728,-105.468750
6729,-105.468750
6730,-105.468750
6731,-105.468750
6732,-105.468750
6733,-105.468750
6734,-105.468750
6735,-105.468750
6736,-105.468750
6737,-105.468750
6738,-105.468750
6739,-105.468750
6740,-105.468750
6741,-105.468750
6742,-105.468750
6743,-105.468750
6744,-105.468750
6745,-105.468750
6746,-105.468750
6747,-105.468750
6748,-105.468750
6749,-105.468750
6750,-105.468750
6751,-105.468750
6752,-105.468750
6753,-105.468750
6754,-105.468750
6755,-105.468750
6756,-105.468750
6757,-105.468750
6758,-105.468750
6759,-105.468750
6760,-105.468750
6761,-105.468750
6762,-105.468750
6763,-105.468750
6764,-105.468750
6765,-105.468750
6766,-105.468750
6767,-105.468750
6768,-105.468750
6769,-105.468750
6770,-105.468750
6771,-105.468750
6772,-105.468750
6773,-105.468750
6774,-105.468750
6775,-105.468750
6776,-105.468750
6777,-105.468750
6778,-105.468750
6779,-105.468750
6780,-105.468750
6781,-105.468750
6782,-101.562500
6783,-105.468750
6784,-105.468750
6785,-105.468750
6786,-105.468750
6787,-101.562500
6788,-101.562500
6789,-101.562500
6790,-101.562500
6791,-101.562500
6792,-101.562500
6793,-101.562500
6794,-101.562500
6795,-101.562500
6796,-101.562500
6797,-101.562500
6798,-101.562500
6799,-101.562500
6800,-101.562500
6801,-101.562500
6802,-101.562500
6803,-101.562500
6804,-101.562500
6805,-101.562500
6806,-101.562500
6807,-97.656250
6808,-97.656250
6809,-97.656250
6810,-101.562500
6811,-97.656250
6812,-97.656250
6813,-97.656250
6814,-97.656250
6815,-97.656250
6816,-97.656250
6817,-97.656250
6818,-97.656250
6819,-97.656250
6820,-97.656250
6821,-97.656250
6822,-97.656250
6823,-97.656250
6824,-97.656250
6825,-97.656250
6826,-93.750000
6827,-93.750000
6828,-93.750000
6829,-93.750000
6830,-93.750000
6831,-93.750000
6832,-93.750000
6833,-93.750000
6834,-93.750000
6835,-93.750000
6836,-93.750000
6837,-93.750000
6838,-89.843750
6839,-93.750000
6840,-93.750000
6841,-89.843750
6842,-89.843750
6843,-89.843750
6844,-89.843750
6845,-89.843750
6846,-89.843750
6847,-89.843750
6848,-89.843750
6849,-89.843750
6850,-89.843750
6851,-89.843750
6852,-89.843750
6853,-85.937500
6854,-85.937500
6855,-85.937500
6856,-85.937500
6857,-85.937500
6858,-85.937500
6859,-85.937500
6860,-85.937500
6861,-85.937500
6862,-82.031250
6863,-82.031250
6864,-82.031250
6865,-82.031250
6866,-82.031250
6867,-82.031250
6868,-82.031250
6869,-82.031250
6870,-78.125000
6871,-78.125000
6872,-78.125000
6873,-78.125000
6874,-78.125000
6875,-78.125000
6876,-78.125000
6877,-78.125000
6878,-78.125000
6879,-74.218750
6880,-78.125000
6881,-74.218750
6882,-74.218750
6883,-74.218750
6884,-74.218750
6885,-74.218750
6886,-74.218750
6887,-74.218750
6888,-70.312500
6889,-70.312500
6890,-70.312500
6891,-70.312500
6892,-70.312500
6893,-70.312500
6894,-70.312500
6895,-70.312500
6896,-66.406250
6897,-66.406250
6898,-66.406250
6899,-66.406250
6900,-66.406250
6901,-66.406250
6902,-66.406250
6903,-66.406250
6904,-66.406250
6905,-62.500000
6906,-62.500000
6907,-62.500000
6908,-62.500000
6909,-62.500000
6910,-62.500000
6911,-58.593750
6912,-58.593750
6913,-58.593750
6914,-58.593750
6915,-58.593750
6916,-58.593750
6917,-58.593750
6918,-54.687500
6919,-58.593750
6920,-54.687500
6921,-54.687500
6922,-54.687500
6923,-54.687500
6924,-54.687500
6925,-54.687500
6926,-50.781250
6927,-50.781250
6928,-50.781250
6929,-50.781250
6930,-50.781250
6931,-50.781250
6932,-50.781250
6933,-50.781250
6934,-46.875000
6935,-46.875000
6936,-46.875000
6937,-46.875000
6938,-46.875000
6939,-46.875000
6940,-42.968750
6941,-42.968750
6942,-42.968750
6943,-42.968750
6944,-42.968750
6945,-42.968750
6946,-39.062500
6947,-39.062500
6948,-42.968750
6949,-39.062500
6950,-39.062500
6951,-39.062500
6952,-39.062500
6953,-39.062500
6954,-35.156250
6955,-35.156250
6956,-35.156250
6957,-35.156250
6958,-35.156250
6959,-35.156250
6960,-35.156250
6961,-35.156250
6962,-31.250000
6963,-31.250000
6964,-31.250000
6965,-31.250000
6966,-31.250000
6967,-27.343750
6968,-27.343750
6969,-27.343750
6970,-27.343750
6971,-27.343750
6972,-27.343750
6973,-27.343750
6974,-27.343750
6975,-23.437500
6976,-23.437500
6977,-23.437500
6978,-23.437500
6979,-23.437500
6980,-23.437500
6981,-19.531250
6982,-19.531250
6983,-19.531250
6984,-19.531250
6985,-19.531250
6986,-19.531250
6987,-19.531250
6988,-19.531250
6989,-15.625000
6990,-15.625000
6991,-15.625000
6992,-15.625000
6993,-15.625000
6994,-15.625000
6995,-11.718750
6996,-11.718750
6997,-11.718750
6998,-11.718750
6999,-11.718750
7000,-11.718750
7001,-11.718750
7002,-11.718750
7003,-7.812500
7004,-7.812500
7005,-7.812500
7006,-7.812500
7007,-7.812500
7008,-3.906250
7009,-3.906250
7010,-3.906250
7011,-3.906250
7012,-3.906250
7013,-3.906250
7014,-3.906250
7015,0.000000
7016,0.000000
7017,0.000000
7018,0.000000
7019,0.000000
7020,0.000000
7021,0.000000
7022,3.906250
7023,3.906250
7024,3.906250
7025,3.906250
7026,3.906250
7027,3.906250
7028,7.812500
7029,7.812500
7030,7.812500
7031,7.812500
7032,7.812500
7033,7.812500
7034,7.812500
7035,7.812500
7036,7.812500
7037,11.718750
7038,11.718750
7039,11.718750
7040,11.718750
7041,11.718750
7042,11.718750
7043,15.625000
7044,15.625000
7045,15.625000
7046,15.625000
7047,15.625000
7048,15.625000
7049,15.625000
7050,19.531250
7051,19.531250
7052,19.531250
7053,19.531250
7054,19.531250
7055,19.531250
7056,23.437500
7057,23.437500
7058,23.437500
7059,23.437500
7060,23.437500
7061,23.437500
7062,23.437500
7063,23.437500
7064,23.437500
7065,27.343750
7066,27.343750
7067,27.343750
7068,27.343750
7069,27.343750
7070,27.343750
7071,31.250000
7072,31.250000
7073,31.250000
7074,31.250000
7075,31.250000
7076,31.250000
7077,31.250000
7078,31.250000
7079,35.156250
7080,35.156250
7081,35.156250
7082,35.156250
7083,35.156250
7084,35.156250
7085,35.156250
7086,35.156250
7087,35.156250
7088,35.156250
7089,39.062500
7090,39.062500
7091,39.062500
7092,39.062500
7093,39.062500
7094,39.062500
7095,42.968750
7096,42.968750
7097,42.968750
7098,42.968750
7099,42.968750
7100,42.968750
7101,42.968750
7102,42.968750
7103,42.968750
7104,46.875000
7105,46.875000
7106,46.875000
7107,46.875000
7108,46.875000
7109,46.875000
7110,46.875000
7111,46.875000
7112,46.875000
7113,46.875000
7114,46.875000
7115,50.781250
7116,50.781250
7117,50.781250
7118,50.781250
7119,50.781250
7120,50.781250
7121,50.781250
7122,50.781250
7123,50.781250
7124,54.687500
7125,54.687500
7126,54.687500
7127,54.687500
7128,54.687500
7129,54.687500
7130,54.687500
7131,54.687500
7132,54.687500
7133,54.687500
7134,54.687500
7135,58.593750
7136,58.593750
7137,58.593750
7138,58.593750
7139,58.593750
7140,58.593750
7141,58.593750
7142,58.593750
7143,58.593750
7144,58.593750
7145,62.500000
7146,58.593750
7147,62.500000
7148,62.500000
7149,62.500000
7150,62.500000
7151,62.500000
7152,62.500000
7153,62.500000
7154,62.500000
7155,62.500000
7156,62.500000
7157,66.406250
7158,66.406250
7159,66.406250
7160,66.406250
7161,66.406250
7162,66.406250
7163,66.406250
7164,66.406250
7165,66.406250
7166,66.406250
7167,66.406250
7168,66.406250
7169,66.406250
7170,66.406250
7171,66.406250
7172,66.406250
7173,70.312500
7174,70.312500
7175,70.312500
7176,70.312500
7177,70.312500
7178,70.312500
7179,70.312500
7180,70.312500
7181,70.312500
7182,70.312500
7183,70.312500
7184,70.312500
7185,70.312500
7186,70.312500
7187,74.218750
7188,74.218750
7189,74.218750
7190,70.312500
7191,74.218750
7192,74.218750
7193,74.218750
7194,74.218750
7195,74.218750
7196,74.218750
7197,74.218750
7198,74.218750
7199,74.218750
7200,74.218750
7201,74.218750
7202,74.218750
7203,74.218750
7204,74.218750
7205,74.218750
7206,74.218750
7207,74.218750
7208,74.218750
7209,74.218750
7210,74.218750
7211,74.218750
7212,74.218750
7213,78.125000
7214,78.125000
7215,78.125000
7216,78.125000
7217,78.125000
7218,78.125000
7219,78.125000
7220,78.125000
7221,78.125000
7222,78.125000
7223,78.125000
7224,78.125000
7225,78.125000
7226,78.125000
7227,78.125000
7228,78.125000
7229,78.125000
7230,78.125000
7231,78.125000
7232,78.125000
7233,78.125000
7234,78.125000
7235,78.125000
7236,78.125000
7237,78.125000
7238,78.125000
7239,78.125000
7240,78.125000
7241,78.125000
7242,78.125000
7243,78.125000
7244,78.125000
7245,78.125000
7246,78.125000
7247,78.125000
7248,78.125000
7249,78.125000
7250,78.125000
7251,78.125000
7252,78.125000
7253,78.125000
7254,78.125000
7255,78.125000
7256,78.125000
7257,78.125000
7258,78.125000
7259,78.125000
7260,78.125000
7261,78.125000
7262,78.125000
7263,78.125000
7264,78.125000
7265,78.125000
7266,78.125000
7267,78.125000
7268,78.125000
7269,78.125000
7270,78.125000
7271,78.125000
7272,78.125000
7273,78.125000
7274,78.125000
7275,78.125000
7276,78.125000
7277,78.125000
7278,78.125000
7279,78.125000
7280,78.125000
7281,78.125000
7282,78.125000
7283,74.218750
7284,78.125000
7285,78.125000
7286,78.125000
7287,78.125000
7288,78.125000
7289,78.125000
7290,78.125000
7291,78.125000
7292,74.218750
7293,74.218750
7294,78.125000
7295,74.218750
7296,74.218750
7297,74.218750
7298,74.218750
7299,74.218750
7300,74.218750
7301,78.125000
7302,74.218750
7303,74.218750
7304,74.218750
7305,74.218750
7306,74.218750
7307,74.218750
7308,74.218750
7309,74.218750
7310,74.218750
7311,74.218750
7312,74.218750
7313,74.218750
7314,74.218750
7315,70.312500
7316,74.218750
7317,70.312500
7318,70.312500
7319,70.312500
7320,70.312500
7321,74.218750
7322,70.312500
7323,70.312500
7324,70.312500
7325,70.312500
7326,70.312500
7327,70.312500
7328,70.312500
7329,70.312500
7330,66.406250
7331,66.406250
7332,70.312500
7333,66.406250
7334,66.406250
7335,66.406250
7336,66.406250
7337,66.406250
7338,66.406250
7339,66.406250
7340,66.406250
7341,66.406250
7342,66.406250
7343,66.406250
7344,66.406250
7345,66.406250
7346,62.500000
7347,66.406250
7348,66.406250
7349,62.500000
7350,62.500000
7351,62.500000
7352,66.406250
7353,62.500000
7354,62.500000
7355,62.500000
7356,62.500000
7357,62.500000
7358,58.593750
7359,62.500000
7360,58.593750
7361,58.593750
7362,58.593750
7363,58.593750
7364,58.593750
7365,58.593750
7366,58.593750
7367,58.593750
7368,58.593750
7369,58.593750
7370,58.593750
7371,58.593750
7372,58.593750
7373,54.687500
7374,54.687500
7375,54.687500
7376,54.687500
7377,54.687500
7378,54.687500
7379,54.687500
7380,50.781250
7381,50.781250
7382,50.781250
7383,50.781250
7384,50.781250
7385,50.781250
7386,50.781250
7387,50.781250
7388,50.781250
7389,50.781250
7390,46.875000
7391,50.781250
7392,46.875000
7393,46.875000
7394,46.875000
7395,46.875000
7396,46.875000
7397,46.875000
7398,46.875000
7399,46.875000
7400,42.968750
7401,42.968750
7402,42.968750
7403,42.968750
7404,42.968750
7405,42.968750
7406,42.968750
7407,42.968750
7408,42.968750
7409,42.968750
7410,39.062500
7411,35.156250
7412,39.062500
7413,39.062500
7414,39.062500
7415,39.062500
7416,39.062500
7417,39.062500
7418,39.062500
7419,39.062500
7420,35.156250
7421,35.156250
7422,35.156250
7423,35.156250
7424,35.156250
7425,35.156250
7426,31.250000
7427,31.250000
7428,31.250000
7429,31.250000
7430,31.250000
7431,31.250000
7432,31.250000
7433,31.250000
7434,27.343750
7435,27.343750
7436,27.343750
7437,27.343750
7438,27.343750
7439,27.343750
7440,27.343750
7441,27.343750
7442,23.437500
7443,23.437500
7444,23.437500
7445,23.437500
7446,23.437500
7447,23.437500
7448,23.437500
7449,19.531250
7450,19.531250
7451,19.531250
7452,19.531250
7453,19.531250
7454,19.531250
7455,19.531250
7456,15.625000
7457,15.625000
7458,15.625000
7459,15.625000
7460,15.625000
7461,15.625000
7462,15.625000
7463,15.625000
7464,11.718750
7465,11.718750
7466,11.718750
7467,11.718750
7468,11.718750
7469,11.718750
7470,7.812500
7471,7.812500
7472,7.812500
7473,7.812500
7474,7.812500
7475,7.812500
7476,7.812500
7477,3.906250
7478,3.906250
7479,3.906250
7480,3.906250
7481,3.906250
7482,3.906250
7483,3.906250
7484,0.000000
7485,0.000000
7486,0.000000
7487,0.000000
7488,0.000000
7489,0.000000
7490,-3.906250
7491,-3.906250
7492,-3.906250
7493,-3.906250
7494,-3.906250
7495,-3.906250
7496,-3.906250
7497,-7.812500
7498,-7.812500
7499,-7.812500
7500,-7.812500
7501,-7.812500
7502,-7.812500
7503,-7.812500
7504,-11.718750
7505,-11.718750
7506,-11.718750
7507,-11.718750
7508,-11.718750
7509,-11.718750
7510,-15.625000
7511,-15.625000
7512,-15.625000
7513,-15.625000
7514,-15.625000
7515,-15.625000
7516,-19.531250
7517,-19.531250
7518,-19.531250
7519,-19.531250
7520,-19.531250
7521,-19.531250
7522,-19.531250
7523,-19.531250
7524,-23.437500
7525,-23.437500
7526,-23.437500
7527,-23.437500
7528,-23.437500
7529,-23.437500
7530,-27.343750
7531,-27.343750
7532,-27.343750
7533,-27.343750
7534,-27.343750
7535,-27.343750
7536,-27.343750
7537,-31.250000
7538,-31.250000
7539,-31.250000
7540,-31.250000
7541,-31.250000
7542,-31.250000
7543,-31.250000
7544,-35.156250
7545,-35.156250
7546,-35.156250
7547,-35.156250
7548,-35.156250
7549,-35.156250
7550,-39.062500
7551,-39.062500
7552,-39.062500
7553,-39.062500
7554,-39.062500
7555,-39.062500
7556,-42.968750
7557,-42.968750
7558,-42.968750
7559,-42.968750
7560,-42.968750
7561,-42.968750
7562,-42.968750
7563,-42.968750
7564,-42.968750
7565,-42.968750
7566,-46.875000
7567,-46.875000
7568,-46.875000
7569,-46.875000
7570,-50.781250
7571,-50.781250
7572,-50.781250
7573,-50.781250
7574,-50.781250
7575,-50.781250
7576,-50.781250
7577,-50.781250
7578,-54.687500
7579,-54.687500
7580,-54.687500
7581,-54.687500
7582,-54.687500
7583,-54.687500
7584,-54.687500
7585,-54.687500
7586,-58.593750
7587,-58.593750
7588,-58.593750
7589,-58.593750
7590,-58.593750
7591,-58.593750
7592,-58.593750
7593,-62.500000
7594,-62.500000
7595,-62.500000
7596,-62.500000
7597,-62.500000
7598,-62.500000
7599,-62.500000
7600,-66.406250
7601,-66.406250
7602,-66.406250
7603,-66.406250
7604,-66.406250
7605,-66.406250
7606,-66.406250
7607,-66.406250
7608,-70.312500
7609,-70.312500
7610,-70.312500
7611,-70.312500
7612,-70.312500
7613,-70.312500
7614,-70.312500
7615,-70.312500
7616,-74.218750
7617,-70.312500
7618,-74.218750
7619,-74.218750
7620,-74.218750
7621,-74.218750
7622,-74.218750
7623,-78.125000
7624,-78.125000
7625,-78.125000
7626,-78.125000
7627,-78.125000
7628,-78.125000
7629,-78.125000
7630,-78.125000
7631,-78.125000
7632,-78.125000
7633,-82.031250
7634,-82.031250
7635,-82.031250
7636,-82.031250
7637,-82.031250
7638,-82.031250
7639,-82.031250
7640,-82.031250
7641,-85.937500
7642,-85.937500
7643,-85.937500
7644,-85.937500
7645,-85.937500
7646,-85.937500
7647,-85.937500
7648,-85.937500
7649,-85.937500
7650,-85.937500
7651,-85.937500
7652,-89.843750
7653,-89.843750
7654,-89.843750
7655,-89.843750
7656,-89.843750
7657,-89.843750
7658,-89.843750
7659,-89.843750
7660,-89.843750
7661,-89.843750
7662,-89.843750
7663,-89.843750
7664,-89.843750
7665,-93.750000
7666,-93.750000
7667,-93.750000
7668,-93.750000
7669,-93.750000
7670,-93.750000
7671,-93.750000
7672,-93.750000
7673,-93.750000
7674,-93.750000
7675,-93.750000
7676,-93.750000
7677,-97.656250
7678,-97.656250
7679,-93.750000
7680,-93.750000
7681,-97.656250
7682,-97.656250
7683,-97.656250
7684,-97.656250
7685,-97.656250
7686,-97.656250
7687,-97.656250
7688,-97.656250
7689,-97.656250
7690,-97.656250
7691,-97.656250
7692,-97.656250
7693,-97.656250
7694,-97.656250
7695,-97.656250
7696,-97.656250
7697,-97.656250
7698,-101.562500
7699,-101.562500
7700,-101.562500
7701,-101.562500
7702,-101.562500
7703,-101.562500
7704,-101.562500
7705,-101.562500
7706,-101.562500
7707,-101.562500
7708,-101.562500
7709,-101.562500
7710,-101.562500
7711,-101.562500
7712,-101.562500
7713,-101.562500
7714,-101.562500
7715,-101.562500
7716,-101.562500
7717,-101.562500
7718,-101.562500
7719,-105.468750
7720,-101.562500
7721,-101.562500
7722,-101.562500
7723,-105.468750
7724,-105.468750
7725,-105.468750
7726,-105.468750
7727,-105.468750
7728,-105.468750
7729,-105.468750
7730,-105.468750
7731,-105.468750
7732,-105.468750
7733,-105.468750
7734,-105.468750
7735,-105.468750
7736,-105.468750
7737,-105.468750
7738,-105.468750
7739,-105.468750
7740,-105.468750
7741,-105.468750
7742,-105.468750
7743,-105.468750
7744,-105.468750
7745,-105.468750
7746,-105.468750
7747,-105.468750
7748,-105.468750
7749,-105.468750
7750,-105.468750
7751,-105.468750
7752,-105.468750
7753,-105.468750
7754,-105.468750
7755,-105.468750
7756,-105.468750
7757,-105.468750
7758,-105.468750
7759,-105.468750
7760,-105.468750
7761,-105.468750
7762,-105.468750
7763,-105.468750
7764,-105.468750
7765,-105.468750
7766,-105.468750
7767,-105.468750
7768,-105.468750
7769,-105.468750
7770,-105.468750
7771,-105.468750
7772,-105.468750
7773,-105.468750
7774,-105.468750
7775,-105.468750
7776,-101.562500
7777,-101.562500
7778,-101.562500
7779,-101.562500
7780,-101.562500
7781,-101.562500
7782,-101.562500
7783,-101.562500
7784,-101.562500
7785,-101.562500
7786,-101.562500
7787,-101.562500
7788,-101.562500
7789,-101.562500
7790,-101.562500
7791,-101.562500
7792,-101.562500
7793,-101.562500
7794,-101.562500
7795,-101.562500
7796,-101.562500
7797,-101.562500
7798,-101.562500
7799,-101.562500
7800,-101.562500
7801,-101.562500
7802,-97.656250
7803,-97.656250
7804,-97.656250
7805,-97.656250
7806,-97.656250
7807,-97.656250
7808,-97.656250
7809,-97.656250
7810,-97.656250
7811,-97.656250
7812,-97.656250
7813,-97.656250
7814,-93.750000
7815,-97.656250
7816,-97.656250
7817,-93.750000
7818,-93.750000
7819,-93.750000
7820,-93.750000
7821,-93.750000
7822,-93.750000
7823,-93.750000
7824,-93.750000
7825,-89.843750
7826,-93.750000
7827,-89.843750
7828,-89.843750
7829,-89.843750
7830,-89.843750
7831,-89.843750
7832,-89.843750
7833,-89.843750
7834,-89.843750
7835,-89.843750
7836,-89.843750
7837,-89.843750
7838,-89.843750
7839,-89.843750
7840,-85.937500
7841,-85.937500
7842,-85.937500
7843,-85.937500
7844,-85.937500
7845,-85.937500
7846,-85.937500
7847,-85.937500
7848,-85.937500
7849,-82.031250
7850,-82.031250
7851,-85.937500
7852,-82.031250
7853,-82.031250
7854,-82.031250
7855,-82.031250
7856,-82.031250
7857,-82.031250
7858,-82.031250
7859,-82.031250
7860,-78.125000
7861,-78.125000
7862,-78.125000
7863,-78.125000
7864,-78.125000
7865,-78.125000
7866,-78.125000
7867,-78.125000
7868,-78.125000
7869,-78.125000
7870,-74.218750
7871,-74.218750
7872,-74.218750
7873,-74.218750
7874,-74.218750
7875,-74.218750
7876,-74.218750
7877,-70.312500
7878,-74.218750
7879,-70.312500
7880,-70.312500
7881,-70.312500
7882,-70.312500
7883,-70.312500
7884,-70.312500
7885,-70.312500
7886,-70.312500
7887,-66.406250
7888,-66.406250
7889,-66.406250
7890,-66.406250
7891,-66.406250
7892,-66.406250
7893,-66.406250
7894,-66.406250
7895,-66.406250
7896,-62.500000
7897,-62.500000
7898,-62.500000
7899,-62.500000
7900,-62.500000
7901,-62.500000
7902,-62.500000
7903,-58.593750
7904,-58.593750
7905,-58.593750
7906,-58.593750
7907,-58.593750
7908,-58.593750
7909,-58.593750
7910,-54.687500
7911,-54.687500
7912,-54.687500
7913,-54.687500
7914,-54.687500
7915,-54.687500
7916,-50.781250
7917,-50.781250
7918,-50.781250
7919,-50.781250
7920,-50.781250
7921,-50.781250
7922,-50.781250
7923,-50.781250
7924,-46.875000
7925,-46.875000
7926,-46.875000
7927,-46.875000
7928,-46.875000
7929,-46.875000
7930,-46.875000
7931,-42.968750
7932,-42.968750
7933,-42.968750
7934,-42.968750
7935,-42.968750
7936,-42.968750
7937,-39.062500
7938,-39.062500
7939,-39.062500
7940,-39.062500
7941,-39.062500
7942,-39.062500
7943,-39.062500
7944,-35.156250
7945,-35.156250
7946,-35.156250
7947,-35.156250
7948,-35.156250
7949,-35.156250
7950,-35.156250
7951,-31.250000
7952,-31.250000
7953,-31.250000
7954,-31.250000
7955,-31.250000
7956,-31.250000
7957,-27.343750
7958,-27.343750
7959,-27.343750
7960,-27.343750
7961,-27.343750
7962,-27.343750
7963,-23.437500
7964,-23.437500
7965,-23.437500
7966,-23.437500
7967,-23.437500
7968,-23.437500
7969,-23.437500
7970,-23.437500
7971,-19.531250
7972,-19.531250
7973,-19.531250
7974,-19.531250
7975,-19.531250
7976,-15.625000
7977,-15.625000
7978,-15.625000
7979,-15.625000
7980,-15.625000
7981,-15.625000
7982,-15.625000
7983,-11.718750
7984,-11.718750
7985,-11.718750
7986,-11.718750
7987,-11.718750
7988,-11.718750
7989,-11.718750
7990,-11.718750
7991,-7.812500
7992,-7.812500
7993,-7.812500
7994,-7.812500
7995,-7.812500
7996,-7.812500
7997,-3.906250
7998,-3.906250
7999,-3.906250
8000,-3.906250
8001,-3.906250
8002,-3.906250
8003,-3.906250
8004,-3.906250
8005,0.000000
8006,0.000000
8007,0.000000
8008,0.000000
8009,0.000000
8010,0.000000
8011,3.906250
8012,3.906250
8013,3.906250
8014,3.906250
8015,3.906250
8016,3.906250
8017,7.812500
8018,7.812500
8019,7.812500
8020,7.812500
8021,7.812500
8022,7.812500
8023,7.812500
8024,7.812500
8025,7.812500
8026,11.718750
8027,11.718750
8028,11.718750
8029,11.718750
8030,11.718750
8031,15.625000
8032,11.718750
8033,15.625000
8034,15.625000
8035,15.625000
8036,15.625000
8037,15.625000
8038,15.625000
8039,19.531250
8040,19.531250
8041,19.531250
8042,19.531250
8043,19.531250
8044,19.531250
8045,19.531250
8046,19.531250
8047,23.437500
8048,23.437500
8049,23.437500
8050,23.437500
8051,23.437500
8052,23.437500
8053,23.437500
8054,27.343750
8055,27.343750
8056,27.343750
8057,27.343750
8058,27.343750
8059,27.343750
8060,27.343750
8061,27.343750
8062,31.250000
8063,31.250000
8064,31.250000
8065,31.250000
8066,31.250000
8067,31.250000
8068,31.250000
8069,35.156250
8070,35.156250
8071,35.156250
8072,35.156250
8073,35.156250
8074,35.156250
8075,35.156250
8076,35.156250
8077,39.062500
8078,39.062500
8079,39.062500
8080,39.062500
8081,39.062500
8082,39.062500
8083,39.062500
8084,39.062500
8085,42.968750
8086,42.968750
8087,42.968750
8088,42.968750
8089,42.968750
8090,42.968750
8091,42.968750
8092,42.968750
8093,42.968750
8094,46.875000
8095,46.875000
8096,46.875000
8097,46.875000
8098,46.875000
8099,46.875000
8100,46.875000
8101,46.875000
8102,46.875000
8103,46.875000
8104,50.781250
8105,50.781250
8106,50.781250
8107,50.781250
8108,50.781250
8109,50.781250
8110,50.781250
8111,50.781250
8112,50.781250
8113,50.781250
8114,54.687500
8115,50.781250
8116,54.687500
8117,54.687500
8118,54.687500
8119,54.687500
8120,54.687500
8121,54.687500
8122,54.687500
8123,54.687500
8124,58.593750
8125,58.593750
8126,58.593750
8127,58.593750
8128,58.593750
8129,58.593750
8130,58.593750
8131,58.593750
8132,58.593750
8133,58.593750
8134,58.593750
8135,58.593750
8136,58.593750
8137,62.500000
8138,62.500000
8139,62.500000
8140,62.500000
8141,62.500000
8142,62.500000
8143,62.500000
8144,62.500000
8145,62.500000
8146,62.500000
8147,62.500000
8148,62.500000
8149,66.406250
8150,66.406250
8151,66.406250
8152,66.406250
8153,66.406250
8154,66.406250
8155,66.406250
8156,66.406250
8157,66.406250
8158,66.406250
8159,66.406250
8160,66.406250
8161,66.406250
8162,66.406250
8163,66.406250
8164,70.312500
8165,70.312500
8166,70.312500
8167,70.312500
8168,70.312500
8169,70.312500
8170,70.312500
8171,70.312500
8172,70.312500
8173,70.312500
8174,70.312500
8175,70.312500
8176,70.312500
8177,70.312500
8178,74.218750
8179,70.312500
8180,74.218750
8181,70.312500
8182,70.312500
8183,74.218750
8184,74.218750
8185,74.218750
8186,74.218750
8187,74.218750
8188,74.218750
8189,74.218750
8190,74.218750
8191,74.218750
8192,74.218750
8193,74.218750
8194,74.218750
8195,74.218750
8196,74.218750
8197,74.218750
8198,74.218750
8199,74.218750
8200,74.218750
8201,78.125000
8202,74.218750
8203,74.218750
8204,74.218750
8205,78.125000
8206,74.218750
8207,78.125000
8208,78.125000
8209,78.125000
8210,78.125000
8211,78.125000
8212,78.125000
8213,78.125000
8214,78.125000
8215,78.125000
8216,78.125000
8217,78.125000
8218,78.125000
8219,78.125000
8220,78.125000
8221,78.125000
8222,78.125000
8223,78.125000
8224,78.125000
8225,78.125000
8226,78.125000
8227,78.125000
8228,78.125000
8229,78.125000
8230,78.125000
8231,78.125000
8232,78.125000
8233,78.125000
8234,78.125000
8235,78.125000
8236,78.125000
8237,78.125000
8238,78.125000
8239,78.125000
8240,78.125000
8241,78.125000
8242,78.125000
8243,78.125000
8244,78.125000
8245,78.125000
8246,78.125000
8247,78.125000
8248,78.125000
8249,78.125000
8250,78.125000
8251,78.125000
8252,78.125000
8253,78.125000
8254,78.125000
8255,78.125000
8256,78.125000
8257,78.125000
8258,78.125000
8259,78.125000
8260,78.125000
8261,78.125000
8262,78.125000
8263,78.125000
8264,78.125000
8265,78.125000
8266,78.125000
8267,78.125000
8268,78.125000
8269,78.125000
8270,78.125000
8271,78.125000
8272,78.125000
8273,78.125000
8274,78.125000
8275,78.125000
8276,74.218750
8277,78.125000
8278,78.125000
8279,74.218750
8280,74.218750
8281,78.125000
8282,74.218750
8283,74.218750
8284,74.218750
8285,74.218750
8286,74.218750
8287,74.218750
8288,74.218750
8289,74.218750
8290,74.218750
8291,74.218750
8292,74.218750
8293,74.218750
8294,74.218750
8295,74.218750
8296,74.218750
8297,74.218750
8298,74.218750
8299,74.218750
8300,74.218750
8301,74.218750
8302,70.312500
8303,70.312500
8304,70.312500
8305,70.312500
8306,70.312500
8307,74.218750
8308,70.312500
8309,70.312500
8310,70.312500
8311,70.312500
8312,70.312500
8313,70.312500
8314,70.312500
8315,70.312500
8316,70.312500
8317,70.312500
8318,70.312500
8319,70.312500
8320,70.312500
8321,70.312500
8322,70.312500
8323,66.406250
8324,66.406250
8325,66.406250
8326,66.406250
8327,66.406250
8328,66.406250
8329,66.406250
8330,66.406250
8331,66.406250
8332,66.406250
8333,66.406250
8334,66.406250
8335,66.406250
8336,66.406250
8337,66.406250
8338,62.500000
8339,62.500000
8340,62.500000
8341,62.500000
8342,62.500000
8343,62.500000
8344,62.500000
8345,62.500000
8346,62.500000
8347,62.500000
8348,62.500000
8349,62.500000
8350,58.593750
8351,58.593750
8352,58.593750
8353,58.593750
8354,58.593750
8355,58.593750
8356,58.593750
8357,58.593750
8358,58.593750
8359,58.593750
8360,54.687500
8361,54.687500
8362,54.687500
8363,54.687500
8364,54.687500
8365,54.687500
8366,54.687500
8367,54.687500
8368,54.687500
8369,50.781250
8370,50.781250
8371,50.781250
8372,50.781250
8373,50.781250
8374,50.781250
8375,50.781250
8376,50.781250
8377,50.781250
8378,50.781250
8379,50.781250
8380,50.781250
8381,46.875000
8382,46.875000
8383,46.875000
8384,46.875000
8385,46.875000
8386,46.875000
8387,46.875000
8388,46.875000
8389,46.875000
8390,42.968750
8391,42.968750
8392,42.968750
8393,42.968750
8394,42.968750
8395,42.968750
8396,42.968750
8397,42.968750
8398,42.968750
8399,39.062500
8400,39.062500
8401,39.062500
8402,39.062500
8403,39.062500
8404,39.062500
8405,39.062500
8406,39.062500
8407,39.062500
8408,35.156250
8409,35.156250
8410,35.156250
8411,35.156250
8412,35.156250
8413,35.156250
8414,31.250000
8415,31.250000
8416,31.250000
8417,31.250000
8418,31.250000
8419,31.250000
8420,31.250000
8421,31.250000
8422,31.250000
8423,27.343750
8424,27.343750
8425,27.343750
8426,27.343750
8427,27.343750
8428,27.343750
8429,27.343750
8430,27.343750
8431,23.437500
8432,23.437500
8433,23.437500
8434,23.437500
8435,23.437500
8436,23.437500
8437,23.437500
8438,19.531250
8439,19.531250
8440,19.531250
8441,19.531250
8442,19.531250
8443,19.531250
8444,19.531250
8445,15.625000
8446,15.625000
8447,15.625000
8448,15.625000
8449,15.625000
8450,15.625000
8451,15.625000
8452,15.625000
8453,11.718750
8454,11.718750
8455,11.718750
8456,11.718750
8457,11.718750
8458,11.718750
8459,11.718750
8460,7.812500
8461,7.812500
8462,7.812500
8463,7.812500
8464,7.812500
8465,7.812500
8466,7.812500
8467,7.812500
8468,3.906250
8469,3.906250
8470,3.906250
8471,3.906250
8472,3.906250
8473,0.000000
8474,0.000000
8475,0.000000
8476,0.000000
8477,0.000000
8478,0.000000
8479,0.000000
8480,0.000000
8481,-3.906250
8482,-3.906250
8483,-3.906250
8484,-3.906250
8485,-3.906250
8486,-7.812500
8487,-7.812500
8488,-7.812500
8489,-7.812500
8490,-7.812500
8491,-7.812500
8492,-7.812500
8493,-7.812500
8494,-11.718750
8495,-11.718750
8496,-11.718750
8497,-11.718750
8498,-11.718750
8499,-11.718750
8500,-11.718750
8501,-15.625000
8502,-15.625000
8503,-15.625000
8504,-15.625000
8505,-15.625000
8506,-15.625000
8507,-19.531250
8508,-19.531250
8509,-19.531250
8510,-19.531250
8511,-19.531250
8512,-19.531250
8513,-23.437500
8514,-23.437500
8515,-23.437500
8516,-23.437500
8517,-23.437500
8518,-23.437500
8519,-23.437500
8520,-23.437500
8521,-27.343750
8522,-27.343750
8523,-27.343750
8524,-27.343750
8525,-27.343750
8526,-31.250000
8527,-31.250000
8528,-31.250000
8529,-31.250000
8530,-31.250000
8531,-31.250000
8532,-31.250000
8533,-31.250000
8534,-35.156250
8535,-35.156250
8536,-35.156250
8537,-35.156250
8538,-35.156250
8539,-39.062500
8540,-39.062500
8541,-39.062500
8542,-39.062500
8543,-39.062500
8544,-39.062500
8545,-42.968750
8546,-42.968750
8547,-42.968750
8548,-42.968750
8549,-42.968750
8550,-42.968750
8551,-42.968750
8552,-42.968750
8553,-46.875000
8554,-46.875000
8555,-46.875000
8556,-46.875000
8557,-46.875000
8558,-46.875000
8559,-46.875000
8560,-50.781250
8561,-50.781250
8562,-50.781250
8563,-50.781250
8564,-50.781250
8565,-50.781250
8566,-50.781250
8567,-54.687500
8568,-54.687500
8569,-54.687500
8570,-54.687500
8571,-54.687500
8572,-54.687500
8573,-54.687500
8574,-54.687500
8575,-58.593750
8576,-58.593750
8577,-58.593750
8578,-58.593750
8579,-58.593750
8580,-58.593750
8581,-58.593750
8582,-62.500000
8583,-62.500000
8584,-62.500000
8585,-62.500000
8586,-62.500000
8587,-62.500000
8588,-62.500000
8589,-62.500000
8590,-66.406250
8591,-66.406250
8592,-66.406250
8593,-66.406250
8594,-66.406250
8595,-66.406250
8596,-66.406250
8597,-70.312500
8598,-70.312500
8599,-70.312500
8600,-70.312500
8601,-70.312500
8602,-70.312500
8603,-70.312500
8604,-70.312500
8605,-70.312500
8606,-74.218750
8607,-74.218750
8608,-74.218750
8609,-74.218750
8610,-74.218750
8611,-74.218750
8612,-74.218750
8613,-74.218750
8614,-74.218750
8615,-78.125000
8616,-78.125000
8617,-78.125000
8618,-78.125000
8619,-78.125000
8620,-78.125000
8621,-78.125000
8622,-78.125000
8623,-78.125000
8624,-82.031250
8625,-82.031250
8626,-82.031250
8627,-82.031250
8628,-82.031250
8629,-82.031250
8630,-82.031250
8631,-82.031250
8632,-82.031250
8633,-85.937500
8634,-85.937500
8635,-85.937500
8636,-85.937500
8637,-85.937500
8638,-85.937500
8639,-85.937500
8640,-85.937500
8641,-85.937500
8642,-85.937500
8643,-89.843750
8644,-89.843750
8645,-89.843750
8646,-89.843750
8647,-89.843750
8648,-89.843750
8649,-89.843750
8650,-89.843750
8651,-89.843750
8652,-89.843750
8653,-89.843750
8654,-89.843750
8655,-93.750000
8656,-93.750000
8657,-93.750000
8658,-93.750000
8659,-93.750000
8660,-93.750000
8661,-93.750000
8662,-93.750000
8663,-93.750000
8664,-93.750000
8665,-93.750000
8666,-93.750000
8667,-97.656250
8668,-97.656250
8669,-97.656250
8670,-97.656250
8671,-97.656250
8672,-97.656250
8673,-97.656250
8674,-97.656250
8675,-97.656250
8676,-97.656250
8677,-97.656250
8678,-97.656250
8679,-97.656250
8680,-97.656250
8681,-97.656250
8682,-97.656250
8683,-97.656250
8684,-101.562500
8685,-101.562500
8686,-101.562500
8687,-101.562500
8688,-101.562500
8689,-101.562500
8690,-101.562500
8691,-101.562500
8692,-101.562500
8693,-101.562500
8694,-101.562500
8695,-101.562500
8696,-101.562500
8697,-101.562500
8698,-101.562500
8699,-101.562500
8700,-101.562500
8701,-101.562500
8702,-101.562500
8703,-101.562500
8704,-105.468750
8705,-101.562500
8706,-101.562500
8707,-105.468750
8708,-105.468750
8709,-105.468750
8710,-105.468750
8711,-105.468750
8712,-105.468750
8713,-105.468750
8714,-105.468750
8715,-105.468750
8716,-105.468750
8717,-105.468750
8718,-105.468750
8719,-105.468750
8720,-105.468750
8721,-105.468750
8722,-105.468750
8723,-105.468750
8724,-105.468750
8725,-105.468750
8726,-105.468750
8727,-105.468750
8728,-105.468750
8729,-105.468750
8730,-105.468750
8731,-105.468750
8732,-105.468750
8733,-105.468750
8734,-105.468750
8735,-105.468750
8736,-105.468750
8737,-105.468750
8738,-105.468750
8739,-105.468750
8740,-105.468750
8741,-105.468750
8742,-105.468750
8743,-105.468750
8744,-105.468750
8745,-105.468750
8746,-105.468750
8747,-105.468750
8748,-105.468750
8749,-105.468750
8750,-105.468750
8751,-105.468750
8752,-105.468750
8753,-105.468750
8754,-105.468750
8755,-105.468750
8756,-105.468750
8757,-105.468750
8758,-105.468750
8759,-101.562500
8760,-105.468750
8761,-105.468750
8762,-105.468750
8763,-101.562500
8764,-101.562500
8765,-101.562500
8766,-105.468750
8767,-101.562500
8768,-101.562500
8769,-101.562500
8770,-101.562500
8771,-101.562500
8772,-101.562500
8773,-101.562500
8774,-101.562500
8775,-101.562500
8776,-101.562500
8777,-101.562500
8778,-101.562500
8779,-101.562500
8780,-101.562500
8781,-101.562500
8782,-101.562500
8783,-101.562500
8784,-101.562500
8785,-101.562500
8786,-101.562500
8787,-97.656250
8788,-101.562500
8789,-97.656250
8790,-97.656250
8791,-97.656250
8792,-97.656250
8793,-97.656250
8794,-97.656250
8795,-97.656250
8796,-97.656250
8797,-97.656250
8798,-97.656250
8799,-97.656250
8800,-97.656250
8801,-97.656250
8802,-97.656250
8803,-97.656250
8804,-97.656250
8805,-93.750000
8806,-93.750000
8807,-93.750000
8808,-93.750000
8809,-93.750000
8810,-93.750000
8811,-93.750000
8812,-93.750000
8813,-93.750000
8814,-93.750000
8815,-93.750000
8816,-93.750000
8817,-93.750000
8818,-93.750000
8819,-89.843750
8820,-89.843750
8821,-89.843750
8822,-89.843750
8823,-89.843750
8824,-89.843750
8825,-89.843750
8826,-89.843750
8827,-89.843750
8828,-85.937500
8829,-89.843750
8830,-89.843750
8831,-89.843750
8832,-85.937500
8833,-85.937500
8834,-85.937500
8835,-85.937500
8836,-85.937500
8837,-85.937500
8838,-85.937500
8839,-85.937500
8840,-82.031250
8841,-82.031250
8842,-82.031250
8843,-82.031250
8844,-82.031250
8845,-82.031250
8846,-82.031250
8847,-82.031250
8848,-82.031250
8849,-82.031250
8850,-78.125000
8851,-78.125000
8852,-78.125000
8853,-78.125000
8854,-78.125000
8855,-78.125000
8856,-78.125000
8857,-78.125000
8858,-74.218750
8859,-74.218750
8860,-74.218750
8861,-74.218750
8862,-74.218750
8863,-74.218750
8864,-74.218750
8865,-74.218750
8866,-74.218750
8867,-70.312500
8868,-70.312500
8869,-70.312500
8870,-70.312500
8871,-70.312500
8872,-70.312500
8873,-70.312500
8874,-70.312500
8875,-66.406250
8876,-66.406250
8877,-66.406250
8878,-66.406250
8879,-66.406250
8880,-66.406250
8881,-66.406250
8882,-66.406250
8883,-66.406250
8884,-62.500000
8885,-62.500000
8886,-62.500000
8887,-62.500000
8888,-62.500000
8889,-62.500000
8890,-62.500000
8891,-58.593750
8892,-58.593750
8893,-58.593750
8894,-58.593750
8895,-58.593750
8896,-58.593750
8897,-58.593750
8898,-58.593750
8899,-54.687500
8900,-54.687500
8901,-54.687500
8902,-54.687500
8903,-54.687500
8904,-54.687500
8905,-50.781250
8906,-54.687500
8907,-50.781250
8908,-50.781250
8909,-50.781250
8910,-50.781250
8911,-50.781250
8912,-46.875000
8913,-46.875000
8914,-46.875000
8915,-46.875000
8916,-46.875000
8917,-46.875000
8918,-46.875000
8919,-46.875000
8920,-42.968750
8921,-42.968750
8922,-42.968750
8923,-42.968750
8924,-42.968750
8925,-42.968750
8926,-42.968750
8927,-39.062500
8928,-39.062500
8929,-39.062500
8930,-39.062500
8931,-39.062500
8932,-39.062500
8933,-39.062500
8934,-39.062500
8935,-35.156250
8936,-35.156250
8937,-35.156250
8938,-35.156250
8939,-35.156250
8940,-35.156250
8941,-31.250000
8942,-31.250000
8943,-31.250000
8944,-31.250000
8945,-31.250000
8946,-31.250000
8947,-27.343750
8948,-27.343750
8949,-27.343750
8950,-27.343750
8951,-27.343750
8952,-27.343750
8953,-27.343750
8954,-23.437500
8955,-23.437500
8956,-23.437500
8957,-23.437500
8958,-23.437500
8959,-23.437500
8960,-23.437500
8961,-19.531250
8962,-19.531250
8963,-19.531250
8964,-19.531250
8965,-19.531250
8966,-15.625000
8967,-15.625000
8968,-15.625000
8969,-15.625000
8970,-15.625000
8971,-15.625000
8972,-15.625000
8973,-11.718750
8974,-11.718750
8975,-11.718750
8976,-11.718750
8977,-11.718750
8978,-11.718750
8979,-11.718750
8980,-11.718750
8981,-7.812500
8982,-7.812500
8983,-7.812500
8984,-7.812500
8985,-3.906250
8986,-3.906250
8987,-3.906250
8988,-3.906250
8989,-3.906250
8990,-3.906250
8991,-3.906250
8992,-3.906250
8993,-3.906250
8994,0.000000
8995,0.000000
8996,0.000000
8997,0.000000
8998,0.000000
8999,0.000000
9000,0.000000
9001,3.906250
9002,3.906250
9003,3.906250
9004,3.906250
9005,3.906250
9006,3.906250
9007,3.906250
9008,7.812500
9009,7.812500
9010,7.812500
9011,7.812500
9012,7.812500
9013,7.812500
9014,7.812500
9015,11.718750
9016,11.718750
9017,11.718750
9018,11.718750
9019,11.718750
9020,15.625000
9021,15.625000
9022,15.625000
9023,15.625000
9024,15.625000
9025,15.625000
9026,15.625000
9027,15.625000
9028,19.531250
9029,19.531250
9030,19.531250
9031,19.531250
9032,19.531250
9033,19.531250
9034,19.531250
9035,19.531250
9036,23.437500
9037,23.437500
9038,23.437500
9039,23.437500
9040,23.437500
9041,23.437500
9042,23.437500
9043,27.343750
9044,27.343750
9045,27.343750
9046,27.343750
9047,27.343750
9048,27.343750
9049,27.343750
9050,27.343750
9051,27.343750
9052,27.343750
9053,31.250000
9054,31.250000
9055,31.250000
9056,31.250000
9057,31.250000
9058,35.156250
9059,31.250000
9060,35.156250
9061,31.250000
9062,35.156250
9063,35.156250
9064,35.156250
9065,35.156250
9066,35.156250
9067,35.156250
9068,39.062500
9069,39.062500
9070,39.062500
9071,39.062500
9072,39.062500
9073,39.062500
9074,39.062500
9075,39.062500
9076,39.062500
9077,39.062500
9078,42.968750
9079,42.968750
9080,42.968750
9081,42.968750
9082,42.968750
9083,42.968750
9084,42.968750
9085,46.875000
9086,42.968750
9087,46.875000
9088,46.875000
9089,46.875000
9090,46.875000
9091,46.875000
9092,46.875000
9093,50.781250
9094,46.875000
9095,46.875000
9096,50.781250
9097,50.781250
9098,50.781250
9099,50.781250
9100,50.781250
9101,50.781250
9102,50.781250
9103,50.781250
9104,54.687500
9105,54.687500
9106,54.687500
9107,54.687500
9108,54.687500
9109,54.687500
9110,54.687500
9111,54.687500
9112,54.687500
9113,54.687500
9114,58.593750
9115,58.593750
9116,58.593750
9117,58.593750
9118,58.593750
9119,58.593750
9120,58.593750
9121,58.593750
9122,62.500000
9123,58.593750
9124,62.500000
9125,62.500000
9126,62.500000
9127,62.500000
9128,62.500000
9129,62.500000
9130,62.500000
9131,62.500000
9132,62.500000
9133,62.500000
9134,62.500000
9135,62.500000
9136,62.500000
9137,62.500000
9138,62.500000
9139,66.406250
9140,66.406250
9141,66.406250
9142,66.406250
9143,66.406250
9144,66.406250
9145,66.406250
9146,66.406250
9147,66.406250
9148,66.406250
9149,66.406250
9150,66.406250
9151,66.406250
9152,70.312500
9153,70.312500
9154,70.312500
9155,70.312500
9156,70.312500
9157,70.312500
9158,70.312500
9159,70.312500
9160,70.312500
9161,70.312500
9162,70.312500
9163,70.312500
9164,70.312500
9165,70.312500
9166,70.312500
9167,70.312500
9168,70.312500
9169,70.312500
9170,70.312500
9171,70.312500
9172,74.218750
9173,74.218750
9174,74.218750
9175,74.218750
9176,74.218750
9177,74.218750
9178,74.218750
9179,74.218750
9180,74.218750
9181,74.218750
9182,74.218750
9183,74.218750
9184,74.218750
9185,74.218750
9186,74.218750
9187,74.218750
9188,74.218750
9189,74.218750
9190,74.218750
9191,74.218750
9192,78.125000
9193,74.218750
9194,78.125000
9195,78.125000
9196,74.218750
9197,74.218750
9198,74.218750
9199,78.125000
9200,78.125000
9201,74.218750
9202,78.125000
9203,78.125000
9204,78.125000
9205,78.125000
9206,78.125000
9207,78.125000
9208,78.125000
9209,78.125000
9210,78.125000
9211,78.125000
9212,78.125000
9213,78.125000
9214,78.125000
9215,78.125000
9216,78.125000
9217,78.125000
9218,78.125000
9219,78.125000
9220,78.125000
9221,78.125000
9222,78.125000
9223,78.125000
9224,78.125000
9225,78.125000
9226,78.125000
9227,78.125000
9228,78.125000
9229,78.125000
9230,78.125000
9231,78.125000
9232,78.125000
9233,78.125000
9234,78.125000
9235,78.125000
9236,78.125000
9237,78.125000
9238,78.125000
9239,78.125000
9240,78.125000
9241,78.125000
9242,78.125000
9243,78.125000
9244,78.125000
9245,78.125000
9246,78.125000
9247,78.125000
9248,78.125000
9249,78.125000
9250,78.125000
9251,78.125000
9252,78.125000
9253,78.125000
9254,78.125000
9255,78.125000
9256,78.125000
9257,78.125000
9258,78.125000
9259,78.125000
9260,78.125000
9261,78.125000
9262,78.125000
9263,78.125000
9264,78.125000
9265,78.125000
9266,78.125000
9267,78.125000
9268,74.218750
9269,74.218750
9270,74.218750
9271,78.125000
9272,74.218750
9273,74.218750
9274,78.125000
9275,78.125000
9276,74.218750
9277,74.218750
9278,74.218750
9279,74.218750
9280,74.218750
9281,74.218750
9282,74.218750
9283,74.218750
9284,74.218750
9285,74.218750
9286,74.218750
9287,74.218750
9288,74.218750
9289,74.218750
9290,74.218750
9291,74.218750
9292,70.312500
9293,74.218750
9294,70.312500
9295,70.312500
9296,74.218750
9297,70.312500
9298,70.312500
9299,70.312500
9300,70.312500
9301,70.312500
9302,70.312500
9303,70.312500
9304,70.312500
9305,70.312500
9306,70.312500
9307,70.312500
9308,70.312500
9309,70.312500
9310,70.312500
9311,70.312500
9312,70.312500
9313,66.406250
9314,66.406250
9315,66.406250
9316,66.406250
9317,66.406250
9318,66.406250
9319,66.406250
9320,66.406250
9321,66.406250
9322,66.406250
9323,66.406250
9324,66.406250
9325,66.406250
9326,66.406250
9327,66.406250
9328,62.500000
9329,62.500000
9330,62.500000
9331,62.500000
9332,62.500000
9333,62.500000
9334,62.500000
9335,62.500000
9336,62.500000
9337,62.500000
9338,62.500000
9339,58.593750
9340,58.593750
9341,58.593750
9342,58.593750
9343,58.593750
9344,58.593750
9345,58.593750
9346,58.593750
9347,58.593750
9348,58.593750
9349,58.593750
9350,58.593750
9351,54.687500
9352,54.687500
9353,54.687500
9354,54.687500
9355,54.687500
9356,54.687500
9357,54.687500
9358,54.687500
9359,54.687500
9360,54.687500
9361,50.781250
9362,50.781250
9363,50.781250
9364,50.781250
9365,50.781250
9366,50.781250
9367,50.781250
9368,46.875000
9369,50.781250
9370,50.781250
9371,50.781250
9372,50.781250
9373,46.875000
9374,46.875000
9375,46.875000
9376,46.875000
9377,46.875000
9378,46.875000
9379,46.875000
9380,42.968750
9381,42.968750
9382,42.968750
9383,42.968750
9384,42.968750
9385,42.968750
9386,42.968750
9387,42.968750
9388,42.968750
9389,42.968750
9390,39.062500
9391,39.062500
9392,39.062500
9393,39.062500
9394,39.062500
9395,39.062500
9396,39.062500
9397,39.062500
9398,35.156250
9399,35.156250
9400,35.156250
9401,35.156250
9402,35.156250
9403,35.156250
9404,35.156250
9405,31.250000
9406,35.156250
9407,31.250000
9408,31.250000
9409,31.250000
9410,31.250000
9411,31.250000
9412,27.343750
9413,27.343750
9414,27.343750
9415,27.343750
9416,27.343750
9417,27.343750
9418,27.343750
9419,23.437500
9420,23.437500
9421,23.437500
9422,23.437500
9423,23.437500
9424,23.437500
9425,23.437500
9426,23.437500
9427,19.531250
9428,19.531250
9429,19.531250
9430,19.531250
9431,19.531250
9432,19.531250
9433,19.531250
9434,15.625000
9435,19.531250
9436,15.625000
9437,15.625000
9438,15.625000
9439,15.625000
9440,15.625000
9441,15.625000
9442,11.718750
9443,11.718750
9444,11.718750
9445,11.718750
9446,11.718750
9447,11.718750
9448,11.718750
9449,7.812500
9450,7.812500
9451,7.812500
9452,7.812500
9453,7.812500
9454,7.812500
9455,7.812500
9456,3.906250
9457,3.906250
9458,3.906250
9459,3.906250
9460,3.906250
9461,3.906250
9462,3.906250
9463,0.000000
9464,0.000000
9465,0.000000
9466,0.000000
9467,0.000000
9468,-3.906250
9469,-3.906250
9470,-3.906250
9471,-3.906250
9472,-3.906250
9473,-3.906250
9474,-3.906250
9475,-3.906250
9476,-7.812500
9477,-7.812500
9478,-7.812500
9479,-7.812500
9480,-7.812500
9481,-7.812500
9482,-7.812500
9483,-11.718750
9484,-11.718750
9485,-11.718750
9486,-11.718750
9487,-11.718750
9488,-11.718750
9489,-11.718750
9490,-15.625000
9491,-15.625000
9492,-15.625000
9493,-15.625000
9494,-15.625000
9495,-19.531250
9496,-19.531250
9497,-19.531250
9498,-19.531250
9499,-19.531250
9500,-19.531250
9501,-19.531250
9502,-19.531250
9503,-23.437500
9504,-23.437500
9505,-23.437500
9506,-23.437500
9507,-23.437500
9508,-23.437500
9509,-23.437500
9510,-27.343750
9511,-27.343750
9512,-27.343750
9513,-27.343750
9514,-27.343750
9515,-27.343750
9516,-27.343750
9517,-31.250000
9518,-31.250000
9519,-31.250000
9520,-31.250000
9521,-31.250000
9522,-31.250000
9523,-35.156250
9524,-35.156250
9525,-35.156250
9526,-35.156250
9527,-35.156250
9528,-35.156250
9529,-35.156250
9530,-35.156250
9531,-39.062500
9532,-39.062500
9533,-39.062500
9534,-39.062500
9535,-39.062500
9536,-42.968750
9537,-42.968750
9538,-42.968750
9539,-42.968750
9540,-42.968750
9541,-42.968750
9542,-42.968750
9543,-42.968750
9544,-46.875000
9545,-46.875000
9546,-46.875000
9547,-46.875000
9548,-46.875000
9549,-46.875000
9550,-50.781250
9551,-50.781250
9552,-50.781250
9553,-50.781250
9554,-50.781250
9555,-50.781250
9556,-54.687500
9557,-54.687500
9558,-54.687500
9559,-54.687500
9560,-54.687500
9561,-54.687500
9562,-54.687500
9563,-54.687500
9564,-54.687500
9565,-58.593750
9566,-58.593750
9567,-58.593750
9568,-58.593750
9569,-58.593750
9570,-58.593750
9571,-62.500000
9572,-62.500000
9573,-62.500000
9574,-62.500000
9575,-62.500000
9576,-62.500000
9577,-62.500000
9578,-62.500000
9579,-62.500000
9580,-66.406250
9581,-66.406250
9582,-66.406250
9583,-66.406250
9584,-66.406250
9585,-66.406250
9586,-66.406250
9587,-70.312500
9588,-70.312500
9589,-70.312500
9590,-70.312500
9591,-70.312500
9592,-70.312500
9593,-70.312500
9594,-70.312500
9595,-70.312500
9596,-74.218750
9597,-74.218750
9598,-74.218750
9599,-74.218750
9600,-74.218750
9601,-74.218750
9602,-74.218750
9603,-74.218750
9604,-78.125000
9605,-78.125000
9606,-78.125000
9607,-78.125000
9608,-78.125000
9609,-78.125000
9610,-78.125000
9611,-78.125000
9612,-78.125000
9613,-82.031250
9614,-82.031250
9615,-82.031250
9616,-82.031250
9617,-82.031250
9618,-82.031250
9619,-82.031250
9620,-82.031250
9621,-82.031250
9622,-85.937500
9623,-85.937500
9624,-85.937500
9625,-85.937500
9626,-85.937500
9627,-85.937500
9628,-85.937500
9629,-85.937500
9630,-85.937500
9631,-85.937500
9632,-89.843750
9633,-89.843750
9634,-89.843750
9635,-89.843750
9636,-89.843750
9637,-89.843750
9638,-89.843750
9639,-89.843750
9640,-89.843750
9641,-89.843750
9642,-89.843750
9643,-89.843750
9644,-89.843750
9645,-89.843750
9646,-93.750000
9647,-93.750000
9648,-93.750000
9649,-93.750000
9650,-93.750000
9651,-93.750000
9652,-93.750000
9653,-93.750000
9654,-93.750000
9655,-93.750000
9656,-93.750000
9657,-97.656250
9658,-97.656250
9659,-93.750000
9660,-97.656250
9661,-97.656250
9662,-97.656250
9663,-97.656250
9664,-97.656250
9665,-97.656250
9666,-97.656250
9667,-97.656250
9668,-97.656250
9669,-97.656250
9670,-97.656250
9671,-97.656250
9672,-97.656250
9673,-101.562500
9674,-101.562500
9675,-101.562500
9676,-101.562500
9677,-101.562500
9678,-101.562500
9679,-101.562500
9680,-101.562500
9681,-101.562500
9682,-101.562500
9683,-101.562500
9684,-101.562500
9685,-101.562500
9686,-101.562500
9687,-101.562500
9688,-101.562500
9689,-101.562500
9690,-101.562500
9691,-101.562500
9692,-101.562500
9693,-101.562500
9694,-101.562500
9695,-101.562500
9696,-101.562500
9697,-105.468750
9698,-105.468750
9699,-105.468750
9700,-105.468750
9701,-101.562500
9702,-105.468750
9703,-105.468750
9704,-105.468750
9705,-105.468750
9706,-105.468750
9707,-105.468750
9708,-105.468750
9709,-105.468750
9710,-105.468750
9711,-105.468750
9712,-105.468750
9713,-105.468750
9714,-105.468750
9715,-105.468750
9716,-105.468750
9717,-105.468750
9718,-105.468750
9719,-105.468750
9720,-105.468750
9721,-105.468750
9722,-105.468750
9723,-105.468750
9724,-105.468750
9725,-105.468750
9726,-105.468750
9727,-105.468750
9728,-105.468750
9729,-105.468750
9730,-105.468750
9731,-105.468750
9732,-105.468750
9733,-105.468750
9734,-105.468750
9735,-105.468750
9736,-105.468750
9737,-105.468750
9738,-105.468750
9739,-105.468750
9740,-105.468750
9741,-105.468750
9742,-105.468750
9743,-105.468750
9744,-105.468750
9745,-105.468750
9746,-105.468750
9747,-105.468750
9748,-105.468750
9749,-105.468750
9750,-105.468750
9751,-105.468750
9752,-105.468750
9753,-105.468750
9754,-101.562500
9755,-101.562500
9756,-105.468750
9757,-101.562500
9758,-101.562500
9759,-101.562500
9760,-101.562500
9761,-101.562500
9762,-101.562500
9763,-101.562500
9764,-101.562500
9765,-101.562500
9766,-101.562500
9767,-101.562500
9768,-101.562500
9769,-101.562500
9770,-101.562500
9771,-101.562500
9772,-101.562500
9773,-101.562500
9774,-101.562500
9775,-101.562500
9776,-97.656250
9777,-97.656250
9778,-101.562500
9779,-97.656250
9780,-97.656250
9781,-97.656250
9782,-97.656250
9783,-97.656250
9784,-97.656250
9785,-97.656250
9786,-97.656250
9787,-97.656250
9788,-97.656250
9789,-97.656250
9790,-97.656250
9791,-97.656250
9792,-97.656250
9793,-97.656250
9794,-93.750000
9795,-93.750000
9796,-93.750000
9797,-93.750000
9798,-93.750000
9799,-93.750000
9800,-93.750000
9801,-93.750000
9802,-93.750000
9803,-93.750000
9804,-93.750000
9805,-93.750000
9806,-93.750000
9807,-93.750000
9808,-93.750000
9809,-89.843750
9810,-89.843750
9811,-89.843750
9812,-89.843750
9813,-89.843750
9814,-89.843750
9815,-89.843750
9816,-89.843750
9817,-89.843750
9818,-89.843750
9819,-89.843750
9820,-85.937500
9821,-85.937500
9822,-85.937500
9823,-85.937500
9824,-85.937500
9825,-85.937500
9826,-85.937500
9827,-85.937500
9828,-85.937500
9829,-85.937500
9830,-82.031250
9831,-82.031250
9832,-82.031250
9833,-82.031250
9834,-82.031250
9835,-82.031250
9836,-82.031250
9837,-82.031250
9838,-82.031250
9839,-78.125000
9840,-78.125000
9841,-78.125000
9842,-78.125000
9843,-78.125000
9844,-78.125000
9845,-78.125000
9846,-78.125000
9847,-78.125000
9848,-74.218750
9849,-78.125000
9850,-74.218750
9851,-74.218750
9852,-74.218750
9853,-74.218750
9854,-74.218750
9855,-74.218750
9856,-74.218750
9857,-70.312500
9858,-74.218750
9859,-70.312500
9860,-70.312500
9861,-70.312500
9862,-70.312500
9863,-70.312500
9864,-70.312500
9865,-66.406250
9866,-66.406250
9867,-66.406250
9868,-66.406250
9869,-66.406250
9870,-66.406250
9871,-66.406250
9872,-66.406250
9873,-66.406250
9874,-62.500000
9875,-62.500000
9876,-62.500000
9877,-62.500000
9878,-62.500000
9879,-62.500000
9880,-62.500000
9881,-58.593750
9882,-58.593750
9883,-58.593750
9884,-58.593750
9885,-58.593750
9886,-58.593750
9887,-58.593750
9888,-54.687500
9889,-54.687500
9890,-54.687500
9891,-54.687500
9892,-54.687500
9893,-54.687500
9894,-54.687500
9895,-54.687500
9896,-50.781250
9897,-50.781250
9898,-50.781250
9899,-50.781250
9900,-50.781250
9901,-50.781250
9902,-46.875000
9903,-46.875000
9904,-46.875000
9905,-46.875000
9906,-46.875000
9907,-46.875000
9908,-46.875000
9909,-42.968750
9910,-42.968750
9911,-42.968750
9912,-42.968750
9913,-42.968750
9914,-42.968750
9915,-42.968750
9916,-39.062500
9917,-39.062500
9918,-39.062500
9919,-39.062500
9920,-39.062500
9921,-39.062500
9922,-39.062500
9923,-35.156250
9924,-35.156250
9925,-35.156250
9926,-35.156250
9927,-35.156250
9928,-35.156250
9929,-35.156250
9930,-31.250000
9931,-31.250000
9932,-31.250000
9933,-31.250000
9934,-31.250000
9935,-31.250000
9936,-27.343750
9937,-27.343750
9938,-27.343750
9939,-27.343750
9940,-27.343750
9941,-27.343750
9942,-27.343750
9943,-27.343750
9944,-23.437500
9945,-23.437500
9946,-23.437500
9947,-23.437500
9948,-23.437500
9949,-23.437500
9950,-19.531250
9951,-19.531250
9952,-19.531250
9953,-19.531250
9954,-19.531250
9955,-19.531250
9956,-19.531250
9957,-15.625000
9958,-15.625000
9959,-15.625000
9960,-15.625000
9961,-15.625000
9962,-15.625000
9963,-15.625000
9964,-11.718750
9965,-11.718750
9966,-11.718750
9967,-11.718750
9968,-11.718750
9969,-11.718750
9970,-11.718750
9971,-7.812500
9972,-7.812500
9973,-7.812500
9974,-7.812500
9975,-7.812500
9976,-7.812500
9977,-3.906250
9978,-3.906250
9979,-3.906250
9980,-3.906250
9981,-3.906250
9982,-3.906250
9983,-3.906250
9984,0.000000
9985,0.000000
9986,0.000000
9987,0.000000
9988,0.000000
9989,0.000000
9990,3.906250
9991,3.906250
9992,3.906250
9993,3.906250
9994,3.906250
9995,3.906250
9996,7.812500
9997,3.906250
9998,7.812500
9999,7.812500
10000,7.812500
