Channel              :,CH1
Frequency            :,1.007kHz
Period               :,0.993ms
PK-PK                :,31.25mV
Probe attenuation    :,1X
Voltage per ADC value:,0.244141mV
Time interval        :,1.00000us

index,CH1_Voltage(mV)
1,-15.625000
2,-15.625000
3,-15.625000
4,-15.625000
5,-15.625000
6,-15.625000
7,-15.625000
8,-15.625000
9,-15.625000
10,-15.625000
11,-15.625000
12,-15.625000
13,-15.625000
14,-15.625000
15,-15.625000
16,-15.625000
17,-15.625000
18,-15.625000
19,-15.625000
20,-15.625000
21,-15.625000
22,-15.625000
23,-15.625000
24,-15.625000
25,-15.625000
26,-15.625000
27,-15.625000
28,-15.625000
29,-15.625000
30,-15.625000
31,-15.625000
32,-15.625000
33,-15.625000
34,-15.625000
35,-15.625000
36,-15.625000
37,-11.718750
38,-11.718750
39,-15.625000
40,-15.625000
41,-15.625000
42,-15.625000
43,-11.718750
44,-15.625000
45,-11.718750
46,-11.718750
47,-11.718750
48,-11.718750
49,-11.718750
50,-11.718750
51,-11.718750
52,-11.718750
53,-11.718750
54,-11.718750
55,-11.718750
56,-11.718750
57,-11.718750
58,-11.718750
59,-11.718750
60,-11.718750
61,-11.718750
62,-11.718750
63,-11.718750
64,-11.718750
65,-11.718750
66,-11.718750
67,-11.718750
68,-11.718750
69,-11.718750
70,-11.718750
71,-11.718750
72,-11.718750
73,-11.718750
74,-11.718750
75,-11.718750
76,-11.718750
77,-11.718750
78,-11.718750
79,-11.718750
80,-7.812500
81,-7.812500
82,-7.812500
83,-11.718750
84,-7.812500
85,-7.812500
86,-11.718750
87,-7.812500
88,-7.812500
89,-7.812500
90,-7.812500
91,-7.812500
92,-7.812500
93,-7.812500
94,-7.812500
95,-7.812500
96,-7.812500
97,-7.812500
98,-7.812500
99,-7.812500
100,-7.812500
101,-7.812500
102,-7.812500
103,-7.812500
104,-7.812500
105,-7.812500
106,-7.812500
107,-7.812500
108,-7.812500
109,-7.812500
110,-7.812500
111,-7.812500
112,-7.812500
113,-7.812500
114,-7.812500
115,-7.812500
116,-7.812500
117,-7.812500
118,-7.812500
119,-7.812500
120,-7.812500
121,-7.812500
122,-7.812500
123,-7.812500
124,-7.812500
125,-7.812500
126,-7.812500
127,-7.812500
128,-7.812500
129,-3.906250
130,-7.812500
131,-3.906250
132,-7.812500
133,-3.906250
134,-3.906250
135,-3.906250
136,-3.906250
137,-3.906250
138,-3.906250
139,-3.906250
140,-7.812500
141,-3.906250
142,-7.812500
143,-3.906250
144,-7.812500
145,-3.906250
146,-3.906250
147,-3.906250
148,-3.906250
149,-3.906250
150,-3.906250
151,-3.906250
152,-3.906250
153,-3.906250
154,-3.906250
155,-3.906250
156,-3.906250
157,-3.906250
158,-3.906250
159,-3.906250
160,-3.906250
161,-3.906250
162,-3.906250
163,-3.906250
164,-3.906250
165,-3.906250
166,-3.906250
167,-3.906250
168,-3.906250
169,-3.906250
170,-3.906250
171,-3.906250
172,-3.906250
173,-3.906250
174,-3.906250
175,-3.906250
176,-3.906250
177,-3.906250
178,-3.906250
179,-3.906250
180,-3.906250
181,-3.906250
182,-3.906250
183,-3.906250
184,-3.906250
185,-3.906250
186,0.000000
187,0.000000
188,0.000000
189,0.000000
190,0.000000
191,0.000000
192,-3.906250
193,-3.906250
194,0.000000
195,0.000000
196,0.000000
197,0.000000
198,0.000000
199,0.000000
200,0.000000
201,0.000000
202,0.000000
203,0.000000
204,0.000000
205,0.000000
206,0.000000
207,0.000000
208,0.000000
209,0.000000
210,0.000000
211,0.000000
212,0.000000
213,0.000000
214,0.000000
215,0.000000
216,0.000000
217,0.000000
218,0.000000
219,0.000000
220,0.000000
221,0.000000
222,0.000000
223,0.000000
224,0.000000
225,0.000000
226,0.000000
227,0.000000
228,0.000000
229,0.000000
230,0.000000
231,0.000000
232,0.000000
233,0.000000
234,0.000000
235,0.000000
236,0.000000
237,0.000000
238,0.000000
239,0.000000
240,0.000000
241,0.000000
242,0.000000
243,0.000000
244,0.000000
245,0.000000
246,0.000000
247,0.000000
248,0.000000
249,0.000000
250,0.000000
251,0.000000
252,0.000000
253,0.000000
254,0.000000
255,0.000000
256,0.000000
257,0.000000
258,0.000000
259,0.000000
260,0.000000
261,3.906250
262,0.000000
263,0.000000
264,0.000000
265,0.000000
266,0.000000
267,0.000000
268,0.000000
269,0.000000
270,0.000000
271,0.000000
272,0.000000
273,0.000000
274,3.906250
275,3.906250
276,0.000000
277,0.000000
278,0.000000
279,0.000000
280,3.906250
281,3.906250
282,3.906250
283,3.906250
284,3.906250
285,3.906250
286,3.906250
287,3.906250
288,3.906250
289,3.906250
290,3.906250
291,0.000000
292,3.906250
293,3.906250
294,0.000000
295,3.906250
296,3.906250
297,3.906250
298,3.906250
299,3.906250
300,3.906250
301,3.906250
302,3.906250
303,3.906250
304,3.906250
305,3.906250
306,3.906250
307,3.906250
308,3.906250
309,3.906250
310,3.906250
311,3.906250
312,3.906250
313,3.906250
314,3.906250
315,3.906250
316,3.906250
317,3.906250
318,3.906250
319,0.000000
320,3.906250
321,3.906250
322,3.906250
323,3.906250
324,3.906250
325,3.906250
326,3.906250
327,3.906250
328,3.906250
329,3.906250
330,3.906250
331,3.906250
332,3.906250
333,3.906250
334,3.906250
335,3.906250
336,3.906250
337,3.906250
338,3.906250
339,3.906250
340,3.906250
341,3.906250
342,3.906250
343,3.906250
344,3.906250
345,3.906250
346,3.906250
347,3.906250
348,3.906250
349,3.906250
350,3.906250
351,0.000000
352,0.000000
353,3.906250
354,3.906250
355,3.906250
356,3.906250
357,3.906250
358,3.906250
359,3.906250
360,3.906250
361,3.906250
362,3.906250
363,3.906250
364,3.906250
365,3.906250
366,3.906250
367,3.906250
368,3.906250
369,0.000000
370,3.906250
371,0.000000
372,0.000000
373,3.906250
374,0.000000
375,3.906250
376,3.906250
377,3.906250
378,3.906250
379,0.000000
380,3.906250
381,3.906250
382,3.906250
383,3.906250
384,0.000000
385,0.000000
386,0.000000
387,0.000000
388,3.906250
389,3.906250
390,0.000000
391,0.000000
392,0.000000
393,0.000000
394,0.000000
395,0.000000
396,0.000000
397,0.000000
398,0.000000
399,0.000000
400,0.000000
401,0.000000
402,0.000000
403,0.000000
404,0.000000
405,0.000000
406,0.000000
407,0.000000
408,0.000000
409,0.000000
410,0.000000
411,0.000000
412,0.000000
413,0.000000
414,0.000000
415,0.000000
416,0.000000
417,0.000000
418,0.000000
419,0.000000
420,0.000000
421,0.000000
422,0.000000
423,0.000000
424,0.000000
425,0.000000
426,0.000000
427,0.000000
428,0.000000
429,0.000000
430,0.000000
431,0.000000
432,0.000000
433,0.000000
434,0.000000
435,0.000000
436,0.000000
437,0.000000
438,0.000000
439,-3.906250
440,0.000000
441,-3.906250
442,0.000000
443,0.000000
444,-3.906250
445,-3.906250
446,-3.906250
447,-3.906250
448,-3.906250
449,-3.906250
450,-3.906250
451,0.000000
452,-3.906250
453,-3.906250
454,-3.906250
455,0.000000
456,-3.906250
457,-3.906250
458,-3.906250
459,-3.906250
460,-3.906250
461,-3.906250
462,-3.906250
463,-3.906250
464,-3.906250
465,-3.906250
466,-3.906250
467,-3.906250
468,-3.906250
469,-3.906250
470,-3.906250
471,-3.906250
472,-3.906250
473,-3.906250
474,-3.906250
475,-3.906250
476,-3.906250
477,-3.906250
478,-3.906250
479,-3.906250
480,-3.906250
481,-3.906250
482,-3.906250
483,-3.906250
484,-3.906250
485,-3.906250
486,-3.906250
487,-3.906250
488,-3.906250
489,-3.906250
490,-3.906250
491,-3.906250
492,-3.906250
493,-3.906250
494,-7.812500
495,-3.906250
496,-7.812500
497,-7.812500
498,-7.812500
499,-7.812500
500,-3.906250
501,-7.812500
502,-7.812500
503,-7.812500
504,-7.812500
505,-7.812500
506,-7.812500
507,-7.812500
508,-7.812500
509,-7.812500
510,-7.812500
511,-7.812500
512,-7.812500
513,-7.812500
514,-7.812500
515,-7.812500
516,-7.812500
517,-7.812500
518,-7.812500
519,-7.812500
520,-7.812500
521,-7.812500
522,-7.812500
523,-7.812500
524,-7.812500
525,-7.812500
526,-7.812500
527,-7.812500
528,-7.812500
529,-7.812500
530,-11.718750
531,-11.718750
532,-11.718750
533,-11.718750
534,-11.718750
535,-11.718750
536,-11.718750
537,-11.718750
538,-11.718750
539,-11.718750
540,-11.718750
541,-11.718750
542,-11.718750
543,-11.718750
544,-11.718750
545,-11.718750
546,-11.718750
547,-11.718750
548,-11.718750
549,-11.718750
550,-11.718750
551,-11.718750
552,-11.718750
553,-11.718750
554,-11.718750
555,-11.718750
556,-11.718750
557,-11.718750
558,-11.718750
559,-11.718750
560,-11.718750
561,-11.718750
562,-11.718750
563,-11.718750
564,-11.718750
565,-11.718750
566,-11.718750
567,-11.718750
568,-11.718750
569,-11.718750
570,-11.718750
571,-15.625000
572,-15.625000
573,-11.718750
574,-15.625000
575,-15.625000
576,-15.625000
577,-15.625000
578,-15.625000
579,-15.625000
580,-15.625000
581,-15.625000
582,-15.625000
583,-15.625000
584,-15.625000
585,-15.625000
586,-15.625000
587,-15.625000
588,-15.625000
589,-15.625000
590,-15.625000
591,-15.625000
592,-15.625000
593,-15.625000
594,-15.625000
595,-15.625000
596,-15.625000
597,-15.625000
598,-15.625000
599,-15.625000
600,-15.625000
601,-15.625000
602,-15.625000
603,-15.625000
604,-15.625000
605,-15.625000
606,-15.625000
607,-15.625000
608,-15.625000
609,-15.625000
610,-15.625000
611,-15.625000
612,-15.625000
613,-15.625000
614,-15.625000
615,-15.625000
616,-15.625000
617,-15.625000
618,-15.625000
619,-15.625000
620,-15.625000
621,-19.531250
622,-19.531250
623,-19.531250
624,-19.531250
625,-19.531250
626,-19.531250
627,-19.531250
628,-19.531250
629,-19.531250
630,-19.531250
631,-19.531250
632,-19.531250
633,-19.531250
634,-19.531250
635,-19.531250
636,-19.531250
637,-19.531250
638,-19.531250
639,-19.531250
640,-19.531250
641,-19.531250
642,-19.531250
643,-19.531250
644,-19.531250
645,-19.531250
646,-19.531250
647,-19.531250
648,-19.531250
649,-19.531250
650,-19.531250
651,-19.531250
652,-19.531250
653,-23.437500
654,-19.531250
655,-19.531250
656,-19.531250
657,-19.531250
658,-19.531250
659,-19.531250
660,-19.531250
661,-19.531250
662,-23.437500
663,-19.531250
664,-23.437500
665,-23.437500
666,-23.437500
667,-23.437500
668,-19.531250
669,-23.437500
670,-19.531250
671,-23.437500
672,-23.437500
673,-23.437500
674,-23.437500
675,-23.437500
676,-23.437500
677,-23.437500
678,-23.437500
679,-23.437500
680,-23.437500
681,-23.437500
682,-23.437500
683,-23.437500
684,-23.437500
685,-23.437500
686,-23.437500
687,-23.437500
688,-23.437500
689,-23.437500
690,-23.437500
691,-23.437500
692,-23.437500
693,-23.437500
694,-23.437500
695,-23.437500
696,-23.437500
697,-23.437500
698,-23.437500
699,-23.437500
700,-23.437500
701,-23.437500
702,-23.437500
703,-23.437500
704,-23.437500
705,-23.437500
706,-23.437500
707,-23.437500
708,-23.437500
709,-23.437500
710,-23.437500
711,-23.437500
712,-23.437500
713,-23.437500
714,-23.437500
715,-23.437500
716,-23.437500
717,-23.437500
718,-23.437500
719,-23.437500
720,-23.437500
721,-23.437500
722,-23.437500
723,-23.437500
724,-23.437500
725,-23.437500
726,-23.437500
727,-23.437500
728,-27.343750
729,-23.437500
730,-27.343750
731,-23.437500
732,-23.437500
733,-23.437500
734,-23.437500
735,-23.437500
736,-23.437500
737,-23.437500
738,-27.343750
739,-23.437500
740,-27.343750
741,-23.437500
742,-23.437500
743,-23.437500
744,-23.437500
745,-23.437500
746,-27.343750
747,-23.437500
748,-27.343750
749,-23.437500
750,-27.343750
751,-23.437500
752,-27.343750
753,-23.437500
754,-27.343750
755,-27.343750
756,-27.343750
757,-27.343750
758,-27.343750
759,-27.343750
760,-27.343750
761,-27.343750
762,-27.343750
763,-27.343750
764,-27.343750
765,-23.437500
766,-23.437500
767,-27.343750
768,-27.343750
769,-27.343750
770,-27.343750
771,-27.343750
772,-27.343750
773,-27.343750
774,-27.343750
775,-27.343750
776,-27.343750
777,-27.343750
778,-27.343750
779,-27.343750
780,-27.343750
781,-27.343750
782,-23.437500
783,-23.437500
784,-27.343750
785,-27.343750
786,-27.343750
787,-27.343750
788,-27.343750
789,-27.343750
790,-27.343750
791,-27.343750
792,-27.343750
793,-27.343750
794,-27.343750
795,-27.343750
796,-27.343750
797,-27.343750
798,-27.343750
799,-27.343750
800,-27.343750
801,-27.343750
802,-27.343750
803,-27.343750
804,-27.343750
805,-27.343750
806,-27.343750
807,-23.437500
808,-23.437500
809,-27.343750
810,-27.343750
811,-27.343750
812,-27.343750
813,-27.343750
814,-27.343750
815,-27.343750
816,-27.343750
817,-27.343750
818,-27.343750
819,-27.343750
820,-27.343750
821,-27.343750
822,-27.343750
823,-27.343750
824,-27.343750
825,-27.343750
826,-27.343750
827,-27.343750
828,-27.343750
829,-27.343750
830,-27.343750
831,-23.437500
832,-23.437500
833,-23.437500
834,-27.343750
835,-23.437500
836,-23.437500
837,-23.437500
838,-23.437500
839,-27.343750
840,-27.343750
841,-23.437500
842,-23.437500
843,-23.437500
844,-23.437500
845,-23.437500
846,-23.437500
847,-23.437500
848,-23.437500
849,-23.437500
850,-23.437500
851,-23.437500
852,-23.437500
853,-23.437500
854,-23.437500
855,-23.437500
856,-23.437500
857,-23.437500
858,-23.437500
859,-23.437500
860,-23.437500
861,-23.437500
862,-23.437500
863,-23.437500
864,-23.437500
865,-23.437500
866,-23.437500
867,-23.437500
868,-23.437500
869,-23.437500
870,-23.437500
871,-23.437500
872,-23.437500
873,-23.437500
874,-23.437500
875,-23.437500
876,-23.437500
877,-23.437500
878,-23.437500
879,-23.437500
880,-23.437500
881,-23.437500
882,-23.437500
883,-23.437500
884,-23.437500
885,-23.437500
886,-23.437500
887,-23.437500
888,-23.437500
889,-23.437500
890,-23.437500
891,-23.437500
892,-23.437500
893,-23.437500
894,-23.437500
895,-23.437500
896,-23.437500
897,-23.437500
898,-23.437500
899,-23.437500
900,-23.437500
901,-23.437500
902,-23.437500
903,-23.437500
904,-23.437500
905,-23.437500
906,-23.437500
907,-23.437500
908,-23.437500
909,-23.437500
910,-23.437500
911,-23.437500
912,-23.437500
913,-23.437500
914,-23.437500
915,-23.437500
916,-23.437500
917,-19.531250
918,-19.531250
919,-19.531250
920,-19.531250
921,-19.531250
922,-23.437500
923,-19.531250
924,-23.437500
925,-23.437500
926,-19.531250
927,-19.531250
928,-23.437500
929,-19.531250
930,-19.531250
931,-19.531250
932,-19.531250
933,-19.531250
934,-19.531250
935,-19.531250
936,-19.531250
937,-19.531250
938,-19.531250
939,-19.531250
940,-19.531250
941,-19.531250
942,-19.531250
943,-19.531250
944,-19.531250
945,-19.531250
946,-19.531250
947,-19.531250
948,-19.531250
949,-19.531250
950,-19.531250
951,-19.531250
952,-19.531250
953,-19.531250
954,-19.531250
955,-19.531250
956,-19.531250
957,-19.531250
958,-19.531250
959,-19.531250
960,-19.531250
961,-19.531250
962,-19.531250
963,-19.531250
964,-19.531250
965,-19.531250
966,-19.531250
967,-19.531250
968,-19.531250
969,-19.531250
970,-19.531250
971,-15.625000
972,-19.531250
973,-19.531250
974,-19.531250
975,-15.625000
976,-15.625000
977,-15.625000
978,-15.625000
979,-19.531250
980,-19.531250
981,-15.625000
982,-15.625000
983,-15.625000
984,-15.625000
985,-15.625000
986,-15.625000
987,-15.625000
988,-15.625000
989,-15.625000
990,-15.625000
991,-15.625000
992,-15.625000
993,-15.625000
994,-15.625000
995,-15.625000
996,-15.625000
997,-15.625000
998,-15.625000
999,-15.625000
1000,-15.625000
1001,-15.625000
1002,-15.625000
1003,-15.625000
1004,-15.625000
1005,-15.625000
1006,-15.625000
1007,-15.625000
1008,-15.625000
1009,-15.625000
1010,-15.625000
1011,-15.625000
1012,-15.625000
1013,-15.625000
1014,-15.625000
1015,-15.625000
1016,-11.718750
1017,-15.625000
1018,-15.625000
1019,-11.718750
1020,-15.625000
1021,-15.625000
1022,-15.625000
1023,-15.625000
1024,-15.625000
1025,-11.718750
1026,-11.718750
1027,-11.718750
1028,-11.718750
1029,-11.718750
1030,-11.718750
1031,-11.718750
1032,-15.625000
1033,-11.718750
1034,-11.718750
1035,-11.718750
1036,-11.718750
1037,-11.718750
1038,-11.718750
1039,-11.718750
1040,-11.718750
1041,-11.718750
1042,-11.718750
1043,-11.718750
1044,-11.718750
1045,-11.718750
1046,-11.718750
1047,-11.718750
1048,-11.718750
1049,-11.718750
1050,-11.718750
1051,-11.718750
1052,-11.718750
1053,-11.718750
1054,-11.718750
1055,-11.718750
1056,-11.718750
1057,-11.718750
1058,-11.718750
1059,-11.718750
1060,-11.718750
1061,-11.718750
1062,-11.718750
1063,-11.718750
1064,-11.718750
1065,-11.718750
1066,-11.718750
1067,-11.718750
1068,-11.718750
1069,-11.718750
1070,-11.718750
1071,-11.718750
1072,-11.718750
1073,-7.812500
1074,-7.812500
1075,-7.812500
1076,-7.812500
1077,-7.812500
1078,-11.718750
1079,-7.812500
1080,-7.812500
1081,-7.812500
1082,-7.812500
1083,-7.812500
1084,-7.812500
1085,-7.812500
1086,-7.812500
1087,-7.812500
1088,-7.812500
1089,-11.718750
1090,-7.812500
1091,-7.812500
1092,-7.812500
1093,-7.812500
1094,-7.812500
1095,-7.812500
1096,-7.812500
1097,-7.812500
1098,-7.812500
1099,-7.812500
1100,-7.812500
1101,-7.812500
1102,-7.812500
1103,-7.812500
1104,-7.812500
1105,-7.812500
1106,-7.812500
1107,-7.812500
1108,-7.812500
1109,-7.812500
1110,-7.812500
1111,-7.812500
1112,-7.812500
1113,-3.906250
1114,-7.812500
1115,-7.812500
1116,-7.812500
1117,-7.812500
1118,-7.812500
1119,-3.906250
1120,-7.812500
1121,-7.812500
1122,-3.906250
1123,-7.812500
1124,-3.906250
1125,-7.812500
1126,-7.812500
1127,-7.812500
1128,-3.906250
1129,-3.906250
1130,-3.906250
1131,-3.906250
1132,-3.906250
1133,-3.906250
1134,-3.906250
1135,-3.906250
1136,-3.906250
1137,-3.906250
1138,-3.906250
1139,-3.906250
1140,-3.906250
1141,-3.906250
1142,-3.906250
1143,-3.906250
1144,-3.906250
1145,-3.906250
1146,-3.906250
1147,-3.906250
1148,-3.906250
1149,-3.906250
1150,-3.906250
1151,-3.906250
1152,-3.906250
1153,-3.906250
1154,-3.906250
1155,0.000000
1156,-3.906250
1157,-3.906250
1158,-3.906250
1159,-3.906250
1160,-3.906250
1161,-3.906250
1162,-3.906250
1163,-3.906250
1164,-3.906250
1165,-3.906250
1166,-3.906250
1167,-3.906250
1168,-3.906250
1169,-3.906250
1170,-3.906250
1171,-3.906250
1172,-3.906250
1173,-3.906250
1174,0.000000
1175,-3.906250
1176,-3.906250
1177,0.000000
1178,0.000000
1179,-3.906250
1180,0.000000
1181,-3.906250
1182,0.000000
1183,0.000000
1184,0.000000
1185,-3.906250
1186,0.000000
1187,0.000000
1188,0.000000
1189,0.000000
1190,0.000000
1191,0.000000
1192,0.000000
1193,0.000000
1194,-3.906250
1195,-3.906250
1196,0.000000
1197,0.000000
1198,0.000000
1199,0.000000
1200,0.000000
1201,0.000000
1202,0.000000
1203,0.000000
1204,0.000000
1205,0.000000
1206,0.000000
1207,0.000000
1208,0.000000
1209,0.000000
1210,0.000000
1211,0.000000
1212,0.000000
1213,0.000000
1214,0.000000
1215,0.000000
1216,0.000000
1217,0.000000
1218,0.000000
1219,0.000000
1220,0.000000
1221,0.000000
1222,0.000000
1223,0.000000
1224,0.000000
1225,0.000000
1226,0.000000
1227,0.000000
1228,0.000000
1229,0.000000
1230,0.000000
1231,0.000000
1232,0.000000
1233,0.000000
1234,0.000000
1235,0.000000
1236,0.000000
1237,0.000000
1238,0.000000
1239,0.000000
1240,0.000000
1241,0.000000
1242,0.000000
1243,3.906250
1244,0.000000
1245,3.906250
1246,3.906250
1247,0.000000
1248,0.000000
1249,0.000000
1250,0.000000
1251,3.906250
1252,0.000000
1253,0.000000
1254,0.000000
1255,0.000000
1256,0.000000
1257,0.000000
1258,3.906250
1259,3.906250
1260,3.906250
1261,0.000000
1262,3.906250
1263,0.000000
1264,3.906250
1265,3.906250
1266,3.906250
1267,3.906250
1268,3.906250
1269,3.906250
1270,3.906250
1271,3.906250
1272,3.906250
1273,3.906250
1274,3.906250
1275,3.906250
1276,3.906250
1277,3.906250
1278,3.906250
1279,3.906250
1280,3.906250
1281,3.906250
1282,3.906250
1283,3.906250
1284,3.906250
1285,3.906250
1286,3.906250
1287,3.906250
1288,3.906250
1289,3.906250
1290,3.906250
1291,3.906250
1292,3.906250
1293,3.906250
1294,3.906250
1295,3.906250
1296,3.906250
1297,3.906250
1298,3.906250
1299,3.906250
1300,3.906250
1301,3.906250
1302,3.906250
1303,3.906250
1304,3.906250
1305,3.906250
1306,3.906250
1307,3.906250
1308,3.906250
1309,0.000000
1310,0.000000
1311,3.906250
1312,3.906250
1313,3.906250
1314,3.906250
1315,3.906250
1316,3.906250
1317,3.906250
1318,3.906250
1319,3.906250
1320,3.906250
1321,3.906250
1322,3.906250
1323,3.906250
1324,3.906250
1325,3.906250
1326,3.906250
1327,3.906250
1328,3.906250
1329,3.906250
1330,3.906250
1331,3.906250
1332,3.906250
1333,0.000000
1334,3.906250
1335,0.000000
1336,3.906250
1337,3.906250
1338,3.906250
1339,3.906250
1340,0.000000
1341,3.906250
1342,3.906250
1343,3.906250
1344,3.906250
1345,3.906250
1346,0.000000
1347,3.906250
1348,3.906250
1349,3.906250
1350,3.906250
1351,3.906250
1352,3.906250
1353,3.906250
1354,0.000000
1355,0.000000
1356,0.000000
1357,0.000000
1358,3.906250
1359,3.906250
1360,3.906250
1361,3.906250
1362,0.000000
1363,0.000000
1364,3.906250
1365,3.906250
1366,3.906250
1367,0.000000
1368,0.000000
1369,0.000000
1370,0.000000
1371,0.000000
1372,0.000000
1373,0.000000
1374,0.000000
1375,0.000000
1376,0.000000
1377,0.000000
1378,0.000000
1379,0.000000
1380,0.000000
1381,0.000000
1382,0.000000
1383,0.000000
1384,0.000000
1385,0.000000
1386,0.000000
1387,0.000000
1388,0.000000
1389,0.000000
1390,0.000000
1391,0.000000
1392,0.000000
1393,0.000000
1394,0.000000
1395,0.000000
1396,0.000000
1397,0.000000
1398,0.000000
1399,0.000000
1400,0.000000
1401,0.000000
1402,0.000000
1403,0.000000
1404,0.000000
1405,0.000000
1406,0.000000
1407,0.000000
1408,0.000000
1409,0.000000
1410,0.000000
1411,0.000000
1412,0.000000
1413,0.000000
1414,0.000000
1415,0.000000
1416,0.000000
1417,0.000000
1418,0.000000
1419,0.000000
1420,0.000000
1421,0.000000
1422,0.000000
1423,0.000000
1424,0.000000
1425,0.000000
1426,0.000000
1427,0.000000
1428,0.000000
1429,0.000000
1430,0.000000
1431,0.000000
1432,-3.906250
1433,-3.906250
1434,-3.906250
1435,-3.906250
1436,-3.906250
1437,-3.906250
1438,-3.906250
1439,-3.906250
1440,-3.906250
1441,-3.906250
1442,-3.906250
1443,-3.906250
1444,-3.906250
1445,-3.906250
1446,-3.906250
1447,-3.906250
1448,-3.906250
1449,-3.906250
1450,-3.906250
1451,-3.906250
1452,-3.906250
1453,-3.906250
1454,-3.906250
1455,-3.906250
1456,-3.906250
1457,-3.906250
1458,-3.906250
1459,-3.906250
1460,-3.906250
1461,-3.906250
1462,-3.906250
1463,-3.906250
1464,-3.906250
1465,-3.906250
1466,-3.906250
1467,-3.906250
1468,-3.906250
1469,-3.906250
1470,-3.906250
1471,-3.906250
1472,-3.906250
1473,-3.906250
1474,-7.812500
1475,-3.906250
1476,-7.812500
1477,-3.906250
1478,-3.906250
1479,-7.812500
1480,-7.812500
1481,-3.906250
1482,-7.812500
1483,-7.812500
1484,-7.812500
1485,-7.812500
1486,-7.812500
1487,-7.812500
1488,-7.812500
1489,-7.812500
1490,-7.812500
1491,-7.812500
1492,-7.812500
1493,-7.812500
1494,-7.812500
1495,-7.812500
1496,-7.812500
1497,-7.812500
1498,-7.812500
1499,-7.812500
1500,-7.812500
1501,-7.812500
1502,-7.812500
1503,-7.812500
1504,-7.812500
1505,-7.812500
1506,-7.812500
1507,-7.812500
1508,-7.812500
1509,-7.812500
1510,-7.812500
1511,-7.812500
1512,-7.812500
1513,-7.812500
1514,-7.812500
1515,-7.812500
1516,-7.812500
1517,-7.812500
1518,-7.812500
1519,-7.812500
1520,-7.812500
1521,-7.812500
1522,-11.718750
1523,-7.812500
1524,-7.812500
1525,-7.812500
1526,-7.812500
1527,-7.812500
1528,-7.812500
1529,-7.812500
1530,-11.718750
1531,-11.718750
1532,-11.718750
1533,-11.718750
1534,-11.718750
1535,-11.718750
1536,-11.718750
1537,-11.718750
1538,-11.718750
1539,-11.718750
1540,-11.718750
1541,-11.718750
1542,-11.718750
1543,-11.718750
1544,-11.718750
1545,-11.718750
1546,-11.718750
1547,-11.718750
1548,-11.718750
1549,-11.718750
1550,-11.718750
1551,-11.718750
1552,-11.718750
1553,-11.718750
1554,-15.625000
1555,-11.718750
1556,-11.718750
1557,-11.718750
1558,-11.718750
1559,-15.625000
1560,-15.625000
1561,-11.718750
1562,-15.625000
1563,-11.718750
1564,-15.625000
1565,-15.625000
1566,-15.625000
1567,-15.625000
1568,-15.625000
1569,-15.625000
1570,-15.625000
1571,-15.625000
1572,-15.625000
1573,-15.625000
1574,-15.625000
1575,-15.625000
1576,-15.625000
1577,-15.625000
1578,-15.625000
1579,-15.625000
1580,-15.625000
1581,-15.625000
1582,-15.625000
1583,-15.625000
1584,-15.625000
1585,-15.625000
1586,-15.625000
1587,-15.625000
1588,-15.625000
1589,-15.625000
1590,-15.625000
1591,-15.625000
1592,-19.531250
1593,-15.625000
1594,-15.625000
1595,-15.625000
1596,-15.625000
1597,-19.531250
1598,-19.531250
1599,-15.625000
1600,-15.625000
1601,-15.625000
1602,-15.625000
1603,-15.625000
1604,-19.531250
1605,-19.531250
1606,-19.531250
1607,-15.625000
1608,-19.531250
1609,-19.531250
1610,-19.531250
1611,-19.531250
1612,-19.531250
1613,-19.531250
1614,-19.531250
1615,-19.531250
1616,-19.531250
1617,-19.531250
1618,-19.531250
1619,-19.531250
1620,-19.531250
1621,-19.531250
1622,-19.531250
1623,-19.531250
1624,-19.531250
1625,-19.531250
1626,-19.531250
1627,-19.531250
1628,-19.531250
1629,-19.531250
1630,-19.531250
1631,-19.531250
1632,-19.531250
1633,-19.531250
1634,-19.531250
1635,-19.531250
1636,-19.531250
1637,-19.531250
1638,-19.531250
1639,-19.531250
1640,-19.531250
1641,-19.531250
1642,-19.531250
1643,-19.531250
1644,-19.531250
1645,-19.531250
1646,-19.531250
1647,-19.531250
1648,-19.531250
1649,-19.531250
1650,-19.531250
1651,-19.531250
1652,-19.531250
1653,-19.531250
1654,-19.531250
1655,-19.531250
1656,-19.531250
1657,-23.437500
1658,-23.437500
1659,-19.531250
1660,-23.437500
1661,-23.437500
1662,-23.437500
1663,-23.437500
1664,-23.437500
1665,-23.437500
1666,-23.437500
1667,-23.437500
1668,-23.437500
1669,-23.437500
1670,-23.437500
1671,-23.437500
1672,-23.437500
1673,-23.437500
1674,-23.437500
1675,-23.437500
1676,-23.437500
1677,-23.437500
1678,-23.437500
1679,-23.437500
1680,-23.437500
1681,-23.437500
1682,-23.437500
1683,-23.437500
1684,-23.437500
1685,-23.437500
1686,-23.437500
1687,-23.437500
1688,-23.437500
1689,-23.437500
1690,-23.437500
1691,-23.437500
1692,-23.437500
1693,-23.437500
1694,-23.437500
1695,-23.437500
1696,-23.437500
1697,-23.437500
1698,-23.437500
1699,-23.437500
1700,-23.437500
1701,-23.437500
1702,-23.437500
1703,-23.437500
1704,-23.437500
1705,-23.437500
1706,-23.437500
1707,-23.437500
1708,-23.437500
1709,-23.437500
1710,-23.437500
1711,-23.437500
1712,-23.437500
1713,-27.343750
1714,-23.437500
1715,-23.437500
1716,-23.437500
1717,-23.437500
1718,-27.343750
1719,-27.343750
1720,-23.437500
1721,-23.437500
1722,-23.437500
1723,-23.437500
1724,-27.343750
1725,-27.343750
1726,-27.343750
1727,-27.343750
1728,-27.343750
1729,-27.343750
1730,-23.437500
1731,-27.343750
1732,-27.343750
1733,-23.437500
1734,-23.437500
1735,-27.343750
1736,-27.343750
1737,-27.343750
1738,-23.437500
1739,-23.437500
1740,-27.343750
1741,-27.343750
1742,-27.343750
1743,-27.343750
1744,-27.343750
1745,-23.437500
1746,-27.343750
1747,-27.343750
1748,-23.437500
1749,-27.343750
1750,-23.437500
1751,-23.437500
1752,-23.437500
1753,-27.343750
1754,-27.343750
1755,-27.343750
1756,-27.343750
1757,-27.343750
1758,-27.343750
1759,-27.343750
1760,-23.437500
1761,-27.343750
1762,-23.437500
1763,-27.343750
1764,-27.343750
1765,-27.343750
1766,-23.437500
1767,-23.437500
1768,-23.437500
1769,-23.437500
1770,-27.343750
1771,-27.343750
1772,-23.437500
1773,-23.437500
1774,-27.343750
1775,-23.437500
1776,-27.343750
1777,-27.343750
1778,-27.343750
1779,-27.343750
1780,-23.437500
1781,-27.343750
1782,-27.343750
1783,-27.343750
1784,-27.343750
1785,-27.343750
1786,-23.437500
1787,-23.437500
1788,-27.343750
1789,-23.437500
1790,-27.343750
1791,-27.343750
1792,-23.437500
1793,-27.343750
1794,-23.437500
1795,-23.437500
1796,-23.437500
1797,-23.437500
1798,-27.343750
1799,-27.343750
1800,-27.343750
1801,-27.343750
1802,-27.343750
1803,-27.343750
1804,-27.343750
1805,-27.343750
1806,-27.343750
1807,-27.343750
1808,-27.343750
1809,-23.437500
1810,-23.437500
1811,-23.437500
1812,-27.343750
1813,-27.343750
1814,-27.343750
1815,-27.343750
1816,-23.437500
1817,-23.437500
1818,-27.343750
1819,-23.437500
1820,-27.343750
1821,-27.343750
1822,-23.437500
1823,-23.437500
1824,-23.437500
1825,-27.343750
1826,-27.343750
1827,-27.343750
1828,-27.343750
1829,-27.343750
1830,-27.343750
1831,-27.343750
1832,-27.343750
1833,-23.437500
1834,-23.437500
1835,-23.437500
1836,-23.437500
1837,-23.437500
1838,-23.437500
1839,-23.437500
1840,-23.437500
1841,-23.437500
1842,-27.343750
1843,-23.437500
1844,-27.343750
1845,-23.437500
1846,-23.437500
1847,-23.437500
1848,-23.437500
1849,-23.437500
1850,-23.437500
1851,-23.437500
1852,-23.437500
1853,-23.437500
1854,-23.437500
1855,-23.437500
1856,-27.343750
1857,-23.437500
1858,-23.437500
1859,-23.437500
1860,-23.437500
1861,-23.437500
1862,-23.437500
1863,-23.437500
1864,-23.437500
1865,-23.437500
1866,-23.437500
1867,-23.437500
1868,-23.437500
1869,-23.437500
1870,-23.437500
1871,-23.437500
1872,-23.437500
1873,-23.437500
1874,-23.437500
1875,-23.437500
1876,-23.437500
1877,-23.437500
1878,-23.437500
1879,-23.437500
1880,-23.437500
1881,-23.437500
1882,-23.437500
1883,-23.437500
1884,-23.437500
1885,-23.437500
1886,-23.437500
1887,-23.437500
1888,-23.437500
1889,-23.437500
1890,-23.437500
1891,-23.437500
1892,-23.437500
1893,-23.437500
1894,-23.437500
1895,-23.437500
1896,-23.437500
1897,-23.437500
1898,-23.437500
1899,-23.437500
1900,-23.437500
1901,-23.437500
1902,-23.437500
1903,-23.437500
1904,-23.437500
1905,-19.531250
1906,-19.531250
1907,-19.531250
1908,-19.531250
1909,-19.531250
1910,-19.531250
1911,-19.531250
1912,-19.531250
1913,-19.531250
1914,-23.437500
1915,-19.531250
1916,-19.531250
1917,-19.531250
1918,-19.531250
1919,-19.531250
1920,-19.531250
1921,-19.531250
1922,-19.531250
1923,-19.531250
1924,-19.531250
1925,-19.531250
1926,-19.531250
1927,-19.531250
1928,-19.531250
1929,-19.531250
1930,-19.531250
1931,-19.531250
1932,-19.531250
1933,-19.531250
1934,-19.531250
1935,-19.531250
1936,-19.531250
1937,-19.531250
1938,-19.531250
1939,-19.531250
1940,-19.531250
1941,-19.531250
1942,-19.531250
1943,-19.531250
1944,-19.531250
1945,-19.531250
1946,-19.531250
1947,-19.531250
1948,-19.531250
1949,-19.531250
1950,-19.531250
1951,-19.531250
1952,-19.531250
1953,-19.531250
1954,-19.531250
1955,-19.531250
1956,-19.531250
1957,-19.531250
1958,-19.531250
1959,-19.531250
1960,-15.625000
1961,-15.625000
1962,-19.531250
1963,-19.531250
1964,-19.531250
1965,-19.531250
1966,-19.531250
1967,-19.531250
1968,-19.531250
1969,-15.625000
1970,-19.531250
1971,-19.531250
1972,-15.625000
1973,-19.531250
1974,-15.625000
1975,-15.625000
1976,-15.625000
1977,-15.625000
1978,-15.625000
1979,-15.625000
1980,-15.625000
1981,-15.625000
1982,-15.625000
1983,-15.625000
1984,-15.625000
1985,-15.625000
1986,-15.625000
1987,-15.625000
1988,-15.625000
1989,-15.625000
1990,-15.625000
1991,-15.625000
1992,-15.625000
1993,-15.625000
1994,-15.625000
1995,-15.625000
1996,-15.625000
1997,-15.625000
1998,-15.625000
1999,-15.625000
2000,-15.625000
2001,-15.625000
2002,-15.625000
2003,-15.625000
2004,-15.625000
2005,-15.625000
2006,-15.625000
2007,-15.625000
2008,-15.625000
2009,-15.625000
2010,-15.625000
2011,-15.625000
2012,-15.625000
2013,-15.625000
2014,-15.625000
2015,-11.718750
2016,-15.625000
2017,-15.625000
2018,-11.718750
2019,-11.718750
2020,-11.718750
2021,-11.718750
2022,-11.718750
2023,-11.718750
2024,-11.718750
2025,-11.718750
2026,-11.718750
2027,-11.718750
2028,-11.718750
2029,-11.718750
2030,-11.718750
2031,-11.718750
2032,-11.718750
2033,-11.718750
2034,-11.718750
2035,-11.718750
2036,-11.718750
2037,-11.718750
2038,-11.718750
2039,-11.718750
2040,-11.718750
2041,-11.718750
2042,-11.718750
2043,-11.718750
2044,-11.718750
2045,-11.718750
2046,-11.718750
2047,-11.718750
2048,-11.718750
2049,-11.718750
2050,-11.718750
2051,-11.718750
2052,-11.718750
2053,-11.718750
2054,-11.718750
2055,-11.718750
2056,-11.718750
2057,-11.718750
2058,-11.718750
2059,-11.718750
2060,-11.718750
2061,-7.812500
2062,-11.718750
2063,-11.718750
2064,-11.718750
2065,-11.718750
2066,-11.718750
2067,-7.812500
2068,-7.812500
2069,-7.812500
2070,-7.812500
2071,-7.812500
2072,-7.812500
2073,-7.812500
2074,-7.812500
2075,-7.812500
2076,-7.812500
2077,-7.812500
2078,-7.812500
2079,-7.812500
2080,-7.812500
2081,-7.812500
2082,-7.812500
2083,-7.812500
2084,-7.812500
2085,-7.812500
2086,-7.812500
2087,-7.812500
2088,-7.812500
2089,-7.812500
2090,-7.812500
2091,-7.812500
2092,-7.812500
2093,-7.812500
2094,-7.812500
2095,-7.812500
2096,-7.812500
2097,-7.812500
2098,-7.812500
2099,-7.812500
2100,-7.812500
2101,-7.812500
2102,-7.812500
2103,-7.812500
2104,-7.812500
2105,-7.812500
2106,-7.812500
2107,-7.812500
2108,-7.812500
2109,-3.906250
2110,-3.906250
2111,-3.906250
2112,-3.906250
2113,-3.906250
2114,-7.812500
2115,-3.906250
2116,-7.812500
2117,-3.906250
2118,-3.906250
2119,-3.906250
2120,-3.906250
2121,-3.906250
2122,-3.906250
2123,-3.906250
2124,-3.906250
2125,-3.906250
2126,-3.906250
2127,-3.906250
2128,-3.906250
2129,-3.906250
2130,-3.906250
2131,-3.906250
2132,-3.906250
2133,-3.906250
2134,-3.906250
2135,-3.906250
2136,-3.906250
2137,-3.906250
2138,-3.906250
2139,-3.906250
2140,-3.906250
2141,-3.906250
2142,-3.906250
2143,-3.906250
2144,-3.906250
2145,-3.906250
2146,-3.906250
2147,-3.906250
2148,-3.906250
2149,-3.906250
2150,-3.906250
2151,-3.906250
2152,-3.906250
2153,-3.906250
2154,-3.906250
2155,-3.906250
2156,-3.906250
2157,-3.906250
2158,-3.906250
2159,0.000000
2160,-3.906250
2161,0.000000
2162,-3.906250
2163,0.000000
2164,0.000000
2165,0.000000
2166,0.000000
2167,-3.906250
2168,0.000000
2169,0.000000
2170,0.000000
2171,0.000000
2172,0.000000
2173,0.000000
2174,0.000000
2175,0.000000
2176,0.000000
2177,0.000000
2178,0.000000
2179,0.000000
2180,0.000000
2181,0.000000
2182,0.000000
2183,0.000000
2184,0.000000
2185,0.000000
2186,0.000000
2187,0.000000
2188,0.000000
2189,0.000000
2190,0.000000
2191,0.000000
2192,0.000000
2193,0.000000
2194,0.000000
2195,0.000000
2196,0.000000
2197,0.000000
2198,0.000000
2199,0.000000
2200,0.000000
2201,0.000000
2202,0.000000
2203,0.000000
2204,0.000000
2205,0.000000
2206,0.000000
2207,0.000000
2208,0.000000
2209,0.000000
2210,0.000000
2211,0.000000
2212,0.000000
2213,0.000000
2214,0.000000
2215,0.000000
2216,0.000000
2217,0.000000
2218,0.000000
2219,0.000000
2220,0.000000
2221,0.000000
2222,0.000000
2223,0.000000
2224,0.000000
2225,0.000000
2226,0.000000
2227,0.000000
2228,0.000000
2229,0.000000
2230,0.000000
2231,0.000000
2232,0.000000
2233,0.000000
2234,0.000000
2235,0.000000
2236,0.000000
2237,0.000000
2238,0.000000
2239,0.000000
2240,0.000000
2241,0.000000
2242,0.000000
2243,3.906250
2244,0.000000
2245,3.906250
2246,3.906250
2247,3.906250
2248,0.000000
2249,3.906250
2250,0.000000
2251,0.000000
2252,0.000000
2253,0.000000
2254,0.000000
2255,0.000000
2256,3.906250
2257,3.906250
2258,3.906250
2259,0.000000
2260,3.906250
2261,3.906250
2262,3.906250
2263,3.906250
2264,3.906250
2265,3.906250
2266,3.906250
2267,3.906250
2268,3.906250
2269,3.906250
2270,3.906250
2271,3.906250
2272,3.906250
2273,3.906250
2274,3.906250
2275,3.906250
2276,3.906250
2277,3.906250
2278,3.906250
2279,3.906250
2280,0.000000
2281,3.906250
2282,3.906250
2283,3.906250
2284,3.906250
2285,3.906250
2286,3.906250
2287,3.906250
2288,3.906250
2289,3.906250
2290,3.906250
2291,3.906250
2292,3.906250
2293,3.906250
2294,3.906250
2295,3.906250
2296,3.906250
2297,3.906250
2298,3.906250
2299,3.906250
2300,3.906250
2301,3.906250
2302,3.906250
2303,3.906250
2304,3.906250
2305,3.906250
2306,3.906250
2307,3.906250
2308,3.906250
2309,3.906250
2310,3.906250
2311,3.906250
2312,3.906250
2313,3.906250
2314,3.906250
2315,3.906250
2316,3.906250
2317,3.906250
2318,3.906250
2319,3.906250
2320,3.906250
2321,3.906250
2322,3.906250
2323,3.906250
2324,3.906250
2325,3.906250
2326,3.906250
2327,3.906250
2328,3.906250
2329,3.906250
2330,3.906250
2331,3.906250
2332,3.906250
2333,3.906250
2334,3.906250
2335,3.906250
2336,0.000000
2337,3.906250
2338,0.000000
2339,0.000000
2340,0.000000
2341,0.000000
2342,3.906250
2343,3.906250
2344,0.000000
2345,3.906250
2346,3.906250
2347,3.906250
2348,3.906250
2349,3.906250
2350,0.000000
2351,0.000000
2352,0.000000
2353,0.000000
2354,0.000000
2355,0.000000
2356,0.000000
2357,0.000000
2358,0.000000
2359,0.000000
2360,0.000000
2361,0.000000
2362,0.000000
2363,0.000000
2364,0.000000
2365,0.000000
2366,0.000000
2367,0.000000
2368,0.000000
2369,0.000000
2370,0.000000
2371,0.000000
2372,0.000000
2373,0.000000
2374,0.000000
2375,0.000000
2376,0.000000
2377,0.000000
2378,0.000000
2379,0.000000
2380,0.000000
2381,0.000000
2382,0.000000
2383,0.000000
2384,0.000000
2385,0.000000
2386,0.000000
2387,0.000000
2388,0.000000
2389,0.000000
2390,0.000000
2391,0.000000
2392,0.000000
2393,0.000000
2394,0.000000
2395,0.000000
2396,0.000000
2397,0.000000
2398,0.000000
2399,0.000000
2400,0.000000
2401,0.000000
2402,0.000000
2403,0.000000
2404,0.000000
2405,0.000000
2406,0.000000
2407,0.000000
2408,0.000000
2409,0.000000
2410,0.000000
2411,0.000000
2412,0.000000
2413,0.000000
2414,0.000000
2415,0.000000
2416,0.000000
2417,0.000000
2418,0.000000
2419,0.000000
2420,0.000000
2421,0.000000
2422,0.000000
2423,0.000000
2424,0.000000
2425,0.000000
2426,-3.906250
2427,0.000000
2428,-3.906250
2429,-3.906250
2430,-3.906250
2431,-3.906250
2432,-3.906250
2433,-3.906250
2434,-3.906250
2435,-3.906250
2436,-3.906250
2437,-3.906250
2438,-3.906250
2439,-3.906250
2440,-3.906250
2441,-3.906250
2442,-3.906250
2443,-3.906250
2444,-3.906250
2445,-3.906250
2446,-3.906250
2447,-3.906250
2448,-3.906250
2449,-3.906250
2450,-3.906250
2451,-3.906250
2452,-3.906250
2453,-3.906250
2454,-3.906250
2455,-3.906250
2456,-3.906250
2457,-3.906250
2458,-3.906250
2459,-3.906250
2460,-3.906250
2461,-3.906250
2462,-3.906250
2463,-3.906250
2464,-3.906250
2465,-3.906250
2466,-3.906250
2467,-3.906250
2468,-3.906250
2469,-3.906250
2470,-3.906250
2471,-3.906250
2472,-7.812500
2473,-3.906250
2474,-7.812500
2475,-7.812500
2476,-7.812500
2477,-7.812500
2478,-7.812500
2479,-7.812500
2480,-7.812500
2481,-7.812500
2482,-7.812500
2483,-7.812500
2484,-7.812500
2485,-7.812500
2486,-7.812500
2487,-7.812500
2488,-7.812500
2489,-7.812500
2490,-7.812500
2491,-7.812500
2492,-7.812500
2493,-7.812500
2494,-7.812500
2495,-7.812500
2496,-7.812500
2497,-7.812500
2498,-7.812500
2499,-7.812500
2500,-7.812500
2501,-7.812500
2502,-7.812500
2503,-7.812500
2504,-7.812500
2505,-7.812500
2506,-7.812500
2507,-7.812500
2508,-7.812500
2509,-7.812500
2510,-7.812500
2511,-7.812500
2512,-11.718750
2513,-11.718750
2514,-11.718750
2515,-11.718750
2516,-11.718750
2517,-7.812500
2518,-11.718750
2519,-7.812500
2520,-7.812500
2521,-7.812500
2522,-11.718750
2523,-11.718750
2524,-11.718750
2525,-11.718750
2526,-11.718750
2527,-11.718750
2528,-11.718750
2529,-11.718750
2530,-11.718750
2531,-11.718750
2532,-11.718750
2533,-11.718750
2534,-11.718750
2535,-11.718750
2536,-11.718750
2537,-11.718750
2538,-11.718750
2539,-11.718750
2540,-11.718750
2541,-11.718750
2542,-11.718750
2543,-11.718750
2544,-11.718750
2545,-11.718750
2546,-11.718750
2547,-11.718750
2548,-11.718750
2549,-11.718750
2550,-11.718750
2551,-11.718750
2552,-15.625000
2553,-11.718750
2554,-11.718750
2555,-11.718750
2556,-15.625000
2557,-11.718750
2558,-11.718750
2559,-11.718750
2560,-11.718750
2561,-15.625000
2562,-15.625000
2563,-15.625000
2564,-15.625000
2565,-15.625000
2566,-15.625000
2567,-15.625000
2568,-15.625000
2569,-15.625000
2570,-15.625000
2571,-15.625000
2572,-15.625000
2573,-15.625000
2574,-15.625000
2575,-15.625000
2576,-15.625000
2577,-15.625000
2578,-15.625000
2579,-15.625000
2580,-15.625000
2581,-15.625000
2582,-15.625000
2583,-15.625000
2584,-15.625000
2585,-15.625000
2586,-15.625000
2587,-15.625000
2588,-15.625000
2589,-15.625000
2590,-15.625000
2591,-15.625000
2592,-15.625000
2593,-15.625000
2594,-15.625000
2595,-15.625000
2596,-15.625000
2597,-15.625000
2598,-19.531250
2599,-19.531250
2600,-19.531250
2601,-19.531250
2602,-19.531250
2603,-19.531250
2604,-19.531250
2605,-19.531250
2606,-19.531250
2607,-19.531250
2608,-19.531250
2609,-19.531250
2610,-19.531250
2611,-19.531250
2612,-19.531250
2613,-19.531250
2614,-19.531250
2615,-19.531250
2616,-19.531250
2617,-19.531250
2618,-19.531250
2619,-19.531250
2620,-19.531250
2621,-19.531250
2622,-19.531250
2623,-19.531250
2624,-19.531250
2625,-19.531250
2626,-19.531250
2627,-19.531250
2628,-19.531250
2629,-19.531250
2630,-19.531250
2631,-19.531250
2632,-19.531250
2633,-19.531250
2634,-23.437500
2635,-19.531250
2636,-19.531250
2637,-19.531250
2638,-19.531250
2639,-19.531250
2640,-23.437500
2641,-23.437500
2642,-19.531250
2643,-19.531250
2644,-23.437500
2645,-19.531250
2646,-19.531250
2647,-19.531250
2648,-19.531250
2649,-19.531250
2650,-23.437500
2651,-23.437500
2652,-23.437500
2653,-23.437500
2654,-23.437500
2655,-23.437500
2656,-23.437500
2657,-23.437500
2658,-23.437500
2659,-23.437500
2660,-23.437500
2661,-23.437500
2662,-23.437500
2663,-23.437500
2664,-23.437500
2665,-23.437500
2666,-23.437500
2667,-23.437500
2668,-23.437500
2669,-23.437500
2670,-23.437500
2671,-23.437500
2672,-23.437500
2673,-23.437500
2674,-23.437500
2675,-23.437500
2676,-23.437500
2677,-23.437500
2678,-23.437500
2679,-23.437500
2680,-23.437500
2681,-23.437500
2682,-23.437500
2683,-23.437500
2684,-23.437500
2685,-23.437500
2686,-23.437500
2687,-23.437500
2688,-23.437500
2689,-23.437500
2690,-23.437500
2691,-23.437500
2692,-23.437500
2693,-23.437500
2694,-23.437500
2695,-23.437500
2696,-23.437500
2697,-23.437500
2698,-23.437500
2699,-23.437500
2700,-23.437500
2701,-23.437500
2702,-23.437500
2703,-23.437500
2704,-23.437500
2705,-23.437500
2706,-23.437500
2707,-23.437500
2708,-23.437500
2709,-23.437500
2710,-23.437500
2711,-27.343750
2712,-27.343750
2713,-27.343750
2714,-23.437500
2715,-27.343750
2716,-27.343750
2717,-27.343750
2718,-23.437500
2719,-23.437500
2720,-23.437500
2721,-23.437500
2722,-23.437500
2723,-23.437500
2724,-23.437500
2725,-23.437500
2726,-27.343750
2727,-27.343750
2728,-27.343750
2729,-27.343750
2730,-27.343750
2731,-27.343750
2732,-27.343750
2733,-27.343750
2734,-23.437500
2735,-27.343750
2736,-27.343750
2737,-27.343750
2738,-23.437500
2739,-27.343750
2740,-27.343750
2741,-27.343750
2742,-27.343750
2743,-27.343750
2744,-27.343750
2745,-27.343750
2746,-27.343750
2747,-27.343750
2748,-27.343750
2749,-27.343750
2750,-27.343750
2751,-27.343750
2752,-27.343750
2753,-27.343750
2754,-27.343750
2755,-27.343750
2756,-23.437500
2757,-23.437500
2758,-27.343750
2759,-27.343750
2760,-27.343750
2761,-27.343750
2762,-27.343750
2763,-27.343750
2764,-27.343750
2765,-27.343750
2766,-27.343750
2767,-27.343750
2768,-27.343750
2769,-27.343750
2770,-27.343750
2771,-27.343750
2772,-27.343750
2773,-27.343750
2774,-27.343750
2775,-27.343750
2776,-27.343750
2777,-27.343750
2778,-27.343750
2779,-27.343750
2780,-27.343750
2781,-27.343750
2782,-27.343750
2783,-27.343750
2784,-27.343750
2785,-27.343750
2786,-27.343750
2787,-27.343750
2788,-27.343750
2789,-27.343750
2790,-23.437500
2791,-27.343750
2792,-27.343750
2793,-27.343750
2794,-27.343750
2795,-23.437500
2796,-27.343750
2797,-27.343750
2798,-27.343750
2799,-27.343750
2800,-27.343750
2801,-23.437500
2802,-27.343750
2803,-27.343750
2804,-23.437500
2805,-27.343750
2806,-27.343750
2807,-27.343750
2808,-23.437500
2809,-27.343750
2810,-27.343750
2811,-27.343750
2812,-27.343750
2813,-23.437500
2814,-23.437500
2815,-23.437500
2816,-27.343750
2817,-27.343750
2818,-27.343750
2819,-23.437500
2820,-27.343750
2821,-23.437500
2822,-23.437500
2823,-23.437500
2824,-23.437500
2825,-23.437500
2826,-23.437500
2827,-23.437500
2828,-23.437500
2829,-23.437500
2830,-23.437500
2831,-23.437500
2832,-23.437500
2833,-23.437500
2834,-23.437500
2835,-23.437500
2836,-23.437500
2837,-23.437500
2838,-23.437500
2839,-23.437500
2840,-23.437500
2841,-23.437500
2842,-23.437500
2843,-23.437500
2844,-23.437500
2845,-23.437500
2846,-23.437500
2847,-23.437500
2848,-23.437500
2849,-23.437500
2850,-23.437500
2851,-23.437500
2852,-23.437500
2853,-23.437500
2854,-23.437500
2855,-23.437500
2856,-23.437500
2857,-23.437500
2858,-23.437500
2859,-23.437500
2860,-23.437500
2861,-23.437500
2862,-23.437500
2863,-23.437500
2864,-23.437500
2865,-23.437500
2866,-23.437500
2867,-23.437500
2868,-23.437500
2869,-23.437500
2870,-23.437500
2871,-23.437500
2872,-23.437500
2873,-23.437500
2874,-23.437500
2875,-23.437500
2876,-23.437500
2877,-23.437500
2878,-23.437500
2879,-23.437500
2880,-23.437500
2881,-23.437500
2882,-23.437500
2883,-23.437500
2884,-23.437500
2885,-23.437500
2886,-23.437500
2887,-23.437500
2888,-23.437500
2889,-23.437500
2890,-23.437500
2891,-23.437500
2892,-23.437500
2893,-23.437500
2894,-23.437500
2895,-23.437500
2896,-23.437500
2897,-23.437500
2898,-23.437500
2899,-23.437500
2900,-23.437500
2901,-23.437500
2902,-23.437500
2903,-23.437500
2904,-19.531250
2905,-19.531250
2906,-19.531250
2907,-19.531250
2908,-19.531250
2909,-19.531250
2910,-23.437500
2911,-19.531250
2912,-19.531250
2913,-19.531250
2914,-19.531250
2915,-19.531250
2916,-19.531250
2917,-19.531250
2918,-19.531250
2919,-19.531250
2920,-19.531250
2921,-19.531250
2922,-19.531250
2923,-19.531250
2924,-19.531250
2925,-19.531250
2926,-19.531250
2927,-19.531250
2928,-19.531250
2929,-19.531250
2930,-19.531250
2931,-19.531250
2932,-19.531250
2933,-19.531250
2934,-19.531250
2935,-19.531250
2936,-19.531250
2937,-19.531250
2938,-19.531250
2939,-19.531250
2940,-19.531250
2941,-19.531250
2942,-19.531250
2943,-19.531250
2944,-19.531250
2945,-19.531250
2946,-19.531250
2947,-19.531250
2948,-19.531250
2949,-19.531250
2950,-19.531250
2951,-19.531250
2952,-19.531250
2953,-19.531250
2954,-19.531250
2955,-19.531250
2956,-15.625000
2957,-15.625000
2958,-15.625000
2959,-15.625000
2960,-15.625000
2961,-15.625000
2962,-15.625000
2963,-15.625000
2964,-15.625000
2965,-19.531250
2966,-15.625000
2967,-15.625000
2968,-15.625000
2969,-15.625000
2970,-15.625000
2971,-15.625000
2972,-15.625000
2973,-15.625000
2974,-15.625000
2975,-15.625000
2976,-15.625000
2977,-15.625000
2978,-15.625000
2979,-15.625000
2980,-15.625000
2981,-15.625000
2982,-15.625000
2983,-15.625000
2984,-15.625000
2985,-15.625000
2986,-15.625000
2987,-15.625000
2988,-15.625000
2989,-15.625000
2990,-15.625000
2991,-15.625000
2992,-15.625000
2993,-15.625000
2994,-15.625000
2995,-15.625000
2996,-15.625000
2997,-15.625000
2998,-15.625000
2999,-15.625000
3000,-15.625000
3001,-15.625000
3002,-15.625000
3003,-15.625000
3004,-15.625000
3005,-15.625000
3006,-15.625000
3007,-11.718750
3008,-15.625000
3009,-11.718750
3010,-15.625000
3011,-11.718750
3012,-11.718750
3013,-11.718750
3014,-15.625000
3015,-11.718750
3016,-11.718750
3017,-11.718750
3018,-11.718750
3019,-11.718750
3020,-11.718750
3021,-11.718750
3022,-11.718750
3023,-11.718750
3024,-11.718750
3025,-11.718750
3026,-11.718750
3027,-11.718750
3028,-11.718750
3029,-11.718750
3030,-11.718750
3031,-11.718750
3032,-11.718750
3033,-11.718750
3034,-11.718750
3035,-11.718750
3036,-11.718750
3037,-11.718750
3038,-11.718750
3039,-7.812500
3040,-11.718750
3041,-11.718750
3042,-11.718750
3043,-11.718750
3044,-11.718750
3045,-11.718750
3046,-11.718750
3047,-11.718750
3048,-11.718750
3049,-7.812500
3050,-7.812500
3051,-7.812500
3052,-7.812500
3053,-7.812500
3054,-7.812500
3055,-7.812500
3056,-7.812500
3057,-7.812500
3058,-7.812500
3059,-7.812500
3060,-7.812500
3061,-7.812500
3062,-7.812500
3063,-7.812500
3064,-7.812500
3065,-7.812500
3066,-7.812500
3067,-7.812500
3068,-7.812500
3069,-7.812500
3070,-7.812500
3071,-7.812500
3072,-7.812500
3073,-7.812500
3074,-7.812500
3075,-7.812500
3076,-7.812500
3077,-7.812500
3078,-7.812500
3079,-7.812500
3080,-7.812500
3081,-7.812500
3082,-7.812500
3083,-7.812500
3084,-7.812500
3085,-7.812500
3086,-7.812500
3087,-7.812500
3088,-7.812500
3089,-7.812500
3090,-7.812500
3091,-7.812500
3092,-3.906250
3093,-7.812500
3094,-7.812500
3095,-7.812500
3096,-7.812500
3097,-7.812500
3098,-7.812500
3099,-7.812500
3100,-3.906250
3101,-3.906250
3102,-3.906250
3103,-7.812500
3104,-7.812500
3105,-7.812500
3106,-7.812500
3107,-3.906250
3108,-3.906250
3109,-3.906250
3110,-3.906250
3111,-3.906250
3112,-3.906250
3113,-3.906250
3114,-3.906250
3115,-3.906250
3116,-3.906250
3117,-3.906250
3118,-3.906250
3119,-3.906250
3120,-3.906250
3121,-3.906250
3122,-3.906250
3123,-3.906250
3124,-3.906250
3125,-3.906250
3126,-3.906250
3127,-3.906250
3128,-3.906250
3129,-3.906250
3130,-3.906250
3131,-3.906250
3132,-3.906250
3133,-3.906250
3134,-3.906250
3135,-3.906250
3136,-3.906250
3137,-3.906250
3138,-3.906250
3139,-3.906250
3140,-3.906250
3141,-3.906250
3142,-3.906250
3143,-3.906250
3144,-3.906250
3145,-3.906250
3146,-3.906250
3147,-3.906250
3148,-3.906250
3149,-3.906250
3150,-3.906250
3151,-3.906250
3152,-3.906250
3153,0.000000
3154,0.000000
3155,0.000000
3156,-3.906250
3157,0.000000
3158,0.000000
3159,0.000000
3160,-3.906250
3161,0.000000
3162,0.000000
3163,0.000000
3164,0.000000
3165,0.000000
3166,0.000000
3167,0.000000
3168,0.000000
3169,-3.906250
3170,0.000000
3171,0.000000
3172,0.000000
3173,0.000000
3174,0.000000
3175,0.000000
3176,0.000000
3177,0.000000
3178,0.000000
3179,0.000000
3180,0.000000
3181,0.000000
3182,0.000000
3183,0.000000
3184,0.000000
3185,0.000000
3186,0.000000
3187,0.000000
3188,0.000000
3189,0.000000
3190,0.000000
3191,3.906250
3192,0.000000
3193,0.000000
3194,0.000000
3195,0.000000
3196,0.000000
3197,0.000000
3198,0.000000
3199,0.000000
3200,0.000000
3201,0.000000
3202,0.000000
3203,0.000000
3204,0.000000
3205,0.000000
3206,0.000000
3207,0.000000
3208,0.000000
3209,0.000000
3210,0.000000
3211,0.000000
3212,0.000000
3213,0.000000
3214,3.906250
3215,3.906250
3216,0.000000
3217,0.000000
3218,0.000000
3219,0.000000
3220,0.000000
3221,0.000000
3222,0.000000
3223,0.000000
3224,0.000000
3225,3.906250
3226,3.906250
3227,3.906250
3228,0.000000
3229,0.000000
3230,3.906250
3231,0.000000
3232,3.906250
3233,0.000000
3234,3.906250
3235,3.906250
3236,3.906250
3237,3.906250
3238,0.000000
3239,0.000000
3240,0.000000
3241,3.906250
3242,0.000000
3243,3.906250
3244,0.000000
3245,3.906250
3246,3.906250
3247,3.906250
3248,3.906250
3249,3.906250
3250,3.906250
3251,3.906250
3252,3.906250
3253,3.906250
3254,3.906250
3255,3.906250
3256,0.000000
3257,3.906250
3258,3.906250
3259,3.906250
3260,0.000000
3261,3.906250
3262,3.906250
3263,3.906250
3264,3.906250
3265,0.000000
3266,3.906250
3267,3.906250
3268,3.906250
3269,3.906250
3270,3.906250
3271,3.906250
3272,3.906250
3273,3.906250
3274,3.906250
3275,3.906250
3276,3.906250
3277,3.906250
3278,3.906250
3279,3.906250
3280,3.906250
3281,3.906250
3282,3.906250
3283,3.906250
3284,3.906250
3285,3.906250
3286,3.906250
3287,3.906250
3288,3.906250
3289,3.906250
3290,3.906250
3291,3.906250
3292,3.906250
3293,3.906250
3294,0.000000
3295,3.906250
3296,3.906250
3297,3.906250
3298,3.906250
3299,3.906250
3300,3.906250
3301,3.906250
3302,3.906250
3303,3.906250
3304,3.906250
3305,3.906250
3306,3.906250
3307,3.906250
3308,3.906250
3309,3.906250
3310,3.906250
3311,3.906250
3312,3.906250
3313,3.906250
3314,3.906250
3315,3.906250
3316,3.906250
3317,3.906250
3318,3.906250
3319,3.906250
3320,3.906250
3321,3.906250
3322,3.906250
3323,3.906250
3324,3.906250
3325,0.000000
3326,3.906250
3327,3.906250
3328,3.906250
3329,0.000000
3330,3.906250
3331,3.906250
3332,3.906250
3333,3.906250
3334,3.906250
3335,3.906250
3336,3.906250
3337,3.906250
3338,3.906250
3339,3.906250
3340,3.906250
3341,3.906250
3342,3.906250
3343,3.906250
3344,0.000000
3345,3.906250
3346,3.906250
3347,3.906250
3348,0.000000
3349,3.906250
3350,0.000000
3351,0.000000
3352,3.906250
3353,3.906250
3354,0.000000
3355,0.000000
3356,0.000000
3357,3.906250
3358,0.000000
3359,3.906250
3360,0.000000
3361,0.000000
3362,0.000000
3363,0.000000
3364,0.000000
3365,0.000000
3366,0.000000
3367,0.000000
3368,0.000000
3369,0.000000
3370,0.000000
3371,0.000000
3372,0.000000
3373,0.000000
3374,0.000000
3375,0.000000
3376,0.000000
3377,0.000000
3378,0.000000
3379,0.000000
3380,0.000000
3381,0.000000
3382,0.000000
3383,0.000000
3384,0.000000
3385,0.000000
3386,0.000000
3387,0.000000
3388,0.000000
3389,0.000000
3390,0.000000
3391,0.000000
3392,0.000000
3393,0.000000
3394,0.000000
3395,-3.906250
3396,0.000000
3397,0.000000
3398,0.000000
3399,0.000000
3400,0.000000
3401,0.000000
3402,0.000000
3403,0.000000
3404,0.000000
3405,0.000000
3406,0.000000
3407,0.000000
3408,-3.906250
3409,0.000000
3410,0.000000
3411,0.000000
3412,-3.906250
3413,-3.906250
3414,-3.906250
3415,0.000000
3416,0.000000
3417,-3.906250
3418,-3.906250
3419,0.000000
3420,-3.906250
3421,0.000000
3422,-3.906250
3423,-3.906250
3424,-3.906250
3425,-3.906250
3426,-3.906250
3427,-3.906250
3428,-3.906250
3429,-3.906250
3430,-3.906250
3431,-3.906250
3432,-3.906250
3433,-3.906250
3434,-3.906250
3435,-3.906250
3436,-3.906250
3437,-3.906250
3438,-3.906250
3439,-3.906250
3440,-3.906250
3441,-3.906250
3442,-3.906250
3443,-3.906250
3444,-3.906250
3445,-3.906250
3446,-3.906250
3447,-3.906250
3448,-3.906250
3449,-3.906250
3450,-3.906250
3451,-3.906250
3452,-3.906250
3453,-3.906250
3454,-3.906250
3455,-3.906250
3456,-3.906250
3457,-3.906250
3458,-3.906250
3459,-3.906250
3460,-3.906250
3461,-3.906250
3462,-3.906250
3463,-3.906250
3464,-3.906250
3465,-7.812500
3466,-3.906250
3467,-7.812500
3468,-7.812500
3469,-7.812500
3470,-7.812500
3471,-7.812500
3472,-7.812500
3473,-7.812500
3474,-7.812500
3475,-7.812500
3476,-7.812500
3477,-7.812500
3478,-7.812500
3479,-7.812500
3480,-7.812500
3481,-7.812500
3482,-7.812500
3483,-7.812500
3484,-7.812500
3485,-7.812500
3486,-7.812500
3487,-7.812500
3488,-7.812500
3489,-7.812500
3490,-7.812500
3491,-7.812500
3492,-7.812500
3493,-7.812500
3494,-7.812500
3495,-11.718750
3496,-11.718750
3497,-7.812500
3498,-11.718750
3499,-7.812500
3500,-7.812500
3501,-7.812500
3502,-7.812500
3503,-7.812500
3504,-11.718750
3505,-11.718750
3506,-7.812500
3507,-11.718750
3508,-11.718750
3509,-11.718750
3510,-11.718750
3511,-11.718750
3512,-11.718750
3513,-11.718750
3514,-11.718750
3515,-11.718750
3516,-11.718750
3517,-11.718750
3518,-11.718750
3519,-11.718750
3520,-11.718750
3521,-11.718750
3522,-11.718750
3523,-11.718750
3524,-11.718750
3525,-11.718750
3526,-11.718750
3527,-11.718750
3528,-11.718750
3529,-11.718750
3530,-11.718750
3531,-11.718750
3532,-11.718750
3533,-11.718750
3534,-11.718750
3535,-11.718750
3536,-11.718750
3537,-11.718750
3538,-11.718750
3539,-11.718750
3540,-11.718750
3541,-11.718750
3542,-11.718750
3543,-11.718750
3544,-11.718750
3545,-15.625000
3546,-15.625000
3547,-15.625000
3548,-15.625000
3549,-15.625000
3550,-15.625000
3551,-15.625000
3552,-15.625000
3553,-15.625000
3554,-15.625000
3555,-15.625000
3556,-15.625000
3557,-15.625000
3558,-15.625000
3559,-15.625000
3560,-15.625000
3561,-15.625000
3562,-15.625000
3563,-15.625000
3564,-15.625000
3565,-15.625000
3566,-15.625000
3567,-15.625000
3568,-15.625000
3569,-15.625000
3570,-15.625000
3571,-15.625000
3572,-15.625000
3573,-15.625000
3574,-15.625000
3575,-15.625000
3576,-15.625000
3577,-15.625000
3578,-15.625000
3579,-15.625000
3580,-15.625000
3581,-15.625000
3582,-15.625000
3583,-15.625000
3584,-15.625000
3585,-19.531250
3586,-19.531250
3587,-19.531250
3588,-15.625000
3589,-15.625000
3590,-19.531250
3591,-15.625000
3592,-15.625000
3593,-15.625000
3594,-15.625000
3595,-19.531250
3596,-19.531250
3597,-19.531250
3598,-19.531250
3599,-19.531250
3600,-19.531250
3601,-19.531250
3602,-19.531250
3603,-19.531250
3604,-19.531250
3605,-19.531250
3606,-19.531250
3607,-19.531250
3608,-19.531250
3609,-19.531250
3610,-19.531250
3611,-19.531250
3612,-19.531250
3613,-19.531250
3614,-19.531250
3615,-19.531250
3616,-19.531250
3617,-19.531250
3618,-19.531250
3619,-19.531250
3620,-19.531250
3621,-19.531250
3622,-19.531250
3623,-19.531250
3624,-19.531250
3625,-19.531250
3626,-19.531250
3627,-19.531250
3628,-23.437500
3629,-23.437500
3630,-19.531250
3631,-19.531250
3632,-19.531250
3633,-19.531250
3634,-19.531250
3635,-23.437500
3636,-23.437500
3637,-23.437500
3638,-23.437500
3639,-23.437500
3640,-23.437500
3641,-23.437500
3642,-23.437500
3643,-23.437500
3644,-23.437500
3645,-23.437500
3646,-23.437500
3647,-23.437500
3648,-23.437500
3649,-23.437500
3650,-23.437500
3651,-23.437500
3652,-23.437500
3653,-23.437500
3654,-23.437500
3655,-23.437500
3656,-23.437500
3657,-23.437500
3658,-23.437500
3659,-23.437500
3660,-23.437500
3661,-23.437500
3662,-23.437500
3663,-23.437500
3664,-23.437500
3665,-23.437500
3666,-23.437500
3667,-23.437500
3668,-23.437500
3669,-23.437500
3670,-23.437500
3671,-23.437500
3672,-23.437500
3673,-23.437500
3674,-23.437500
3675,-23.437500
3676,-23.437500
3677,-23.437500
3678,-23.437500
3679,-23.437500
3680,-23.437500
3681,-23.437500
3682,-23.437500
3683,-23.437500
3684,-23.437500
3685,-23.437500
3686,-23.437500
3687,-23.437500
3688,-23.437500
3689,-23.437500
3690,-23.437500
3691,-23.437500
3692,-23.437500
3693,-23.437500
3694,-23.437500
3695,-23.437500
3696,-23.437500
3697,-23.437500
3698,-23.437500
3699,-23.437500
3700,-23.437500
3701,-23.437500
3702,-23.437500
3703,-23.437500
3704,-23.437500
3705,-23.437500
3706,-23.437500
3707,-23.437500
3708,-23.437500
3709,-23.437500
3710,-23.437500
3711,-23.437500
3712,-23.437500
3713,-23.437500
3714,-23.437500
3715,-23.437500
3716,-27.343750
3717,-27.343750
3718,-23.437500
3719,-23.437500
3720,-27.343750
3721,-23.437500
3722,-23.437500
3723,-23.437500
3724,-23.437500
3725,-27.343750
3726,-27.343750
3727,-27.343750
3728,-27.343750
3729,-27.343750
3730,-27.343750
3731,-27.343750
3732,-23.437500
3733,-23.437500
3734,-23.437500
3735,-23.437500
3736,-27.343750
3737,-27.343750
3738,-27.343750
3739,-27.343750
3740,-27.343750
3741,-27.343750
3742,-23.437500
3743,-27.343750
3744,-27.343750
3745,-23.437500
3746,-27.343750
3747,-27.343750
3748,-27.343750
3749,-27.343750
3750,-27.343750
3751,-27.343750
3752,-27.343750
3753,-27.343750
3754,-27.343750
3755,-27.343750
3756,-27.343750
3757,-27.343750
3758,-27.343750
3759,-27.343750
3760,-27.343750
3761,-27.343750
3762,-23.437500
3763,-23.437500
3764,-27.343750
3765,-27.343750
3766,-27.343750
3767,-27.343750
3768,-27.343750
3769,-27.343750
3770,-27.343750
3771,-27.343750
3772,-23.437500
3773,-23.437500
3774,-27.343750
3775,-27.343750
3776,-27.343750
3777,-27.343750
3778,-27.343750
3779,-27.343750
3780,-27.343750
3781,-27.343750
3782,-27.343750
3783,-27.343750
3784,-27.343750
3785,-27.343750
3786,-27.343750
3787,-27.343750
3788,-27.343750
3789,-23.437500
3790,-27.343750
3791,-27.343750
3792,-27.343750
3793,-27.343750
3794,-27.343750
3795,-27.343750
3796,-27.343750
3797,-27.343750
3798,-27.343750
3799,-23.437500
3800,-27.343750
3801,-27.343750
3802,-27.343750
3803,-27.343750
3804,-27.343750
3805,-23.437500
3806,-23.437500
3807,-23.437500
3808,-23.437500
3809,-23.437500
3810,-27.343750
3811,-23.437500
3812,-27.343750
3813,-23.437500
3814,-23.437500
3815,-23.437500
3816,-23.437500
3817,-23.437500
3818,-27.343750
3819,-23.437500
3820,-23.437500
3821,-23.437500
3822,-23.437500
3823,-23.437500
3824,-23.437500
3825,-23.437500
3826,-23.437500
3827,-23.437500
3828,-23.437500
3829,-23.437500
3830,-23.437500
3831,-23.437500
3832,-23.437500
3833,-23.437500
3834,-23.437500
3835,-23.437500
3836,-23.437500
3837,-23.437500
3838,-23.437500
3839,-23.437500
3840,-23.437500
3841,-23.437500
3842,-23.437500
3843,-23.437500
3844,-23.437500
3845,-23.437500
3846,-23.437500
3847,-23.437500
3848,-23.437500
3849,-23.437500
3850,-23.437500
3851,-23.437500
3852,-23.437500
3853,-23.437500
3854,-23.437500
3855,-23.437500
3856,-23.437500
3857,-23.437500
3858,-23.437500
3859,-23.437500
3860,-23.437500
3861,-23.437500
3862,-23.437500
3863,-23.437500
3864,-23.437500
3865,-23.437500
3866,-23.437500
3867,-23.437500
3868,-23.437500
3869,-23.437500
3870,-23.437500
3871,-23.437500
3872,-23.437500
3873,-23.437500
3874,-23.437500
3875,-23.437500
3876,-23.437500
3877,-23.437500
3878,-23.437500
3879,-23.437500
3880,-23.437500
3881,-23.437500
3882,-23.437500
3883,-23.437500
3884,-23.437500
3885,-23.437500
3886,-23.437500
3887,-23.437500
3888,-23.437500
3889,-23.437500
3890,-23.437500
3891,-19.531250
3892,-23.437500
3893,-23.437500
3894,-23.437500
3895,-23.437500
3896,-23.437500
3897,-19.531250
3898,-23.437500
3899,-19.531250
3900,-19.531250
3901,-19.531250
3902,-19.531250
3903,-19.531250
3904,-19.531250
3905,-19.531250
3906,-19.531250
3907,-19.531250
3908,-19.531250
3909,-19.531250
3910,-19.531250
3911,-19.531250
3912,-19.531250
3913,-19.531250
3914,-19.531250
3915,-19.531250
3916,-19.531250
3917,-19.531250
3918,-19.531250
3919,-19.531250
3920,-19.531250
3921,-19.531250
3922,-19.531250
3923,-19.531250
3924,-19.531250
3925,-19.531250
3926,-19.531250
3927,-19.531250
3928,-19.531250
3929,-19.531250
3930,-19.531250
3931,-19.531250
3932,-19.531250
3933,-19.531250
3934,-19.531250
3935,-19.531250
3936,-19.531250
3937,-19.531250
3938,-19.531250
3939,-19.531250
3940,-19.531250
3941,-19.531250
3942,-19.531250
3943,-19.531250
3944,-19.531250
3945,-19.531250
3946,-15.625000
3947,-15.625000
3948,-15.625000
3949,-15.625000
3950,-15.625000
3951,-19.531250
3952,-15.625000
3953,-15.625000
3954,-19.531250
3955,-19.531250
3956,-15.625000
3957,-15.625000
3958,-15.625000
3959,-15.625000
3960,-15.625000
3961,-15.625000
3962,-15.625000
3963,-15.625000
3964,-15.625000
3965,-15.625000
3966,-15.625000
3967,-15.625000
3968,-15.625000
3969,-15.625000
3970,-15.625000
3971,-15.625000
3972,-15.625000
3973,-15.625000
3974,-15.625000
3975,-15.625000
3976,-15.625000
3977,-15.625000
3978,-15.625000
3979,-15.625000
3980,-15.625000
3981,-15.625000
3982,-15.625000
3983,-15.625000
3984,-15.625000
3985,-15.625000
3986,-15.625000
3987,-15.625000
3988,-15.625000
3989,-15.625000
3990,-11.718750
3991,-11.718750
3992,-11.718750
3993,-15.625000
3994,-15.625000
3995,-15.625000
3996,-15.625000
3997,-15.625000
3998,-11.718750
3999,-11.718750
4000,-11.718750
4001,-11.718750
4002,-11.718750
4003,-11.718750
4004,-11.718750
4005,-11.718750
4006,-11.718750
4007,-11.718750
4008,-11.718750
4009,-11.718750
4010,-11.718750
4011,-11.718750
4012,-11.718750
4013,-11.718750
4014,-11.718750
4015,-11.718750
4016,-11.718750
4017,-11.718750
4018,-11.718750
4019,-11.718750
4020,-11.718750
4021,-11.718750
4022,-11.718750
4023,-11.718750
4024,-11.718750
4025,-11.718750
4026,-11.718750
4027,-11.718750
4028,-11.718750
4029,-11.718750
4030,-11.718750
4031,-11.718750
4032,-11.718750
4033,-11.718750
4034,-11.718750
4035,-11.718750
4036,-11.718750
4037,-7.812500
4038,-11.718750
4039,-11.718750
4040,-11.718750
4041,-11.718750
4042,-11.718750
4043,-7.812500
4044,-7.812500
4045,-11.718750
4046,-11.718750
4047,-11.718750
4048,-11.718750
4049,-7.812500
4050,-7.812500
4051,-7.812500
4052,-7.812500
4053,-7.812500
4054,-7.812500
4055,-7.812500
4056,-7.812500
4057,-7.812500
4058,-7.812500
4059,-7.812500
4060,-7.812500
4061,-7.812500
4062,-7.812500
4063,-7.812500
4064,-7.812500
4065,-7.812500
4066,-7.812500
4067,-7.812500
4068,-7.812500
4069,-7.812500
4070,-7.812500
4071,-7.812500
4072,-7.812500
4073,-7.812500
4074,-7.812500
4075,-7.812500
4076,-7.812500
4077,-7.812500
4078,-7.812500
4079,-7.812500
4080,-7.812500
4081,-7.812500
4082,-7.812500
4083,-7.812500
4084,-7.812500
4085,-7.812500
4086,-3.906250
4087,-7.812500
4088,-3.906250
4089,-7.812500
4090,-7.812500
4091,-3.906250
4092,-7.812500
4093,-3.906250
4094,-3.906250
4095,-3.906250
4096,-3.906250
4097,-3.906250
4098,-7.812500
4099,-3.906250
4100,-3.906250
4101,-3.906250
4102,-3.906250
4103,-3.906250
4104,-3.906250
4105,-3.906250
4106,-3.906250
4107,-3.906250
4108,-3.906250
4109,-3.906250
4110,-3.906250
4111,-3.906250
4112,-3.906250
4113,-3.906250
4114,-3.906250
4115,-3.906250
4116,-3.906250
4117,-3.906250
4118,-3.906250
4119,-3.906250
4120,-3.906250
4121,-3.906250
4122,-3.906250
4123,-3.906250
4124,-3.906250
4125,-3.906250
4126,-3.906250
4127,-3.906250
4128,-3.906250
4129,-3.906250
4130,-3.906250
4131,0.000000
4132,-3.906250
4133,0.000000
4134,-3.906250
4135,-3.906250
4136,-3.906250
4137,-3.906250
4138,-3.906250
4139,0.000000
4140,-3.906250
4141,0.000000
4142,-3.906250
4143,0.000000
4144,0.000000
4145,0.000000
4146,0.000000
4147,0.000000
4148,-3.906250
4149,-3.906250
4150,0.000000
4151,0.000000
4152,0.000000
4153,0.000000
4154,0.000000
4155,0.000000
4156,0.000000
4157,0.000000
4158,0.000000
4159,0.000000
4160,0.000000
4161,0.000000
4162,0.000000
4163,0.000000
4164,0.000000
4165,0.000000
4166,0.000000
4167,0.000000
4168,0.000000
4169,0.000000
4170,0.000000
4171,0.000000
4172,0.000000
4173,0.000000
4174,0.000000
4175,0.000000
4176,0.000000
4177,0.000000
4178,0.000000
4179,0.000000
4180,0.000000
4181,0.000000
4182,0.000000
4183,0.000000
4184,0.000000
4185,0.000000
4186,0.000000
4187,0.000000
4188,0.000000
4189,0.000000
4190,0.000000
4191,0.000000
4192,0.000000
4193,0.000000
4194,0.000000
4195,0.000000
4196,0.000000
4197,0.000000
4198,0.000000
4199,0.000000
4200,0.000000
4201,0.000000
4202,0.000000
4203,0.000000
4204,0.000000
4205,3.906250
4206,3.906250
4207,0.000000
4208,0.000000
4209,0.000000
4210,0.000000
4211,0.000000
4212,0.000000
4213,3.906250
4214,3.906250
4215,0.000000
4216,3.906250
4217,0.000000
4218,0.000000
4219,3.906250
4220,3.906250
4221,3.906250
4222,3.906250
4223,3.906250
4224,3.906250
4225,0.000000
4226,3.906250
4227,3.906250
4228,3.906250
4229,3.906250
4230,3.906250
4231,3.906250
4232,3.906250
4233,3.906250
4234,3.906250
4235,3.906250
4236,3.906250
4237,3.906250
4238,3.906250
4239,3.906250
4240,3.906250
4241,3.906250
4242,3.906250
4243,3.906250
4244,3.906250
4245,3.906250
4246,3.906250
4247,3.906250
4248,3.906250
4249,3.906250
4250,3.906250
4251,3.906250
4252,3.906250
4253,3.906250
4254,3.906250
4255,3.906250
4256,3.906250
4257,3.906250
4258,3.906250
4259,3.906250
4260,3.906250
4261,3.906250
4262,3.906250
4263,3.906250
4264,3.906250
4265,3.906250
4266,3.906250
4267,3.906250
4268,3.906250
4269,3.906250
4270,3.906250
4271,3.906250
4272,3.906250
4273,3.906250
4274,3.906250
4275,3.906250
4276,3.906250
4277,3.906250
4278,3.906250
4279,3.906250
4280,3.906250
4281,3.906250
4282,3.906250
4283,3.906250
4284,3.906250
4285,3.906250
4286,3.906250
4287,3.906250
4288,3.906250
4289,0.000000
4290,0.000000
4291,0.000000
4292,3.906250
4293,3.906250
4294,3.906250
4295,3.906250
4296,3.906250
4297,3.906250
4298,0.000000
4299,3.906250
4300,3.906250
4301,3.906250
4302,3.906250
4303,0.000000
4304,0.000000
4305,3.906250
4306,3.906250
4307,3.906250
4308,3.906250
4309,0.000000
4310,3.906250
4311,3.906250
4312,3.906250
4313,3.906250
4314,0.000000
4315,3.906250
4316,3.906250
4317,0.000000
4318,3.906250
4319,0.000000
4320,3.906250
4321,0.000000
4322,0.000000
4323,0.000000
4324,3.906250
4325,3.906250
4326,3.906250
4327,3.906250
4328,0.000000
4329,0.000000
4330,0.000000
4331,0.000000
4332,0.000000
4333,0.000000
4334,0.000000
4335,0.000000
4336,3.906250
4337,0.000000
4338,0.000000
4339,0.000000
4340,0.000000
4341,3.906250
4342,0.000000
4343,0.000000
4344,0.000000
4345,0.000000
4346,0.000000
4347,3.906250
4348,0.000000
4349,0.000000
4350,0.000000
4351,0.000000
4352,0.000000
4353,0.000000
4354,0.000000
4355,0.000000
4356,0.000000
4357,0.000000
4358,0.000000
4359,0.000000
4360,0.000000
4361,0.000000
4362,0.000000
4363,0.000000
4364,0.000000
4365,0.000000
4366,0.000000
4367,0.000000
4368,0.000000
4369,0.000000
4370,0.000000
4371,0.000000
4372,0.000000
4373,0.000000
4374,0.000000
4375,0.000000
4376,0.000000
4377,0.000000
4378,0.000000
4379,0.000000
4380,0.000000
4381,0.000000
4382,0.000000
4383,0.000000
4384,0.000000
4385,0.000000
4386,0.000000
4387,0.000000
4388,0.000000
4389,0.000000
4390,0.000000
4391,0.000000
4392,0.000000
4393,0.000000
4394,0.000000
4395,0.000000
4396,0.000000
4397,0.000000
4398,0.000000
4399,0.000000
4400,0.000000
4401,-3.906250
4402,-3.906250
4403,-3.906250
4404,-3.906250
4405,-3.906250
4406,-3.906250
4407,-3.906250
4408,-3.906250
4409,-3.906250
4410,-3.906250
4411,-3.906250
4412,-3.906250
4413,-3.906250
4414,-3.906250
4415,-3.906250
4416,-3.906250
4417,-3.906250
4418,-3.906250
4419,-3.906250
4420,-3.906250
4421,-3.906250
4422,-3.906250
4423,-3.906250
4424,-3.906250
4425,-3.906250
4426,-3.906250
4427,-3.906250
4428,-3.906250
4429,-3.906250
4430,-3.906250
4431,-3.906250
4432,-3.906250
4433,-3.906250
4434,-3.906250
4435,-3.906250
4436,-3.906250
4437,-3.906250
4438,-3.906250
4439,-3.906250
4440,-3.906250
4441,-3.906250
4442,-3.906250
4443,-3.906250
4444,-3.906250
4445,-3.906250
4446,-3.906250
4447,-3.906250
4448,-7.812500
4449,-7.812500
4450,-7.812500
4451,-3.906250
4452,-7.812500
4453,-3.906250
4454,-7.812500
4455,-7.812500
4456,-7.812500
4457,-7.812500
4458,-7.812500
4459,-7.812500
4460,-7.812500
4461,-7.812500
4462,-7.812500
4463,-7.812500
4464,-7.812500
4465,-7.812500
4466,-7.812500
4467,-7.812500
4468,-7.812500
4469,-7.812500
4470,-7.812500
4471,-7.812500
4472,-7.812500
4473,-7.812500
4474,-7.812500
4475,-7.812500
4476,-7.812500
4477,-7.812500
4478,-7.812500
4479,-7.812500
4480,-7.812500
4481,-7.812500
4482,-7.812500
4483,-7.812500
4484,-7.812500
4485,-7.812500
4486,-7.812500
4487,-7.812500
4488,-7.812500
4489,-7.812500
4490,-7.812500
4491,-7.812500
4492,-7.812500
4493,-7.812500
4494,-11.718750
4495,-7.812500
4496,-11.718750
4497,-7.812500
4498,-7.812500
4499,-7.812500
4500,-11.718750
4501,-11.718750
4502,-11.718750
4503,-11.718750
4504,-11.718750
4505,-11.718750
4506,-11.718750
4507,-7.812500
4508,-11.718750
4509,-11.718750
4510,-11.718750
4511,-11.718750
4512,-11.718750
4513,-11.718750
4514,-11.718750
4515,-11.718750
4516,-11.718750
4517,-11.718750
4518,-11.718750
4519,-11.718750
4520,-11.718750
4521,-11.718750
4522,-11.718750
4523,-11.718750
4524,-11.718750
4525,-11.718750
4526,-11.718750
4527,-11.718750
4528,-11.718750
4529,-11.718750
4530,-11.718750
4531,-11.718750
4532,-11.718750
4533,-15.625000
4534,-15.625000
4535,-11.718750
4536,-15.625000
4537,-15.625000
4538,-15.625000
4539,-15.625000
4540,-15.625000
4541,-15.625000
4542,-15.625000
4543,-15.625000
4544,-15.625000
4545,-15.625000
4546,-15.625000
4547,-15.625000
4548,-15.625000
4549,-15.625000
4550,-15.625000
4551,-15.625000
4552,-15.625000
4553,-15.625000
4554,-15.625000
4555,-15.625000
4556,-15.625000
4557,-15.625000
4558,-15.625000
4559,-15.625000
4560,-15.625000
4561,-15.625000
4562,-15.625000
4563,-15.625000
4564,-15.625000
4565,-15.625000
4566,-15.625000
4567,-15.625000
4568,-15.625000
4569,-19.531250
4570,-15.625000
4571,-15.625000
4572,-15.625000
4573,-15.625000
4574,-15.625000
4575,-15.625000
4576,-15.625000
4577,-19.531250
4578,-19.531250
4579,-15.625000
4580,-19.531250
4581,-19.531250
4582,-19.531250
4583,-19.531250
4584,-15.625000
4585,-19.531250
4586,-19.531250
4587,-19.531250
4588,-19.531250
4589,-19.531250
4590,-19.531250
4591,-19.531250
4592,-19.531250
4593,-19.531250
4594,-19.531250
4595,-19.531250
4596,-19.531250
4597,-19.531250
4598,-19.531250
4599,-19.531250
4600,-19.531250
4601,-19.531250
4602,-19.531250
4603,-19.531250
4604,-19.531250
4605,-19.531250
4606,-19.531250
4607,-19.531250
4608,-19.531250
4609,-19.531250
4610,-19.531250
4611,-19.531250
4612,-19.531250
4613,-19.531250
4614,-19.531250
4615,-19.531250
4616,-19.531250
4617,-19.531250
4618,-19.531250
4619,-19.531250
4620,-19.531250
4621,-19.531250
4622,-19.531250
4623,-19.531250
4624,-19.531250
4625,-19.531250
4626,-19.531250
4627,-23.437500
4628,-19.531250
4629,-19.531250
4630,-19.531250
4631,-19.531250
4632,-19.531250
4633,-19.531250
4634,-23.437500
4635,-23.437500
4636,-23.437500
4637,-23.437500
4638,-23.437500
4639,-23.437500
4640,-23.437500
4641,-23.437500
4642,-23.437500
4643,-23.437500
4644,-23.437500
4645,-23.437500
4646,-23.437500
4647,-23.437500
4648,-23.437500
4649,-23.437500
4650,-23.437500
4651,-23.437500
4652,-23.437500
4653,-23.437500
4654,-23.437500
4655,-23.437500
4656,-23.437500
4657,-23.437500
4658,-23.437500
4659,-23.437500
4660,-23.437500
4661,-23.437500
4662,-23.437500
4663,-23.437500
4664,-23.437500
4665,-23.437500
4666,-23.437500
4667,-23.437500
4668,-23.437500
4669,-23.437500
4670,-23.437500
4671,-23.437500
4672,-23.437500
4673,-23.437500
4674,-27.343750
4675,-23.437500
4676,-23.437500
4677,-23.437500
4678,-23.437500
4679,-23.437500
4680,-23.437500
4681,-23.437500
4682,-23.437500
4683,-23.437500
4684,-23.437500
4685,-27.343750
4686,-23.437500
4687,-23.437500
4688,-23.437500
4689,-23.437500
4690,-27.343750
4691,-27.343750
4692,-23.437500
4693,-23.437500
4694,-27.343750
4695,-27.343750
4696,-27.343750
4697,-23.437500
4698,-23.437500
4699,-23.437500
4700,-23.437500
4701,-27.343750
4702,-27.343750
4703,-27.343750
4704,-27.343750
4705,-27.343750
4706,-27.343750
4707,-27.343750
4708,-27.343750
4709,-23.437500
4710,-27.343750
4711,-23.437500
4712,-23.437500
4713,-27.343750
4714,-27.343750
4715,-27.343750
4716,-27.343750
4717,-23.437500
4718,-27.343750
4719,-23.437500
4720,-23.437500
4721,-27.343750
4722,-27.343750
4723,-27.343750
4724,-27.343750
4725,-27.343750
4726,-27.343750
4727,-27.343750
4728,-27.343750
4729,-27.343750
4730,-27.343750
4731,-27.343750
4732,-27.343750
4733,-27.343750
4734,-27.343750
4735,-27.343750
4736,-27.343750
4737,-27.343750
4738,-27.343750
4739,-23.437500
4740,-27.343750
4741,-27.343750
4742,-27.343750
4743,-27.343750
4744,-27.343750
4745,-27.343750
4746,-23.437500
4747,-23.437500
4748,-23.437500
4749,-27.343750
4750,-27.343750
4751,-27.343750
4752,-27.343750
4753,-27.343750
4754,-27.343750
4755,-23.437500
4756,-27.343750
4757,-27.343750
4758,-27.343750
4759,-23.437500
4760,-27.343750
4761,-27.343750
4762,-23.437500
4763,-27.343750
4764,-27.343750
4765,-27.343750
4766,-27.343750
4767,-27.343750
4768,-27.343750
4769,-27.343750
4770,-27.343750
4771,-23.437500
4772,-27.343750
4773,-27.343750
4774,-27.343750
4775,-23.437500
4776,-23.437500
4777,-23.437500
4778,-23.437500
4779,-27.343750
4780,-27.343750
4781,-27.343750
4782,-27.343750
4783,-23.437500
4784,-23.437500
4785,-23.437500
4786,-27.343750
4787,-27.343750
4788,-27.343750
4789,-27.343750
4790,-27.343750
4791,-27.343750
4792,-23.437500
4793,-23.437500
4794,-27.343750
4795,-27.343750
4796,-27.343750
4797,-27.343750
4798,-27.343750
4799,-27.343750
4800,-27.343750
4801,-27.343750
4802,-23.437500
4803,-23.437500
4804,-23.437500
4805,-23.437500
4806,-23.437500
4807,-27.343750
4808,-27.343750
4809,-27.343750
4810,-23.437500
4811,-23.437500
4812,-23.437500
4813,-23.437500
4814,-23.437500
4815,-23.437500
4816,-27.343750
4817,-27.343750
4818,-23.437500
4819,-23.437500
4820,-23.437500
4821,-23.437500
4822,-23.437500
4823,-23.437500
4824,-23.437500
4825,-23.437500
4826,-27.343750
4827,-23.437500
4828,-23.437500
4829,-23.437500
4830,-23.437500
4831,-23.437500
4832,-23.437500
4833,-23.437500
4834,-23.437500
4835,-23.437500
4836,-23.437500
4837,-23.437500
4838,-23.437500
4839,-23.437500
4840,-23.437500
4841,-23.437500
4842,-23.437500
4843,-23.437500
4844,-23.437500
4845,-23.437500
4846,-23.437500
4847,-23.437500
4848,-23.437500
4849,-23.437500
4850,-23.437500
4851,-23.437500
4852,-23.437500
4853,-23.437500
4854,-23.437500
4855,-23.437500
4856,-23.437500
4857,-23.437500
4858,-23.437500
4859,-23.437500
4860,-23.437500
4861,-23.437500
4862,-23.437500
4863,-23.437500
4864,-23.437500
4865,-23.437500
4866,-23.437500
4867,-23.437500
4868,-23.437500
4869,-23.437500
4870,-23.437500
4871,-23.437500
4872,-23.437500
4873,-19.531250
4874,-23.437500
4875,-23.437500
4876,-23.437500
4877,-23.437500
4878,-19.531250
4879,-19.531250
4880,-19.531250
4881,-19.531250
4882,-19.531250
4883,-23.437500
4884,-23.437500
4885,-19.531250
4886,-19.531250
4887,-19.531250
4888,-19.531250
4889,-19.531250
4890,-19.531250
4891,-19.531250
4892,-19.531250
4893,-19.531250
4894,-19.531250
4895,-19.531250
4896,-19.531250
4897,-19.531250
4898,-19.531250
4899,-19.531250
4900,-19.531250
4901,-19.531250
4902,-19.531250
4903,-19.531250
4904,-19.531250
4905,-19.531250
4906,-19.531250
4907,-19.531250
4908,-19.531250
4909,-19.531250
4910,-19.531250
4911,-19.531250
4912,-19.531250
4913,-19.531250
4914,-19.531250
4915,-19.531250
4916,-19.531250
4917,-19.531250
4918,-19.531250
4919,-19.531250
4920,-19.531250
4921,-19.531250
4922,-19.531250
4923,-19.531250
4924,-19.531250
4925,-19.531250
4926,-19.531250
4927,-19.531250
4928,-19.531250
4929,-19.531250
4930,-19.531250
4931,-19.531250
4932,-19.531250
4933,-19.531250
4934,-19.531250
4935,-19.531250
4936,-19.531250
4937,-15.625000
4938,-19.531250
4939,-19.531250
4940,-19.531250
4941,-15.625000
4942,-15.625000
4943,-19.531250
4944,-19.531250
4945,-19.531250
4946,-15.625000
4947,-15.625000
4948,-15.625000
4949,-15.625000
4950,-15.625000
4951,-15.625000
4952,-15.625000
4953,-15.625000
4954,-15.625000
4955,-15.625000
4956,-15.625000
4957,-15.625000
4958,-15.625000
4959,-15.625000
4960,-15.625000
4961,-15.625000
4962,-15.625000
4963,-15.625000
4964,-15.625000
4965,-15.625000
4966,-15.625000
4967,-15.625000
4968,-15.625000
4969,-15.625000
4970,-15.625000
4971,-15.625000
4972,-15.625000
4973,-15.625000
4974,-15.625000
4975,-15.625000
4976,-15.625000
4977,-15.625000
4978,-15.625000
4979,-15.625000
4980,-15.625000
4981,-11.718750
4982,-11.718750
4983,-11.718750
4984,-15.625000
4985,-15.625000
4986,-15.625000
4987,-11.718750
4988,-11.718750
4989,-11.718750
4990,-11.718750
4991,-11.718750
4992,-11.718750
4993,-11.718750
4994,-11.718750
4995,-11.718750
4996,-11.718750
4997,-11.718750
4998,-11.718750
4999,-11.718750
5000,-11.718750
5001,-11.718750
5002,-11.718750
5003,-11.718750
5004,-11.718750
5005,-11.718750
5006,-11.718750
5007,-11.718750
5008,-11.718750
5009,-11.718750
5010,-11.718750
5011,-11.718750
5012,-11.718750
5013,-11.718750
5014,-11.718750
5015,-11.718750
5016,-11.718750
5017,-11.718750
5018,-11.718750
5019,-11.718750
5020,-11.718750
5021,-11.718750
5022,-11.718750
5023,-11.718750
5024,-11.718750
5025,-11.718750
5026,-11.718750
5027,-7.812500
5028,-11.718750
5029,-7.812500
5030,-11.718750
5031,-7.812500
5032,-7.812500
5033,-11.718750
5034,-7.812500
5035,-7.812500
5036,-7.812500
5037,-7.812500
5038,-7.812500
5039,-7.812500
5040,-7.812500
5041,-7.812500
5042,-7.812500
5043,-7.812500
5044,-7.812500
5045,-7.812500
5046,-7.812500
5047,-7.812500
5048,-7.812500
5049,-7.812500
5050,-7.812500
5051,-7.812500
5052,-7.812500
5053,-7.812500
5054,-7.812500
5055,-7.812500
5056,-7.812500
5057,-7.812500
5058,-7.812500
5059,-7.812500
5060,-7.812500
5061,-7.812500
5062,-7.812500
5063,-7.812500
5064,-7.812500
5065,-7.812500
5066,-7.812500
5067,-7.812500
5068,-7.812500
5069,-7.812500
5070,-7.812500
5071,-7.812500
5072,-7.812500
5073,-7.812500
5074,-7.812500
5075,-7.812500
5076,-7.812500
5077,-7.812500
5078,-7.812500
5079,-7.812500
5080,-7.812500
5081,-7.812500
5082,-7.812500
5083,-3.906250
5084,-7.812500
5085,-3.906250
5086,-3.906250
5087,-7.812500
5088,-7.812500
5089,-3.906250
5090,-3.906250
5091,-3.906250
5092,-3.906250
5093,-3.906250
5094,-3.906250
5095,-3.906250
5096,-3.906250
5097,-7.812500
5098,-3.906250
5099,-3.906250
5100,-3.906250
5101,-3.906250
5102,-3.906250
5103,-3.906250
5104,-3.906250
5105,-3.906250
5106,-3.906250
5107,-3.906250
5108,-3.906250
5109,-3.906250
5110,-3.906250
5111,-3.906250
5112,-3.906250
5113,-3.906250
5114,-3.906250
5115,-3.906250
5116,-3.906250
5117,-3.906250
5118,-3.906250
5119,-3.906250
5120,-3.906250
5121,-3.906250
5122,-3.906250
5123,-3.906250
5124,-3.906250
5125,-3.906250
5126,-3.906250
5127,-3.906250
5128,-3.906250
5129,-3.906250
5130,-3.906250
5131,-3.906250
5132,-3.906250
5133,0.000000
5134,0.000000
5135,0.000000
5136,0.000000
5137,-3.906250
5138,0.000000
5139,0.000000
5140,0.000000
5141,0.000000
5142,0.000000
5143,0.000000
5144,0.000000
5145,0.000000
5146,0.000000
5147,0.000000
5148,0.000000
5149,0.000000
5150,-3.906250
5151,0.000000
5152,0.000000
5153,0.000000
5154,0.000000
5155,0.000000
5156,0.000000
5157,0.000000
5158,0.000000
5159,0.000000
5160,0.000000
5161,0.000000
5162,0.000000
5163,0.000000
5164,0.000000
5165,0.000000
5166,0.000000
5167,0.000000
5168,0.000000
5169,0.000000
5170,0.000000
5171,0.000000
5172,0.000000
5173,0.000000
5174,0.000000
5175,0.000000
5176,0.000000
5177,0.000000
5178,0.000000
5179,0.000000
5180,0.000000
5181,0.000000
5182,0.000000
5183,0.000000
5184,0.000000
5185,0.000000
5186,0.000000
5187,0.000000
5188,0.000000
5189,0.000000
5190,0.000000
5191,0.000000
5192,0.000000
5193,0.000000
5194,0.000000
5195,0.000000
5196,0.000000
5197,0.000000
5198,0.000000
5199,0.000000
5200,0.000000
5201,0.000000
5202,3.906250
5203,0.000000
5204,0.000000
5205,0.000000
5206,0.000000
5207,0.000000
5208,3.906250
5209,0.000000
5210,0.000000
5211,3.906250
5212,0.000000
5213,0.000000
5214,0.000000
5215,0.000000
5216,3.906250
5217,3.906250
5218,0.000000
5219,0.000000
5220,0.000000
5221,3.906250
5222,3.906250
5223,3.906250
5224,3.906250
5225,3.906250
5226,3.906250
5227,3.906250
5228,3.906250
5229,3.906250
5230,0.000000
5231,0.000000
5232,0.000000
5233,0.000000
5234,3.906250
5235,3.906250
5236,3.906250
5237,3.906250
5238,3.906250
5239,3.906250
5240,3.906250
5241,3.906250
5242,3.906250
5243,3.906250
5244,3.906250
5245,3.906250
5246,3.906250
5247,3.906250
5248,3.906250
5249,3.906250
5250,3.906250
5251,3.906250
5252,3.906250
5253,3.906250
5254,3.906250
5255,3.906250
5256,3.906250
5257,3.906250
5258,3.906250
5259,3.906250
5260,3.906250
5261,3.906250
5262,3.906250
5263,3.906250
5264,3.906250
5265,3.906250
5266,3.906250
5267,3.906250
5268,3.906250
5269,3.906250
5270,3.906250
5271,3.906250
5272,3.906250
5273,3.906250
5274,3.906250
5275,3.906250
5276,3.906250
5277,3.906250
5278,3.906250
5279,3.906250
5280,3.906250
5281,3.906250
5282,3.906250
5283,3.906250
5284,3.906250
5285,3.906250
5286,3.906250
5287,3.906250
5288,3.906250
5289,3.906250
5290,3.906250
5291,3.906250
5292,3.906250
5293,3.906250
5294,3.906250
5295,3.906250
5296,3.906250
5297,3.906250
5298,3.906250
5299,3.906250
5300,3.906250
5301,3.906250
5302,3.906250
5303,3.906250
5304,3.906250
5305,3.906250
5306,3.906250
5307,0.000000
5308,3.906250
5309,3.906250
5310,0.000000
5311,0.000000
5312,0.000000
5313,0.000000
5314,3.906250
5315,0.000000
5316,0.000000
5317,0.000000
5318,0.000000
5319,0.000000
5320,0.000000
5321,0.000000
5322,0.000000
5323,0.000000
5324,0.000000
5325,0.000000
5326,0.000000
5327,3.906250
5328,0.000000
5329,0.000000
5330,0.000000
5331,0.000000
5332,0.000000
5333,0.000000
5334,0.000000
5335,0.000000
5336,0.000000
5337,0.000000
5338,0.000000
5339,0.000000
5340,0.000000
5341,0.000000
5342,0.000000
5343,0.000000
5344,0.000000
5345,0.000000
5346,0.000000
5347,0.000000
5348,3.906250
5349,0.000000
5350,0.000000
5351,0.000000
5352,0.000000
5353,0.000000
5354,0.000000
5355,0.000000
5356,0.000000
5357,0.000000
5358,0.000000
5359,0.000000
5360,0.000000
5361,0.000000
5362,0.000000
5363,0.000000
5364,0.000000
5365,0.000000
5366,0.000000
5367,0.000000
5368,0.000000
5369,0.000000
5370,0.000000
5371,0.000000
5372,0.000000
5373,0.000000
5374,0.000000
5375,0.000000
5376,0.000000
5377,0.000000
5378,0.000000
5379,0.000000
5380,0.000000
5381,0.000000
5382,0.000000
5383,-3.906250
5384,-3.906250
5385,0.000000
5386,0.000000
5387,0.000000
5388,0.000000
5389,0.000000
5390,0.000000
5391,0.000000
5392,-3.906250
5393,-3.906250
5394,0.000000
5395,0.000000
5396,0.000000
5397,0.000000
5398,-3.906250
5399,-3.906250
5400,-3.906250
5401,-3.906250
5402,-3.906250
5403,-3.906250
5404,-3.906250
5405,-3.906250
5406,-3.906250
5407,-3.906250
5408,-3.906250
5409,-3.906250
5410,-3.906250
5411,-3.906250
5412,-3.906250
5413,-3.906250
5414,-3.906250
5415,-3.906250
5416,-3.906250
5417,-3.906250
5418,-3.906250
5419,-3.906250
5420,-3.906250
5421,-3.906250
5422,-3.906250
5423,-3.906250
5424,-3.906250
5425,-3.906250
5426,-3.906250
5427,-3.906250
5428,-3.906250
5429,-3.906250
5430,-3.906250
5431,-3.906250
5432,-3.906250
5433,-3.906250
5434,-3.906250
5435,-7.812500
5436,-3.906250
5437,-3.906250
5438,-7.812500
5439,-3.906250
5440,-3.906250
5441,-7.812500
5442,-7.812500
5443,-7.812500
5444,-7.812500
5445,-7.812500
5446,-7.812500
5447,-7.812500
5448,-7.812500
5449,-7.812500
5450,-7.812500
5451,-7.812500
5452,-7.812500
5453,-7.812500
5454,-7.812500
5455,-7.812500
5456,-7.812500
5457,-7.812500
5458,-7.812500
5459,-7.812500
5460,-7.812500
5461,-7.812500
5462,-7.812500
5463,-7.812500
5464,-7.812500
5465,-7.812500
5466,-7.812500
5467,-7.812500
5468,-7.812500
5469,-7.812500
5470,-7.812500
5471,-7.812500
5472,-7.812500
5473,-7.812500
5474,-7.812500
5475,-11.718750
5476,-11.718750
5477,-11.718750
5478,-11.718750
5479,-11.718750
5480,-7.812500
5481,-7.812500
5482,-11.718750
5483,-11.718750
5484,-11.718750
5485,-11.718750
5486,-11.718750
5487,-11.718750
5488,-11.718750
5489,-11.718750
5490,-11.718750
5491,-11.718750
5492,-11.718750
5493,-11.718750
5494,-11.718750
5495,-11.718750
5496,-11.718750
5497,-11.718750
5498,-11.718750
5499,-11.718750
5500,-11.718750
5501,-11.718750
5502,-11.718750
5503,-11.718750
5504,-11.718750
5505,-11.718750
5506,-11.718750
5507,-11.718750
5508,-11.718750
5509,-11.718750
5510,-11.718750
5511,-11.718750
5512,-11.718750
5513,-11.718750
5514,-11.718750
5515,-11.718750
5516,-11.718750
5517,-11.718750
5518,-11.718750
5519,-15.625000
5520,-15.625000
5521,-11.718750
5522,-11.718750
5523,-11.718750
5524,-11.718750
5525,-15.625000
5526,-15.625000
5527,-15.625000
5528,-15.625000
5529,-15.625000
5530,-15.625000
5531,-15.625000
5532,-15.625000
5533,-15.625000
5534,-15.625000
5535,-15.625000
5536,-15.625000
5537,-15.625000
5538,-15.625000
5539,-15.625000
5540,-15.625000
5541,-15.625000
5542,-15.625000
5543,-15.625000
5544,-15.625000
5545,-15.625000
5546,-15.625000
5547,-15.625000
5548,-15.625000
5549,-15.625000
5550,-15.625000
5551,-15.625000
5552,-15.625000
5553,-15.625000
5554,-15.625000
5555,-15.625000
5556,-15.625000
5557,-15.625000
5558,-15.625000
5559,-15.625000
5560,-15.625000
5561,-15.625000
5562,-15.625000
5563,-15.625000
5564,-15.625000
5565,-19.531250
5566,-19.531250
5567,-19.531250
5568,-19.531250
5569,-19.531250
5570,-19.531250
5571,-19.531250
5572,-19.531250
5573,-19.531250
5574,-19.531250
5575,-19.531250
5576,-19.531250
5577,-19.531250
5578,-19.531250
5579,-19.531250
5580,-19.531250
5581,-19.531250
5582,-19.531250
5583,-19.531250
5584,-19.531250
5585,-19.531250
5586,-19.531250
5587,-19.531250
5588,-19.531250
5589,-19.531250
5590,-19.531250
5591,-19.531250
5592,-19.531250
5593,-19.531250
5594,-19.531250
5595,-19.531250
5596,-19.531250
5597,-19.531250
5598,-19.531250
5599,-19.531250
5600,-23.437500
5601,-19.531250
5602,-19.531250
5603,-19.531250
5604,-19.531250
5605,-23.437500
5606,-23.437500
5607,-23.437500
5608,-19.531250
5609,-23.437500
5610,-23.437500
5611,-19.531250
5612,-23.437500
5613,-23.437500
5614,-23.437500
5615,-23.437500
5616,-23.437500
5617,-23.437500
5618,-23.437500
5619,-23.437500
5620,-23.437500
5621,-23.437500
5622,-19.531250
5623,-23.437500
5624,-23.437500
5625,-23.437500
5626,-23.437500
5627,-23.437500
5628,-23.437500
5629,-23.437500
5630,-23.437500
5631,-23.437500
5632,-23.437500
5633,-23.437500
5634,-23.437500
5635,-23.437500
5636,-23.437500
5637,-23.437500
5638,-23.437500
5639,-23.437500
5640,-23.437500
5641,-23.437500
5642,-23.437500
5643,-23.437500
5644,-23.437500
5645,-23.437500
5646,-23.437500
5647,-23.437500
5648,-23.437500
5649,-23.437500
5650,-23.437500
5651,-23.437500
5652,-23.437500
5653,-23.437500
5654,-23.437500
5655,-23.437500
5656,-23.437500
5657,-23.437500
5658,-23.437500
5659,-23.437500
5660,-23.437500
5661,-23.437500
5662,-23.437500
5663,-23.437500
5664,-23.437500
5665,-23.437500
5666,-23.437500
5667,-23.437500
5668,-23.437500
5669,-23.437500
5670,-23.437500
5671,-23.437500
5672,-23.437500
5673,-27.343750
5674,-23.437500
5675,-23.437500
5676,-23.437500
5677,-23.437500
5678,-23.437500
5679,-23.437500
5680,-23.437500
5681,-27.343750
5682,-23.437500
5683,-23.437500
5684,-23.437500
5685,-23.437500
5686,-23.437500
5687,-23.437500
5688,-23.437500
5689,-27.343750
5690,-27.343750
5691,-23.437500
5692,-23.437500
5693,-23.437500
5694,-27.343750
5695,-27.343750
5696,-27.343750
5697,-23.437500
5698,-27.343750
5699,-27.343750
5700,-27.343750
5701,-27.343750
5702,-27.343750
5703,-27.343750
5704,-23.437500
5705,-27.343750
5706,-27.343750
5707,-27.343750
5708,-27.343750
5709,-27.343750
5710,-27.343750
5711,-27.343750
5712,-27.343750
5713,-23.437500
5714,-27.343750
5715,-27.343750
5716,-27.343750
5717,-27.343750
5718,-27.343750
5719,-27.343750
5720,-23.437500
5721,-23.437500
5722,-27.343750
5723,-27.343750
5724,-27.343750
5725,-27.343750
5726,-27.343750
5727,-27.343750
5728,-23.437500
5729,-23.437500
5730,-27.343750
5731,-27.343750
5732,-27.343750
5733,-27.343750
5734,-27.343750
5735,-27.343750
5736,-27.343750
5737,-27.343750
5738,-27.343750
5739,-27.343750
5740,-27.343750
5741,-27.343750
5742,-27.343750
5743,-27.343750
5744,-27.343750
5745,-27.343750
5746,-27.343750
5747,-27.343750
5748,-27.343750
5749,-27.343750
5750,-27.343750
5751,-27.343750
5752,-27.343750
5753,-27.343750
5754,-27.343750
5755,-27.343750
5756,-27.343750
5757,-27.343750
5758,-27.343750
5759,-27.343750
5760,-27.343750
5761,-27.343750
5762,-23.437500
5763,-27.343750
5764,-27.343750
5765,-27.343750
5766,-27.343750
5767,-27.343750
5768,-23.437500
5769,-23.437500
5770,-23.437500
5771,-23.437500
5772,-23.437500
5773,-23.437500
5774,-27.343750
5775,-27.343750
5776,-23.437500
5777,-23.437500
5778,-23.437500
5779,-23.437500
5780,-27.343750
5781,-27.343750
5782,-23.437500
5783,-23.437500
5784,-23.437500
5785,-23.437500
5786,-23.437500
5787,-23.437500
5788,-27.343750
5789,-23.437500
5790,-23.437500
5791,-23.437500
5792,-23.437500
5793,-23.437500
5794,-23.437500
5795,-23.437500
5796,-27.343750
5797,-23.437500
5798,-27.343750
5799,-23.437500
5800,-23.437500
5801,-23.437500
5802,-23.437500
5803,-23.437500
5804,-23.437500
5805,-23.437500
5806,-23.437500
5807,-23.437500
5808,-23.437500
5809,-23.437500
5810,-23.437500
5811,-23.437500
5812,-23.437500
5813,-23.437500
5814,-23.437500
5815,-23.437500
5816,-23.437500
5817,-23.437500
5818,-23.437500
5819,-23.437500
5820,-23.437500
5821,-23.437500
5822,-23.437500
5823,-23.437500
5824,-23.437500
5825,-23.437500
5826,-23.437500
5827,-23.437500
5828,-23.437500
5829,-23.437500
5830,-23.437500
5831,-23.437500
5832,-23.437500
5833,-23.437500
5834,-23.437500
5835,-23.437500
5836,-23.437500
5837,-23.437500
5838,-23.437500
5839,-23.437500
5840,-23.437500
5841,-23.437500
5842,-23.437500
5843,-23.437500
5844,-23.437500
5845,-23.437500
5846,-23.437500
5847,-23.437500
5848,-23.437500
5849,-23.437500
5850,-23.437500
5851,-23.437500
5852,-23.437500
5853,-23.437500
5854,-23.437500
5855,-23.437500
5856,-23.437500
5857,-23.437500
5858,-23.437500
5859,-23.437500
5860,-23.437500
5861,-23.437500
5862,-23.437500
5863,-23.437500
5864,-23.437500
5865,-23.437500
5866,-23.437500
5867,-23.437500
5868,-23.437500
5869,-23.437500
5870,-23.437500
5871,-23.437500
5872,-23.437500
5873,-19.531250
5874,-23.437500
5875,-19.531250
5876,-23.437500
5877,-19.531250
5878,-19.531250
5879,-19.531250
5880,-19.531250
5881,-19.531250
5882,-23.437500
5883,-19.531250
5884,-23.437500
5885,-19.531250
5886,-19.531250
5887,-19.531250
5888,-19.531250
5889,-19.531250
5890,-19.531250
5891,-19.531250
5892,-19.531250
5893,-19.531250
5894,-19.531250
5895,-19.531250
5896,-19.531250
5897,-19.531250
5898,-19.531250
5899,-19.531250
5900,-19.531250
5901,-19.531250
5902,-19.531250
5903,-19.531250
5904,-19.531250
5905,-19.531250
5906,-19.531250
5907,-19.531250
5908,-19.531250
5909,-19.531250
5910,-19.531250
5911,-19.531250
5912,-19.531250
5913,-19.531250
5914,-19.531250
5915,-19.531250
5916,-19.531250
5917,-15.625000
5918,-19.531250
5919,-15.625000
5920,-19.531250
5921,-19.531250
5922,-19.531250
5923,-19.531250
5924,-19.531250
5925,-19.531250
5926,-19.531250
5927,-15.625000
5928,-19.531250
5929,-19.531250
5930,-19.531250
5931,-15.625000
5932,-15.625000
5933,-15.625000
5934,-19.531250
5935,-15.625000
5936,-15.625000
5937,-19.531250
5938,-15.625000
5939,-15.625000
5940,-15.625000
5941,-15.625000
5942,-15.625000
5943,-15.625000
5944,-15.625000
5945,-15.625000
5946,-15.625000
5947,-15.625000
5948,-15.625000
5949,-15.625000
5950,-15.625000
5951,-15.625000
5952,-15.625000
5953,-15.625000
5954,-15.625000
5955,-15.625000
5956,-15.625000
5957,-15.625000
5958,-15.625000
5959,-15.625000
5960,-15.625000
5961,-15.625000
5962,-15.625000
5963,-15.625000
5964,-15.625000
5965,-15.625000
5966,-15.625000
5967,-15.625000
5968,-15.625000
5969,-15.625000
5970,-15.625000
5971,-15.625000
5972,-15.625000
5973,-11.718750
5974,-15.625000
5975,-15.625000
5976,-15.625000
5977,-11.718750
5978,-11.718750
5979,-11.718750
5980,-15.625000
5981,-15.625000
5982,-15.625000
5983,-11.718750
5984,-11.718750
5985,-11.718750
5986,-11.718750
5987,-11.718750
5988,-11.718750
5989,-11.718750
5990,-11.718750
5991,-11.718750
5992,-11.718750
5993,-11.718750
5994,-11.718750
5995,-11.718750
5996,-11.718750
5997,-11.718750
5998,-11.718750
5999,-11.718750
6000,-11.718750
6001,-11.718750
6002,-11.718750
6003,-11.718750
6004,-11.718750
6005,-11.718750
6006,-11.718750
6007,-11.718750
6008,-11.718750
6009,-11.718750
6010,-11.718750
6011,-11.718750
6012,-11.718750
6013,-11.718750
6014,-11.718750
6015,-11.718750
6016,-11.718750
6017,-11.718750
6018,-11.718750
6019,-11.718750
6020,-11.718750
6021,-11.718750
6022,-11.718750
6023,-7.812500
6024,-7.812500
6025,-7.812500
6026,-11.718750
6027,-7.812500
6028,-7.812500
6029,-7.812500
6030,-7.812500
6031,-7.812500
6032,-7.812500
6033,-7.812500
6034,-7.812500
6035,-7.812500
6036,-7.812500
6037,-7.812500
6038,-7.812500
6039,-7.812500
6040,-7.812500
6041,-7.812500
6042,-7.812500
6043,-7.812500
6044,-7.812500
6045,-7.812500
6046,-7.812500
6047,-7.812500
6048,-7.812500
6049,-7.812500
6050,-7.812500
6051,-7.812500
6052,-7.812500
6053,-7.812500
6054,-7.812500
6055,-7.812500
6056,-7.812500
6057,-7.812500
6058,-7.812500
6059,-7.812500
6060,-7.812500
6061,-7.812500
6062,-7.812500
6063,-3.906250
6064,-7.812500
6065,-7.812500
6066,-7.812500
6067,-7.812500
6068,-7.812500
6069,-3.906250
6070,-7.812500
6071,-7.812500
6072,-3.906250
6073,-3.906250
6074,-3.906250
6075,-3.906250
6076,-3.906250
6077,-3.906250
6078,-3.906250
6079,-3.906250
6080,-3.906250
6081,-3.906250
6082,-3.906250
6083,-3.906250
6084,-3.906250
6085,-3.906250
6086,-3.906250
6087,-3.906250
6088,-3.906250
6089,-3.906250
6090,-3.906250
6091,-3.906250
6092,-3.906250
6093,-3.906250
6094,-3.906250
6095,-3.906250
6096,-3.906250
6097,-3.906250
6098,-3.906250
6099,-3.906250
6100,-3.906250
6101,-3.906250
6102,-3.906250
6103,-3.906250
6104,-3.906250
6105,-3.906250
6106,-3.906250
6107,-3.906250
6108,-3.906250
6109,-3.906250
6110,-3.906250
6111,-3.906250
6112,-3.906250
6113,-3.906250
6114,-3.906250
6115,-3.906250
6116,-3.906250
6117,-3.906250
6118,-3.906250
6119,-3.906250
6120,-3.906250
6121,-3.906250
6122,-3.906250
6123,0.000000
6124,-3.906250
6125,-3.906250
6126,0.000000
6127,0.000000
6128,0.000000
6129,0.000000
6130,-3.906250
6131,-3.906250
6132,0.000000
6133,0.000000
6134,0.000000
6135,0.000000
6136,0.000000
6137,0.000000
6138,0.000000
6139,0.000000
6140,0.000000
6141,0.000000
6142,0.000000
6143,0.000000
6144,0.000000
6145,0.000000
6146,0.000000
6147,0.000000
6148,0.000000
6149,0.000000
6150,0.000000
6151,0.000000
6152,0.000000
6153,0.000000
6154,0.000000
6155,0.000000
6156,0.000000
6157,0.000000
6158,0.000000
6159,0.000000
6160,0.000000
6161,0.000000
6162,0.000000
6163,0.000000
6164,0.000000
6165,0.000000
6166,0.000000
6167,0.000000
6168,0.000000
6169,0.000000
6170,0.000000
6171,0.000000
6172,0.000000
6173,0.000000
6174,0.000000
6175,0.000000
6176,0.000000
6177,0.000000
6178,0.000000
6179,0.000000
6180,0.000000
6181,0.000000
6182,0.000000
6183,0.000000
6184,3.906250
6185,0.000000
6186,0.000000
6187,0.000000
6188,0.000000
6189,0.000000
6190,0.000000
6191,0.000000
6192,0.000000
6193,0.000000
6194,0.000000
6195,0.000000
6196,0.000000
6197,3.906250
6198,0.000000
6199,3.906250
6200,0.000000
6201,0.000000
6202,0.000000
6203,0.000000
6204,0.000000
6205,3.906250
6206,3.906250
6207,3.906250
6208,0.000000
6209,0.000000
6210,0.000000
6211,3.906250
6212,3.906250
6213,3.906250
6214,0.000000
6215,3.906250
6216,0.000000
6217,3.906250
6218,3.906250
6219,3.906250
6220,3.906250
6221,3.906250
6222,0.000000
6223,0.000000
6224,3.906250
6225,3.906250
6226,3.906250
6227,3.906250
6228,0.000000
6229,0.000000
6230,0.000000
6231,3.906250
6232,3.906250
6233,3.906250
6234,0.000000
6235,3.906250
6236,0.000000
6237,3.906250
6238,3.906250
6239,3.906250
6240,3.906250
6241,3.906250
6242,3.906250
6243,0.000000
6244,3.906250
6245,3.906250
6246,3.906250
6247,3.906250
6248,3.906250
6249,3.906250
6250,3.906250
6251,3.906250
6252,3.906250
6253,3.906250
6254,0.000000
6255,3.906250
6256,3.906250
6257,3.906250
6258,0.000000
6259,3.906250
6260,3.906250
6261,3.906250
6262,3.906250
6263,3.906250
6264,3.906250
6265,3.906250
6266,3.906250
6267,0.000000
6268,0.000000
6269,3.906250
6270,3.906250
6271,3.906250
6272,3.906250
6273,3.906250
6274,3.906250
6275,3.906250
6276,0.000000
6277,3.906250
6278,3.906250
6279,3.906250
6280,3.906250
6281,3.906250
6282,3.906250
6283,3.906250
6284,3.906250
6285,3.906250
6286,3.906250
6287,3.906250
6288,3.906250
6289,3.906250
6290,3.906250
6291,3.906250
6292,3.906250
6293,3.906250
6294,3.906250
6295,3.906250
6296,3.906250
6297,3.906250
6298,0.000000
6299,3.906250
6300,3.906250
6301,0.000000
6302,3.906250
6303,3.906250
6304,0.000000
6305,0.000000
6306,0.000000
6307,3.906250
6308,0.000000
6309,0.000000
6310,3.906250
6311,0.000000
6312,3.906250
6313,3.906250
6314,0.000000
6315,0.000000
6316,0.000000
6317,0.000000
6318,0.000000
6319,3.906250
6320,3.906250
6321,0.000000
6322,0.000000
6323,0.000000
6324,0.000000
6325,0.000000
6326,0.000000
6327,0.000000
6328,0.000000
6329,0.000000
6330,0.000000
6331,0.000000
6332,0.000000
6333,0.000000
6334,0.000000
6335,0.000000
6336,0.000000
6337,0.000000
6338,0.000000
6339,0.000000
6340,0.000000
6341,0.000000
6342,0.000000
6343,0.000000
6344,0.000000
6345,0.000000
6346,0.000000
6347,0.000000
6348,0.000000
6349,0.000000
6350,0.000000
6351,0.000000
6352,0.000000
6353,0.000000
6354,0.000000
6355,0.000000
6356,0.000000
6357,0.000000
6358,0.000000
6359,0.000000
6360,0.000000
6361,0.000000
6362,0.000000
6363,0.000000
6364,0.000000
6365,0.000000
6366,0.000000
6367,0.000000
6368,0.000000
6369,0.000000
6370,0.000000
6371,0.000000
6372,0.000000
6373,0.000000
6374,0.000000
6375,0.000000
6376,0.000000
6377,0.000000
6378,0.000000
6379,0.000000
6380,0.000000
6381,-3.906250
6382,-3.906250
6383,-3.906250
6384,-3.906250
6385,-3.906250
6386,-3.906250
6387,-3.906250
6388,-3.906250
6389,-3.906250
6390,-3.906250
6391,-3.906250
6392,-3.906250
6393,-3.906250
6394,-3.906250
6395,-3.906250
6396,-3.906250
6397,-3.906250
6398,-3.906250
6399,-3.906250
6400,-3.906250
6401,-3.906250
6402,-3.906250
6403,-3.906250
6404,-3.906250
6405,-3.906250
6406,-3.906250
6407,-3.906250
6408,-3.906250
6409,-3.906250
6410,-3.906250
6411,-3.906250
6412,-3.906250
6413,-3.906250
6414,-3.906250
6415,-3.906250
6416,-3.906250
6417,-3.906250
6418,-3.906250
6419,-3.906250
6420,-3.906250
6421,-3.906250
6422,-3.906250
6423,-3.906250
6424,-3.906250
6425,-3.906250
6426,-3.906250
6427,-3.906250
6428,-7.812500
6429,-7.812500
6430,-7.812500
6431,-3.906250
6432,-3.906250
6433,-3.906250
6434,-3.906250
6435,-7.812500
6436,-7.812500
6437,-7.812500
6438,-7.812500
6439,-7.812500
6440,-7.812500
6441,-7.812500
6442,-7.812500
6443,-7.812500
6444,-7.812500
6445,-7.812500
6446,-7.812500
6447,-7.812500
6448,-7.812500
6449,-7.812500
6450,-7.812500
6451,-7.812500
6452,-7.812500
6453,-3.906250
6454,-7.812500
6455,-7.812500
6456,-7.812500
6457,-7.812500
6458,-7.812500
6459,-7.812500
6460,-7.812500
6461,-7.812500
6462,-7.812500
6463,-7.812500
6464,-7.812500
6465,-7.812500
6466,-7.812500
6467,-7.812500
6468,-7.812500
6469,-7.812500
6470,-7.812500
6471,-7.812500
6472,-7.812500
6473,-7.812500
6474,-11.718750
6475,-11.718750
6476,-11.718750
6477,-11.718750
6478,-11.718750
6479,-11.718750
6480,-11.718750
6481,-11.718750
6482,-11.718750
6483,-11.718750
6484,-11.718750
6485,-11.718750
6486,-11.718750
6487,-11.718750
6488,-11.718750
6489,-11.718750
6490,-11.718750
6491,-11.718750
6492,-11.718750
6493,-11.718750
6494,-11.718750
6495,-11.718750
6496,-11.718750
6497,-11.718750
6498,-11.718750
6499,-11.718750
6500,-11.718750
6501,-11.718750
6502,-11.718750
6503,-11.718750
6504,-11.718750
6505,-11.718750
6506,-11.718750
6507,-11.718750
6508,-11.718750
6509,-11.718750
6510,-15.625000
6511,-11.718750
6512,-15.625000
6513,-15.625000
6514,-11.718750
6515,-11.718750
6516,-15.625000
6517,-15.625000
6518,-15.625000
6519,-15.625000
6520,-15.625000
6521,-19.531250
6522,-15.625000
6523,-15.625000
6524,-15.625000
6525,-15.625000
6526,-15.625000
6527,-15.625000
6528,-15.625000
6529,-15.625000
6530,-15.625000
6531,-15.625000
6532,-15.625000
6533,-15.625000
6534,-15.625000
6535,-15.625000
6536,-15.625000
6537,-15.625000
6538,-15.625000
6539,-15.625000
6540,-15.625000
6541,-15.625000
6542,-15.625000
6543,-15.625000
6544,-15.625000
6545,-15.625000
6546,-15.625000
6547,-15.625000
6548,-15.625000
6549,-15.625000
6550,-15.625000
6551,-15.625000
6552,-19.531250
6553,-15.625000
6554,-15.625000
6555,-15.625000
6556,-15.625000
6557,-15.625000
6558,-15.625000
6559,-19.531250
6560,-19.531250
6561,-19.531250
6562,-19.531250
6563,-15.625000
6564,-19.531250
6565,-19.531250
6566,-19.531250
6567,-19.531250
6568,-19.531250
6569,-19.531250
6570,-19.531250
6571,-19.531250
6572,-19.531250
6573,-19.531250
6574,-19.531250
6575,-19.531250
6576,-19.531250
6577,-19.531250
6578,-19.531250
6579,-19.531250
6580,-19.531250
6581,-19.531250
6582,-19.531250
6583,-19.531250
6584,-19.531250
6585,-19.531250
6586,-19.531250
6587,-19.531250
6588,-19.531250
6589,-19.531250
6590,-19.531250
6591,-19.531250
6592,-19.531250
6593,-19.531250
6594,-19.531250
6595,-19.531250
6596,-19.531250
6597,-19.531250
6598,-23.437500
6599,-23.437500
6600,-19.531250
6601,-19.531250
6602,-19.531250
6603,-19.531250
6604,-23.437500
6605,-23.437500
6606,-23.437500
6607,-19.531250
6608,-23.437500
6609,-23.437500
6610,-23.437500
6611,-23.437500
6612,-23.437500
6613,-23.437500
6614,-23.437500
6615,-23.437500
6616,-23.437500
6617,-23.437500
6618,-23.437500
6619,-23.437500
6620,-23.437500
6621,-23.437500
6622,-23.437500
6623,-23.437500
6624,-23.437500
6625,-23.437500
6626,-23.437500
6627,-23.437500
6628,-23.437500
6629,-23.437500
6630,-23.437500
6631,-23.437500
6632,-23.437500
6633,-23.437500
6634,-23.437500
6635,-23.437500
6636,-23.437500
6637,-23.437500
6638,-23.437500
6639,-23.437500
6640,-23.437500
6641,-23.437500
6642,-23.437500
6643,-23.437500
6644,-23.437500
6645,-23.437500
6646,-23.437500
6647,-23.437500
6648,-23.437500
6649,-23.437500
6650,-23.437500
6651,-23.437500
6652,-23.437500
6653,-23.437500
6654,-23.437500
6655,-23.437500
6656,-23.437500
6657,-23.437500
6658,-23.437500
6659,-23.437500
6660,-23.437500
6661,-23.437500
6662,-23.437500
6663,-23.437500
6664,-23.437500
6665,-23.437500
6666,-23.437500
6667,-23.437500
6668,-23.437500
6669,-23.437500
6670,-27.343750
6671,-23.437500
6672,-23.437500
6673,-23.437500
6674,-23.437500
6675,-23.437500
6676,-27.343750
6677,-23.437500
6678,-27.343750
6679,-27.343750
6680,-23.437500
6681,-23.437500
6682,-23.437500
6683,-27.343750
6684,-27.343750
6685,-23.437500
6686,-23.437500
6687,-23.437500
6688,-23.437500
6689,-23.437500
6690,-23.437500
6691,-27.343750
6692,-23.437500
6693,-23.437500
6694,-27.343750
6695,-27.343750
6696,-23.437500
6697,-23.437500
6698,-23.437500
6699,-27.343750
6700,-23.437500
6701,-27.343750
6702,-23.437500
6703,-27.343750
6704,-27.343750
6705,-23.437500
6706,-27.343750
6707,-27.343750
6708,-23.437500
6709,-27.343750
6710,-27.343750
6711,-27.343750
6712,-27.343750
6713,-27.343750
6714,-27.343750
6715,-27.343750
6716,-27.343750
6717,-27.343750
6718,-27.343750
6719,-27.343750
6720,-27.343750
6721,-27.343750
6722,-27.343750
6723,-23.437500
6724,-27.343750
6725,-27.343750
6726,-27.343750
6727,-27.343750
6728,-27.343750
6729,-27.343750
6730,-27.343750
6731,-23.437500
6732,-23.437500
6733,-27.343750
6734,-27.343750
6735,-27.343750
6736,-27.343750
6737,-27.343750
6738,-27.343750
6739,-27.343750
6740,-27.343750
6741,-27.343750
6742,-27.343750
6743,-27.343750
6744,-27.343750
6745,-27.343750
6746,-27.343750
6747,-27.343750
6748,-27.343750
6749,-27.343750
6750,-27.343750
6751,-27.343750
6752,-27.343750
6753,-27.343750
6754,-27.343750
6755,-27.343750
6756,-27.343750
6757,-27.343750
6758,-27.343750
6759,-27.343750
6760,-27.343750
6761,-27.343750
6762,-27.343750
6763,-27.343750
6764,-27.343750
6765,-23.437500
6766,-23.437500
6767,-27.343750
6768,-27.343750
6769,-27.343750
6770,-27.343750
6771,-23.437500
6772,-27.343750
6773,-27.343750
6774,-27.343750
6775,-23.437500
6776,-27.343750
6777,-27.343750
6778,-23.437500
6779,-23.437500
6780,-23.437500
6781,-23.437500
6782,-23.437500
6783,-23.437500
6784,-23.437500
6785,-23.437500
6786,-23.437500
6787,-23.437500
6788,-27.343750
6789,-27.343750
6790,-23.437500
6791,-23.437500
6792,-23.437500
6793,-23.437500
6794,-23.437500
6795,-23.437500
6796,-23.437500
6797,-23.437500
6798,-23.437500
6799,-23.437500
6800,-23.437500
6801,-23.437500
6802,-23.437500
6803,-23.437500
6804,-23.437500
6805,-23.437500
6806,-23.437500
6807,-23.437500
6808,-23.437500
6809,-23.437500
6810,-23.437500
6811,-23.437500
6812,-23.437500
6813,-23.437500
6814,-23.437500
6815,-23.437500
6816,-23.437500
6817,-23.437500
6818,-23.437500
6819,-23.437500
6820,-23.437500
6821,-23.437500
6822,-23.437500
6823,-23.437500
6824,-23.437500
6825,-23.437500
6826,-23.437500
6827,-23.437500
6828,-23.437500
6829,-23.437500
6830,-23.437500
6831,-23.437500
6832,-23.437500
6833,-23.437500
6834,-23.437500
6835,-23.437500
6836,-23.437500
6837,-23.437500
6838,-23.437500
6839,-23.437500
6840,-23.437500
6841,-23.437500
6842,-23.437500
6843,-23.437500
6844,-19.531250
6845,-23.437500
6846,-23.437500
6847,-23.437500
6848,-19.531250
6849,-23.437500
6850,-23.437500
6851,-23.437500
6852,-23.437500
6853,-23.437500
6854,-23.437500
6855,-23.437500
6856,-19.531250
6857,-23.437500
6858,-23.437500
6859,-23.437500
6860,-23.437500
6861,-19.531250
6862,-19.531250
6863,-19.531250
6864,-23.437500
6865,-23.437500
6866,-23.437500
6867,-19.531250
6868,-19.531250
6869,-19.531250
6870,-19.531250
6871,-19.531250
6872,-19.531250
6873,-19.531250
6874,-19.531250
6875,-19.531250
6876,-19.531250
6877,-19.531250
6878,-19.531250
6879,-19.531250
6880,-19.531250
6881,-19.531250
6882,-19.531250
6883,-19.531250
6884,-19.531250
6885,-19.531250
6886,-19.531250
6887,-19.531250
6888,-19.531250
6889,-19.531250
6890,-19.531250
6891,-19.531250
6892,-19.531250
6893,-19.531250
6894,-19.531250
6895,-19.531250
6896,-19.531250
6897,-19.531250
6898,-19.531250
6899,-19.531250
6900,-19.531250
6901,-19.531250
6902,-19.531250
6903,-19.531250
6904,-19.531250
6905,-19.531250
6906,-19.531250
6907,-19.531250
6908,-19.531250
6909,-19.531250
6910,-19.531250
6911,-19.531250
6912,-19.531250
6913,-19.531250
6914,-19.531250
6915,-15.625000
6916,-19.531250
6917,-19.531250
6918,-19.531250
6919,-15.625000
6920,-15.625000
6921,-15.625000
6922,-15.625000
6923,-15.625000
6924,-15.625000
6925,-15.625000
6926,-15.625000
6927,-15.625000
6928,-15.625000
6929,-15.625000
6930,-15.625000
6931,-15.625000
6932,-15.625000
6933,-15.625000
6934,-15.625000
6935,-15.625000
6936,-15.625000
6937,-15.625000
6938,-15.625000
6939,-15.625000
6940,-15.625000
6941,-15.625000
6942,-15.625000
6943,-15.625000
6944,-15.625000
6945,-15.625000
6946,-15.625000
6947,-15.625000
6948,-15.625000
6949,-15.625000
6950,-15.625000
6951,-15.625000
6952,-15.625000
6953,-15.625000
6954,-15.625000
6955,-15.625000
6956,-15.625000
6957,-15.625000
6958,-15.625000
6959,-15.625000
6960,-15.625000
6961,-11.718750
6962,-11.718750
6963,-11.718750
6964,-15.625000
6965,-15.625000
6966,-11.718750
6967,-11.718750
6968,-11.718750
6969,-11.718750
6970,-11.718750
6971,-11.718750
6972,-11.718750
6973,-11.718750
6974,-11.718750
6975,-11.718750
6976,-11.718750
6977,-11.718750
6978,-11.718750
6979,-11.718750
6980,-11.718750
6981,-11.718750
6982,-11.718750
6983,-11.718750
6984,-11.718750
6985,-11.718750
6986,-11.718750
6987,-11.718750
6988,-11.718750
6989,-11.718750
6990,-11.718750
6991,-11.718750
6992,-11.718750
6993,-11.718750
6994,-11.718750
6995,-11.718750
6996,-11.718750
6997,-11.718750
6998,-11.718750
6999,-11.718750
7000,-11.718750
7001,-11.718750
7002,-11.718750
7003,-11.718750
7004,-11.718750
7005,-11.718750
7006,-11.718750
7007,-7.812500
7008,-11.718750
7009,-11.718750
7010,-11.718750
7011,-11.718750
7012,-11.718750
7013,-11.718750
7014,-7.812500
7015,-7.812500
7016,-11.718750
7017,-11.718750
7018,-11.718750
7019,-7.812500
7020,-7.812500
7021,-7.812500
7022,-7.812500
7023,-7.812500
7024,-7.812500
7025,-7.812500
7026,-7.812500
7027,-7.812500
7028,-7.812500
7029,-7.812500
7030,-7.812500
7031,-7.812500
7032,-7.812500
7033,-7.812500
7034,-7.812500
7035,-7.812500
7036,-7.812500
7037,-7.812500
7038,-7.812500
7039,-7.812500
7040,-7.812500
7041,-7.812500
7042,-7.812500
7043,-7.812500
7044,-7.812500
7045,-7.812500
7046,-7.812500
7047,-7.812500
7048,-7.812500
7049,-7.812500
7050,-7.812500
7051,-7.812500
7052,-7.812500
7053,-7.812500
7054,-7.812500
7055,-7.812500
7056,-7.812500
7057,-7.812500
7058,-7.812500
7059,-3.906250
7060,-7.812500
7061,-3.906250
7062,-3.906250
7063,-3.906250
7064,-3.906250
7065,-3.906250
7066,-3.906250
7067,-3.906250
7068,-3.906250
7069,-3.906250
7070,-3.906250
7071,-3.906250
7072,-3.906250
7073,-3.906250
7074,-3.906250
7075,-3.906250
7076,-3.906250
7077,-3.906250
7078,-3.906250
7079,-3.906250
7080,-3.906250
7081,-3.906250
7082,-3.906250
7083,-3.906250
7084,-3.906250
7085,-3.906250
7086,-3.906250
7087,-3.906250
7088,-3.906250
7089,-3.906250
7090,-3.906250
7091,-3.906250
7092,-3.906250
7093,-3.906250
7094,-3.906250
7095,-3.906250
7096,-3.906250
7097,-3.906250
7098,-3.906250
7099,-3.906250
7100,-3.906250
7101,-3.906250
7102,-3.906250
7103,-3.906250
7104,-3.906250
7105,-3.906250
7106,-3.906250
7107,-3.906250
7108,0.000000
7109,-3.906250
7110,-3.906250
7111,-3.906250
7112,-3.906250
7113,0.000000
7114,-3.906250
7115,-3.906250
7116,0.000000
7117,0.000000
7118,-3.906250
7119,0.000000
7120,0.000000
7121,0.000000
7122,-3.906250
7123,0.000000
7124,0.000000
7125,0.000000
7126,0.000000
7127,0.000000
7128,0.000000
7129,0.000000
7130,0.000000
7131,0.000000
7132,0.000000
7133,0.000000
7134,0.000000
7135,0.000000
7136,0.000000
7137,0.000000
7138,0.000000
7139,0.000000
7140,0.000000
7141,0.000000
7142,0.000000
7143,0.000000
7144,0.000000
7145,0.000000
7146,0.000000
7147,0.000000
7148,0.000000
7149,0.000000
7150,0.000000
7151,0.000000
7152,0.000000
7153,0.000000
7154,0.000000
7155,0.000000
7156,0.000000
7157,0.000000
7158,0.000000
7159,0.000000
7160,0.000000
7161,0.000000
7162,0.000000
7163,0.000000
7164,0.000000
7165,0.000000
7166,0.000000
7167,0.000000
7168,0.000000
7169,0.000000
7170,0.000000
7171,0.000000
7172,0.000000
7173,3.906250
7174,0.000000
7175,3.906250
7176,3.906250
7177,0.000000
7178,0.000000
7179,3.906250
7180,0.000000
7181,0.000000
7182,0.000000
7183,0.000000
7184,3.906250
7185,3.906250
7186,3.906250
7187,3.906250
7188,0.000000
7189,3.906250
7190,3.906250
7191,3.906250
7192,3.906250
7193,3.906250
7194,0.000000
7195,3.906250
7196,3.906250
7197,3.906250
7198,3.906250
7199,3.906250
7200,3.906250
7201,3.906250
7202,3.906250
7203,3.906250
7204,3.906250
7205,3.906250
7206,3.906250
7207,3.906250
7208,3.906250
7209,3.906250
7210,3.906250
7211,3.906250
7212,3.906250
7213,3.906250
7214,3.906250
7215,3.906250
7216,3.906250
7217,3.906250
7218,3.906250
7219,3.906250
7220,3.906250
7221,3.906250
7222,3.906250
7223,3.906250
7224,3.906250
7225,3.906250
7226,3.906250
7227,3.906250
7228,3.906250
7229,3.906250
7230,3.906250
7231,3.906250
7232,3.906250
7233,3.906250
7234,3.906250
7235,3.906250
7236,3.906250
7237,3.906250
7238,3.906250
7239,3.906250
7240,3.906250
7241,3.906250
7242,3.906250
7243,3.906250
7244,3.906250
7245,3.906250
7246,3.906250
7247,3.906250
7248,3.906250
7249,3.906250
7250,3.906250
7251,3.906250
7252,3.906250
7253,3.906250
7254,3.906250
7255,3.906250
7256,3.906250
7257,3.906250
7258,3.906250
7259,3.906250
7260,3.906250
7261,3.906250
7262,3.906250
7263,3.906250
7264,3.906250
7265,3.906250
7266,3.906250
7267,3.906250
7268,3.906250
7269,3.906250
7270,3.906250
7271,3.906250
7272,3.906250
7273,3.906250
7274,3.906250
7275,3.906250
7276,3.906250
7277,0.000000
7278,3.906250
7279,3.906250
7280,0.000000
7281,3.906250
7282,3.906250
7283,3.906250
7284,3.906250
7285,3.906250
7286,0.000000
7287,3.906250
7288,0.000000
7289,3.906250
7290,0.000000
7291,3.906250
7292,3.906250
7293,3.906250
7294,3.906250
7295,3.906250
7296,3.906250
7297,3.906250
7298,0.000000
7299,0.000000
7300,0.000000
7301,3.906250
7302,3.906250
7303,3.906250
7304,3.906250
7305,0.000000
7306,3.906250
7307,0.000000
7308,3.906250
7309,3.906250
7310,0.000000
7311,0.000000
7312,0.000000
7313,3.906250
7314,3.906250
7315,3.906250
7316,3.906250
7317,0.000000
7318,0.000000
7319,0.000000
7320,0.000000
7321,0.000000
7322,0.000000
7323,0.000000
7324,0.000000
7325,0.000000
7326,0.000000
7327,0.000000
7328,0.000000
7329,0.000000
7330,0.000000
7331,0.000000
7332,0.000000
7333,0.000000
7334,0.000000
7335,0.000000
7336,0.000000
7337,0.000000
7338,0.000000
7339,0.000000
7340,0.000000
7341,0.000000
7342,0.000000
7343,0.000000
7344,0.000000
7345,0.000000
7346,0.000000
7347,0.000000
7348,0.000000
7349,0.000000
7350,0.000000
7351,0.000000
7352,0.000000
7353,0.000000
7354,0.000000
7355,0.000000
7356,0.000000
7357,0.000000
7358,0.000000
7359,0.000000
7360,0.000000
7361,0.000000
7362,0.000000
7363,0.000000
7364,0.000000
7365,0.000000
7366,0.000000
7367,0.000000
7368,0.000000
7369,0.000000
7370,0.000000
7371,0.000000
7372,-3.906250
7373,0.000000
7374,0.000000
7375,0.000000
7376,-3.906250
7377,0.000000
7378,-3.906250
7379,-3.906250
7380,-3.906250
7381,0.000000
7382,-3.906250
7383,-3.906250
7384,-3.906250
7385,-3.906250
7386,-3.906250
7387,-3.906250
7388,-3.906250
7389,-3.906250
7390,-3.906250
7391,-3.906250
7392,-3.906250
7393,-3.906250
7394,-3.906250
7395,-3.906250
7396,-3.906250
7397,-3.906250
7398,-3.906250
7399,-3.906250
7400,-3.906250
7401,-3.906250
7402,-3.906250
7403,-3.906250
7404,-3.906250
7405,-3.906250
7406,-3.906250
7407,-3.906250
7408,-3.906250
7409,-3.906250
7410,-3.906250
7411,-3.906250
7412,-3.906250
7413,-3.906250
7414,-3.906250
7415,-7.812500
7416,-3.906250
7417,-7.812500
7418,-7.812500
7419,-3.906250
7420,-7.812500
7421,-3.906250
7422,-7.812500
7423,-7.812500
7424,-7.812500
7425,-3.906250
7426,-7.812500
7427,-7.812500
7428,-7.812500
7429,-7.812500
7430,-7.812500
7431,-7.812500
7432,-7.812500
7433,-7.812500
7434,-7.812500
7435,-7.812500
7436,-7.812500
7437,-7.812500
7438,-7.812500
7439,-7.812500
7440,-7.812500
7441,-7.812500
7442,-7.812500
7443,-7.812500
7444,-7.812500
7445,-7.812500
7446,-7.812500
7447,-7.812500
7448,-7.812500
7449,-7.812500
7450,-7.812500
7451,-7.812500
7452,-7.812500
7453,-7.812500
7454,-7.812500
7455,-7.812500
7456,-7.812500
7457,-7.812500
7458,-7.812500
7459,-7.812500
7460,-11.718750
7461,-11.718750
7462,-11.718750
7463,-11.718750
7464,-11.718750
7465,-11.718750
7466,-11.718750
7467,-11.718750
7468,-11.718750
7469,-7.812500
7470,-11.718750
7471,-11.718750
7472,-11.718750
7473,-11.718750
7474,-11.718750
7475,-11.718750
7476,-11.718750
7477,-11.718750
7478,-11.718750
7479,-11.718750
7480,-11.718750
7481,-11.718750
7482,-11.718750
7483,-11.718750
7484,-11.718750
7485,-11.718750
7486,-11.718750
7487,-11.718750
7488,-11.718750
7489,-11.718750
7490,-11.718750
7491,-11.718750
7492,-11.718750
7493,-11.718750
7494,-11.718750
7495,-11.718750
7496,-11.718750
7497,-11.718750
7498,-11.718750
7499,-11.718750
7500,-15.625000
7501,-11.718750
7502,-15.625000
7503,-15.625000
7504,-15.625000
7505,-15.625000
7506,-15.625000
7507,-15.625000
7508,-15.625000
7509,-15.625000
7510,-15.625000
7511,-15.625000
7512,-15.625000
7513,-15.625000
7514,-15.625000
7515,-15.625000
7516,-15.625000
7517,-15.625000
7518,-15.625000
7519,-15.625000
7520,-15.625000
7521,-15.625000
7522,-15.625000
7523,-15.625000
7524,-15.625000
7525,-15.625000
7526,-15.625000
7527,-15.625000
7528,-15.625000
7529,-15.625000
7530,-15.625000
7531,-15.625000
7532,-15.625000
7533,-15.625000
7534,-15.625000
7535,-19.531250
7536,-15.625000
7537,-15.625000
7538,-19.531250
7539,-15.625000
7540,-15.625000
7541,-15.625000
7542,-15.625000
7543,-15.625000
7544,-15.625000
7545,-19.531250
7546,-19.531250
7547,-19.531250
7548,-19.531250
7549,-19.531250
7550,-19.531250
7551,-19.531250
7552,-19.531250
7553,-19.531250
7554,-19.531250
7555,-19.531250
7556,-19.531250
7557,-19.531250
7558,-19.531250
7559,-19.531250
7560,-19.531250
7561,-19.531250
7562,-19.531250
7563,-19.531250
7564,-19.531250
7565,-19.531250
7566,-19.531250
7567,-19.531250
7568,-19.531250
7569,-19.531250
7570,-19.531250
7571,-19.531250
7572,-19.531250
7573,-19.531250
7574,-19.531250
7575,-19.531250
7576,-19.531250
7577,-19.531250
7578,-19.531250
7579,-19.531250
7580,-19.531250
7581,-19.531250
7582,-19.531250
7583,-19.531250
7584,-19.531250
7585,-19.531250
7586,-19.531250
7587,-19.531250
7588,-19.531250
7589,-19.531250
7590,-19.531250
7591,-19.531250
7592,-19.531250
7593,-19.531250
7594,-19.531250
7595,-19.531250
7596,-23.437500
7597,-23.437500
7598,-19.531250
7599,-19.531250
7600,-23.437500
7601,-23.437500
7602,-23.437500
7603,-23.437500
7604,-19.531250
7605,-23.437500
7606,-19.531250
7607,-19.531250
7608,-23.437500
7609,-23.437500
7610,-23.437500
7611,-23.437500
7612,-23.437500
7613,-23.437500
7614,-23.437500
7615,-23.437500
7616,-23.437500
7617,-23.437500
7618,-23.437500
7619,-23.437500
7620,-23.437500
7621,-23.437500
7622,-23.437500
7623,-23.437500
7624,-23.437500
7625,-23.437500
7626,-23.437500
7627,-23.437500
7628,-23.437500
7629,-23.437500
7630,-23.437500
7631,-23.437500
7632,-23.437500
7633,-23.437500
7634,-23.437500
7635,-23.437500
7636,-23.437500
7637,-23.437500
7638,-23.437500
7639,-23.437500
7640,-23.437500
7641,-23.437500
7642,-23.437500
7643,-23.437500
7644,-23.437500
7645,-23.437500
7646,-23.437500
7647,-23.437500
7648,-23.437500
7649,-23.437500
7650,-23.437500
7651,-23.437500
7652,-23.437500
7653,-23.437500
7654,-27.343750
7655,-23.437500
7656,-23.437500
7657,-23.437500
7658,-23.437500
7659,-23.437500
7660,-23.437500
7661,-23.437500
7662,-23.437500
7663,-23.437500
7664,-27.343750
7665,-23.437500
7666,-27.343750
7667,-27.343750
7668,-27.343750
7669,-27.343750
7670,-23.437500
7671,-23.437500
7672,-23.437500
7673,-23.437500
7674,-27.343750
7675,-27.343750
7676,-23.437500
7677,-27.343750
7678,-27.343750
7679,-27.343750
7680,-27.343750
7681,-27.343750
7682,-23.437500
7683,-23.437500
7684,-23.437500
7685,-23.437500
7686,-23.437500
7687,-23.437500
7688,-27.343750
7689,-23.437500
7690,-27.343750
7691,-27.343750
7692,-27.343750
7693,-27.343750
7694,-27.343750
7695,-27.343750
7696,-27.343750
7697,-23.437500
7698,-23.437500
7699,-27.343750
7700,-27.343750
7701,-27.343750
7702,-27.343750
7703,-23.437500
7704,-27.343750
7705,-27.343750
7706,-27.343750
7707,-27.343750
7708,-23.437500
7709,-23.437500
7710,-23.437500
7711,-27.343750
7712,-27.343750
7713,-27.343750
7714,-27.343750
7715,-27.343750
7716,-23.437500
7717,-27.343750
7718,-27.343750
7719,-27.343750
7720,-27.343750
7721,-27.343750
7722,-23.437500
7723,-23.437500
7724,-23.437500
7725,-23.437500
7726,-23.437500
7727,-23.437500
7728,-27.343750
7729,-27.343750
7730,-27.343750
7731,-27.343750
7732,-27.343750
7733,-27.343750
7734,-27.343750
7735,-23.437500
7736,-27.343750
7737,-27.343750
7738,-27.343750
7739,-23.437500
7740,-27.343750
7741,-23.437500
7742,-23.437500
7743,-23.437500
7744,-27.343750
7745,-27.343750
7746,-27.343750
7747,-23.437500
7748,-23.437500
7749,-27.343750
7750,-23.437500
7751,-27.343750
7752,-27.343750
7753,-23.437500
7754,-23.437500
7755,-23.437500
7756,-23.437500
7757,-27.343750
7758,-27.343750
7759,-27.343750
7760,-27.343750
7761,-27.343750
7762,-27.343750
7763,-23.437500
7764,-23.437500
7765,-27.343750
7766,-23.437500
7767,-23.437500
7768,-27.343750
7769,-23.437500
7770,-23.437500
7771,-27.343750
7772,-27.343750
7773,-23.437500
7774,-23.437500
7775,-23.437500
7776,-27.343750
7777,-23.437500
7778,-23.437500
7779,-23.437500
7780,-23.437500
7781,-23.437500
7782,-23.437500
7783,-23.437500
7784,-23.437500
7785,-23.437500
7786,-23.437500
7787,-27.343750
7788,-23.437500
7789,-23.437500
7790,-23.437500
7791,-23.437500
7792,-23.437500
7793,-23.437500
7794,-23.437500
7795,-23.437500
7796,-23.437500
7797,-23.437500
7798,-23.437500
7799,-23.437500
7800,-23.437500
7801,-23.437500
7802,-23.437500
7803,-23.437500
7804,-23.437500
7805,-23.437500
7806,-23.437500
7807,-23.437500
7808,-23.437500
7809,-23.437500
7810,-23.437500
7811,-23.437500
7812,-23.437500
7813,-23.437500
7814,-23.437500
7815,-23.437500
7816,-23.437500
7817,-23.437500
7818,-23.437500
7819,-23.437500
7820,-23.437500
7821,-23.437500
7822,-23.437500
7823,-23.437500
7824,-23.437500
7825,-23.437500
7826,-23.437500
7827,-23.437500
7828,-23.437500
7829,-23.437500
7830,-23.437500
7831,-23.437500
7832,-23.437500
7833,-23.437500
7834,-19.531250
7835,-23.437500
7836,-23.437500
7837,-19.531250
7838,-23.437500
7839,-23.437500
7840,-23.437500
7841,-23.437500
7842,-19.531250
7843,-19.531250
7844,-23.437500
7845,-19.531250
7846,-19.531250
7847,-23.437500
7848,-19.531250
7849,-19.531250
7850,-23.437500
7851,-23.437500
7852,-23.437500
7853,-19.531250
7854,-19.531250
7855,-19.531250
7856,-19.531250
7857,-19.531250
7858,-19.531250
7859,-19.531250
7860,-19.531250
7861,-19.531250
7862,-19.531250
7863,-19.531250
7864,-19.531250
7865,-19.531250
7866,-19.531250
7867,-19.531250
7868,-19.531250
7869,-19.531250
7870,-19.531250
7871,-19.531250
7872,-19.531250
7873,-19.531250
7874,-19.531250
7875,-19.531250
7876,-19.531250
7877,-19.531250
7878,-19.531250
7879,-19.531250
7880,-19.531250
7881,-19.531250
7882,-19.531250
7883,-19.531250
7884,-19.531250
7885,-19.531250
7886,-19.531250
7887,-19.531250
7888,-19.531250
7889,-19.531250
7890,-19.531250
7891,-19.531250
7892,-19.531250
7893,-19.531250
7894,-19.531250
7895,-19.531250
7896,-19.531250
7897,-19.531250
7898,-19.531250
7899,-19.531250
7900,-19.531250
7901,-19.531250
7902,-19.531250
7903,-19.531250
7904,-19.531250
7905,-19.531250
7906,-19.531250
7907,-19.531250
7908,-19.531250
7909,-19.531250
7910,-15.625000
7911,-15.625000
7912,-19.531250
7913,-15.625000
7914,-19.531250
7915,-15.625000
7916,-15.625000
7917,-15.625000
7918,-15.625000
7919,-15.625000
7920,-15.625000
7921,-15.625000
7922,-15.625000
7923,-15.625000
7924,-15.625000
7925,-15.625000
7926,-15.625000
7927,-15.625000
7928,-15.625000
7929,-15.625000
7930,-15.625000
7931,-15.625000
7932,-15.625000
7933,-15.625000
7934,-15.625000
7935,-15.625000
7936,-15.625000
7937,-15.625000
7938,-15.625000
7939,-15.625000
7940,-15.625000
7941,-15.625000
7942,-15.625000
7943,-15.625000
7944,-15.625000
7945,-15.625000
7946,-15.625000
7947,-15.625000
7948,-15.625000
7949,-15.625000
7950,-15.625000
7951,-15.625000
7952,-11.718750
7953,-15.625000
7954,-11.718750
7955,-11.718750
7956,-11.718750
7957,-11.718750
7958,-11.718750
7959,-11.718750
7960,-11.718750
7961,-11.718750
7962,-11.718750
7963,-11.718750
7964,-15.625000
7965,-11.718750
7966,-11.718750
7967,-11.718750
7968,-11.718750
7969,-11.718750
7970,-11.718750
7971,-11.718750
7972,-11.718750
7973,-11.718750
7974,-11.718750
7975,-11.718750
7976,-11.718750
7977,-11.718750
7978,-11.718750
7979,-11.718750
7980,-11.718750
7981,-11.718750
7982,-11.718750
7983,-11.718750
7984,-11.718750
7985,-11.718750
7986,-11.718750
7987,-7.812500
7988,-11.718750
7989,-11.718750
7990,-11.718750
7991,-11.718750
7992,-11.718750
7993,-11.718750
7994,-11.718750
7995,-7.812500
7996,-11.718750
7997,-7.812500
7998,-11.718750
7999,-7.812500
8000,-11.718750
8001,-7.812500
8002,-7.812500
8003,-7.812500
8004,-7.812500
8005,-7.812500
8006,-11.718750
8007,-7.812500
8008,-7.812500
8009,-7.812500
8010,-7.812500
8011,-7.812500
8012,-7.812500
8013,-7.812500
8014,-11.718750
8015,-7.812500
8016,-7.812500
8017,-7.812500
8018,-7.812500
8019,-7.812500
8020,-7.812500
8021,-7.812500
8022,-7.812500
8023,-7.812500
8024,-7.812500
8025,-7.812500
8026,-7.812500
8027,-7.812500
8028,-7.812500
8029,-7.812500
8030,-7.812500
8031,-7.812500
8032,-7.812500
8033,-7.812500
8034,-7.812500
8035,-7.812500
8036,-7.812500
8037,-7.812500
8038,-7.812500
8039,-7.812500
8040,-3.906250
8041,-7.812500
8042,-7.812500
8043,-7.812500
8044,-7.812500
8045,-7.812500
8046,-7.812500
8047,-7.812500
8048,-7.812500
8049,-3.906250
8050,-3.906250
8051,-7.812500
8052,-7.812500
8053,-3.906250
8054,-3.906250
8055,-3.906250
8056,-3.906250
8057,-3.906250
8058,-3.906250
8059,-3.906250
8060,-3.906250
8061,-3.906250
8062,-3.906250
8063,-3.906250
8064,-3.906250
8065,-3.906250
8066,-3.906250
8067,-3.906250
8068,-3.906250
8069,-3.906250
8070,-3.906250
8071,-3.906250
8072,-3.906250
8073,-3.906250
8074,-3.906250
8075,-3.906250
8076,-3.906250
8077,-3.906250
8078,-3.906250
8079,-3.906250
8080,-3.906250
8081,-3.906250
8082,-3.906250
8083,-3.906250
8084,-3.906250
8085,-3.906250
8086,-3.906250
8087,-3.906250
8088,-3.906250
8089,-3.906250
8090,-3.906250
8091,-3.906250
8092,-3.906250
8093,-3.906250
8094,0.000000
8095,0.000000
8096,-3.906250
8097,0.000000
8098,-3.906250
8099,0.000000
8100,0.000000
8101,0.000000
8102,0.000000
8103,-3.906250
8104,0.000000
8105,0.000000
8106,-7.812500
8107,0.000000
8108,0.000000
8109,0.000000
8110,0.000000
8111,0.000000
8112,0.000000
8113,0.000000
8114,0.000000
8115,0.000000
8116,0.000000
8117,0.000000
8118,0.000000
8119,0.000000
8120,0.000000
8121,0.000000
8122,0.000000
8123,0.000000
8124,0.000000
8125,0.000000
8126,0.000000
8127,0.000000
8128,0.000000
8129,0.000000
8130,0.000000
8131,0.000000
8132,0.000000
8133,0.000000
8134,0.000000
8135,0.000000
8136,0.000000
8137,0.000000
8138,0.000000
8139,0.000000
8140,0.000000
8141,0.000000
8142,0.000000
8143,0.000000
8144,0.000000
8145,0.000000
8146,0.000000
8147,0.000000
8148,0.000000
8149,0.000000
8150,0.000000
8151,0.000000
8152,0.000000
8153,0.000000
8154,0.000000
8155,0.000000
8156,0.000000
8157,0.000000
8158,0.000000
8159,0.000000
8160,0.000000
8161,0.000000
8162,0.000000
8163,0.000000
8164,0.000000
8165,0.000000
8166,0.000000
8167,0.000000
8168,0.000000
8169,0.000000
8170,0.000000
8171,3.906250
8172,0.000000
8173,3.906250
8174,3.906250
8175,0.000000
8176,0.000000
8177,0.000000
8178,3.906250
8179,3.906250
8180,0.000000
8181,0.000000
8182,0.000000
8183,3.906250
8184,3.906250
8185,3.906250
8186,0.000000
8187,3.906250
8188,3.906250
8189,0.000000
8190,3.906250
8191,3.906250
8192,3.906250
8193,3.906250
8194,0.000000
8195,3.906250
8196,3.906250
8197,3.906250
8198,0.000000
8199,3.906250
8200,3.906250
8201,0.000000
8202,0.000000
8203,3.906250
8204,3.906250
8205,3.906250
8206,3.906250
8207,3.906250
8208,3.906250
8209,3.906250
8210,3.906250
8211,3.906250
8212,3.906250
8213,3.906250
8214,3.906250
8215,3.906250
8216,3.906250
8217,3.906250
8218,3.906250
8219,3.906250
8220,3.906250
8221,0.000000
8222,3.906250
8223,3.906250
8224,3.906250
8225,3.906250
8226,3.906250
8227,3.906250
8228,3.906250
8229,3.906250
8230,3.906250
8231,3.906250
8232,3.906250
8233,3.906250
8234,3.906250
8235,3.906250
8236,3.906250
8237,3.906250
8238,3.906250
8239,3.906250
8240,3.906250
8241,3.906250
8242,3.906250
8243,3.906250
8244,3.906250
8245,3.906250
8246,3.906250
8247,3.906250
8248,3.906250
8249,3.906250
8250,3.906250
8251,3.906250
8252,3.906250
8253,3.906250
8254,3.906250
8255,3.906250
8256,3.906250
8257,3.906250
8258,3.906250
8259,3.906250
8260,3.906250
8261,3.906250
8262,3.906250
8263,3.906250
8264,3.906250
8265,3.906250
8266,3.906250
8267,3.906250
8268,3.906250
8269,3.906250
8270,3.906250
8271,3.906250
8272,3.906250
8273,3.906250
8274,3.906250
8275,3.906250
8276,3.906250
8277,3.906250
8278,3.906250
8279,3.906250
8280,3.906250
8281,3.906250
8282,0.000000
8283,3.906250
8284,3.906250
8285,3.906250
8286,3.906250
8287,3.906250
8288,3.906250
8289,0.000000
8290,3.906250
8291,0.000000
8292,0.000000
8293,0.000000
8294,0.000000
8295,0.000000
8296,0.000000
8297,0.000000
8298,3.906250
8299,3.906250
8300,0.000000
8301,0.000000
8302,0.000000
8303,0.000000
8304,0.000000
8305,0.000000
8306,0.000000
8307,0.000000
8308,0.000000
8309,0.000000
8310,0.000000
8311,0.000000
8312,0.000000
8313,0.000000
8314,0.000000
8315,0.000000
8316,0.000000
8317,0.000000
8318,0.000000
8319,0.000000
8320,0.000000
8321,0.000000
8322,0.000000
8323,0.000000
8324,0.000000
8325,0.000000
8326,0.000000
8327,0.000000
8328,0.000000
8329,0.000000
8330,0.000000
8331,0.000000
8332,0.000000
8333,0.000000
8334,0.000000
8335,0.000000
8336,0.000000
8337,0.000000
8338,0.000000
8339,0.000000
8340,0.000000
8341,0.000000
8342,0.000000
8343,0.000000
8344,0.000000
8345,0.000000
8346,0.000000
8347,0.000000
8348,0.000000
8349,0.000000
8350,0.000000
8351,0.000000
8352,0.000000
8353,0.000000
8354,0.000000
8355,0.000000
8356,0.000000
8357,0.000000
8358,0.000000
8359,0.000000
8360,0.000000
8361,0.000000
8362,0.000000
8363,0.000000
8364,0.000000
8365,0.000000
8366,-3.906250
8367,0.000000
8368,-3.906250
8369,0.000000
8370,-3.906250
8371,-3.906250
8372,-3.906250
8373,-3.906250
8374,-3.906250
8375,-3.906250
8376,-3.906250
8377,-3.906250
8378,-3.906250
8379,-3.906250
8380,-3.906250
8381,-3.906250
8382,-3.906250
8383,-3.906250
8384,-3.906250
8385,-3.906250
8386,-3.906250
8387,-3.906250
8388,-3.906250
8389,-3.906250
8390,-3.906250
8391,-3.906250
8392,-3.906250
8393,-3.906250
8394,-3.906250
8395,-3.906250
8396,-3.906250
8397,-3.906250
8398,-3.906250
8399,-3.906250
8400,-3.906250
8401,-3.906250
8402,-3.906250
8403,-3.906250
8404,-3.906250
8405,-3.906250
8406,-3.906250
8407,-3.906250
8408,-3.906250
8409,-3.906250
8410,-3.906250
8411,-3.906250
8412,-7.812500
8413,-7.812500
8414,-7.812500
8415,-7.812500
8416,-7.812500
8417,-7.812500
8418,-7.812500
8419,-7.812500
8420,-7.812500
8421,-7.812500
8422,-7.812500
8423,-7.812500
8424,-7.812500
8425,-7.812500
8426,-7.812500
8427,-7.812500
8428,-7.812500
8429,-7.812500
8430,-7.812500
8431,-7.812500
8432,-7.812500
8433,-7.812500
8434,-7.812500
8435,-7.812500
8436,-7.812500
8437,-7.812500
8438,-7.812500
8439,-7.812500
8440,-7.812500
8441,-7.812500
8442,-11.718750
8443,-7.812500
8444,-7.812500
8445,-7.812500
8446,-7.812500
8447,-7.812500
8448,-7.812500
8449,-7.812500
8450,-7.812500
8451,-11.718750
8452,-11.718750
8453,-11.718750
8454,-11.718750
8455,-11.718750
8456,-11.718750
8457,-11.718750
8458,-11.718750
8459,-11.718750
8460,-11.718750
8461,-11.718750
8462,-11.718750
8463,-11.718750
8464,-11.718750
8465,-11.718750
8466,-11.718750
8467,-15.625000
8468,-11.718750
8469,-11.718750
8470,-11.718750
8471,-11.718750
8472,-11.718750
8473,-11.718750
8474,-11.718750
8475,-11.718750
8476,-11.718750
8477,-11.718750
8478,-11.718750
8479,-11.718750
8480,-11.718750
8481,-11.718750
8482,-11.718750
8483,-11.718750
8484,-11.718750
8485,-11.718750
8486,-11.718750
8487,-11.718750
8488,-15.625000
8489,-11.718750
8490,-11.718750
8491,-11.718750
8492,-15.625000
8493,-15.625000
8494,-15.625000
8495,-15.625000
8496,-15.625000
8497,-15.625000
8498,-15.625000
8499,-15.625000
8500,-15.625000
8501,-11.718750
8502,-15.625000
8503,-15.625000
8504,-15.625000
8505,-15.625000
8506,-15.625000
8507,-15.625000
8508,-15.625000
8509,-15.625000
8510,-15.625000
8511,-15.625000
8512,-15.625000
8513,-15.625000
8514,-15.625000
8515,-15.625000
8516,-15.625000
8517,-15.625000
8518,-15.625000
8519,-15.625000
8520,-15.625000
8521,-15.625000
8522,-15.625000
8523,-15.625000
8524,-15.625000
8525,-15.625000
8526,-15.625000
8527,-15.625000
8528,-15.625000
8529,-15.625000
8530,-15.625000
8531,-15.625000
8532,-19.531250
8533,-19.531250
8534,-19.531250
8535,-19.531250
8536,-19.531250
8537,-19.531250
8538,-19.531250
8539,-15.625000
8540,-19.531250
8541,-19.531250
8542,-19.531250
8543,-19.531250
8544,-19.531250
8545,-19.531250
8546,-19.531250
8547,-19.531250
8548,-19.531250
8549,-19.531250
8550,-19.531250
8551,-19.531250
8552,-19.531250
8553,-19.531250
8554,-19.531250
8555,-19.531250
8556,-19.531250
8557,-19.531250
8558,-19.531250
8559,-19.531250
8560,-19.531250
8561,-19.531250
8562,-19.531250
8563,-19.531250
8564,-19.531250
8565,-19.531250
8566,-19.531250
8567,-19.531250
8568,-19.531250
8569,-19.531250
8570,-23.437500
8571,-19.531250
8572,-23.437500
8573,-23.437500
8574,-19.531250
8575,-19.531250
8576,-23.437500
8577,-23.437500
8578,-19.531250
8579,-23.437500
8580,-19.531250
8581,-19.531250
8582,-23.437500
8583,-23.437500
8584,-23.437500
8585,-23.437500
8586,-23.437500
8587,-23.437500
8588,-23.437500
8589,-23.437500
8590,-23.437500
8591,-23.437500
8592,-23.437500
8593,-23.437500
8594,-23.437500
8595,-23.437500
8596,-23.437500
8597,-23.437500
8598,-23.437500
8599,-23.437500
8600,-23.437500
8601,-23.437500
8602,-23.437500
8603,-23.437500
8604,-23.437500
8605,-23.437500
8606,-23.437500
8607,-23.437500
8608,-23.437500
8609,-23.437500
8610,-23.437500
8611,-23.437500
8612,-23.437500
8613,-23.437500
8614,-23.437500
8615,-23.437500
8616,-23.437500
8617,-23.437500
8618,-23.437500
8619,-23.437500
8620,-23.437500
8621,-23.437500
8622,-23.437500
8623,-23.437500
8624,-23.437500
8625,-23.437500
8626,-23.437500
8627,-23.437500
8628,-23.437500
8629,-23.437500
8630,-23.437500
8631,-23.437500
8632,-23.437500
8633,-23.437500
8634,-23.437500
8635,-23.437500
8636,-23.437500
8637,-23.437500
8638,-23.437500
8639,-23.437500
8640,-23.437500
8641,-23.437500
8642,-23.437500
8643,-23.437500
8644,-23.437500
8645,-23.437500
8646,-23.437500
8647,-23.437500
8648,-23.437500
8649,-23.437500
8650,-23.437500
8651,-23.437500
8652,-23.437500
8653,-23.437500
8654,-23.437500
8655,-23.437500
8656,-23.437500
8657,-23.437500
8658,-27.343750
8659,-27.343750
8660,-27.343750
8661,-27.343750
8662,-23.437500
8663,-23.437500
8664,-27.343750
8665,-27.343750
8666,-27.343750
8667,-23.437500
8668,-23.437500
8669,-27.343750
8670,-27.343750
8671,-27.343750
8672,-27.343750
8673,-27.343750
8674,-27.343750
8675,-27.343750
8676,-27.343750
8677,-27.343750
8678,-27.343750
8679,-27.343750
8680,-23.437500
8681,-27.343750
8682,-27.343750
8683,-27.343750
8684,-27.343750
8685,-23.437500
8686,-27.343750
8687,-27.343750
8688,-27.343750
8689,-27.343750
8690,-27.343750
8691,-27.343750
8692,-27.343750
8693,-27.343750
8694,-27.343750
8695,-27.343750
8696,-27.343750
8697,-27.343750
8698,-27.343750
8699,-27.343750
8700,-27.343750
8701,-27.343750
8702,-27.343750
8703,-27.343750
8704,-27.343750
8705,-27.343750
8706,-27.343750
8707,-27.343750
8708,-27.343750
8709,-27.343750
8710,-27.343750
8711,-27.343750
8712,-27.343750
8713,-27.343750
8714,-27.343750
8715,-27.343750
8716,-27.343750
8717,-27.343750
8718,-27.343750
8719,-27.343750
8720,-27.343750
8721,-27.343750
8722,-27.343750
8723,-27.343750
8724,-27.343750
8725,-23.437500
8726,-27.343750
8727,-27.343750
8728,-27.343750
8729,-27.343750
8730,-27.343750
8731,-27.343750
8732,-27.343750
8733,-27.343750
8734,-27.343750
8735,-27.343750
8736,-27.343750
8737,-27.343750
8738,-27.343750
8739,-23.437500
8740,-23.437500
8741,-27.343750
8742,-27.343750
8743,-23.437500
8744,-23.437500
8745,-23.437500
8746,-27.343750
8747,-23.437500
8748,-27.343750
8749,-27.343750
8750,-27.343750
8751,-23.437500
8752,-23.437500
8753,-23.437500
8754,-23.437500
8755,-23.437500
8756,-23.437500
8757,-23.437500
8758,-23.437500
8759,-23.437500
8760,-23.437500
8761,-23.437500
8762,-23.437500
8763,-23.437500
8764,-23.437500
8765,-23.437500
8766,-23.437500
8767,-23.437500
8768,-23.437500
8769,-23.437500
8770,-23.437500
8771,-23.437500
8772,-23.437500
8773,-23.437500
8774,-23.437500
8775,-23.437500
8776,-23.437500
8777,-23.437500
8778,-23.437500
8779,-23.437500
8780,-23.437500
8781,-23.437500
8782,-23.437500
8783,-23.437500
8784,-23.437500
8785,-23.437500
8786,-23.437500
8787,-23.437500
8788,-23.437500
8789,-23.437500
8790,-23.437500
8791,-23.437500
8792,-23.437500
8793,-23.437500
8794,-23.437500
8795,-23.437500
8796,-23.437500
8797,-23.437500
8798,-23.437500
8799,-23.437500
8800,-23.437500
8801,-23.437500
8802,-23.437500
8803,-23.437500
8804,-23.437500
8805,-23.437500
8806,-23.437500
8807,-23.437500
8808,-23.437500
8809,-23.437500
8810,-23.437500
8811,-23.437500
8812,-23.437500
8813,-23.437500
8814,-23.437500
8815,-23.437500
8816,-23.437500
8817,-23.437500
8818,-23.437500
8819,-23.437500
8820,-23.437500
8821,-23.437500
8822,-23.437500
8823,-23.437500
8824,-23.437500
8825,-23.437500
8826,-23.437500
8827,-23.437500
8828,-23.437500
8829,-23.437500
8830,-23.437500
8831,-23.437500
8832,-23.437500
8833,-23.437500
8834,-23.437500
8835,-23.437500
8836,-19.531250
8837,-19.531250
8838,-19.531250
8839,-23.437500
8840,-23.437500
8841,-19.531250
8842,-23.437500
8843,-23.437500
8844,-23.437500
8845,-19.531250
8846,-23.437500
8847,-19.531250
8848,-19.531250
8849,-19.531250
8850,-19.531250
8851,-19.531250
8852,-19.531250
8853,-19.531250
8854,-19.531250
8855,-19.531250
8856,-19.531250
8857,-19.531250
8858,-19.531250
8859,-19.531250
8860,-19.531250
8861,-19.531250
8862,-19.531250
8863,-19.531250
8864,-19.531250
8865,-19.531250
8866,-19.531250
8867,-19.531250
8868,-19.531250
8869,-19.531250
8870,-19.531250
8871,-19.531250
8872,-19.531250
8873,-19.531250
8874,-19.531250
8875,-19.531250
8876,-19.531250
8877,-19.531250
8878,-19.531250
8879,-19.531250
8880,-19.531250
8881,-19.531250
8882,-19.531250
8883,-19.531250
8884,-19.531250
8885,-19.531250
8886,-19.531250
8887,-19.531250
8888,-19.531250
8889,-19.531250
8890,-19.531250
8891,-19.531250
8892,-19.531250
8893,-15.625000
8894,-15.625000
8895,-15.625000
8896,-15.625000
8897,-15.625000
8898,-19.531250
8899,-15.625000
8900,-15.625000
8901,-15.625000
8902,-15.625000
8903,-15.625000
8904,-15.625000
8905,-15.625000
8906,-15.625000
8907,-15.625000
8908,-15.625000
8909,-15.625000
8910,-15.625000
8911,-15.625000
8912,-15.625000
8913,-15.625000
8914,-15.625000
8915,-15.625000
8916,-15.625000
8917,-15.625000
8918,-15.625000
8919,-15.625000
8920,-15.625000
8921,-15.625000
8922,-15.625000
8923,-15.625000
8924,-15.625000
8925,-15.625000
8926,-15.625000
8927,-15.625000
8928,-15.625000
8929,-15.625000
8930,-15.625000
8931,-15.625000
8932,-15.625000
8933,-15.625000
8934,-15.625000
8935,-15.625000
8936,-15.625000
8937,-15.625000
8938,-15.625000
8939,-15.625000
8940,-15.625000
8941,-15.625000
8942,-15.625000
8943,-15.625000
8944,-15.625000
8945,-15.625000
8946,-15.625000
8947,-15.625000
8948,-15.625000
8949,-11.718750
8950,-11.718750
8951,-11.718750
8952,-15.625000
8953,-11.718750
8954,-11.718750
8955,-15.625000
8956,-15.625000
8957,-11.718750
8958,-11.718750
8959,-11.718750
8960,-11.718750
8961,-11.718750
8962,-11.718750
8963,-11.718750
8964,-11.718750
8965,-11.718750
8966,-11.718750
8967,-11.718750
8968,-11.718750
8969,-11.718750
8970,-11.718750
8971,-11.718750
8972,-11.718750
8973,-11.718750
8974,-11.718750
8975,-11.718750
8976,-11.718750
8977,-11.718750
8978,-11.718750
8979,-11.718750
8980,-11.718750
8981,-11.718750
8982,-11.718750
8983,-11.718750
8984,-11.718750
8985,-11.718750
8986,-11.718750
8987,-11.718750
8988,-11.718750
8989,-7.812500
8990,-11.718750
8991,-7.812500
8992,-11.718750
8993,-7.812500
8994,-7.812500
8995,-7.812500
8996,-7.812500
8997,-7.812500
8998,-7.812500
8999,-7.812500
9000,-7.812500
9001,-7.812500
9002,-7.812500
9003,-7.812500
9004,-7.812500
9005,-7.812500
9006,-7.812500
9007,-7.812500
9008,-7.812500
9009,-7.812500
9010,-7.812500
9011,-7.812500
9012,-7.812500
9013,-7.812500
9014,-7.812500
9015,-7.812500
9016,-7.812500
9017,-7.812500
9018,-7.812500
9019,-7.812500
9020,-7.812500
9021,-7.812500
9022,-7.812500
9023,-7.812500
9024,-7.812500
9025,-7.812500
9026,-7.812500
9027,-7.812500
9028,-7.812500
9029,-7.812500
9030,-7.812500
9031,-7.812500
9032,-7.812500
9033,-7.812500
9034,-3.906250
9035,-3.906250
9036,-7.812500
9037,-7.812500
9038,-7.812500
9039,-7.812500
9040,-7.812500
9041,-3.906250
9042,-3.906250
9043,-3.906250
9044,-3.906250
9045,-3.906250
9046,-3.906250
9047,-3.906250
9048,-3.906250
9049,-3.906250
9050,-3.906250
9051,-3.906250
9052,-3.906250
9053,-3.906250
9054,-3.906250
9055,-3.906250
9056,-3.906250
9057,-3.906250
9058,-3.906250
9059,-3.906250
9060,-3.906250
9061,-3.906250
9062,-3.906250
9063,-3.906250
9064,-3.906250
9065,-3.906250
9066,-3.906250
9067,-3.906250
9068,-3.906250
9069,-3.906250
9070,-3.906250
9071,-3.906250
9072,-3.906250
9073,-3.906250
9074,-3.906250
9075,-3.906250
9076,-3.906250
9077,-3.906250
9078,-3.906250
9079,-3.906250
9080,-3.906250
9081,-3.906250
9082,-3.906250
9083,-3.906250
9084,-3.906250
9085,-3.906250
9086,-3.906250
9087,-3.906250
9088,-3.906250
9089,0.000000
9090,-3.906250
9091,-3.906250
9092,-3.906250
9093,-3.906250
9094,0.000000
9095,-3.906250
9096,-3.906250
9097,-3.906250
9098,0.000000
9099,0.000000
9100,0.000000
9101,0.000000
9102,0.000000
9103,0.000000
9104,0.000000
9105,0.000000
9106,0.000000
9107,0.000000
9108,0.000000
9109,0.000000
9110,0.000000
9111,0.000000
9112,0.000000
9113,0.000000
9114,0.000000
9115,0.000000
9116,0.000000
9117,0.000000
9118,0.000000
9119,0.000000
9120,0.000000
9121,0.000000
9122,0.000000
9123,0.000000
9124,0.000000
9125,0.000000
9126,0.000000
9127,0.000000
9128,0.000000
9129,0.000000
9130,0.000000
9131,0.000000
9132,0.000000
9133,0.000000
9134,0.000000
9135,0.000000
9136,0.000000
9137,0.000000
9138,0.000000
9139,0.000000
9140,0.000000
9141,0.000000
9142,0.000000
9143,0.000000
9144,3.906250
9145,0.000000
9146,0.000000
9147,0.000000
9148,0.000000
9149,0.000000
9150,0.000000
9151,3.906250
9152,3.906250
9153,0.000000
9154,0.000000
9155,0.000000
9156,3.906250
9157,3.906250
9158,0.000000
9159,3.906250
9160,0.000000
9161,3.906250
9162,3.906250
9163,3.906250
9164,3.906250
9165,3.906250
9166,3.906250
9167,3.906250
9168,3.906250
9169,3.906250
9170,3.906250
9171,3.906250
9172,3.906250
9173,3.906250
9174,3.906250
9175,3.906250
9176,3.906250
9177,3.906250
9178,3.906250
9179,3.906250
9180,3.906250
9181,3.906250
9182,0.000000
9183,3.906250
9184,3.906250
9185,3.906250
9186,3.906250
9187,3.906250
9188,3.906250
9189,3.906250
9190,3.906250
9191,3.906250
9192,3.906250
9193,3.906250
9194,3.906250
9195,0.000000
9196,3.906250
9197,3.906250
9198,3.906250
9199,3.906250
9200,3.906250
9201,3.906250
9202,3.906250
9203,3.906250
9204,3.906250
9205,3.906250
9206,3.906250
9207,3.906250
9208,3.906250
9209,3.906250
9210,3.906250
9211,3.906250
9212,3.906250
9213,3.906250
9214,3.906250
9215,3.906250
9216,3.906250
9217,3.906250
9218,3.906250
9219,3.906250
9220,3.906250
9221,3.906250
9222,3.906250
9223,3.906250
9224,0.000000
9225,3.906250
9226,3.906250
9227,3.906250
9228,3.906250
9229,3.906250
9230,3.906250
9231,3.906250
9232,3.906250
9233,3.906250
9234,3.906250
9235,3.906250
9236,3.906250
9237,3.906250
9238,3.906250
9239,3.906250
9240,3.906250
9241,0.000000
9242,0.000000
9243,3.906250
9244,3.906250
9245,3.906250
9246,3.906250
9247,3.906250
9248,3.906250
9249,3.906250
9250,3.906250
9251,3.906250
9252,3.906250
9253,3.906250
9254,3.906250
9255,3.906250
9256,3.906250
9257,3.906250
9258,3.906250
9259,3.906250
9260,3.906250
9261,3.906250
9262,3.906250
9263,3.906250
9264,3.906250
9265,3.906250
9266,3.906250
9267,3.906250
9268,3.906250
9269,3.906250
9270,3.906250
9271,3.906250
9272,3.906250
9273,3.906250
9274,3.906250
9275,3.906250
9276,3.906250
9277,3.906250
9278,3.906250
9279,3.906250
9280,3.906250
9281,3.906250
9282,3.906250
9283,3.906250
9284,3.906250
9285,0.000000
9286,3.906250
9287,0.000000
9288,0.000000
9289,0.000000
9290,3.906250
9291,3.906250
9292,0.000000
9293,3.906250
9294,0.000000
9295,3.906250
9296,0.000000
9297,0.000000
9298,0.000000
9299,3.906250
9300,0.000000
9301,0.000000
9302,0.000000
9303,0.000000
9304,0.000000
9305,0.000000
9306,0.000000
9307,0.000000
9308,0.000000
9309,0.000000
9310,0.000000
9311,0.000000
9312,0.000000
9313,0.000000
9314,0.000000
9315,0.000000
9316,0.000000
9317,0.000000
9318,0.000000
9319,0.000000
9320,0.000000
9321,0.000000
9322,0.000000
9323,0.000000
9324,0.000000
9325,0.000000
9326,0.000000
9327,0.000000
9328,0.000000
9329,0.000000
9330,0.000000
9331,0.000000
9332,-3.906250
9333,0.000000
9334,0.000000
9335,0.000000
9336,0.000000
9337,0.000000
9338,0.000000
9339,0.000000
9340,0.000000
9341,0.000000
9342,0.000000
9343,0.000000
9344,0.000000
9345,0.000000
9346,0.000000
9347,0.000000
9348,-3.906250
9349,-3.906250
9350,-3.906250
9351,-3.906250
9352,-3.906250
9353,0.000000
9354,0.000000
9355,-3.906250
9356,-3.906250
9357,-3.906250
9358,-3.906250
9359,-3.906250
9360,-3.906250
9361,-3.906250
9362,-3.906250
9363,-3.906250
9364,-3.906250
9365,-3.906250
9366,-3.906250
9367,-3.906250
9368,-3.906250
9369,-3.906250
9370,-3.906250
9371,-3.906250
9372,-3.906250
9373,-3.906250
9374,-3.906250
9375,-3.906250
9376,-3.906250
9377,-3.906250
9378,-3.906250
9379,-3.906250
9380,-3.906250
9381,-3.906250
9382,-3.906250
9383,-3.906250
9384,-3.906250
9385,-3.906250
9386,-3.906250
9387,-3.906250
9388,-3.906250
9389,-3.906250
9390,-3.906250
9391,-3.906250
9392,-3.906250
9393,-3.906250
9394,-3.906250
9395,-3.906250
9396,-3.906250
9397,-3.906250
9398,-7.812500
9399,-7.812500
9400,-7.812500
9401,-3.906250
9402,-7.812500
9403,-7.812500
9404,-7.812500
9405,-7.812500
9406,-7.812500
9407,-7.812500
9408,-7.812500
9409,-7.812500
9410,-7.812500
9411,-7.812500
9412,-7.812500
9413,-7.812500
9414,-7.812500
9415,-7.812500
9416,-7.812500
9417,-7.812500
9418,-7.812500
9419,-7.812500
9420,-7.812500
9421,-7.812500
9422,-7.812500
9423,-7.812500
9424,-7.812500
9425,-7.812500
9426,-7.812500
9427,-7.812500
9428,-7.812500
9429,-7.812500
9430,-7.812500
9431,-7.812500
9432,-7.812500
9433,-7.812500
9434,-7.812500
9435,-7.812500
9436,-7.812500
9437,-7.812500
9438,-7.812500
9439,-11.718750
9440,-11.718750
9441,-11.718750
9442,-11.718750
9443,-11.718750
9444,-11.718750
9445,-11.718750
9446,-11.718750
9447,-11.718750
9448,-11.718750
9449,-11.718750
9450,-11.718750
9451,-11.718750
9452,-11.718750
9453,-11.718750
9454,-11.718750
9455,-11.718750
9456,-11.718750
9457,-11.718750
9458,-11.718750
9459,-11.718750
9460,-11.718750
9461,-11.718750
9462,-11.718750
9463,-11.718750
9464,-11.718750
9465,-11.718750
9466,-11.718750
9467,-11.718750
9468,-11.718750
9469,-11.718750
9470,-11.718750
9471,-11.718750
9472,-11.718750
9473,-11.718750
9474,-15.625000
9475,-15.625000
9476,-11.718750
9477,-11.718750
9478,-11.718750
9479,-11.718750
9480,-11.718750
9481,-15.625000
9482,-15.625000
9483,-15.625000
9484,-15.625000
9485,-15.625000
9486,-15.625000
9487,-15.625000
9488,-15.625000
9489,-15.625000
9490,-15.625000
9491,-15.625000
9492,-15.625000
9493,-15.625000
9494,-15.625000
9495,-15.625000
9496,-15.625000
9497,-15.625000
9498,-15.625000
9499,-15.625000
9500,-15.625000
9501,-15.625000
9502,-15.625000
9503,-15.625000
9504,-15.625000
9505,-15.625000
9506,-15.625000
9507,-15.625000
9508,-15.625000
9509,-15.625000
9510,-15.625000
9511,-15.625000
9512,-15.625000
9513,-15.625000
9514,-15.625000
9515,-15.625000
9516,-15.625000
9517,-15.625000
9518,-19.531250
9519,-15.625000
9520,-19.531250
9521,-15.625000
9522,-19.531250
9523,-15.625000
9524,-19.531250
9525,-15.625000
9526,-19.531250
9527,-19.531250
9528,-19.531250
9529,-19.531250
9530,-19.531250
9531,-19.531250
9532,-19.531250
9533,-19.531250
9534,-19.531250
9535,-19.531250
9536,-19.531250
9537,-19.531250
9538,-19.531250
9539,-19.531250
9540,-19.531250
9541,-19.531250
9542,-19.531250
9543,-19.531250
9544,-19.531250
9545,-19.531250
9546,-19.531250
9547,-19.531250
9548,-19.531250
9549,-19.531250
9550,-19.531250
9551,-19.531250
9552,-19.531250
9553,-19.531250
9554,-19.531250
9555,-19.531250
9556,-19.531250
9557,-19.531250
9558,-19.531250
9559,-19.531250
9560,-19.531250
9561,-19.531250
9562,-19.531250
9563,-19.531250
9564,-19.531250
9565,-19.531250
9566,-19.531250
9567,-19.531250
9568,-19.531250
9569,-23.437500
9570,-23.437500
9571,-23.437500
9572,-19.531250
9573,-19.531250
9574,-19.531250
9575,-23.437500
9576,-23.437500
9577,-23.437500
9578,-23.437500
9579,-23.437500
9580,-19.531250
9581,-23.437500
9582,-23.437500
9583,-23.437500
9584,-23.437500
9585,-23.437500
9586,-23.437500
9587,-23.437500
9588,-23.437500
9589,-23.437500
9590,-23.437500
9591,-23.437500
9592,-23.437500
9593,-23.437500
9594,-23.437500
9595,-23.437500
9596,-23.437500
9597,-23.437500
9598,-23.437500
9599,-23.437500
9600,-23.437500
9601,-23.437500
9602,-23.437500
9603,-23.437500
9604,-23.437500
9605,-23.437500
9606,-23.437500
9607,-23.437500
9608,-23.437500
9609,-23.437500
9610,-23.437500
9611,-23.437500
9612,-23.437500
9613,-23.437500
9614,-23.437500
9615,-23.437500
9616,-19.531250
9617,-23.437500
9618,-23.437500
9619,-19.531250
9620,-23.437500
9621,-23.437500
9622,-23.437500
9623,-23.437500
9624,-23.437500
9625,-23.437500
9626,-23.437500
9627,-23.437500
9628,-23.437500
9629,-23.437500
9630,-23.437500
9631,-23.437500
9632,-27.343750
9633,-23.437500
9634,-23.437500
9635,-23.437500
9636,-23.437500
9637,-23.437500
9638,-23.437500
9639,-23.437500
9640,-23.437500
9641,-23.437500
9642,-27.343750
9643,-23.437500
9644,-23.437500
9645,-23.437500
9646,-23.437500
9647,-23.437500
9648,-27.343750
9649,-23.437500
9650,-23.437500
9651,-23.437500
9652,-27.343750
9653,-23.437500
9654,-23.437500
9655,-27.343750
9656,-23.437500
9657,-27.343750
9658,-23.437500
9659,-23.437500
9660,-23.437500
9661,-27.343750
9662,-27.343750
9663,-27.343750
9664,-27.343750
9665,-27.343750
9666,-23.437500
9667,-23.437500
9668,-23.437500
9669,-23.437500
9670,-27.343750
9671,-27.343750
9672,-27.343750
9673,-27.343750
9674,-23.437500
9675,-23.437500
9676,-27.343750
9677,-23.437500
9678,-27.343750
9679,-23.437500
9680,-27.343750
9681,-23.437500
9682,-23.437500
9683,-27.343750
9684,-27.343750
9685,-27.343750
9686,-27.343750
9687,-23.437500
9688,-23.437500
9689,-23.437500
9690,-27.343750
9691,-27.343750
9692,-27.343750
9693,-27.343750
9694,-27.343750
9695,-23.437500
9696,-23.437500
9697,-23.437500
9698,-27.343750
9699,-27.343750
9700,-27.343750
9701,-23.437500
9702,-23.437500
9703,-27.343750
9704,-27.343750
9705,-27.343750
9706,-27.343750
9707,-23.437500
9708,-27.343750
9709,-27.343750
9710,-23.437500
9711,-27.343750
9712,-27.343750
9713,-27.343750
9714,-27.343750
9715,-27.343750
9716,-23.437500
9717,-27.343750
9718,-27.343750
9719,-23.437500
9720,-27.343750
9721,-27.343750
9722,-27.343750
9723,-27.343750
9724,-27.343750
9725,-27.343750
9726,-27.343750
9727,-27.343750
9728,-27.343750
9729,-27.343750
9730,-23.437500
9731,-23.437500
9732,-23.437500
9733,-23.437500
9734,-27.343750
9735,-23.437500
9736,-27.343750
9737,-27.343750
9738,-27.343750
9739,-27.343750
9740,-27.343750
9741,-27.343750
9742,-27.343750
9743,-23.437500
9744,-23.437500
9745,-23.437500
9746,-23.437500
9747,-23.437500
9748,-23.437500
9749,-23.437500
9750,-23.437500
9751,-23.437500
9752,-23.437500
9753,-23.437500
9754,-23.437500
9755,-23.437500
9756,-23.437500
9757,-23.437500
9758,-23.437500
9759,-23.437500
9760,-23.437500
9761,-23.437500
9762,-23.437500
9763,-23.437500
9764,-23.437500
9765,-23.437500
9766,-23.437500
9767,-23.437500
9768,-23.437500
9769,-23.437500
9770,-23.437500
9771,-23.437500
9772,-23.437500
9773,-23.437500
9774,-23.437500
9775,-23.437500
9776,-23.437500
9777,-23.437500
9778,-23.437500
9779,-23.437500
9780,-23.437500
9781,-23.437500
9782,-23.437500
9783,-23.437500
9784,-23.437500
9785,-23.437500
9786,-23.437500
9787,-23.437500
9788,-23.437500
9789,-23.437500
9790,-23.437500
9791,-23.437500
9792,-23.437500
9793,-23.437500
9794,-23.437500
9795,-23.437500
9796,-23.437500
9797,-23.437500
9798,-23.437500
9799,-23.437500
9800,-23.437500
9801,-23.437500
9802,-23.437500
9803,-23.437500
9804,-23.437500
9805,-23.437500
9806,-23.437500
9807,-23.437500
9808,-23.437500
9809,-23.437500
9810,-23.437500
9811,-23.437500
9812,-23.437500
9813,-23.437500
9814,-23.437500
9815,-23.437500
9816,-23.437500
9817,-19.531250
9818,-19.531250
9819,-23.437500
9820,-23.437500
9821,-23.437500
9822,-23.437500
9823,-23.437500
9824,-19.531250
9825,-19.531250
9826,-19.531250
9827,-19.531250
9828,-19.531250
9829,-23.437500
9830,-19.531250
9831,-23.437500
9832,-19.531250
9833,-19.531250
9834,-19.531250
9835,-19.531250
9836,-19.531250
9837,-19.531250
9838,-19.531250
9839,-19.531250
9840,-19.531250
9841,-19.531250
9842,-19.531250
9843,-19.531250
9844,-19.531250
9845,-19.531250
9846,-19.531250
9847,-19.531250
9848,-19.531250
9849,-19.531250
9850,-19.531250
9851,-19.531250
9852,-19.531250
9853,-19.531250
9854,-19.531250
9855,-19.531250
9856,-19.531250
9857,-19.531250
9858,-19.531250
9859,-19.531250
9860,-19.531250
9861,-19.531250
9862,-19.531250
9863,-19.531250
9864,-19.531250
9865,-19.531250
9866,-19.531250
9867,-19.531250
9868,-19.531250
9869,-19.531250
9870,-19.531250
9871,-19.531250
9872,-19.531250
9873,-19.531250
9874,-19.531250
9875,-19.531250
9876,-19.531250
9877,-19.531250
9878,-19.531250
9879,-15.625000
9880,-15.625000
9881,-19.531250
9882,-19.531250
9883,-19.531250
9884,-19.531250
9885,-19.531250
9886,-19.531250
9887,-15.625000
9888,-15.625000
9889,-15.625000
9890,-19.531250
9891,-19.531250
9892,-15.625000
9893,-15.625000
9894,-15.625000
9895,-15.625000
9896,-15.625000
9897,-15.625000
9898,-15.625000
9899,-15.625000
9900,-15.625000
9901,-15.625000
9902,-15.625000
9903,-15.625000
9904,-15.625000
9905,-15.625000
9906,-15.625000
9907,-15.625000
9908,-15.625000
9909,-15.625000
9910,-15.625000
9911,-15.625000
9912,-15.625000
9913,-15.625000
9914,-15.625000
9915,-15.625000
9916,-15.625000
9917,-15.625000
9918,-15.625000
9919,-15.625000
9920,-15.625000
9921,-15.625000
9922,-15.625000
9923,-11.718750
9924,-15.625000
9925,-15.625000
9926,-15.625000
9927,-15.625000
9928,-15.625000
9929,-11.718750
9930,-11.718750
9931,-15.625000
9932,-15.625000
9933,-11.718750
9934,-15.625000
9935,-15.625000
9936,-15.625000
9937,-11.718750
9938,-11.718750
9939,-11.718750
9940,-11.718750
9941,-11.718750
9942,-11.718750
9943,-11.718750
9944,-11.718750
9945,-11.718750
9946,-11.718750
9947,-15.625000
9948,-11.718750
9949,-11.718750
9950,-11.718750
9951,-11.718750
9952,-11.718750
9953,-11.718750
9954,-11.718750
9955,-11.718750
9956,-11.718750
9957,-11.718750
9958,-11.718750
9959,-11.718750
9960,-11.718750
9961,-11.718750
9962,-11.718750
9963,-11.718750
9964,-11.718750
9965,-11.718750
9966,-11.718750
9967,-11.718750
9968,-11.718750
9969,-11.718750
9970,-11.718750
9971,-11.718750
9972,-11.718750
9973,-11.718750
9974,-11.718750
9975,-11.718750
9976,-11.718750
9977,-11.718750
9978,-11.718750
9979,-11.718750
9980,-11.718750
9981,-11.718750
9982,-7.812500
9983,-11.718750
9984,-7.812500
9985,-7.812500
9986,-7.812500
9987,-7.812500
9988,-7.812500
9989,-7.812500
9990,-11.718750
9991,-7.812500
9992,-7.812500
9993,-7.812500
9994,-7.812500
9995,-7.812500
9996,-7.812500
9997,-7.812500
9998,-7.812500
9999,-7.812500
10000,-7.812500
