Channel              :,CH1
Frequency            :,1.010kHz
Period               :,0.990ms
PK-PK                :,351.6mV
Probe attenuation    :,1X
Voltage per ADC value:,0.244141mV
Time interval        :,1.00000us

index,CH1_Voltage(mV)
1,-82.031250
2,-82.031250
3,-82.031250
4,-78.125000
5,-78.125000
6,-78.125000
7,-78.125000
8,-74.218750
9,-74.218750
10,-74.218750
11,-74.218750
12,-70.312500
13,-70.312500
14,-70.312500
15,-66.406250
16,-66.406250
17,-66.406250
18,-66.406250
19,-62.500000
20,-62.500000
21,-62.500000
22,-58.593750
23,-58.593750
24,-58.593750
25,-54.687500
26,-54.687500
27,-54.687500
28,-54.687500
29,-50.781250
30,-50.781250
31,-50.781250
32,-46.875000
33,-46.875000
34,-46.875000
35,-46.875000
36,-42.968750
37,-42.968750
38,-42.968750
39,-39.062500
40,-39.062500
41,-39.062500
42,-35.156250
43,-35.156250
44,-35.156250
45,-35.156250
46,-31.250000
47,-31.250000
48,-31.250000
49,-31.250000
50,-27.343750
51,-27.343750
52,-27.343750
53,-23.437500
54,-23.437500
55,-23.437500
56,-19.531250
57,-19.531250
58,-19.531250
59,-19.531250
60,-15.625000
61,-15.625000
62,-15.625000
63,-11.718750
64,-11.718750
65,-11.718750
66,-11.718750
67,-11.718750
68,-7.812500
69,-7.812500
70,-7.812500
71,-3.906250
72,-3.906250
73,-3.906250
74,0.000000
75,0.000000
76,0.000000
77,0.000000
78,3.906250
79,3.906250
80,3.906250
81,7.812500
82,7.812500
83,7.812500
84,7.812500
85,7.812500
86,11.718750
87,11.718750
88,15.625000
89,15.625000
90,15.625000
91,15.625000
92,19.531250
93,19.531250
94,19.531250
95,23.437500
96,23.437500
97,23.437500
98,23.437500
99,23.437500
100,27.343750
101,27.343750
102,27.343750
103,31.250000
104,31.250000
105,31.250000
106,31.250000
107,31.250000
108,35.156250
109,35.156250
110,35.156250
111,39.062500
112,39.062500
113,39.062500
114,42.968750
115,42.968750
116,42.968750
117,42.968750
118,42.968750
119,46.875000
120,46.875000
121,46.875000
122,46.875000
123,50.781250
124,50.781250
125,50.781250
126,50.781250
127,54.687500
128,54.687500
129,54.687500
130,54.687500
131,58.593750
132,58.593750
133,58.593750
134,58.593750
135,58.593750
136,62.500000
137,62.500000
138,62.500000
139,62.500000
140,66.406250
141,70.312500
142,66.406250
143,66.406250
144,70.312500
145,70.312500
146,70.312500
147,70.312500
148,74.218750
149,74.218750
150,74.218750
151,74.218750
152,74.218750
153,78.125000
154,78.125000
155,78.125000
156,78.125000
157,82.031250
158,82.031250
159,82.031250
160,82.031250
161,82.031250
162,85.937500
163,85.937500
164,85.937500
165,85.937500
166,89.843750
167,89.843750
168,89.843750
169,89.843750
170,89.843750
171,89.843750
172,93.750000
173,93.750000
174,93.750000
175,93.750000
176,93.750000
177,97.656250
178,97.656250
179,97.656250
180,97.656250
181,97.656250
182,101.562500
183,101.562500
184,101.562500
185,101.562500
186,101.562500
187,101.562500
188,105.468750
189,105.468750
190,105.468750
191,105.468750
192,105.468750
193,105.468750
194,109.375000
195,109.375000
196,109.375000
197,109.375000
198,109.375000
199,109.375000
200,109.375000
201,113.281250
202,113.281250
203,113.281250
204,113.281250
205,113.281250
206,113.281250
207,117.187500
208,117.187500
209,117.187500
210,117.187500
211,117.187500
212,117.187500
213,117.187500
214,121.093750
215,121.093750
216,121.093750
217,121.093750
218,121.093750
219,121.093750
220,121.093750
221,125.000000
222,125.000000
223,125.000000
224,125.000000
225,125.000000
226,125.000000
227,125.000000
228,125.000000
229,128.906250
230,128.906250
231,128.906250
232,128.906250
233,128.906250
234,128.906250
235,128.906250
236,128.906250
237,128.906250
238,132.812500
239,132.812500
240,132.812500
241,132.812500
242,132.812500
243,132.812500
244,132.812500
245,132.812500
246,132.812500
247,132.812500
248,136.718750
249,132.812500
250,136.718750
251,136.718750
252,136.718750
253,136.718750
254,136.718750
255,136.718750
256,136.718750
257,136.718750
258,136.718750
259,136.718750
260,140.625000
261,136.718750
262,140.625000
263,140.625000
264,140.625000
265,140.625000
266,140.625000
267,140.625000
268,140.625000
269,140.625000
270,140.625000
271,140.625000
272,140.625000
273,140.625000
274,144.531250
275,144.531250
276,144.531250
277,144.531250
278,144.531250
279,144.531250
280,144.531250
281,144.531250
282,144.531250
283,144.531250
284,144.531250
285,144.531250
286,144.531250
287,144.531250
288,144.531250
289,144.531250
290,144.531250
291,144.531250
292,144.531250
293,144.531250
294,144.531250
295,144.531250
296,148.437500
297,148.437500
298,148.437500
299,148.437500
300,148.437500
301,148.437500
302,148.437500
303,148.437500
304,148.437500
305,148.437500
306,148.437500
307,148.437500
308,148.437500
309,148.437500
310,148.437500
311,148.437500
312,148.437500
313,148.437500
314,148.437500
315,148.437500
316,148.437500
317,148.437500
318,148.437500
319,148.437500
320,148.437500
321,148.437500
322,148.437500
323,148.437500
324,148.437500
325,148.437500
326,148.437500
327,148.437500
328,148.437500
329,148.437500
330,148.437500
331,148.437500
332,148.437500
333,148.437500
334,148.437500
335,148.437500
336,148.437500
337,144.531250
338,148.437500
339,144.531250
340,148.437500
341,144.531250
342,144.531250
343,144.531250
344,148.437500
345,144.531250
346,144.531250
347,144.531250
348,144.531250
349,144.531250
350,144.531250
351,144.531250
352,144.531250
353,144.531250
354,144.531250
355,144.531250
356,144.531250
357,144.531250
358,144.531250
359,144.531250
360,144.531250
361,144.531250
362,144.531250
363,144.531250
364,144.531250
365,140.625000
366,140.625000
367,140.625000
368,140.625000
369,140.625000
370,140.625000
371,140.625000
372,140.625000
373,140.625000
374,140.625000
375,140.625000
376,140.625000
377,136.718750
378,136.718750
379,136.718750
380,136.718750
381,136.718750
382,136.718750
383,136.718750
384,136.718750
385,136.718750
386,136.718750
387,136.718750
388,136.718750
389,132.812500
390,136.718750
391,132.812500
392,132.812500
393,132.812500
394,132.812500
395,132.812500
396,132.812500
397,132.812500
398,132.812500
399,132.812500
400,132.812500
401,128.906250
402,128.906250
403,128.906250
404,128.906250
405,128.906250
406,128.906250
407,128.906250
408,128.906250
409,125.000000
410,128.906250
411,125.000000
412,125.000000
413,125.000000
414,125.000000
415,125.000000
416,125.000000
417,125.000000
418,125.000000
419,121.093750
420,121.093750
421,121.093750
422,121.093750
423,121.093750
424,121.093750
425,117.187500
426,117.187500
427,117.187500
428,117.187500
429,117.187500
430,117.187500
431,117.187500
432,117.187500
433,113.281250
434,113.281250
435,113.281250
436,113.281250
437,113.281250
438,113.281250
439,113.281250
440,109.375000
441,109.375000
442,109.375000
443,109.375000
444,109.375000
445,105.468750
446,105.468750
447,105.468750
448,105.468750
449,105.468750
450,105.468750
451,101.562500
452,101.562500
453,101.562500
454,101.562500
455,101.562500
456,101.562500
457,97.656250
458,97.656250
459,97.656250
460,97.656250
461,93.750000
462,93.750000
463,93.750000
464,93.750000
465,93.750000
466,93.750000
467,89.843750
468,89.843750
469,89.843750
470,89.843750
471,85.937500
472,85.937500
473,85.937500
474,85.937500
475,85.937500
476,85.937500
477,82.031250
478,82.031250
479,82.031250
480,82.031250
481,78.125000
482,78.125000
483,78.125000
484,78.125000
485,78.125000
486,74.218750
487,74.218750
488,74.218750
489,74.218750
490,70.312500
491,70.312500
492,70.312500
493,70.312500
494,70.312500
495,66.406250
496,66.406250
497,66.406250
498,66.406250
499,66.406250
500,62.500000
501,62.500000
502,62.500000
503,62.500000
504,58.593750
505,58.593750
506,58.593750
507,54.687500
508,54.687500
509,54.687500
510,54.687500
511,54.687500
512,50.781250
513,50.781250
514,46.875000
515,46.875000
516,46.875000
517,46.875000
518,46.875000
519,46.875000
520,42.968750
521,42.968750
522,42.968750
523,42.968750
524,39.062500
525,39.062500
526,39.062500
527,35.156250
528,35.156250
529,35.156250
530,35.156250
531,31.250000
532,31.250000
533,31.250000
534,31.250000
535,27.343750
536,27.343750
537,27.343750
538,27.343750
539,23.437500
540,23.437500
541,23.437500
542,19.531250
543,19.531250
544,19.531250
545,15.625000
546,15.625000
547,15.625000
548,15.625000
549,15.625000
550,11.718750
551,11.718750
552,11.718750
553,7.812500
554,7.812500
555,7.812500
556,3.906250
557,3.906250
558,3.906250
559,3.906250
560,0.000000
561,0.000000
562,0.000000
563,-3.906250
564,-3.906250
565,-3.906250
566,-3.906250
567,-7.812500
568,-7.812500
569,-7.812500
570,-11.718750
571,-11.718750
572,-11.718750
573,-11.718750
574,-11.718750
575,-15.625000
576,-15.625000
577,-15.625000
578,-19.531250
579,-19.531250
580,-19.531250
581,-23.437500
582,-23.437500
583,-23.437500
584,-27.343750
585,-27.343750
586,-27.343750
587,-27.343750
588,-27.343750
589,-31.250000
590,-31.250000
591,-35.156250
592,-35.156250
593,-35.156250
594,-35.156250
595,-39.062500
596,-39.062500
597,-39.062500
598,-42.968750
599,-42.968750
600,-42.968750
601,-46.875000
602,-46.875000
603,-46.875000
604,-46.875000
605,-50.781250
606,-50.781250
607,-50.781250
608,-54.687500
609,-54.687500
610,-54.687500
611,-54.687500
612,-58.593750
613,-58.593750
614,-58.593750
615,-62.500000
616,-62.500000
617,-62.500000
618,-62.500000
619,-66.406250
620,-66.406250
621,-66.406250
622,-70.312500
623,-70.312500
624,-70.312500
625,-74.218750
626,-74.218750
627,-74.218750
628,-78.125000
629,-78.125000
630,-78.125000
631,-78.125000
632,-78.125000
633,-82.031250
634,-82.031250
635,-82.031250
636,-85.937500
637,-85.937500
638,-85.937500
639,-89.843750
640,-89.843750
641,-89.843750
642,-89.843750
643,-89.843750
644,-93.750000
645,-93.750000
646,-93.750000
647,-97.656250
648,-97.656250
649,-97.656250
650,-97.656250
651,-101.562500
652,-101.562500
653,-101.562500
654,-105.468750
655,-105.468750
656,-105.468750
657,-105.468750
658,-109.375000
659,-109.375000
660,-109.375000
661,-109.375000
662,-109.375000
663,-113.281250
664,-113.281250
665,-113.281250
666,-117.187500
667,-117.187500
668,-117.187500
669,-117.187500
670,-121.093750
671,-121.093750
672,-121.093750
673,-121.093750
674,-125.000000
675,-125.000000
676,-125.000000
677,-125.000000
678,-125.000000
679,-128.906250
680,-128.906250
681,-128.906250
682,-128.906250
683,-132.812500
684,-132.812500
685,-132.812500
686,-132.812500
687,-136.718750
688,-136.718750
689,-136.718750
690,-136.718750
691,-136.718750
692,-140.625000
693,-140.625000
694,-140.625000
695,-140.625000
696,-144.531250
697,-144.531250
698,-144.531250
699,-144.531250
700,-144.531250
701,-148.437500
702,-148.437500
703,-148.437500
704,-148.437500
705,-148.437500
706,-152.343750
707,-152.343750
708,-152.343750
709,-152.343750
710,-156.250000
711,-156.250000
712,-156.250000
713,-156.250000
714,-156.250000
715,-156.250000
716,-160.156250
717,-160.156250
718,-160.156250
719,-160.156250
720,-160.156250
721,-164.062500
722,-164.062500
723,-164.062500
724,-164.062500
725,-164.062500
726,-164.062500
727,-167.968750
728,-167.968750
729,-167.968750
730,-167.968750
731,-167.968750
732,-171.875000
733,-171.875000
734,-171.875000
735,-171.875000
736,-171.875000
737,-171.875000
738,-171.875000
739,-175.781250
740,-175.781250
741,-175.781250
742,-175.781250
743,-175.781250
744,-175.781250
745,-175.781250
746,-179.687500
747,-179.687500
748,-179.687500
749,-179.687500
750,-179.687500
751,-179.687500
752,-179.687500
753,-179.687500
754,-183.593750
755,-183.593750
756,-183.593750
757,-183.593750
758,-183.593750
759,-183.593750
760,-183.593750
761,-183.593750
762,-183.593750
763,-187.500000
764,-187.500000
765,-187.500000
766,-187.500000
767,-187.500000
768,-187.500000
769,-187.500000
770,-187.500000
771,-187.500000
772,-187.500000
773,-187.500000
774,-187.500000
775,-187.500000
776,-191.406250
777,-191.406250
778,-191.406250
779,-191.406250
780,-191.406250
781,-191.406250
782,-191.406250
783,-191.406250
784,-191.406250
785,-191.406250
786,-191.406250
787,-195.312500
788,-195.312500
789,-195.312500
790,-195.312500
791,-195.312500
792,-195.312500
793,-195.312500
794,-195.312500
795,-195.312500
796,-195.312500
797,-195.312500
798,-195.312500
799,-195.312500
800,-195.312500
801,-195.312500
802,-195.312500
803,-195.312500
804,-195.312500
805,-195.312500
806,-195.312500
807,-195.312500
808,-195.312500
809,-195.312500
810,-195.312500
811,-195.312500
812,-195.312500
813,-195.312500
814,-195.312500
815,-195.312500
816,-195.312500
817,-195.312500
818,-195.312500
819,-195.312500
820,-195.312500
821,-195.312500
822,-195.312500
823,-195.312500
824,-195.312500
825,-195.312500
826,-195.312500
827,-195.312500
828,-195.312500
829,-195.312500
830,-195.312500
831,-195.312500
832,-195.312500
833,-195.312500
834,-195.312500
835,-191.406250
836,-191.406250
837,-191.406250
838,-191.406250
839,-191.406250
840,-191.406250
841,-191.406250
842,-191.406250
843,-191.406250
844,-191.406250
845,-191.406250
846,-191.406250
847,-191.406250
848,-191.406250
849,-191.406250
850,-191.406250
851,-191.406250
852,-191.406250
853,-191.406250
854,-187.500000
855,-187.500000
856,-187.500000
857,-187.500000
858,-187.500000
859,-187.500000
860,-187.500000
861,-187.500000
862,-187.500000
863,-187.500000
864,-187.500000
865,-183.593750
866,-183.593750
867,-183.593750
868,-183.593750
869,-183.593750
870,-183.593750
871,-183.593750
872,-183.593750
873,-179.687500
874,-179.687500
875,-179.687500
876,-179.687500
877,-179.687500
878,-179.687500
879,-179.687500
880,-179.687500
881,-179.687500
882,-175.781250
883,-175.781250
884,-175.781250
885,-175.781250
886,-175.781250
887,-175.781250
888,-175.781250
889,-171.875000
890,-171.875000
891,-171.875000
892,-171.875000
893,-171.875000
894,-167.968750
895,-167.968750
896,-167.968750
897,-167.968750
898,-167.968750
899,-167.968750
900,-167.968750
901,-164.062500
902,-167.968750
903,-164.062500
904,-164.062500
905,-164.062500
906,-160.156250
907,-160.156250
908,-160.156250
909,-160.156250
910,-160.156250
911,-160.156250
912,-156.250000
913,-156.250000
914,-156.250000
915,-156.250000
916,-156.250000
917,-152.343750
918,-152.343750
919,-152.343750
920,-152.343750
921,-148.437500
922,-148.437500
923,-148.437500
924,-148.437500
925,-148.437500
926,-148.437500
927,-144.531250
928,-144.531250
929,-144.531250
930,-144.531250
931,-140.625000
932,-140.625000
933,-140.625000
934,-140.625000
935,-140.625000
936,-136.718750
937,-136.718750
938,-136.718750
939,-136.718750
940,-132.812500
941,-132.812500
942,-132.812500
943,-132.812500
944,-132.812500
945,-128.906250
946,-128.906250
947,-128.906250
948,-128.906250
949,-125.000000
950,-125.000000
951,-125.000000
952,-125.000000
953,-121.093750
954,-121.093750
955,-121.093750
956,-117.187500
957,-117.187500
958,-117.187500
959,-117.187500
960,-113.281250
961,-113.281250
962,-113.281250
963,-113.281250
964,-109.375000
965,-109.375000
966,-109.375000
967,-109.375000
968,-105.468750
969,-105.468750
970,-105.468750
971,-105.468750
972,-101.562500
973,-101.562500
974,-101.562500
975,-101.562500
976,-97.656250
977,-97.656250
978,-97.656250
979,-97.656250
980,-97.656250
981,-93.750000
982,-93.750000
983,-93.750000
984,-89.843750
985,-89.843750
986,-89.843750
987,-89.843750
988,-85.937500
989,-85.937500
990,-82.031250
991,-82.031250
992,-82.031250
993,-82.031250
994,-78.125000
995,-78.125000
996,-78.125000
997,-78.125000
998,-74.218750
999,-74.218750
1000,-74.218750
1001,-74.218750
1002,-70.312500
1003,-70.312500
1004,-70.312500
1005,-66.406250
1006,-66.406250
1007,-66.406250
1008,-62.500000
1009,-62.500000
1010,-62.500000
1011,-62.500000
1012,-58.593750
1013,-58.593750
1014,-58.593750
1015,-58.593750
1016,-54.687500
1017,-54.687500
1018,-54.687500
1019,-50.781250
1020,-50.781250
1021,-50.781250
1022,-50.781250
1023,-46.875000
1024,-46.875000
1025,-46.875000
1026,-42.968750
1027,-42.968750
1028,-42.968750
1029,-42.968750
1030,-39.062500
1031,-39.062500
1032,-39.062500
1033,-35.156250
1034,-35.156250
1035,-35.156250
1036,-31.250000
1037,-31.250000
1038,-31.250000
1039,-31.250000
1040,-27.343750
1041,-27.343750
1042,-27.343750
1043,-23.437500
1044,-23.437500
1045,-23.437500
1046,-19.531250
1047,-19.531250
1048,-19.531250
1049,-19.531250
1050,-15.625000
1051,-15.625000
1052,-15.625000
1053,-15.625000
1054,-11.718750
1055,-11.718750
1056,-7.812500
1057,-7.812500
1058,-7.812500
1059,-7.812500
1060,-7.812500
1061,-3.906250
1062,-3.906250
1063,-3.906250
1064,0.000000
1065,0.000000
1066,0.000000
1067,3.906250
1068,3.906250
1069,3.906250
1070,3.906250
1071,7.812500
1072,7.812500
1073,7.812500
1074,11.718750
1075,11.718750
1076,11.718750
1077,11.718750
1078,15.625000
1079,15.625000
1080,15.625000
1081,15.625000
1082,19.531250
1083,19.531250
1084,19.531250
1085,19.531250
1086,23.437500
1087,23.437500
1088,23.437500
1089,27.343750
1090,27.343750
1091,27.343750
1092,27.343750
1093,31.250000
1094,31.250000
1095,31.250000
1096,31.250000
1097,35.156250
1098,35.156250
1099,35.156250
1100,39.062500
1101,39.062500
1102,39.062500
1103,39.062500
1104,42.968750
1105,42.968750
1106,42.968750
1107,42.968750
1108,46.875000
1109,46.875000
1110,46.875000
1111,46.875000
1112,50.781250
1113,50.781250
1114,50.781250
1115,50.781250
1116,54.687500
1117,54.687500
1118,54.687500
1119,54.687500
1120,58.593750
1121,58.593750
1122,58.593750
1123,58.593750
1124,58.593750
1125,62.500000
1126,62.500000
1127,62.500000
1128,66.406250
1129,66.406250
1130,66.406250
1131,66.406250
1132,66.406250
1133,66.406250
1134,70.312500
1135,70.312500
1136,70.312500
1137,74.218750
1138,74.218750
1139,74.218750
1140,74.218750
1141,74.218750
1142,78.125000
1143,78.125000
1144,78.125000
1145,78.125000
1146,78.125000
1147,82.031250
1148,82.031250
1149,82.031250
1150,82.031250
1151,85.937500
1152,85.937500
1153,85.937500
1154,85.937500
1155,85.937500
1156,89.843750
1157,89.843750
1158,89.843750
1159,89.843750
1160,89.843750
1161,89.843750
1162,93.750000
1163,93.750000
1164,93.750000
1165,93.750000
1166,93.750000
1167,97.656250
1168,97.656250
1169,97.656250
1170,97.656250
1171,97.656250
1172,101.562500
1173,101.562500
1174,101.562500
1175,101.562500
1176,101.562500
1177,101.562500
1178,105.468750
1179,105.468750
1180,105.468750
1181,105.468750
1182,105.468750
1183,109.375000
1184,109.375000
1185,109.375000
1186,109.375000
1187,109.375000
1188,113.281250
1189,109.375000
1190,113.281250
1191,113.281250
1192,113.281250
1193,113.281250
1194,113.281250
1195,113.281250
1196,117.187500
1197,117.187500
1198,117.187500
1199,117.187500
1200,117.187500
1201,117.187500
1202,117.187500
1203,121.093750
1204,121.093750
1205,121.093750
1206,121.093750
1207,121.093750
1208,121.093750
1209,125.000000
1210,125.000000
1211,125.000000
1212,125.000000
1213,125.000000
1214,125.000000
1215,125.000000
1216,128.906250
1217,128.906250
1218,128.906250
1219,128.906250
1220,128.906250
1221,128.906250
1222,128.906250
1223,128.906250
1224,128.906250
1225,128.906250
1226,132.812500
1227,132.812500
1228,132.812500
1229,132.812500
1230,132.812500
1231,132.812500
1232,132.812500
1233,132.812500
1234,132.812500
1235,132.812500
1236,136.718750
1237,136.718750
1238,136.718750
1239,136.718750
1240,136.718750
1241,136.718750
1242,136.718750
1243,136.718750
1244,136.718750
1245,136.718750
1246,136.718750
1247,140.625000
1248,136.718750
1249,140.625000
1250,140.625000
1251,140.625000
1252,140.625000
1253,140.625000
1254,140.625000
1255,140.625000
1256,140.625000
1257,140.625000
1258,140.625000
1259,140.625000
1260,140.625000
1261,140.625000
1262,144.531250
1263,144.531250
1264,144.531250
1265,144.531250
1266,144.531250
1267,144.531250
1268,144.531250
1269,144.531250
1270,144.531250
1271,144.531250
1272,144.531250
1273,144.531250
1274,144.531250
1275,144.531250
1276,144.531250
1277,144.531250
1278,144.531250
1279,148.437500
1280,144.531250
1281,144.531250
1282,144.531250
1283,144.531250
1284,144.531250
1285,144.531250
1286,148.437500
1287,144.531250
1288,148.437500
1289,148.437500
1290,148.437500
1291,148.437500
1292,144.531250
1293,148.437500
1294,148.437500
1295,148.437500
1296,148.437500
1297,148.437500
1298,148.437500
1299,148.437500
1300,148.437500
1301,148.437500
1302,148.437500
1303,148.437500
1304,148.437500
1305,148.437500
1306,148.437500
1307,148.437500
1308,148.437500
1309,148.437500
1310,148.437500
1311,148.437500
1312,148.437500
1313,148.437500
1314,148.437500
1315,148.437500
1316,148.437500
1317,148.437500
1318,148.437500
1319,148.437500
1320,148.437500
1321,148.437500
1322,148.437500
1323,148.437500
1324,148.437500
1325,148.437500
1326,148.437500
1327,148.437500
1328,148.437500
1329,148.437500
1330,148.437500
1331,148.437500
1332,148.437500
1333,148.437500
1334,148.437500
1335,148.437500
1336,148.437500
1337,144.531250
1338,148.437500
1339,144.531250
1340,144.531250
1341,144.531250
1342,144.531250
1343,148.437500
1344,144.531250
1345,144.531250
1346,144.531250
1347,144.531250
1348,144.531250
1349,144.531250
1350,144.531250
1351,144.531250
1352,144.531250
1353,144.531250
1354,144.531250
1355,144.531250
1356,144.531250
1357,140.625000
1358,140.625000
1359,140.625000
1360,140.625000
1361,140.625000
1362,140.625000
1363,140.625000
1364,140.625000
1365,140.625000
1366,140.625000
1367,140.625000
1368,140.625000
1369,140.625000
1370,140.625000
1371,140.625000
1372,136.718750
1373,136.718750
1374,136.718750
1375,136.718750
1376,136.718750
1377,136.718750
1378,136.718750
1379,136.718750
1380,136.718750
1381,136.718750
1382,136.718750
1383,132.812500
1384,132.812500
1385,132.812500
1386,132.812500
1387,132.812500
1388,132.812500
1389,132.812500
1390,132.812500
1391,132.812500
1392,132.812500
1393,128.906250
1394,128.906250
1395,128.906250
1396,132.812500
1397,128.906250
1398,128.906250
1399,128.906250
1400,128.906250
1401,125.000000
1402,125.000000
1403,125.000000
1404,125.000000
1405,125.000000
1406,125.000000
1407,125.000000
1408,125.000000
1409,121.093750
1410,121.093750
1411,121.093750
1412,121.093750
1413,121.093750
1414,121.093750
1415,121.093750
1416,117.187500
1417,117.187500
1418,117.187500
1419,117.187500
1420,117.187500
1421,117.187500
1422,117.187500
1423,113.281250
1424,113.281250
1425,113.281250
1426,113.281250
1427,113.281250
1428,113.281250
1429,113.281250
1430,113.281250
1431,109.375000
1432,109.375000
1433,109.375000
1434,109.375000
1435,109.375000
1436,109.375000
1437,105.468750
1438,105.468750
1439,105.468750
1440,105.468750
1441,105.468750
1442,101.562500
1443,101.562500
1444,101.562500
1445,101.562500
1446,101.562500
1447,101.562500
1448,97.656250
1449,97.656250
1450,97.656250
1451,97.656250
1452,97.656250
1453,93.750000
1454,93.750000
1455,93.750000
1456,93.750000
1457,93.750000
1458,93.750000
1459,89.843750
1460,89.843750
1461,89.843750
1462,89.843750
1463,85.937500
1464,85.937500
1465,85.937500
1466,85.937500
1467,85.937500
1468,82.031250
1469,82.031250
1470,82.031250
1471,82.031250
1472,82.031250
1473,78.125000
1474,78.125000
1475,78.125000
1476,78.125000
1477,74.218750
1478,74.218750
1479,74.218750
1480,74.218750
1481,74.218750
1482,70.312500
1483,70.312500
1484,70.312500
1485,70.312500
1486,66.406250
1487,66.406250
1488,66.406250
1489,66.406250
1490,62.500000
1491,62.500000
1492,62.500000
1493,62.500000
1494,58.593750
1495,58.593750
1496,58.593750
1497,58.593750
1498,58.593750
1499,54.687500
1500,54.687500
1501,54.687500
1502,54.687500
1503,50.781250
1504,50.781250
1505,50.781250
1506,50.781250
1507,46.875000
1508,46.875000
1509,46.875000
1510,46.875000
1511,42.968750
1512,42.968750
1513,42.968750
1514,42.968750
1515,39.062500
1516,39.062500
1517,39.062500
1518,39.062500
1519,35.156250
1520,35.156250
1521,35.156250
1522,31.250000
1523,31.250000
1524,31.250000
1525,31.250000
1526,31.250000
1527,27.343750
1528,27.343750
1529,27.343750
1530,23.437500
1531,23.437500
1532,23.437500
1533,23.437500
1534,19.531250
1535,19.531250
1536,19.531250
1537,15.625000
1538,15.625000
1539,15.625000
1540,15.625000
1541,11.718750
1542,11.718750
1543,7.812500
1544,11.718750
1545,7.812500
1546,7.812500
1547,7.812500
1548,7.812500
1549,3.906250
1550,3.906250
1551,0.000000
1552,0.000000
1553,0.000000
1554,0.000000
1555,-3.906250
1556,-3.906250
1557,-3.906250
1558,-7.812500
1559,-7.812500
1560,-7.812500
1561,-7.812500
1562,-11.718750
1563,-11.718750
1564,-11.718750
1565,-11.718750
1566,-15.625000
1567,-15.625000
1568,-15.625000
1569,-19.531250
1570,-19.531250
1571,-19.531250
1572,-19.531250
1573,-23.437500
1574,-23.437500
1575,-23.437500
1576,-27.343750
1577,-27.343750
1578,-27.343750
1579,-27.343750
1580,-31.250000
1581,-31.250000
1582,-31.250000
1583,-35.156250
1584,-35.156250
1585,-35.156250
1586,-39.062500
1587,-39.062500
1588,-39.062500
1589,-39.062500
1590,-39.062500
1591,-42.968750
1592,-42.968750
1593,-46.875000
1594,-46.875000
1595,-46.875000
1596,-46.875000
1597,-50.781250
1598,-50.781250
1599,-50.781250
1600,-54.687500
1601,-54.687500
1602,-54.687500
1603,-54.687500
1604,-58.593750
1605,-58.593750
1606,-58.593750
1607,-62.500000
1608,-62.500000
1609,-62.500000
1610,-62.500000
1611,-66.406250
1612,-66.406250
1613,-66.406250
1614,-70.312500
1615,-70.312500
1616,-70.312500
1617,-74.218750
1618,-74.218750
1619,-74.218750
1620,-74.218750
1621,-78.125000
1622,-78.125000
1623,-78.125000
1624,-82.031250
1625,-82.031250
1626,-82.031250
1627,-82.031250
1628,-85.937500
1629,-85.937500
1630,-85.937500
1631,-85.937500
1632,-89.843750
1633,-89.843750
1634,-89.843750
1635,-93.750000
1636,-93.750000
1637,-93.750000
1638,-93.750000
1639,-97.656250
1640,-97.656250
1641,-97.656250
1642,-97.656250
1643,-101.562500
1644,-101.562500
1645,-101.562500
1646,-101.562500
1647,-105.468750
1648,-105.468750
1649,-105.468750
1650,-105.468750
1651,-109.375000
1652,-109.375000
1653,-109.375000
1654,-109.375000
1655,-113.281250
1656,-113.281250
1657,-113.281250
1658,-117.187500
1659,-117.187500
1660,-117.187500
1661,-117.187500
1662,-121.093750
1663,-121.093750
1664,-121.093750
1665,-121.093750
1666,-121.093750
1667,-125.000000
1668,-125.000000
1669,-125.000000
1670,-125.000000
1671,-128.906250
1672,-128.906250
1673,-128.906250
1674,-128.906250
1675,-132.812500
1676,-132.812500
1677,-132.812500
1678,-132.812500
1679,-136.718750
1680,-136.718750
1681,-136.718750
1682,-136.718750
1683,-136.718750
1684,-140.625000
1685,-140.625000
1686,-140.625000
1687,-140.625000
1688,-140.625000
1689,-144.531250
1690,-144.531250
1691,-144.531250
1692,-144.531250
1693,-144.531250
1694,-148.437500
1695,-148.437500
1696,-148.437500
1697,-148.437500
1698,-152.343750
1699,-152.343750
1700,-152.343750
1701,-152.343750
1702,-152.343750
1703,-152.343750
1704,-156.250000
1705,-156.250000
1706,-156.250000
1707,-156.250000
1708,-156.250000
1709,-160.156250
1710,-160.156250
1711,-160.156250
1712,-160.156250
1713,-160.156250
1714,-160.156250
1715,-164.062500
1716,-164.062500
1717,-164.062500
1718,-164.062500
1719,-164.062500
1720,-164.062500
1721,-167.968750
1722,-167.968750
1723,-167.968750
1724,-167.968750
1725,-167.968750
1726,-167.968750
1727,-167.968750
1728,-171.875000
1729,-171.875000
1730,-171.875000
1731,-171.875000
1732,-171.875000
1733,-171.875000
1734,-175.781250
1735,-175.781250
1736,-175.781250
1737,-175.781250
1738,-175.781250
1739,-175.781250
1740,-175.781250
1741,-175.781250
1742,-175.781250
1743,-179.687500
1744,-179.687500
1745,-179.687500
1746,-179.687500
1747,-179.687500
1748,-179.687500
1749,-179.687500
1750,-179.687500
1751,-183.593750
1752,-183.593750
1753,-183.593750
1754,-183.593750
1755,-183.593750
1756,-183.593750
1757,-183.593750
1758,-183.593750
1759,-183.593750
1760,-187.500000
1761,-187.500000
1762,-187.500000
1763,-187.500000
1764,-187.500000
1765,-187.500000
1766,-187.500000
1767,-187.500000
1768,-187.500000
1769,-187.500000
1770,-187.500000
1771,-187.500000
1772,-191.406250
1773,-187.500000
1774,-187.500000
1775,-187.500000
1776,-191.406250
1777,-191.406250
1778,-191.406250
1779,-191.406250
1780,-191.406250
1781,-191.406250
1782,-191.406250
1783,-191.406250
1784,-191.406250
1785,-191.406250
1786,-191.406250
1787,-191.406250
1788,-191.406250
1789,-191.406250
1790,-191.406250
1791,-191.406250
1792,-191.406250
1793,-191.406250
1794,-191.406250
1795,-191.406250
1796,-195.312500
1797,-191.406250
1798,-195.312500
1799,-191.406250
1800,-191.406250
1801,-195.312500
1802,-191.406250
1803,-191.406250
1804,-191.406250
1805,-195.312500
1806,-191.406250
1807,-195.312500
1808,-195.312500
1809,-191.406250
1810,-191.406250
1811,-191.406250
1812,-191.406250
1813,-191.406250
1814,-191.406250
1815,-191.406250
1816,-191.406250
1817,-191.406250
1818,-191.406250
1819,-191.406250
1820,-191.406250
1821,-191.406250
1822,-191.406250
1823,-191.406250
1824,-191.406250
1825,-191.406250
1826,-191.406250
1827,-191.406250
1828,-191.406250
1829,-191.406250
1830,-187.500000
1831,-191.406250
1832,-187.500000
1833,-187.500000
1834,-191.406250
1835,-187.500000
1836,-187.500000
1837,-187.500000
1838,-187.500000
1839,-187.500000
1840,-187.500000
1841,-187.500000
1842,-187.500000
1843,-187.500000
1844,-187.500000
1845,-187.500000
1846,-183.593750
1847,-183.593750
1848,-183.593750
1849,-183.593750
1850,-183.593750
1851,-183.593750
1852,-183.593750
1853,-183.593750
1854,-183.593750
1855,-183.593750
1856,-179.687500
1857,-179.687500
1858,-179.687500
1859,-179.687500
1860,-179.687500
1861,-179.687500
1862,-179.687500
1863,-179.687500
1864,-179.687500
1865,-175.781250
1866,-175.781250
1867,-175.781250
1868,-175.781250
1869,-175.781250
1870,-175.781250
1871,-175.781250
1872,-175.781250
1873,-171.875000
1874,-171.875000
1875,-171.875000
1876,-171.875000
1877,-171.875000
1878,-171.875000
1879,-171.875000
1880,-167.968750
1881,-167.968750
1882,-167.968750
1883,-167.968750
1884,-167.968750
1885,-164.062500
1886,-164.062500
1887,-164.062500
1888,-164.062500
1889,-164.062500
1890,-164.062500
1891,-164.062500
1892,-160.156250
1893,-160.156250
1894,-160.156250
1895,-160.156250
1896,-160.156250
1897,-160.156250
1898,-156.250000
1899,-156.250000
1900,-156.250000
1901,-156.250000
1902,-156.250000
1903,-152.343750
1904,-152.343750
1905,-152.343750
1906,-152.343750
1907,-152.343750
1908,-148.437500
1909,-148.437500
1910,-148.437500
1911,-148.437500
1912,-148.437500
1913,-144.531250
1914,-144.531250
1915,-144.531250
1916,-144.531250
1917,-144.531250
1918,-144.531250
1919,-140.625000
1920,-140.625000
1921,-140.625000
1922,-140.625000
1923,-136.718750
1924,-136.718750
1925,-136.718750
1926,-136.718750
1927,-132.812500
1928,-132.812500
1929,-132.812500
1930,-132.812500
1931,-132.812500
1932,-128.906250
1933,-128.906250
1934,-128.906250
1935,-128.906250
1936,-125.000000
1937,-125.000000
1938,-125.000000
1939,-125.000000
1940,-125.000000
1941,-121.093750
1942,-121.093750
1943,-117.187500
1944,-117.187500
1945,-117.187500
1946,-117.187500
1947,-117.187500
1948,-113.281250
1949,-113.281250
1950,-113.281250
1951,-113.281250
1952,-109.375000
1953,-109.375000
1954,-109.375000
1955,-109.375000
1956,-105.468750
1957,-105.468750
1958,-105.468750
1959,-105.468750
1960,-101.562500
1961,-101.562500
1962,-101.562500
1963,-97.656250
1964,-97.656250
1965,-97.656250
1966,-97.656250
1967,-97.656250
1968,-93.750000
1969,-93.750000
1970,-93.750000
1971,-89.843750
1972,-89.843750
1973,-89.843750
1974,-85.937500
1975,-85.937500
1976,-85.937500
1977,-85.937500
1978,-82.031250
1979,-82.031250
1980,-82.031250
1981,-82.031250
1982,-78.125000
1983,-78.125000
1984,-78.125000
1985,-74.218750
1986,-74.218750
1987,-74.218750
1988,-74.218750
1989,-70.312500
1990,-70.312500
1991,-70.312500
1992,-66.406250
1993,-66.406250
1994,-66.406250
1995,-66.406250
1996,-62.500000
1997,-62.500000
1998,-62.500000
1999,-62.500000
2000,-58.593750
2001,-58.593750
2002,-58.593750
2003,-54.687500
2004,-54.687500
2005,-54.687500
2006,-50.781250
2007,-50.781250
2008,-50.781250
2009,-46.875000
2010,-46.875000
2011,-46.875000
2012,-46.875000
2013,-42.968750
2014,-42.968750
2015,-42.968750
2016,-42.968750
2017,-39.062500
2018,-39.062500
2019,-39.062500
2020,-35.156250
2021,-35.156250
2022,-35.156250
2023,-35.156250
2024,-31.250000
2025,-31.250000
2026,-31.250000
2027,-31.250000
2028,-27.343750
2029,-27.343750
2030,-27.343750
2031,-23.437500
2032,-23.437500
2033,-23.437500
2034,-19.531250
2035,-19.531250
2036,-19.531250
2037,-15.625000
2038,-15.625000
2039,-15.625000
2040,-15.625000
2041,-11.718750
2042,-11.718750
2043,-11.718750
2044,-11.718750
2045,-7.812500
2046,-7.812500
2047,-7.812500
2048,-7.812500
2049,-3.906250
2050,-3.906250
2051,0.000000
2052,0.000000
2053,0.000000
2054,0.000000
2055,0.000000
2056,3.906250
2057,3.906250
2058,3.906250
2059,7.812500
2060,7.812500
2061,7.812500
2062,11.718750
2063,11.718750
2064,11.718750
2065,11.718750
2066,15.625000
2067,15.625000
2068,15.625000
2069,15.625000
2070,19.531250
2071,19.531250
2072,19.531250
2073,19.531250
2074,19.531250
2075,23.437500
2076,23.437500
2077,27.343750
2078,27.343750
2079,27.343750
2080,27.343750
2081,31.250000
2082,31.250000
2083,31.250000
2084,35.156250
2085,35.156250
2086,35.156250
2087,35.156250
2088,39.062500
2089,35.156250
2090,39.062500
2091,39.062500
2092,42.968750
2093,42.968750
2094,42.968750
2095,42.968750
2096,46.875000
2097,46.875000
2098,46.875000
2099,46.875000
2100,50.781250
2101,50.781250
2102,50.781250
2103,50.781250
2104,54.687500
2105,54.687500
2106,54.687500
2107,54.687500
2108,58.593750
2109,58.593750
2110,58.593750
2111,58.593750
2112,58.593750
2113,62.500000
2114,62.500000
2115,62.500000
2116,66.406250
2117,66.406250
2118,66.406250
2119,66.406250
2120,66.406250
2121,70.312500
2122,70.312500
2123,70.312500
2124,70.312500
2125,70.312500
2126,74.218750
2127,74.218750
2128,74.218750
2129,74.218750
2130,78.125000
2131,78.125000
2132,78.125000
2133,78.125000
2134,82.031250
2135,82.031250
2136,82.031250
2137,82.031250
2138,82.031250
2139,85.937500
2140,85.937500
2141,85.937500
2142,85.937500
2143,85.937500
2144,85.937500
2145,89.843750
2146,89.843750
2147,89.843750
2148,89.843750
2149,93.750000
2150,93.750000
2151,93.750000
2152,93.750000
2153,93.750000
2154,93.750000
2155,97.656250
2156,97.656250
2157,97.656250
2158,97.656250
2159,97.656250
2160,101.562500
2161,101.562500
2162,101.562500
2163,101.562500
2164,101.562500
2165,101.562500
2166,105.468750
2167,105.468750
2168,105.468750
2169,105.468750
2170,105.468750
2171,105.468750
2172,109.375000
2173,109.375000
2174,109.375000
2175,109.375000
2176,109.375000
2177,113.281250
2178,113.281250
2179,113.281250
2180,113.281250
2181,113.281250
2182,113.281250
2183,113.281250
2184,113.281250
2185,117.187500
2186,117.187500
2187,117.187500
2188,117.187500
2189,117.187500
2190,121.093750
2191,121.093750
2192,121.093750
2193,121.093750
2194,121.093750
2195,121.093750
2196,121.093750
2197,121.093750
2198,121.093750
2199,125.000000
2200,125.000000
2201,125.000000
2202,125.000000
2203,125.000000
2204,125.000000
2205,125.000000
2206,125.000000
2207,128.906250
2208,128.906250
2209,128.906250
2210,128.906250
2211,128.906250
2212,128.906250
2213,128.906250
2214,128.906250
2215,128.906250
2216,132.812500
2217,132.812500
2218,132.812500
2219,132.812500
2220,132.812500
2221,132.812500
2222,132.812500
2223,132.812500
2224,136.718750
2225,136.718750
2226,136.718750
2227,136.718750
2228,136.718750
2229,136.718750
2230,136.718750
2231,136.718750
2232,136.718750
2233,136.718750
2234,140.625000
2235,136.718750
2236,140.625000
2237,140.625000
2238,140.625000
2239,140.625000
2240,140.625000
2241,140.625000
2242,140.625000
2243,140.625000
2244,140.625000
2245,140.625000
2246,140.625000
2247,140.625000
2248,140.625000
2249,144.531250
2250,144.531250
2251,144.531250
2252,144.531250
2253,144.531250
2254,144.531250
2255,144.531250
2256,144.531250
2257,144.531250
2258,144.531250
2259,144.531250
2260,144.531250
2261,144.531250
2262,144.531250
2263,144.531250
2264,144.531250
2265,144.531250
2266,144.531250
2267,144.531250
2268,148.437500
2269,144.531250
2270,148.437500
2271,148.437500
2272,148.437500
2273,148.437500
2274,148.437500
2275,148.437500
2276,148.437500
2277,148.437500
2278,148.437500
2279,148.437500
2280,148.437500
2281,148.437500
2282,148.437500
2283,148.437500
2284,148.437500
2285,148.437500
2286,148.437500
2287,148.437500
2288,148.437500
2289,148.437500
2290,148.437500
2291,148.437500
2292,148.437500
2293,148.437500
2294,148.437500
2295,148.437500
2296,148.437500
2297,148.437500
2298,148.437500
2299,148.437500
2300,148.437500
2301,148.437500
2302,148.437500
2303,148.437500
2304,148.437500
2305,148.437500
2306,148.437500
2307,148.437500
2308,148.437500
2309,148.437500
2310,148.437500
2311,148.437500
2312,148.437500
2313,148.437500
2314,148.437500
2315,148.437500
2316,148.437500
2317,148.437500
2318,148.437500
2319,148.437500
2320,148.437500
2321,148.437500
2322,148.437500
2323,148.437500
2324,144.531250
2325,148.437500
2326,148.437500
2327,144.531250
2328,148.437500
2329,148.437500
2330,148.437500
2331,144.531250
2332,148.437500
2333,144.531250
2334,144.531250
2335,144.531250
2336,144.531250
2337,144.531250
2338,144.531250
2339,144.531250
2340,144.531250
2341,144.531250
2342,144.531250
2343,144.531250
2344,144.531250
2345,144.531250
2346,144.531250
2347,144.531250
2348,144.531250
2349,140.625000
2350,140.625000
2351,140.625000
2352,140.625000
2353,140.625000
2354,140.625000
2355,140.625000
2356,140.625000
2357,140.625000
2358,140.625000
2359,140.625000
2360,140.625000
2361,136.718750
2362,136.718750
2363,136.718750
2364,136.718750
2365,136.718750
2366,136.718750
2367,136.718750
2368,136.718750
2369,136.718750
2370,136.718750
2371,136.718750
2372,136.718750
2373,132.812500
2374,136.718750
2375,132.812500
2376,132.812500
2377,132.812500
2378,132.812500
2379,132.812500
2380,132.812500
2381,132.812500
2382,132.812500
2383,128.906250
2384,128.906250
2385,128.906250
2386,128.906250
2387,128.906250
2388,128.906250
2389,128.906250
2390,128.906250
2391,128.906250
2392,128.906250
2393,125.000000
2394,125.000000
2395,125.000000
2396,125.000000
2397,125.000000
2398,125.000000
2399,121.093750
2400,121.093750
2401,121.093750
2402,121.093750
2403,121.093750
2404,121.093750
2405,121.093750
2406,117.187500
2407,117.187500
2408,117.187500
2409,117.187500
2410,117.187500
2411,117.187500
2412,117.187500
2413,117.187500
2414,113.281250
2415,113.281250
2416,113.281250
2417,113.281250
2418,109.375000
2419,109.375000
2420,109.375000
2421,109.375000
2422,109.375000
2423,109.375000
2424,109.375000
2425,109.375000
2426,109.375000
2427,105.468750
2428,105.468750
2429,105.468750
2430,105.468750
2431,101.562500
2432,101.562500
2433,101.562500
2434,101.562500
2435,101.562500
2436,97.656250
2437,97.656250
2438,97.656250
2439,97.656250
2440,97.656250
2441,97.656250
2442,93.750000
2443,93.750000
2444,89.843750
2445,93.750000
2446,93.750000
2447,89.843750
2448,89.843750
2449,89.843750
2450,89.843750
2451,89.843750
2452,85.937500
2453,85.937500
2454,85.937500
2455,85.937500
2456,85.937500
2457,82.031250
2458,82.031250
2459,82.031250
2460,82.031250
2461,82.031250
2462,78.125000
2463,78.125000
2464,78.125000
2465,78.125000
2466,78.125000
2467,74.218750
2468,74.218750
2469,74.218750
2470,70.312500
2471,70.312500
2472,70.312500
2473,70.312500
2474,70.312500
2475,66.406250
2476,66.406250
2477,66.406250
2478,66.406250
2479,62.500000
2480,62.500000
2481,62.500000
2482,62.500000
2483,58.593750
2484,58.593750
2485,58.593750
2486,58.593750
2487,58.593750
2488,58.593750
2489,54.687500
2490,54.687500
2491,54.687500
2492,54.687500
2493,50.781250
2494,50.781250
2495,50.781250
2496,50.781250
2497,46.875000
2498,46.875000
2499,46.875000
2500,42.968750
2501,42.968750
2502,42.968750
2503,42.968750
2504,39.062500
2505,39.062500
2506,39.062500
2507,39.062500
2508,35.156250
2509,35.156250
2510,35.156250
2511,35.156250
2512,31.250000
2513,31.250000
2514,31.250000
2515,27.343750
2516,27.343750
2517,27.343750
2518,27.343750
2519,23.437500
2520,23.437500
2521,23.437500
2522,23.437500
2523,19.531250
2524,19.531250
2525,19.531250
2526,15.625000
2527,15.625000
2528,19.531250
2529,15.625000
2530,11.718750
2531,11.718750
2532,11.718750
2533,7.812500
2534,7.812500
2535,7.812500
2536,7.812500
2537,3.906250
2538,3.906250
2539,3.906250
2540,0.000000
2541,0.000000
2542,0.000000
2543,0.000000
2544,-3.906250
2545,-3.906250
2546,-3.906250
2547,-7.812500
2548,-3.906250
2549,-7.812500
2550,-7.812500
2551,-11.718750
2552,-11.718750
2553,-11.718750
2554,-15.625000
2555,-15.625000
2556,-15.625000
2557,-15.625000
2558,-19.531250
2559,-19.531250
2560,-19.531250
2561,-23.437500
2562,-23.437500
2563,-23.437500
2564,-23.437500
2565,-27.343750
2566,-27.343750
2567,-27.343750
2568,-31.250000
2569,-31.250000
2570,-31.250000
2571,-35.156250
2572,-35.156250
2573,-35.156250
2574,-39.062500
2575,-39.062500
2576,-39.062500
2577,-39.062500
2578,-39.062500
2579,-42.968750
2580,-42.968750
2581,-42.968750
2582,-46.875000
2583,-46.875000
2584,-46.875000
2585,-50.781250
2586,-50.781250
2587,-50.781250
2588,-54.687500
2589,-54.687500
2590,-54.687500
2591,-54.687500
2592,-58.593750
2593,-58.593750
2594,-58.593750
2595,-62.500000
2596,-62.500000
2597,-62.500000
2598,-62.500000
2599,-66.406250
2600,-66.406250
2601,-66.406250
2602,-70.312500
2603,-70.312500
2604,-70.312500
2605,-70.312500
2606,-74.218750
2607,-74.218750
2608,-74.218750
2609,-78.125000
2610,-78.125000
2611,-78.125000
2612,-78.125000
2613,-82.031250
2614,-82.031250
2615,-82.031250
2616,-82.031250
2617,-85.937500
2618,-85.937500
2619,-85.937500
2620,-85.937500
2621,-89.843750
2622,-89.843750
2623,-89.843750
2624,-93.750000
2625,-93.750000
2626,-93.750000
2627,-93.750000
2628,-93.750000
2629,-97.656250
2630,-97.656250
2631,-97.656250
2632,-101.562500
2633,-101.562500
2634,-101.562500
2635,-105.468750
2636,-105.468750
2637,-105.468750
2638,-105.468750
2639,-109.375000
2640,-109.375000
2641,-109.375000
2642,-109.375000
2643,-113.281250
2644,-113.281250
2645,-113.281250
2646,-113.281250
2647,-117.187500
2648,-117.187500
2649,-117.187500
2650,-117.187500
2651,-121.093750
2652,-121.093750
2653,-121.093750
2654,-121.093750
2655,-125.000000
2656,-125.000000
2657,-125.000000
2658,-125.000000
2659,-128.906250
2660,-128.906250
2661,-128.906250
2662,-128.906250
2663,-132.812500
2664,-132.812500
2665,-132.812500
2666,-132.812500
2667,-136.718750
2668,-136.718750
2669,-136.718750
2670,-136.718750
2671,-140.625000
2672,-140.625000
2673,-140.625000
2674,-140.625000
2675,-140.625000
2676,-144.531250
2677,-144.531250
2678,-144.531250
2679,-144.531250
2680,-148.437500
2681,-148.437500
2682,-148.437500
2683,-148.437500
2684,-148.437500
2685,-148.437500
2686,-152.343750
2687,-152.343750
2688,-152.343750
2689,-152.343750
2690,-156.250000
2691,-156.250000
2692,-156.250000
2693,-156.250000
2694,-156.250000
2695,-156.250000
2696,-160.156250
2697,-160.156250
2698,-160.156250
2699,-160.156250
2700,-160.156250
2701,-164.062500
2702,-164.062500
2703,-164.062500
2704,-164.062500
2705,-164.062500
2706,-167.968750
2707,-167.968750
2708,-167.968750
2709,-167.968750
2710,-167.968750
2711,-167.968750
2712,-167.968750
2713,-171.875000
2714,-171.875000
2715,-171.875000
2716,-171.875000
2717,-171.875000
2718,-171.875000
2719,-171.875000
2720,-175.781250
2721,-175.781250
2722,-175.781250
2723,-175.781250
2724,-175.781250
2725,-175.781250
2726,-175.781250
2727,-175.781250
2728,-179.687500
2729,-179.687500
2730,-179.687500
2731,-179.687500
2732,-179.687500
2733,-179.687500
2734,-179.687500
2735,-179.687500
2736,-183.593750
2737,-183.593750
2738,-183.593750
2739,-183.593750
2740,-183.593750
2741,-183.593750
2742,-183.593750
2743,-183.593750
2744,-183.593750
2745,-183.593750
2746,-183.593750
2747,-187.500000
2748,-187.500000
2749,-187.500000
2750,-187.500000
2751,-187.500000
2752,-187.500000
2753,-187.500000
2754,-187.500000
2755,-187.500000
2756,-191.406250
2757,-187.500000
2758,-187.500000
2759,-191.406250
2760,-191.406250
2761,-191.406250
2762,-191.406250
2763,-191.406250
2764,-191.406250
2765,-191.406250
2766,-191.406250
2767,-191.406250
2768,-191.406250
2769,-191.406250
2770,-191.406250
2771,-191.406250
2772,-191.406250
2773,-191.406250
2774,-191.406250
2775,-191.406250
2776,-191.406250
2777,-191.406250
2778,-191.406250
2779,-195.312500
2780,-195.312500
2781,-195.312500
2782,-195.312500
2783,-195.312500
2784,-195.312500
2785,-195.312500
2786,-195.312500
2787,-195.312500
2788,-195.312500
2789,-195.312500
2790,-195.312500
2791,-195.312500
2792,-195.312500
2793,-195.312500
2794,-195.312500
2795,-195.312500
2796,-195.312500
2797,-191.406250
2798,-195.312500
2799,-195.312500
2800,-191.406250
2801,-195.312500
2802,-195.312500
2803,-195.312500
2804,-195.312500
2805,-195.312500
2806,-195.312500
2807,-195.312500
2808,-195.312500
2809,-195.312500
2810,-195.312500
2811,-195.312500
2812,-195.312500
2813,-195.312500
2814,-191.406250
2815,-191.406250
2816,-191.406250
2817,-191.406250
2818,-191.406250
2819,-191.406250
2820,-191.406250
2821,-191.406250
2822,-191.406250
2823,-191.406250
2824,-191.406250
2825,-191.406250
2826,-191.406250
2827,-191.406250
2828,-191.406250
2829,-187.500000
2830,-191.406250
2831,-187.500000
2832,-187.500000
2833,-187.500000
2834,-187.500000
2835,-187.500000
2836,-187.500000
2837,-187.500000
2838,-187.500000
2839,-187.500000
2840,-187.500000
2841,-187.500000
2842,-183.593750
2843,-183.593750
2844,-183.593750
2845,-183.593750
2846,-183.593750
2847,-183.593750
2848,-183.593750
2849,-183.593750
2850,-183.593750
2851,-183.593750
2852,-179.687500
2853,-179.687500
2854,-179.687500
2855,-179.687500
2856,-179.687500
2857,-179.687500
2858,-179.687500
2859,-179.687500
2860,-175.781250
2861,-175.781250
2862,-175.781250
2863,-175.781250
2864,-179.687500
2865,-175.781250
2866,-171.875000
2867,-175.781250
2868,-175.781250
2869,-171.875000
2870,-171.875000
2871,-171.875000
2872,-171.875000
2873,-167.968750
2874,-167.968750
2875,-167.968750
2876,-167.968750
2877,-167.968750
2878,-167.968750
2879,-164.062500
2880,-164.062500
2881,-164.062500
2882,-164.062500
2883,-164.062500
2884,-160.156250
2885,-160.156250
2886,-160.156250
2887,-160.156250
2888,-156.250000
2889,-160.156250
2890,-156.250000
2891,-156.250000
2892,-156.250000
2893,-156.250000
2894,-156.250000
2895,-156.250000
2896,-152.343750
2897,-152.343750
2898,-152.343750
2899,-152.343750
2900,-148.437500
2901,-148.437500
2902,-148.437500
2903,-148.437500
2904,-148.437500
2905,-148.437500
2906,-144.531250
2907,-144.531250
2908,-144.531250
2909,-144.531250
2910,-140.625000
2911,-140.625000
2912,-140.625000
2913,-140.625000
2914,-136.718750
2915,-136.718750
2916,-136.718750
2917,-136.718750
2918,-136.718750
2919,-136.718750
2920,-132.812500
2921,-132.812500
2922,-132.812500
2923,-128.906250
2924,-128.906250
2925,-128.906250
2926,-128.906250
2927,-128.906250
2928,-125.000000
2929,-125.000000
2930,-121.093750
2931,-121.093750
2932,-125.000000
2933,-121.093750
2934,-121.093750
2935,-117.187500
2936,-117.187500
2937,-117.187500
2938,-117.187500
2939,-117.187500
2940,-113.281250
2941,-113.281250
2942,-113.281250
2943,-109.375000
2944,-109.375000
2945,-109.375000
2946,-109.375000
2947,-109.375000
2948,-105.468750
2949,-105.468750
2950,-105.468750
2951,-101.562500
2952,-101.562500
2953,-101.562500
2954,-101.562500
2955,-101.562500
2956,-97.656250
2957,-97.656250
2958,-97.656250
2959,-93.750000
2960,-93.750000
2961,-93.750000
2962,-89.843750
2963,-89.843750
2964,-89.843750
2965,-89.843750
2966,-85.937500
2967,-85.937500
2968,-85.937500
2969,-85.937500
2970,-82.031250
2971,-82.031250
2972,-82.031250
2973,-78.125000
2974,-78.125000
2975,-78.125000
2976,-78.125000
2977,-74.218750
2978,-74.218750
2979,-74.218750
2980,-70.312500
2981,-70.312500
2982,-70.312500
2983,-70.312500
2984,-66.406250
2985,-66.406250
2986,-66.406250
2987,-66.406250
2988,-62.500000
2989,-62.500000
2990,-62.500000
2991,-58.593750
2992,-58.593750
2993,-58.593750
2994,-58.593750
2995,-54.687500
2996,-54.687500
2997,-54.687500
2998,-50.781250
2999,-50.781250
3000,-50.781250
3001,-50.781250
3002,-46.875000
3003,-46.875000
3004,-46.875000
3005,-42.968750
3006,-42.968750
3007,-42.968750
3008,-39.062500
3009,-39.062500
3010,-39.062500
3011,-39.062500
3012,-35.156250
3013,-35.156250
3014,-35.156250
3015,-31.250000
3016,-31.250000
3017,-31.250000
3018,-27.343750
3019,-27.343750
3020,-27.343750
3021,-27.343750
3022,-23.437500
3023,-23.437500
3024,-23.437500
3025,-19.531250
3026,-19.531250
3027,-19.531250
3028,-19.531250
3029,-15.625000
3030,-15.625000
3031,-11.718750
3032,-11.718750
3033,-11.718750
3034,-11.718750
3035,-11.718750
3036,-7.812500
3037,-7.812500
3038,-7.812500
3039,-3.906250
3040,-3.906250
3041,-3.906250
3042,-3.906250
3043,0.000000
3044,0.000000
3045,0.000000
3046,0.000000
3047,3.906250
3048,3.906250
3049,3.906250
3050,7.812500
3051,7.812500
3052,7.812500
3053,11.718750
3054,11.718750
3055,11.718750
3056,11.718750
3057,11.718750
3058,15.625000
3059,15.625000
3060,15.625000
3061,19.531250
3062,19.531250
3063,19.531250
3064,19.531250
3065,23.437500
3066,23.437500
3067,23.437500
3068,27.343750
3069,27.343750
3070,27.343750
3071,27.343750
3072,31.250000
3073,31.250000
3074,31.250000
3075,31.250000
3076,35.156250
3077,35.156250
3078,35.156250
3079,39.062500
3080,39.062500
3081,39.062500
3082,39.062500
3083,42.968750
3084,42.968750
3085,42.968750
3086,42.968750
3087,42.968750
3088,46.875000
3089,46.875000
3090,46.875000
3091,50.781250
3092,50.781250
3093,50.781250
3094,50.781250
3095,50.781250
3096,54.687500
3097,54.687500
3098,54.687500
3099,54.687500
3100,58.593750
3101,58.593750
3102,58.593750
3103,58.593750
3104,62.500000
3105,62.500000
3106,62.500000
3107,62.500000
3108,66.406250
3109,66.406250
3110,66.406250
3111,66.406250
3112,70.312500
3113,70.312500
3114,70.312500
3115,70.312500
3116,70.312500
3117,74.218750
3118,74.218750
3119,74.218750
3120,74.218750
3121,78.125000
3122,78.125000
3123,78.125000
3124,78.125000
3125,78.125000
3126,82.031250
3127,82.031250
3128,82.031250
3129,82.031250
3130,85.937500
3131,85.937500
3132,85.937500
3133,85.937500
3134,85.937500
3135,89.843750
3136,89.843750
3137,89.843750
3138,89.843750
3139,89.843750
3140,93.750000
3141,93.750000
3142,93.750000
3143,93.750000
3144,93.750000
3145,93.750000
3146,97.656250
3147,97.656250
3148,97.656250
3149,97.656250
3150,101.562500
3151,101.562500
3152,101.562500
3153,101.562500
3154,101.562500
3155,101.562500
3156,101.562500
3157,105.468750
3158,105.468750
3159,105.468750
3160,105.468750
3161,105.468750
3162,109.375000
3163,109.375000
3164,109.375000
3165,109.375000
3166,109.375000
3167,109.375000
3168,109.375000
3169,113.281250
3170,113.281250
3171,113.281250
3172,113.281250
3173,113.281250
3174,117.187500
3175,117.187500
3176,117.187500
3177,117.187500
3178,117.187500
3179,117.187500
3180,117.187500
3181,117.187500
3182,121.093750
3183,121.093750
3184,121.093750
3185,121.093750
3186,121.093750
3187,121.093750
3188,121.093750
3189,121.093750
3190,121.093750
3191,125.000000
3192,125.000000
3193,125.000000
3194,125.000000
3195,125.000000
3196,125.000000
3197,128.906250
3198,128.906250
3199,128.906250
3200,128.906250
3201,128.906250
3202,128.906250
3203,128.906250
3204,128.906250
3205,128.906250
3206,128.906250
3207,128.906250
3208,132.812500
3209,132.812500
3210,132.812500
3211,132.812500
3212,132.812500
3213,132.812500
3214,132.812500
3215,132.812500
3216,132.812500
3217,132.812500
3218,136.718750
3219,136.718750
3220,136.718750
3221,136.718750
3222,136.718750
3223,136.718750
3224,136.718750
3225,136.718750
3226,140.625000
3227,136.718750
3228,136.718750
3229,136.718750
3230,140.625000
3231,140.625000
3232,140.625000
3233,140.625000
3234,140.625000
3235,140.625000
3236,140.625000
3237,140.625000
3238,140.625000
3239,140.625000
3240,140.625000
3241,140.625000
3242,140.625000
3243,144.531250
3244,144.531250
3245,144.531250
3246,144.531250
3247,144.531250
3248,144.531250
3249,144.531250
3250,144.531250
3251,144.531250
3252,144.531250
3253,148.437500
3254,144.531250
3255,144.531250
3256,144.531250
3257,144.531250
3258,144.531250
3259,144.531250
3260,148.437500
3261,144.531250
3262,144.531250
3263,144.531250
3264,144.531250
3265,144.531250
3266,148.437500
3267,148.437500
3268,148.437500
3269,148.437500
3270,148.437500
3271,148.437500
3272,148.437500
3273,148.437500
3274,148.437500
3275,148.437500
3276,148.437500
3277,148.437500
3278,148.437500
3279,148.437500
3280,148.437500
3281,148.437500
3282,148.437500
3283,148.437500
3284,148.437500
3285,148.437500
3286,148.437500
3287,148.437500
3288,148.437500
3289,148.437500
3290,148.437500
3291,148.437500
3292,148.437500
3293,148.437500
3294,148.437500
3295,148.437500
3296,148.437500
3297,148.437500
3298,148.437500
3299,148.437500
3300,148.437500
3301,148.437500
3302,148.437500
3303,148.437500
3304,148.437500
3305,148.437500
3306,148.437500
3307,148.437500
3308,148.437500
3309,144.531250
3310,148.437500
3311,148.437500
3312,148.437500
3313,148.437500
3314,144.531250
3315,144.531250
3316,144.531250
3317,144.531250
3318,144.531250
3319,144.531250
3320,144.531250
3321,144.531250
3322,144.531250
3323,144.531250
3324,144.531250
3325,144.531250
3326,144.531250
3327,144.531250
3328,144.531250
3329,144.531250
3330,144.531250
3331,144.531250
3332,144.531250
3333,140.625000
3334,140.625000
3335,140.625000
3336,140.625000
3337,140.625000
3338,140.625000
3339,140.625000
3340,140.625000
3341,140.625000
3342,140.625000
3343,140.625000
3344,140.625000
3345,140.625000
3346,140.625000
3347,136.718750
3348,136.718750
3349,136.718750
3350,136.718750
3351,136.718750
3352,136.718750
3353,136.718750
3354,136.718750
3355,136.718750
3356,136.718750
3357,136.718750
3358,136.718750
3359,136.718750
3360,132.812500
3361,132.812500
3362,132.812500
3363,132.812500
3364,132.812500
3365,132.812500
3366,132.812500
3367,132.812500
3368,132.812500
3369,132.812500
3370,132.812500
3371,128.906250
3372,128.906250
3373,128.906250
3374,128.906250
3375,128.906250
3376,128.906250
3377,125.000000
3378,125.000000
3379,125.000000
3380,125.000000
3381,125.000000
3382,125.000000
3383,125.000000
3384,125.000000
3385,125.000000
3386,125.000000
3387,121.093750
3388,121.093750
3389,121.093750
3390,121.093750
3391,121.093750
3392,121.093750
3393,121.093750
3394,117.187500
3395,117.187500
3396,117.187500
3397,117.187500
3398,117.187500
3399,117.187500
3400,117.187500
3401,117.187500
3402,113.281250
3403,113.281250
3404,113.281250
3405,113.281250
3406,113.281250
3407,113.281250
3408,109.375000
3409,109.375000
3410,109.375000
3411,109.375000
3412,109.375000
3413,105.468750
3414,105.468750
3415,105.468750
3416,105.468750
3417,105.468750
3418,105.468750
3419,105.468750
3420,101.562500
3421,101.562500
3422,101.562500
3423,101.562500
3424,101.562500
3425,97.656250
3426,97.656250
3427,97.656250
3428,97.656250
3429,97.656250
3430,97.656250
3431,93.750000
3432,93.750000
3433,93.750000
3434,93.750000
3435,93.750000
3436,89.843750
3437,89.843750
3438,89.843750
3439,89.843750
3440,89.843750
3441,85.937500
3442,85.937500
3443,85.937500
3444,85.937500
3445,85.937500
3446,82.031250
3447,82.031250
3448,82.031250
3449,82.031250
3450,78.125000
3451,78.125000
3452,78.125000
3453,78.125000
3454,78.125000
3455,74.218750
3456,74.218750
3457,74.218750
3458,74.218750
3459,74.218750
3460,70.312500
3461,70.312500
3462,70.312500
3463,70.312500
3464,70.312500
3465,66.406250
3466,66.406250
3467,66.406250
3468,62.500000
3469,62.500000
3470,62.500000
3471,62.500000
3472,62.500000
3473,58.593750
3474,58.593750
3475,58.593750
3476,58.593750
3477,54.687500
3478,54.687500
3479,54.687500
3480,50.781250
3481,50.781250
3482,50.781250
3483,50.781250
3484,50.781250
3485,46.875000
3486,46.875000
3487,46.875000
3488,46.875000
3489,42.968750
3490,42.968750
3491,42.968750
3492,42.968750
3493,39.062500
3494,39.062500
3495,39.062500
3496,35.156250
3497,35.156250
3498,35.156250
3499,35.156250
3500,31.250000
3501,31.250000
3502,31.250000
3503,31.250000
3504,27.343750
3505,27.343750
3506,27.343750
3507,27.343750
3508,23.437500
3509,23.437500
3510,23.437500
3511,19.531250
3512,19.531250
3513,19.531250
3514,19.531250
3515,19.531250
3516,15.625000
3517,15.625000
3518,15.625000
3519,15.625000
3520,11.718750
3521,11.718750
3522,11.718750
3523,7.812500
3524,7.812500
3525,7.812500
3526,7.812500
3527,3.906250
3528,3.906250
3529,3.906250
3530,0.000000
3531,0.000000
3532,0.000000
3533,-3.906250
3534,-3.906250
3535,-3.906250
3536,-3.906250
3537,-7.812500
3538,-7.812500
3539,-7.812500
3540,-7.812500
3541,-11.718750
3542,-11.718750
3543,-11.718750
3544,-15.625000
3545,-15.625000
3546,-15.625000
3547,-19.531250
3548,-19.531250
3549,-19.531250
3550,-23.437500
3551,-23.437500
3552,-23.437500
3553,-23.437500
3554,-27.343750
3555,-27.343750
3556,-27.343750
3557,-27.343750
3558,-31.250000
3559,-31.250000
3560,-31.250000
3561,-35.156250
3562,-35.156250
3563,-35.156250
3564,-39.062500
3565,-39.062500
3566,-39.062500
3567,-42.968750
3568,-42.968750
3569,-42.968750
3570,-42.968750
3571,-46.875000
3572,-46.875000
3573,-46.875000
3574,-46.875000
3575,-50.781250
3576,-50.781250
3577,-50.781250
3578,-54.687500
3579,-54.687500
3580,-54.687500
3581,-58.593750
3582,-58.593750
3583,-58.593750
3584,-58.593750
3585,-62.500000
3586,-62.500000
3587,-62.500000
3588,-62.500000
3589,-66.406250
3590,-66.406250
3591,-66.406250
3592,-70.312500
3593,-70.312500
3594,-70.312500
3595,-70.312500
3596,-74.218750
3597,-74.218750
3598,-74.218750
3599,-78.125000
3600,-78.125000
3601,-78.125000
3602,-82.031250
3603,-82.031250
3604,-82.031250
3605,-82.031250
3606,-85.937500
3607,-85.937500
3608,-85.937500
3609,-85.937500
3610,-89.843750
3611,-89.843750
3612,-89.843750
3613,-93.750000
3614,-93.750000
3615,-93.750000
3616,-93.750000
3617,-97.656250
3618,-97.656250
3619,-97.656250
3620,-97.656250
3621,-101.562500
3622,-101.562500
3623,-101.562500
3624,-101.562500
3625,-105.468750
3626,-105.468750
3627,-105.468750
3628,-105.468750
3629,-109.375000
3630,-109.375000
3631,-109.375000
3632,-109.375000
3633,-113.281250
3634,-113.281250
3635,-113.281250
3636,-113.281250
3637,-117.187500
3638,-117.187500
3639,-117.187500
3640,-121.093750
3641,-121.093750
3642,-121.093750
3643,-121.093750
3644,-121.093750
3645,-125.000000
3646,-125.000000
3647,-125.000000
3648,-125.000000
3649,-128.906250
3650,-128.906250
3651,-128.906250
3652,-128.906250
3653,-132.812500
3654,-132.812500
3655,-132.812500
3656,-132.812500
3657,-132.812500
3658,-136.718750
3659,-136.718750
3660,-136.718750
3661,-136.718750
3662,-140.625000
3663,-140.625000
3664,-140.625000
3665,-140.625000
3666,-144.531250
3667,-144.531250
3668,-144.531250
3669,-144.531250
3670,-144.531250
3671,-144.531250
3672,-148.437500
3673,-148.437500
3674,-148.437500
3675,-148.437500
3676,-148.437500
3677,-152.343750
3678,-152.343750
3679,-152.343750
3680,-152.343750
3681,-156.250000
3682,-152.343750
3683,-156.250000
3684,-156.250000
3685,-156.250000
3686,-156.250000
3687,-160.156250
3688,-160.156250
3689,-160.156250
3690,-160.156250
3691,-160.156250
3692,-160.156250
3693,-164.062500
3694,-164.062500
3695,-164.062500
3696,-164.062500
3697,-164.062500
3698,-164.062500
3699,-167.968750
3700,-167.968750
3701,-167.968750
3702,-167.968750
3703,-167.968750
3704,-171.875000
3705,-171.875000
3706,-171.875000
3707,-171.875000
3708,-171.875000
3709,-171.875000
3710,-171.875000
3711,-175.781250
3712,-175.781250
3713,-175.781250
3714,-175.781250
3715,-175.781250
3716,-175.781250
3717,-175.781250
3718,-175.781250
3719,-175.781250
3720,-179.687500
3721,-179.687500
3722,-175.781250
3723,-179.687500
3724,-179.687500
3725,-179.687500
3726,-183.593750
3727,-183.593750
3728,-183.593750
3729,-183.593750
3730,-183.593750
3731,-183.593750
3732,-183.593750
3733,-183.593750
3734,-183.593750
3735,-183.593750
3736,-187.500000
3737,-187.500000
3738,-187.500000
3739,-187.500000
3740,-187.500000
3741,-187.500000
3742,-187.500000
3743,-187.500000
3744,-187.500000
3745,-187.500000
3746,-187.500000
3747,-187.500000
3748,-187.500000
3749,-191.406250
3750,-191.406250
3751,-191.406250
3752,-191.406250
3753,-191.406250
3754,-191.406250
3755,-191.406250
3756,-191.406250
3757,-191.406250
3758,-191.406250
3759,-191.406250
3760,-191.406250
3761,-191.406250
3762,-191.406250
3763,-191.406250
3764,-191.406250
3765,-191.406250
3766,-191.406250
3767,-191.406250
3768,-191.406250
3769,-191.406250
3770,-191.406250
3771,-191.406250
3772,-191.406250
3773,-191.406250
3774,-191.406250
3775,-191.406250
3776,-191.406250
3777,-191.406250
3778,-195.312500
3779,-195.312500
3780,-195.312500
3781,-195.312500
3782,-191.406250
3783,-195.312500
3784,-191.406250
3785,-191.406250
3786,-191.406250
3787,-191.406250
3788,-195.312500
3789,-195.312500
3790,-195.312500
3791,-195.312500
3792,-191.406250
3793,-191.406250
3794,-191.406250
3795,-191.406250
3796,-191.406250
3797,-191.406250
3798,-191.406250
3799,-191.406250
3800,-191.406250
3801,-191.406250
3802,-191.406250
3803,-191.406250
3804,-191.406250
3805,-191.406250
3806,-191.406250
3807,-191.406250
3808,-191.406250
3809,-191.406250
3810,-191.406250
3811,-191.406250
3812,-187.500000
3813,-191.406250
3814,-187.500000
3815,-187.500000
3816,-187.500000
3817,-187.500000
3818,-187.500000
3819,-187.500000
3820,-187.500000
3821,-187.500000
3822,-187.500000
3823,-187.500000
3824,-187.500000
3825,-187.500000
3826,-183.593750
3827,-187.500000
3828,-183.593750
3829,-183.593750
3830,-183.593750
3831,-183.593750
3832,-183.593750
3833,-183.593750
3834,-183.593750
3835,-183.593750
3836,-183.593750
3837,-179.687500
3838,-179.687500
3839,-179.687500
3840,-179.687500
3841,-179.687500
3842,-179.687500
3843,-179.687500
3844,-175.781250
3845,-175.781250
3846,-179.687500
3847,-175.781250
3848,-175.781250
3849,-175.781250
3850,-175.781250
3851,-175.781250
3852,-171.875000
3853,-171.875000
3854,-171.875000
3855,-171.875000
3856,-171.875000
3857,-171.875000
3858,-171.875000
3859,-167.968750
3860,-167.968750
3861,-167.968750
3862,-167.968750
3863,-167.968750
3864,-167.968750
3865,-167.968750
3866,-164.062500
3867,-164.062500
3868,-164.062500
3869,-164.062500
3870,-164.062500
3871,-164.062500
3872,-160.156250
3873,-160.156250
3874,-160.156250
3875,-160.156250
3876,-160.156250
3877,-160.156250
3878,-160.156250
3879,-156.250000
3880,-156.250000
3881,-156.250000
3882,-156.250000
3883,-152.343750
3884,-152.343750
3885,-152.343750
3886,-152.343750
3887,-152.343750
3888,-148.437500
3889,-148.437500
3890,-148.437500
3891,-148.437500
3892,-148.437500
3893,-148.437500
3894,-144.531250
3895,-144.531250
3896,-144.531250
3897,-140.625000
3898,-140.625000
3899,-140.625000
3900,-140.625000
3901,-140.625000
3902,-136.718750
3903,-136.718750
3904,-136.718750
3905,-136.718750
3906,-132.812500
3907,-132.812500
3908,-132.812500
3909,-132.812500
3910,-132.812500
3911,-128.906250
3912,-128.906250
3913,-128.906250
3914,-128.906250
3915,-125.000000
3916,-125.000000
3917,-125.000000
3918,-125.000000
3919,-121.093750
3920,-121.093750
3921,-121.093750
3922,-121.093750
3923,-121.093750
3924,-117.187500
3925,-117.187500
3926,-117.187500
3927,-117.187500
3928,-113.281250
3929,-113.281250
3930,-113.281250
3931,-109.375000
3932,-109.375000
3933,-109.375000
3934,-109.375000
3935,-105.468750
3936,-105.468750
3937,-105.468750
3938,-101.562500
3939,-105.468750
3940,-101.562500
3941,-101.562500
3942,-101.562500
3943,-97.656250
3944,-97.656250
3945,-97.656250
3946,-93.750000
3947,-93.750000
3948,-93.750000
3949,-93.750000
3950,-89.843750
3951,-89.843750
3952,-89.843750
3953,-85.937500
3954,-89.843750
3955,-85.937500
3956,-85.937500
3957,-82.031250
3958,-82.031250
3959,-82.031250
3960,-82.031250
3961,-78.125000
3962,-78.125000
3963,-78.125000
3964,-78.125000
3965,-74.218750
3966,-74.218750
3967,-74.218750
3968,-70.312500
3969,-70.312500
3970,-70.312500
3971,-66.406250
3972,-66.406250
3973,-66.406250
3974,-66.406250
3975,-62.500000
3976,-62.500000
3977,-62.500000
3978,-62.500000
3979,-58.593750
3980,-58.593750
3981,-54.687500
3982,-54.687500
3983,-54.687500
3984,-54.687500
3985,-54.687500
3986,-50.781250
3987,-50.781250
3988,-50.781250
3989,-46.875000
3990,-46.875000
3991,-46.875000
3992,-42.968750
3993,-42.968750
3994,-42.968750
3995,-42.968750
3996,-39.062500
3997,-39.062500
3998,-39.062500
3999,-35.156250
4000,-35.156250
4001,-35.156250
4002,-35.156250
4003,-31.250000
4004,-31.250000
4005,-27.343750
4006,-27.343750
4007,-27.343750
4008,-27.343750
4009,-27.343750
4010,-23.437500
4011,-23.437500
4012,-23.437500
4013,-19.531250
4014,-19.531250
4015,-19.531250
4016,-15.625000
4017,-15.625000
4018,-15.625000
4019,-15.625000
4020,-11.718750
4021,-11.718750
4022,-11.718750
4023,-7.812500
4024,-7.812500
4025,-7.812500
4026,-7.812500
4027,-3.906250
4028,-3.906250
4029,-3.906250
4030,-3.906250
4031,0.000000
4032,0.000000
4033,0.000000
4034,3.906250
4035,3.906250
4036,3.906250
4037,3.906250
4038,7.812500
4039,7.812500
4040,7.812500
4041,11.718750
4042,11.718750
4043,11.718750
4044,15.625000
4045,15.625000
4046,15.625000
4047,15.625000
4048,19.531250
4049,19.531250
4050,19.531250
4051,19.531250
4052,23.437500
4053,23.437500
4054,23.437500
4055,23.437500
4056,27.343750
4057,27.343750
4058,27.343750
4059,31.250000
4060,31.250000
4061,31.250000
4062,31.250000
4063,35.156250
4064,35.156250
4065,35.156250
4066,39.062500
4067,39.062500
4068,39.062500
4069,39.062500
4070,39.062500
4071,42.968750
4072,42.968750
4073,42.968750
4074,42.968750
4075,46.875000
4076,46.875000
4077,46.875000
4078,50.781250
4079,50.781250
4080,50.781250
4081,50.781250
4082,54.687500
4083,54.687500
4084,54.687500
4085,54.687500
4086,58.593750
4087,58.593750
4088,58.593750
4089,58.593750
4090,58.593750
4091,62.500000
4092,58.593750
4093,62.500000
4094,62.500000
4095,70.312500
4096,66.406250
4097,66.406250
4098,66.406250
4099,66.406250
4100,70.312500
4101,70.312500
4102,70.312500
4103,70.312500
4104,74.218750
4105,74.218750
4106,74.218750
4107,74.218750
4108,74.218750
4109,74.218750
4110,78.125000
4111,78.125000
4112,78.125000
4113,78.125000
4114,82.031250
4115,82.031250
4116,82.031250
4117,82.031250
4118,85.937500
4119,85.937500
4120,85.937500
4121,85.937500
4122,85.937500
4123,89.843750
4124,89.843750
4125,89.843750
4126,89.843750
4127,89.843750
4128,93.750000
4129,93.750000
4130,93.750000
4131,93.750000
4132,93.750000
4133,97.656250
4134,97.656250
4135,97.656250
4136,97.656250
4137,97.656250
4138,101.562500
4139,101.562500
4140,101.562500
4141,101.562500
4142,101.562500
4143,101.562500
4144,101.562500
4145,105.468750
4146,105.468750
4147,105.468750
4148,105.468750
4149,105.468750
4150,109.375000
4151,109.375000
4152,109.375000
4153,109.375000
4154,109.375000
4155,109.375000
4156,109.375000
4157,113.281250
4158,113.281250
4159,113.281250
4160,113.281250
4161,113.281250
4162,117.187500
4163,117.187500
4164,117.187500
4165,117.187500
4166,117.187500
4167,117.187500
4168,121.093750
4169,121.093750
4170,121.093750
4171,121.093750
4172,121.093750
4173,121.093750
4174,121.093750
4175,121.093750
4176,121.093750
4177,125.000000
4178,125.000000
4179,125.000000
4180,125.000000
4181,125.000000
4182,125.000000
4183,125.000000
4184,128.906250
4185,128.906250
4186,128.906250
4187,128.906250
4188,128.906250
4189,128.906250
4190,128.906250
4191,128.906250
4192,132.812500
4193,132.812500
4194,132.812500
4195,132.812500
4196,132.812500
4197,132.812500
4198,132.812500
4199,132.812500
4200,132.812500
4201,132.812500
4202,136.718750
4203,136.718750
4204,136.718750
4205,136.718750
4206,136.718750
4207,136.718750
4208,136.718750
4209,136.718750
4210,136.718750
4211,136.718750
4212,136.718750
4213,140.625000
4214,140.625000
4215,140.625000
4216,140.625000
4217,140.625000
4218,140.625000
4219,140.625000
4220,140.625000
4221,140.625000
4222,140.625000
4223,140.625000
4224,140.625000
4225,140.625000
4226,144.531250
4227,144.531250
4228,144.531250
4229,144.531250
4230,144.531250
4231,144.531250
4232,144.531250
4233,144.531250
4234,144.531250
4235,144.531250
4236,144.531250
4237,144.531250
4238,144.531250
4239,144.531250
4240,148.437500
4241,144.531250
4242,144.531250
4243,144.531250
4244,144.531250
4245,144.531250
4246,148.437500
4247,148.437500
4248,148.437500
4249,148.437500
4250,148.437500
4251,148.437500
4252,148.437500
4253,148.437500
4254,148.437500
4255,148.437500
4256,148.437500
4257,148.437500
4258,148.437500
4259,148.437500
4260,148.437500
4261,148.437500
4262,148.437500
4263,148.437500
4264,148.437500
4265,148.437500
4266,148.437500
4267,148.437500
4268,148.437500
4269,148.437500
4270,148.437500
4271,148.437500
4272,148.437500
4273,148.437500
4274,148.437500
4275,148.437500
4276,148.437500
4277,148.437500
4278,148.437500
4279,148.437500
4280,148.437500
4281,148.437500
4282,148.437500
4283,148.437500
4284,148.437500
4285,148.437500
4286,148.437500
4287,148.437500
4288,148.437500
4289,148.437500
4290,148.437500
4291,148.437500
4292,148.437500
4293,148.437500
4294,148.437500
4295,148.437500
4296,148.437500
4297,148.437500
4298,148.437500
4299,148.437500
4300,148.437500
4301,148.437500
4302,148.437500
4303,148.437500
4304,148.437500
4305,148.437500
4306,148.437500
4307,148.437500
4308,148.437500
4309,148.437500
4310,148.437500
4311,148.437500
4312,144.531250
4313,148.437500
4314,148.437500
4315,148.437500
4316,144.531250
4317,144.531250
4318,144.531250
4319,144.531250
4320,144.531250
4321,144.531250
4322,144.531250
4323,144.531250
4324,144.531250
4325,144.531250
4326,144.531250
4327,144.531250
4328,144.531250
4329,144.531250
4330,144.531250
4331,140.625000
4332,140.625000
4333,140.625000
4334,140.625000
4335,140.625000
4336,140.625000
4337,140.625000
4338,140.625000
4339,140.625000
4340,140.625000
4341,140.625000
4342,140.625000
4343,140.625000
4344,140.625000
4345,136.718750
4346,136.718750
4347,136.718750
4348,136.718750
4349,136.718750
4350,136.718750
4351,136.718750
4352,136.718750
4353,136.718750
4354,132.812500
4355,136.718750
4356,136.718750
4357,132.812500
4358,132.812500
4359,132.812500
4360,132.812500
4361,132.812500
4362,132.812500
4363,128.906250
4364,128.906250
4365,128.906250
4366,128.906250
4367,128.906250
4368,128.906250
4369,128.906250
4370,128.906250
4371,128.906250
4372,128.906250
4373,125.000000
4374,125.000000
4375,125.000000
4376,125.000000
4377,125.000000
4378,125.000000
4379,121.093750
4380,121.093750
4381,121.093750
4382,121.093750
4383,121.093750
4384,121.093750
4385,121.093750
4386,125.000000
4387,117.187500
4388,117.187500
4389,117.187500
4390,117.187500
4391,117.187500
4392,117.187500
4393,117.187500
4394,117.187500
4395,113.281250
4396,113.281250
4397,113.281250
4398,113.281250
4399,109.375000
4400,109.375000
4401,109.375000
4402,109.375000
4403,109.375000
4404,109.375000
4405,109.375000
4406,109.375000
4407,105.468750
4408,105.468750
4409,105.468750
4410,105.468750
4411,105.468750
4412,101.562500
4413,101.562500
4414,101.562500
4415,105.468750
4416,101.562500
4417,101.562500
4418,101.562500
4419,97.656250
4420,97.656250
4421,93.750000
4422,97.656250
4423,93.750000
4424,97.656250
4425,93.750000
4426,89.843750
4427,93.750000
4428,89.843750
4429,89.843750
4430,89.843750
4431,89.843750
4432,89.843750
4433,85.937500
4434,85.937500
4435,85.937500
4436,85.937500
4437,82.031250
4438,85.937500
4439,82.031250
4440,82.031250
4441,82.031250
4442,78.125000
4443,78.125000
4444,78.125000
4445,78.125000
4446,78.125000
4447,74.218750
4448,74.218750
4449,74.218750
4450,74.218750
4451,70.312500
4452,70.312500
4453,70.312500
4454,70.312500
4455,70.312500
4456,70.312500
4457,66.406250
4458,66.406250
4459,66.406250
4460,62.500000
4461,62.500000
4462,62.500000
4463,62.500000
4464,62.500000
4465,62.500000
4466,58.593750
4467,58.593750
4468,58.593750
4469,54.687500
4470,54.687500
4471,54.687500
4472,50.781250
4473,50.781250
4474,50.781250
4475,50.781250
4476,46.875000
4477,46.875000
4478,46.875000
4479,46.875000
4480,46.875000
4481,39.062500
4482,42.968750
4483,42.968750
4484,35.156250
4485,39.062500
4486,39.062500
4487,39.062500
4488,35.156250
4489,39.062500
4490,31.250000
4491,35.156250
4492,35.156250
4493,31.250000
4494,31.250000
4495,27.343750
4496,27.343750
4497,23.437500
4498,27.343750
4499,23.437500
4500,23.437500
4501,23.437500
4502,19.531250
4503,19.531250
4504,19.531250
4505,19.531250
4506,15.625000
4507,15.625000
4508,15.625000
4509,15.625000
4510,11.718750
4511,11.718750
4512,11.718750
4513,7.812500
4514,7.812500
4515,7.812500
4516,7.812500
4517,3.906250
4518,3.906250
4519,3.906250
4520,3.906250
4521,0.000000
4522,0.000000
4523,-3.906250
4524,-3.906250
4525,-3.906250
4526,-3.906250
4527,-7.812500
4528,-7.812500
4529,-7.812500
4530,-7.812500
4531,-11.718750
4532,-11.718750
4533,-11.718750
4534,-15.625000
4535,-15.625000
4536,-15.625000
4537,-19.531250
4538,-19.531250
4539,-19.531250
4540,-19.531250
4541,-19.531250
4542,-23.437500
4543,-23.437500
4544,-27.343750
4545,-27.343750
4546,-27.343750
4547,-27.343750
4548,-31.250000
4549,-31.250000
4550,-31.250000
4551,-31.250000
4552,-35.156250
4553,-35.156250
4554,-35.156250
4555,-39.062500
4556,-39.062500
4557,-39.062500
4558,-42.968750
4559,-42.968750
4560,-42.968750
4561,-42.968750
4562,-42.968750
4563,-46.875000
4564,-46.875000
4565,-50.781250
4566,-50.781250
4567,-50.781250
4568,-50.781250
4569,-54.687500
4570,-54.687500
4571,-54.687500
4572,-54.687500
4573,-58.593750
4574,-58.593750
4575,-58.593750
4576,-62.500000
4577,-62.500000
4578,-62.500000
4579,-66.406250
4580,-66.406250
4581,-66.406250
4582,-66.406250
4583,-70.312500
4584,-70.312500
4585,-70.312500
4586,-74.218750
4587,-74.218750
4588,-74.218750
4589,-74.218750
4590,-78.125000
4591,-78.125000
4592,-78.125000
4593,-78.125000
4594,-82.031250
4595,-82.031250
4596,-82.031250
4597,-85.937500
4598,-85.937500
4599,-85.937500
4600,-85.937500
4601,-89.843750
4602,-89.843750
4603,-89.843750
4604,-89.843750
4605,-93.750000
4606,-93.750000
4607,-93.750000
4608,-97.656250
4609,-97.656250
4610,-97.656250
4611,-101.562500
4612,-101.562500
4613,-101.562500
4614,-101.562500
4615,-101.562500
4616,-105.468750
4617,-105.468750
4618,-105.468750
4619,-109.375000
4620,-109.375000
4621,-109.375000
4622,-109.375000
4623,-113.281250
4624,-113.281250
4625,-113.281250
4626,-113.281250
4627,-117.187500
4628,-117.187500
4629,-117.187500
4630,-117.187500
4631,-121.093750
4632,-121.093750
4633,-121.093750
4634,-121.093750
4635,-125.000000
4636,-125.000000
4637,-125.000000
4638,-125.000000
4639,-125.000000
4640,-128.906250
4641,-128.906250
4642,-128.906250
4643,-132.812500
4644,-132.812500
4645,-132.812500
4646,-132.812500
4647,-132.812500
4648,-136.718750
4649,-136.718750
4650,-136.718750
4651,-136.718750
4652,-140.625000
4653,-140.625000
4654,-140.625000
4655,-140.625000
4656,-140.625000
4657,-144.531250
4658,-144.531250
4659,-144.531250
4660,-144.531250
4661,-148.437500
4662,-148.437500
4663,-148.437500
4664,-148.437500
4665,-148.437500
4666,-148.437500
4667,-152.343750
4668,-152.343750
4669,-152.343750
4670,-152.343750
4671,-156.250000
4672,-156.250000
4673,-156.250000
4674,-156.250000
4675,-156.250000
4676,-156.250000
4677,-160.156250
4678,-160.156250
4679,-160.156250
4680,-160.156250
4681,-160.156250
4682,-164.062500
4683,-164.062500
4684,-164.062500
4685,-164.062500
4686,-164.062500
4687,-164.062500
4688,-164.062500
4689,-164.062500
4690,-167.968750
4691,-167.968750
4692,-167.968750
4693,-167.968750
4694,-167.968750
4695,-171.875000
4696,-171.875000
4697,-171.875000
4698,-171.875000
4699,-171.875000
4700,-171.875000
4701,-171.875000
4702,-175.781250
4703,-175.781250
4704,-175.781250
4705,-175.781250
4706,-175.781250
4707,-175.781250
4708,-175.781250
4709,-179.687500
4710,-175.781250
4711,-179.687500
4712,-179.687500
4713,-179.687500
4714,-179.687500
4715,-179.687500
4716,-179.687500
4717,-179.687500
4718,-179.687500
4719,-179.687500
4720,-183.593750
4721,-183.593750
4722,-183.593750
4723,-183.593750
4724,-183.593750
4725,-183.593750
4726,-183.593750
4727,-183.593750
4728,-187.500000
4729,-187.500000
4730,-187.500000
4731,-187.500000
4732,-187.500000
4733,-187.500000
4734,-187.500000
4735,-187.500000
4736,-187.500000
4737,-187.500000
4738,-187.500000
4739,-187.500000
4740,-187.500000
4741,-187.500000
4742,-191.406250
4743,-191.406250
4744,-191.406250
4745,-191.406250
4746,-191.406250
4747,-191.406250
4748,-191.406250
4749,-191.406250
4750,-191.406250
4751,-191.406250
4752,-191.406250
4753,-191.406250
4754,-191.406250
4755,-191.406250
4756,-191.406250
4757,-191.406250
4758,-191.406250
4759,-191.406250
4760,-195.312500
4761,-191.406250
4762,-191.406250
4763,-191.406250
4764,-195.312500
4765,-195.312500
4766,-191.406250
4767,-195.312500
4768,-195.312500
4769,-195.312500
4770,-191.406250
4771,-195.312500
4772,-195.312500
4773,-195.312500
4774,-191.406250
4775,-195.312500
4776,-195.312500
4777,-195.312500
4778,-191.406250
4779,-191.406250
4780,-195.312500
4781,-195.312500
4782,-191.406250
4783,-191.406250
4784,-191.406250
4785,-195.312500
4786,-191.406250
4787,-191.406250
4788,-191.406250
4789,-191.406250
4790,-191.406250
4791,-191.406250
4792,-191.406250
4793,-191.406250
4794,-191.406250
4795,-191.406250
4796,-191.406250
4797,-191.406250
4798,-191.406250
4799,-191.406250
4800,-191.406250
4801,-191.406250
4802,-191.406250
4803,-191.406250
4804,-187.500000
4805,-187.500000
4806,-187.500000
4807,-191.406250
4808,-187.500000
4809,-187.500000
4810,-187.500000
4811,-187.500000
4812,-191.406250
4813,-187.500000
4814,-187.500000
4815,-187.500000
4816,-187.500000
4817,-183.593750
4818,-183.593750
4819,-183.593750
4820,-183.593750
4821,-183.593750
4822,-183.593750
4823,-183.593750
4824,-183.593750
4825,-183.593750
4826,-183.593750
4827,-183.593750
4828,-179.687500
4829,-179.687500
4830,-179.687500
4831,-179.687500
4832,-179.687500
4833,-179.687500
4834,-179.687500
4835,-179.687500
4836,-175.781250
4837,-175.781250
4838,-175.781250
4839,-175.781250
4840,-175.781250
4841,-175.781250
4842,-171.875000
4843,-171.875000
4844,-171.875000
4845,-171.875000
4846,-171.875000
4847,-171.875000
4848,-171.875000
4849,-171.875000
4850,-171.875000
4851,-167.968750
4852,-167.968750
4853,-167.968750
4854,-167.968750
4855,-167.968750
4856,-164.062500
4857,-164.062500
4858,-164.062500
4859,-164.062500
4860,-164.062500
4861,-164.062500
4862,-160.156250
4863,-160.156250
4864,-160.156250
4865,-160.156250
4866,-160.156250
4867,-160.156250
4868,-156.250000
4869,-156.250000
4870,-156.250000
4871,-156.250000
4872,-156.250000
4873,-152.343750
4874,-152.343750
4875,-152.343750
4876,-152.343750
4877,-152.343750
4878,-152.343750
4879,-148.437500
4880,-148.437500
4881,-148.437500
4882,-148.437500
4883,-148.437500
4884,-144.531250
4885,-144.531250
4886,-144.531250
4887,-144.531250
4888,-144.531250
4889,-140.625000
4890,-140.625000
4891,-140.625000
4892,-140.625000
4893,-136.718750
4894,-136.718750
4895,-136.718750
4896,-136.718750
4897,-136.718750
4898,-132.812500
4899,-132.812500
4900,-132.812500
4901,-132.812500
4902,-128.906250
4903,-128.906250
4904,-128.906250
4905,-125.000000
4906,-125.000000
4907,-125.000000
4908,-125.000000
4909,-125.000000
4910,-121.093750
4911,-121.093750
4912,-121.093750
4913,-121.093750
4914,-121.093750
4915,-117.187500
4916,-117.187500
4917,-117.187500
4918,-113.281250
4919,-113.281250
4920,-113.281250
4921,-113.281250
4922,-109.375000
4923,-109.375000
4924,-109.375000
4925,-109.375000
4926,-105.468750
4927,-105.468750
4928,-105.468750
4929,-105.468750
4930,-101.562500
4931,-101.562500
4932,-101.562500
4933,-101.562500
4934,-97.656250
4935,-97.656250
4936,-97.656250
4937,-93.750000
4938,-93.750000
4939,-93.750000
4940,-93.750000
4941,-89.843750
4942,-89.843750
4943,-89.843750
4944,-85.937500
4945,-85.937500
4946,-85.937500
4947,-85.937500
4948,-85.937500
4949,-82.031250
4950,-82.031250
4951,-82.031250
4952,-78.125000
4953,-78.125000
4954,-74.218750
4955,-78.125000
4956,-74.218750
4957,-74.218750
4958,-74.218750
4959,-70.312500
4960,-70.312500
4961,-70.312500
4962,-66.406250
4963,-66.406250
4964,-66.406250
4965,-66.406250
4966,-62.500000
4967,-62.500000
4968,-62.500000
4969,-58.593750
4970,-58.593750
4971,-58.593750
4972,-58.593750
4973,-54.687500
4974,-54.687500
4975,-54.687500
4976,-50.781250
4977,-50.781250
4978,-50.781250
4979,-50.781250
4980,-46.875000
4981,-46.875000
4982,-46.875000
4983,-42.968750
4984,-42.968750
4985,-42.968750
4986,-42.968750
4987,-39.062500
4988,-39.062500
4989,-39.062500
4990,-35.156250
4991,-35.156250
4992,-35.156250
4993,-31.250000
4994,-31.250000
4995,-31.250000
4996,-27.343750
4997,-27.343750
4998,-27.343750
4999,-27.343750
5000,-23.437500
5001,-23.437500
5002,-23.437500
5003,-19.531250
5004,-19.531250
5005,-19.531250
5006,-19.531250
5007,-15.625000
5008,-15.625000
5009,-15.625000
5010,-15.625000
5011,-11.718750
5012,-11.718750
5013,-11.718750
5014,-7.812500
5015,-7.812500
5016,-7.812500
5017,-7.812500
5018,-3.906250
5019,-3.906250
5020,-3.906250
5021,0.000000
5022,0.000000
5023,0.000000
5024,0.000000
5025,0.000000
5026,3.906250
5027,3.906250
5028,3.906250
5029,7.812500
5030,7.812500
5031,7.812500
5032,11.718750
5033,11.718750
5034,11.718750
5035,11.718750
5036,11.718750
5037,15.625000
5038,15.625000
5039,15.625000
5040,19.531250
5041,19.531250
5042,19.531250
5043,23.437500
5044,23.437500
5045,23.437500
5046,23.437500
5047,27.343750
5048,27.343750
5049,27.343750
5050,31.250000
5051,31.250000
5052,31.250000
5053,31.250000
5054,35.156250
5055,35.156250
5056,35.156250
5057,35.156250
5058,39.062500
5059,39.062500
5060,39.062500
5061,42.968750
5062,42.968750
5063,42.968750
5064,42.968750
5065,46.875000
5066,46.875000
5067,46.875000
5068,46.875000
5069,46.875000
5070,50.781250
5071,50.781250
5072,50.781250
5073,54.687500
5074,54.687500
5075,54.687500
5076,54.687500
5077,54.687500
5078,58.593750
5079,58.593750
5080,58.593750
5081,62.500000
5082,62.500000
5083,62.500000
5084,62.500000
5085,62.500000
5086,66.406250
5087,66.406250
5088,66.406250
5089,66.406250
5090,70.312500
5091,70.312500
5092,70.312500
5093,70.312500
5094,70.312500
5095,74.218750
5096,74.218750
5097,74.218750
5098,74.218750
5099,78.125000
5100,78.125000
5101,78.125000
5102,78.125000
5103,78.125000
5104,82.031250
5105,82.031250
5106,82.031250
5107,82.031250
5108,82.031250
5109,85.937500
5110,85.937500
5111,85.937500
5112,85.937500
5113,85.937500
5114,85.937500
5115,89.843750
5116,89.843750
5117,89.843750
5118,89.843750
5119,93.750000
5120,93.750000
5121,93.750000
5122,93.750000
5123,93.750000
5124,97.656250
5125,97.656250
5126,97.656250
5127,97.656250
5128,97.656250
5129,101.562500
5130,101.562500
5131,101.562500
5132,101.562500
5133,101.562500
5134,101.562500
5135,101.562500
5136,105.468750
5137,105.468750
5138,105.468750
5139,105.468750
5140,105.468750
5141,109.375000
5142,109.375000
5143,109.375000
5144,109.375000
5145,109.375000
5146,109.375000
5147,109.375000
5148,113.281250
5149,113.281250
5150,113.281250
5151,113.281250
5152,113.281250
5153,117.187500
5154,113.281250
5155,113.281250
5156,117.187500
5157,117.187500
5158,117.187500
5159,117.187500
5160,117.187500
5161,117.187500
5162,121.093750
5163,121.093750
5164,121.093750
5165,121.093750
5166,121.093750
5167,125.000000
5168,121.093750
5169,125.000000
5170,125.000000
5171,125.000000
5172,125.000000
5173,125.000000
5174,125.000000
5175,125.000000
5176,125.000000
5177,128.906250
5178,128.906250
5179,128.906250
5180,128.906250
5181,128.906250
5182,128.906250
5183,128.906250
5184,128.906250
5185,128.906250
5186,132.812500
5187,132.812500
5188,132.812500
5189,132.812500
5190,132.812500
5191,132.812500
5192,132.812500
5193,132.812500
5194,132.812500
5195,136.718750
5196,136.718750
5197,136.718750
5198,136.718750
5199,136.718750
5200,136.718750
5201,136.718750
5202,136.718750
5203,132.812500
5204,136.718750
5205,140.625000
5206,140.625000
5207,140.625000
5208,140.625000
5209,140.625000
5210,140.625000
5211,140.625000
5212,140.625000
5213,140.625000
5214,140.625000
5215,140.625000
5216,140.625000
5217,140.625000
5218,144.531250
5219,140.625000
5220,144.531250
5221,144.531250
5222,144.531250
5223,144.531250
5224,144.531250
5225,144.531250
5226,144.531250
5227,144.531250
5228,144.531250
5229,144.531250
5230,144.531250
5231,144.531250
5232,144.531250
5233,144.531250
5234,144.531250
5235,144.531250
5236,144.531250
5237,144.531250
5238,148.437500
5239,144.531250
5240,144.531250
5241,144.531250
5242,148.437500
5243,144.531250
5244,148.437500
5245,148.437500
5246,148.437500
5247,148.437500
5248,148.437500
5249,148.437500
5250,148.437500
5251,148.437500
5252,148.437500
5253,148.437500
5254,148.437500
5255,148.437500
5256,148.437500
5257,148.437500
5258,148.437500
5259,148.437500
5260,148.437500
5261,148.437500
5262,148.437500
5263,148.437500
5264,148.437500
5265,148.437500
5266,148.437500
5267,148.437500
5268,148.437500
5269,148.437500
5270,148.437500
5271,148.437500
5272,148.437500
5273,148.437500
5274,148.437500
5275,148.437500
5276,148.437500
5277,148.437500
5278,148.437500
5279,148.437500
5280,148.437500
5281,148.437500
5282,148.437500
5283,148.437500
5284,148.437500
5285,148.437500
5286,148.437500
5287,148.437500
5288,148.437500
5289,144.531250
5290,144.531250
5291,144.531250
5292,144.531250
5293,144.531250
5294,144.531250
5295,144.531250
5296,144.531250
5297,144.531250
5298,144.531250
5299,144.531250
5300,144.531250
5301,144.531250
5302,144.531250
5303,144.531250
5304,144.531250
5305,144.531250
5306,144.531250
5307,140.625000
5308,144.531250
5309,140.625000
5310,144.531250
5311,144.531250
5312,144.531250
5313,144.531250
5314,144.531250
5315,140.625000
5316,144.531250
5317,140.625000
5318,140.625000
5319,140.625000
5320,140.625000
5321,140.625000
5322,140.625000
5323,140.625000
5324,140.625000
5325,140.625000
5326,140.625000
5327,136.718750
5328,140.625000
5329,136.718750
5330,136.718750
5331,136.718750
5332,136.718750
5333,136.718750
5334,136.718750
5335,136.718750
5336,136.718750
5337,132.812500
5338,136.718750
5339,132.812500
5340,132.812500
5341,132.812500
5342,132.812500
5343,132.812500
5344,132.812500
5345,132.812500
5346,132.812500
5347,132.812500
5348,132.812500
5349,128.906250
5350,128.906250
5351,128.906250
5352,128.906250
5353,128.906250
5354,128.906250
5355,128.906250
5356,128.906250
5357,125.000000
5358,128.906250
5359,128.906250
5360,125.000000
5361,125.000000
5362,125.000000
5363,125.000000
5364,125.000000
5365,121.093750
5366,121.093750
5367,121.093750
5368,121.093750
5369,121.093750
5370,121.093750
5371,121.093750
5372,121.093750
5373,121.093750
5374,117.187500
5375,117.187500
5376,117.187500
5377,117.187500
5378,117.187500
5379,117.187500
5380,117.187500
5381,113.281250
5382,113.281250
5383,113.281250
5384,113.281250
5385,113.281250
5386,109.375000
5387,109.375000
5388,109.375000
5389,109.375000
5390,109.375000
5391,109.375000
5392,105.468750
5393,109.375000
5394,105.468750
5395,105.468750
5396,105.468750
5397,105.468750
5398,105.468750
5399,101.562500
5400,101.562500
5401,101.562500
5402,101.562500
5403,97.656250
5404,101.562500
5405,97.656250
5406,97.656250
5407,97.656250
5408,97.656250
5409,93.750000
5410,93.750000
5411,93.750000
5412,93.750000
5413,89.843750
5414,93.750000
5415,89.843750
5416,89.843750
5417,89.843750
5418,89.843750
5419,89.843750
5420,85.937500
5421,85.937500
5422,85.937500
5423,85.937500
5424,85.937500
5425,82.031250
5426,82.031250
5427,82.031250
5428,82.031250
5429,78.125000
5430,78.125000
5431,78.125000
5432,78.125000
5433,74.218750
5434,74.218750
5435,74.218750
5436,74.218750
5437,74.218750
5438,74.218750
5439,70.312500
5440,70.312500
5441,70.312500
5442,66.406250
5443,66.406250
5444,66.406250
5445,66.406250
5446,66.406250
5447,62.500000
5448,62.500000
5449,62.500000
5450,62.500000
5451,58.593750
5452,58.593750
5453,58.593750
5454,58.593750
5455,58.593750
5456,54.687500
5457,54.687500
5458,54.687500
5459,54.687500
5460,50.781250
5461,50.781250
5462,50.781250
5463,50.781250
5464,46.875000
5465,46.875000
5466,46.875000
5467,46.875000
5468,42.968750
5469,42.968750
5470,42.968750
5471,42.968750
5472,39.062500
5473,39.062500
5474,39.062500
5475,39.062500
5476,35.156250
5477,35.156250
5478,35.156250
5479,31.250000
5480,31.250000
5481,31.250000
5482,31.250000
5483,27.343750
5484,27.343750
5485,27.343750
5486,27.343750
5487,23.437500
5488,23.437500
5489,23.437500
5490,23.437500
5491,19.531250
5492,19.531250
5493,19.531250
5494,15.625000
5495,15.625000
5496,15.625000
5497,15.625000
5498,11.718750
5499,11.718750
5500,11.718750
5501,7.812500
5502,7.812500
5503,7.812500
5504,7.812500
5505,7.812500
5506,3.906250
5507,3.906250
5508,0.000000
5509,0.000000
5510,0.000000
5511,0.000000
5512,-3.906250
5513,-3.906250
5514,-3.906250
5515,-7.812500
5516,-7.812500
5517,-7.812500
5518,-7.812500
5519,-11.718750
5520,-11.718750
5521,-11.718750
5522,-11.718750
5523,-15.625000
5524,-15.625000
5525,-15.625000
5526,-19.531250
5527,-19.531250
5528,-19.531250
5529,-23.437500
5530,-23.437500
5531,-23.437500
5532,-23.437500
5533,-27.343750
5534,-27.343750
5535,-27.343750
5536,-31.250000
5537,-31.250000
5538,-31.250000
5539,-35.156250
5540,-35.156250
5541,-35.156250
5542,-35.156250
5543,-39.062500
5544,-39.062500
5545,-39.062500
5546,-42.968750
5547,-42.968750
5548,-42.968750
5549,-42.968750
5550,-46.875000
5551,-46.875000
5552,-46.875000
5553,-50.781250
5554,-50.781250
5555,-50.781250
5556,-50.781250
5557,-54.687500
5558,-54.687500
5559,-54.687500
5560,-58.593750
5561,-58.593750
5562,-58.593750
5563,-58.593750
5564,-62.500000
5565,-62.500000
5566,-62.500000
5567,-66.406250
5568,-66.406250
5569,-66.406250
5570,-66.406250
5571,-70.312500
5572,-70.312500
5573,-74.218750
5574,-74.218750
5575,-74.218750
5576,-74.218750
5577,-78.125000
5578,-78.125000
5579,-78.125000
5580,-78.125000
5581,-82.031250
5582,-82.031250
5583,-82.031250
5584,-85.937500
5585,-85.937500
5586,-85.937500
5587,-85.937500
5588,-85.937500
5589,-89.843750
5590,-89.843750
5591,-89.843750
5592,-93.750000
5593,-93.750000
5594,-93.750000
5595,-93.750000
5596,-97.656250
5597,-97.656250
5598,-97.656250
5599,-101.562500
5600,-101.562500
5601,-101.562500
5602,-101.562500
5603,-105.468750
5604,-105.468750
5605,-105.468750
5606,-105.468750
5607,-109.375000
5608,-109.375000
5609,-109.375000
5610,-109.375000
5611,-113.281250
5612,-113.281250
5613,-113.281250
5614,-113.281250
5615,-117.187500
5616,-117.187500
5617,-117.187500
5618,-117.187500
5619,-121.093750
5620,-121.093750
5621,-121.093750
5622,-121.093750
5623,-125.000000
5624,-125.000000
5625,-125.000000
5626,-125.000000
5627,-128.906250
5628,-128.906250
5629,-128.906250
5630,-128.906250
5631,-132.812500
5632,-132.812500
5633,-132.812500
5634,-132.812500
5635,-132.812500
5636,-136.718750
5637,-136.718750
5638,-136.718750
5639,-136.718750
5640,-140.625000
5641,-140.625000
5642,-140.625000
5643,-140.625000
5644,-140.625000
5645,-144.531250
5646,-144.531250
5647,-144.531250
5648,-144.531250
5649,-148.437500
5650,-148.437500
5651,-148.437500
5652,-148.437500
5653,-148.437500
5654,-152.343750
5655,-152.343750
5656,-152.343750
5657,-156.250000
5658,-152.343750
5659,-156.250000
5660,-156.250000
5661,-156.250000
5662,-156.250000
5663,-160.156250
5664,-160.156250
5665,-160.156250
5666,-160.156250
5667,-160.156250
5668,-160.156250
5669,-160.156250
5670,-160.156250
5671,-164.062500
5672,-164.062500
5673,-164.062500
5674,-164.062500
5675,-167.968750
5676,-167.968750
5677,-167.968750
5678,-167.968750
5679,-167.968750
5680,-167.968750
5681,-171.875000
5682,-171.875000
5683,-171.875000
5684,-171.875000
5685,-171.875000
5686,-171.875000
5687,-175.781250
5688,-175.781250
5689,-175.781250
5690,-175.781250
5691,-175.781250
5692,-175.781250
5693,-175.781250
5694,-175.781250
5695,-179.687500
5696,-179.687500
5697,-179.687500
5698,-179.687500
5699,-179.687500
5700,-179.687500
5701,-179.687500
5702,-179.687500
5703,-183.593750
5704,-183.593750
5705,-183.593750
5706,-183.593750
5707,-183.593750
5708,-183.593750
5709,-183.593750
5710,-183.593750
5711,-187.500000
5712,-187.500000
5713,-187.500000
5714,-187.500000
5715,-187.500000
5716,-187.500000
5717,-187.500000
5718,-187.500000
5719,-187.500000
5720,-187.500000
5721,-187.500000
5722,-187.500000
5723,-191.406250
5724,-191.406250
5725,-187.500000
5726,-191.406250
5727,-191.406250
5728,-191.406250
5729,-191.406250
5730,-191.406250
5731,-191.406250
5732,-191.406250
5733,-191.406250
5734,-191.406250
5735,-191.406250
5736,-191.406250
5737,-191.406250
5738,-191.406250
5739,-191.406250
5740,-195.312500
5741,-195.312500
5742,-195.312500
5743,-195.312500
5744,-195.312500
5745,-195.312500
5746,-195.312500
5747,-195.312500
5748,-195.312500
5749,-195.312500
5750,-195.312500
5751,-195.312500
5752,-195.312500
5753,-195.312500
5754,-195.312500
5755,-195.312500
5756,-195.312500
5757,-195.312500
5758,-195.312500
5759,-195.312500
5760,-195.312500
5761,-195.312500
5762,-195.312500
5763,-195.312500
5764,-195.312500
5765,-195.312500
5766,-195.312500
5767,-195.312500
5768,-195.312500
5769,-195.312500
5770,-195.312500
5771,-195.312500
5772,-195.312500
5773,-195.312500
5774,-195.312500
5775,-195.312500
5776,-195.312500
5777,-195.312500
5778,-195.312500
5779,-195.312500
5780,-195.312500
5781,-195.312500
5782,-191.406250
5783,-195.312500
5784,-191.406250
5785,-195.312500
5786,-195.312500
5787,-191.406250
5788,-191.406250
5789,-191.406250
5790,-191.406250
5791,-191.406250
5792,-191.406250
5793,-191.406250
5794,-191.406250
5795,-191.406250
5796,-191.406250
5797,-191.406250
5798,-191.406250
5799,-191.406250
5800,-191.406250
5801,-187.500000
5802,-187.500000
5803,-187.500000
5804,-187.500000
5805,-187.500000
5806,-187.500000
5807,-187.500000
5808,-187.500000
5809,-187.500000
5810,-183.593750
5811,-183.593750
5812,-187.500000
5813,-183.593750
5814,-183.593750
5815,-183.593750
5816,-183.593750
5817,-183.593750
5818,-183.593750
5819,-183.593750
5820,-183.593750
5821,-183.593750
5822,-179.687500
5823,-179.687500
5824,-179.687500
5825,-179.687500
5826,-179.687500
5827,-179.687500
5828,-179.687500
5829,-175.781250
5830,-175.781250
5831,-175.781250
5832,-175.781250
5833,-175.781250
5834,-175.781250
5835,-175.781250
5836,-171.875000
5837,-171.875000
5838,-171.875000
5839,-171.875000
5840,-171.875000
5841,-171.875000
5842,-167.968750
5843,-167.968750
5844,-167.968750
5845,-167.968750
5846,-167.968750
5847,-167.968750
5848,-167.968750
5849,-164.062500
5850,-164.062500
5851,-164.062500
5852,-164.062500
5853,-164.062500
5854,-160.156250
5855,-160.156250
5856,-160.156250
5857,-160.156250
5858,-160.156250
5859,-160.156250
5860,-156.250000
5861,-156.250000
5862,-156.250000
5863,-152.343750
5864,-152.343750
5865,-152.343750
5866,-152.343750
5867,-152.343750
5868,-152.343750
5869,-148.437500
5870,-148.437500
5871,-148.437500
5872,-148.437500
5873,-148.437500
5874,-144.531250
5875,-144.531250
5876,-144.531250
5877,-144.531250
5878,-144.531250
5879,-140.625000
5880,-140.625000
5881,-140.625000
5882,-140.625000
5883,-140.625000
5884,-136.718750
5885,-136.718750
5886,-136.718750
5887,-136.718750
5888,-132.812500
5889,-132.812500
5890,-132.812500
5891,-132.812500
5892,-128.906250
5893,-128.906250
5894,-128.906250
5895,-128.906250
5896,-128.906250
5897,-125.000000
5898,-125.000000
5899,-125.000000
5900,-121.093750
5901,-121.093750
5902,-121.093750
5903,-121.093750
5904,-121.093750
5905,-117.187500
5906,-117.187500
5907,-117.187500
5908,-113.281250
5909,-113.281250
5910,-113.281250
5911,-113.281250
5912,-109.375000
5913,-109.375000
5914,-109.375000
5915,-109.375000
5916,-105.468750
5917,-105.468750
5918,-105.468750
5919,-105.468750
5920,-101.562500
5921,-105.468750
5922,-101.562500
5923,-101.562500
5924,-97.656250
5925,-97.656250
5926,-97.656250
5927,-97.656250
5928,-93.750000
5929,-93.750000
5930,-93.750000
5931,-93.750000
5932,-89.843750
5933,-89.843750
5934,-85.937500
5935,-89.843750
5936,-85.937500
5937,-85.937500
5938,-85.937500
5939,-85.937500
5940,-82.031250
5941,-82.031250
5942,-82.031250
5943,-78.125000
5944,-78.125000
5945,-74.218750
5946,-74.218750
5947,-74.218750
5948,-74.218750
5949,-74.218750
5950,-70.312500
5951,-70.312500
5952,-70.312500
5953,-66.406250
5954,-66.406250
5955,-66.406250
5956,-62.500000
5957,-62.500000
5958,-62.500000
5959,-62.500000
5960,-62.500000
5961,-58.593750
5962,-58.593750
5963,-58.593750
5964,-54.687500
5965,-54.687500
5966,-54.687500
5967,-50.781250
5968,-50.781250
5969,-50.781250
5970,-46.875000
5971,-46.875000
5972,-46.875000
5973,-42.968750
5974,-42.968750
5975,-42.968750
5976,-42.968750
5977,-42.968750
5978,-42.968750
5979,-39.062500
5980,-39.062500
5981,-35.156250
5982,-35.156250
5983,-35.156250
5984,-31.250000
5985,-31.250000
5986,-31.250000
5987,-31.250000
5988,-27.343750
5989,-27.343750
5990,-23.437500
5991,-23.437500
5992,-23.437500
5993,-23.437500
5994,-19.531250
5995,-19.531250
5996,-19.531250
5997,-19.531250
5998,-15.625000
5999,-15.625000
6000,-11.718750
6001,-11.718750
6002,-11.718750
6003,-11.718750
6004,-7.812500
6005,-7.812500
6006,-7.812500
6007,-7.812500
6008,-3.906250
6009,-3.906250
6010,-3.906250
6011,-3.906250
6012,0.000000
6013,0.000000
6014,0.000000
6015,3.906250
6016,3.906250
6017,3.906250
6018,7.812500
6019,7.812500
6020,7.812500
6021,7.812500
6022,11.718750
6023,11.718750
6024,11.718750
6025,11.718750
6026,11.718750
6027,15.625000
6028,15.625000
6029,19.531250
6030,19.531250
6031,19.531250
6032,23.437500
6033,23.437500
6034,23.437500
6035,19.531250
6036,27.343750
6037,27.343750
6038,27.343750
6039,27.343750
6040,27.343750
6041,27.343750
6042,31.250000
6043,31.250000
6044,31.250000
6045,35.156250
6046,35.156250
6047,35.156250
6048,39.062500
6049,39.062500
6050,39.062500
6051,39.062500
6052,42.968750
6053,42.968750
6054,42.968750
6055,42.968750
6056,42.968750
6057,46.875000
6058,46.875000
6059,46.875000
6060,46.875000
6061,50.781250
6062,50.781250
6063,50.781250
6064,54.687500
6065,54.687500
6066,54.687500
6067,54.687500
6068,58.593750
6069,58.593750
6070,54.687500
6071,58.593750
6072,58.593750
6073,62.500000
6074,62.500000
6075,62.500000
6076,66.406250
6077,66.406250
6078,66.406250
6079,66.406250
6080,66.406250
6081,66.406250
6082,70.312500
6083,70.312500
6084,70.312500
6085,70.312500
6086,74.218750
6087,74.218750
6088,74.218750
6089,74.218750
6090,78.125000
6091,78.125000
6092,78.125000
6093,78.125000
6094,78.125000
6095,82.031250
6096,82.031250
6097,82.031250
6098,82.031250
6099,82.031250
6100,85.937500
6101,85.937500
6102,85.937500
6103,85.937500
6104,89.843750
6105,89.843750
6106,89.843750
6107,89.843750
6108,89.843750
6109,89.843750
6110,93.750000
6111,93.750000
6112,93.750000
6113,93.750000
6114,97.656250
6115,97.656250
6116,97.656250
6117,97.656250
6118,97.656250
6119,97.656250
6120,101.562500
6121,101.562500
6122,101.562500
6123,101.562500
6124,105.468750
6125,105.468750
6126,105.468750
6127,105.468750
6128,105.468750
6129,105.468750
6130,105.468750
6131,105.468750
6132,109.375000
6133,109.375000
6134,109.375000
6135,109.375000
6136,109.375000
6137,109.375000
6138,113.281250
6139,113.281250
6140,113.281250
6141,113.281250
6142,113.281250
6143,113.281250
6144,117.187500
6145,117.187500
6146,117.187500
6147,117.187500
6148,117.187500
6149,117.187500
6150,121.093750
6151,121.093750
6152,121.093750
6153,121.093750
6154,121.093750
6155,121.093750
6156,121.093750
6157,121.093750
6158,125.000000
6159,125.000000
6160,125.000000
6161,125.000000
6162,125.000000
6163,125.000000
6164,125.000000
6165,125.000000
6166,128.906250
6167,128.906250
6168,128.906250
6169,128.906250
6170,128.906250
6171,128.906250
6172,128.906250
6173,128.906250
6174,128.906250
6175,128.906250
6176,132.812500
6177,132.812500
6178,132.812500
6179,132.812500
6180,132.812500
6181,132.812500
6182,132.812500
6183,132.812500
6184,132.812500
6185,132.812500
6186,136.718750
6187,136.718750
6188,136.718750
6189,136.718750
6190,136.718750
6191,136.718750
6192,136.718750
6193,136.718750
6194,136.718750
6195,136.718750
6196,140.625000
6197,136.718750
6198,140.625000
6199,140.625000
6200,140.625000
6201,140.625000
6202,140.625000
6203,140.625000
6204,140.625000
6205,140.625000
6206,140.625000
6207,140.625000
6208,140.625000
6209,140.625000
6210,140.625000
6211,140.625000
6212,144.531250
6213,144.531250
6214,144.531250
6215,144.531250
6216,144.531250
6217,144.531250
6218,144.531250
6219,144.531250
6220,144.531250
6221,144.531250
6222,144.531250
6223,144.531250
6224,144.531250
6225,144.531250
6226,144.531250
6227,144.531250
6228,144.531250
6229,144.531250
6230,144.531250
6231,148.437500
6232,148.437500
6233,144.531250
6234,148.437500
6235,148.437500
6236,148.437500
6237,144.531250
6238,148.437500
6239,148.437500
6240,148.437500
6241,148.437500
6242,148.437500
6243,148.437500
6244,148.437500
6245,148.437500
6246,148.437500
6247,148.437500
6248,148.437500
6249,148.437500
6250,148.437500
6251,148.437500
6252,148.437500
6253,148.437500
6254,148.437500
6255,148.437500
6256,148.437500
6257,148.437500
6258,148.437500
6259,148.437500
6260,148.437500
6261,148.437500
6262,148.437500
6263,148.437500
6264,148.437500
6265,148.437500
6266,148.437500
6267,148.437500
6268,148.437500
6269,148.437500
6270,148.437500
6271,148.437500
6272,148.437500
6273,148.437500
6274,148.437500
6275,148.437500
6276,148.437500
6277,148.437500
6278,148.437500
6279,148.437500
6280,148.437500
6281,144.531250
6282,148.437500
6283,144.531250
6284,144.531250
6285,144.531250
6286,144.531250
6287,144.531250
6288,144.531250
6289,144.531250
6290,144.531250
6291,144.531250
6292,144.531250
6293,144.531250
6294,144.531250
6295,144.531250
6296,144.531250
6297,144.531250
6298,144.531250
6299,144.531250
6300,144.531250
6301,144.531250
6302,144.531250
6303,140.625000
6304,140.625000
6305,140.625000
6306,144.531250
6307,140.625000
6308,140.625000
6309,140.625000
6310,140.625000
6311,140.625000
6312,140.625000
6313,140.625000
6314,140.625000
6315,140.625000
6316,140.625000
6317,136.718750
6318,136.718750
6319,136.718750
6320,136.718750
6321,136.718750
6322,136.718750
6323,136.718750
6324,136.718750
6325,132.812500
6326,136.718750
6327,136.718750
6328,136.718750
6329,132.812500
6330,132.812500
6331,132.812500
6332,132.812500
6333,132.812500
6334,132.812500
6335,132.812500
6336,132.812500
6337,128.906250
6338,128.906250
6339,128.906250
6340,128.906250
6341,128.906250
6342,128.906250
6343,128.906250
6344,128.906250
6345,125.000000
6346,125.000000
6347,125.000000
6348,125.000000
6349,125.000000
6350,125.000000
6351,125.000000
6352,125.000000
6353,125.000000
6354,125.000000
6355,121.093750
6356,121.093750
6357,121.093750
6358,121.093750
6359,121.093750
6360,121.093750
6361,121.093750
6362,121.093750
6363,117.187500
6364,117.187500
6365,117.187500
6366,117.187500
6367,117.187500
6368,117.187500
6369,117.187500
6370,113.281250
6371,113.281250
6372,113.281250
6373,113.281250
6374,113.281250
6375,109.375000
6376,113.281250
6377,109.375000
6378,109.375000
6379,109.375000
6380,109.375000
6381,109.375000
6382,109.375000
6383,105.468750
6384,105.468750
6385,105.468750
6386,105.468750
6387,105.468750
6388,105.468750
6389,101.562500
6390,101.562500
6391,101.562500
6392,101.562500
6393,97.656250
6394,97.656250
6395,97.656250
6396,97.656250
6397,97.656250
6398,97.656250
6399,97.656250
6400,93.750000
6401,93.750000
6402,93.750000
6403,93.750000
6404,89.843750
6405,89.843750
6406,89.843750
6407,89.843750
6408,89.843750
6409,89.843750
6410,85.937500
6411,85.937500
6412,85.937500
6413,85.937500
6414,85.937500
6415,82.031250
6416,82.031250
6417,82.031250
6418,82.031250
6419,82.031250
6420,78.125000
6421,78.125000
6422,78.125000
6423,78.125000
6424,74.218750
6425,74.218750
6426,74.218750
6427,74.218750
6428,70.312500
6429,70.312500
6430,70.312500
6431,70.312500
6432,70.312500
6433,66.406250
6434,66.406250
6435,66.406250
6436,66.406250
6437,62.500000
6438,62.500000
6439,62.500000
6440,62.500000
6441,58.593750
6442,58.593750
6443,58.593750
6444,58.593750
6445,54.687500
6446,54.687500
6447,54.687500
6448,54.687500
6449,50.781250
6450,50.781250
6451,50.781250
6452,50.781250
6453,50.781250
6454,46.875000
6455,46.875000
6456,46.875000
6457,42.968750
6458,42.968750
6459,42.968750
6460,42.968750
6461,39.062500
6462,39.062500
6463,39.062500
6464,39.062500
6465,35.156250
6466,35.156250
6467,35.156250
6468,35.156250
6469,31.250000
6470,31.250000
6471,31.250000
6472,31.250000
6473,27.343750
6474,27.343750
6475,27.343750
6476,23.437500
6477,23.437500
6478,23.437500
6479,23.437500
6480,19.531250
6481,19.531250
6482,19.531250
6483,19.531250
6484,15.625000
6485,15.625000
6486,15.625000
6487,11.718750
6488,11.718750
6489,11.718750
6490,11.718750
6491,7.812500
6492,7.812500
6493,7.812500
6494,7.812500
6495,3.906250
6496,3.906250
6497,3.906250
6498,0.000000
6499,0.000000
6500,0.000000
6501,0.000000
6502,-3.906250
6503,-3.906250
6504,-3.906250
6505,-7.812500
6506,-7.812500
6507,-7.812500
6508,-7.812500
6509,-11.718750
6510,-11.718750
6511,-11.718750
6512,-15.625000
6513,-15.625000
6514,-15.625000
6515,-15.625000
6516,-19.531250
6517,-19.531250
6518,-19.531250
6519,-23.437500
6520,-23.437500
6521,-23.437500
6522,-27.343750
6523,-27.343750
6524,-27.343750
6525,-31.250000
6526,-31.250000
6527,-31.250000
6528,-31.250000
6529,-35.156250
6530,-35.156250
6531,-35.156250
6532,-39.062500
6533,-39.062500
6534,-39.062500
6535,-39.062500
6536,-42.968750
6537,-42.968750
6538,-42.968750
6539,-42.968750
6540,-46.875000
6541,-46.875000
6542,-46.875000
6543,-50.781250
6544,-50.781250
6545,-50.781250
6546,-50.781250
6547,-54.687500
6548,-54.687500
6549,-54.687500
6550,-58.593750
6551,-58.593750
6552,-58.593750
6553,-62.500000
6554,-62.500000
6555,-62.500000
6556,-62.500000
6557,-66.406250
6558,-66.406250
6559,-66.406250
6560,-66.406250
6561,-70.312500
6562,-70.312500
6563,-74.218750
6564,-74.218750
6565,-74.218750
6566,-74.218750
6567,-74.218750
6568,-78.125000
6569,-78.125000
6570,-78.125000
6571,-82.031250
6572,-82.031250
6573,-82.031250
6574,-82.031250
6575,-85.937500
6576,-85.937500
6577,-85.937500
6578,-89.843750
6579,-89.843750
6580,-89.843750
6581,-93.750000
6582,-93.750000
6583,-93.750000
6584,-93.750000
6585,-93.750000
6586,-97.656250
6587,-97.656250
6588,-97.656250
6589,-101.562500
6590,-101.562500
6591,-101.562500
6592,-101.562500
6593,-105.468750
6594,-105.468750
6595,-105.468750
6596,-105.468750
6597,-109.375000
6598,-109.375000
6599,-109.375000
6600,-113.281250
6601,-113.281250
6602,-113.281250
6603,-113.281250
6604,-113.281250
6605,-117.187500
6606,-117.187500
6607,-117.187500
6608,-117.187500
6609,-121.093750
6610,-121.093750
6611,-121.093750
6612,-121.093750
6613,-125.000000
6614,-125.000000
6615,-125.000000
6616,-125.000000
6617,-128.906250
6618,-128.906250
6619,-128.906250
6620,-132.812500
6621,-132.812500
6622,-132.812500
6623,-132.812500
6624,-132.812500
6625,-132.812500
6626,-136.718750
6627,-136.718750
6628,-136.718750
6629,-136.718750
6630,-140.625000
6631,-140.625000
6632,-140.625000
6633,-140.625000
6634,-140.625000
6635,-144.531250
6636,-144.531250
6637,-144.531250
6638,-144.531250
6639,-148.437500
6640,-148.437500
6641,-148.437500
6642,-148.437500
6643,-148.437500
6644,-148.437500
6645,-152.343750
6646,-152.343750
6647,-152.343750
6648,-152.343750
6649,-156.250000
6650,-156.250000
6651,-156.250000
6652,-156.250000
6653,-156.250000
6654,-160.156250
6655,-160.156250
6656,-160.156250
6657,-160.156250
6658,-160.156250
6659,-160.156250
6660,-160.156250
6661,-164.062500
6662,-164.062500
6663,-164.062500
6664,-164.062500
6665,-164.062500
6666,-167.968750
6667,-167.968750
6668,-167.968750
6669,-167.968750
6670,-167.968750
6671,-167.968750
6672,-167.968750
6673,-171.875000
6674,-171.875000
6675,-171.875000
6676,-171.875000
6677,-171.875000
6678,-171.875000
6679,-171.875000
6680,-175.781250
6681,-175.781250
6682,-175.781250
6683,-175.781250
6684,-175.781250
6685,-179.687500
6686,-179.687500
6687,-179.687500
6688,-179.687500
6689,-179.687500
6690,-179.687500
6691,-179.687500
6692,-179.687500
6693,-183.593750
6694,-179.687500
6695,-183.593750
6696,-183.593750
6697,-183.593750
6698,-183.593750
6699,-183.593750
6700,-183.593750
6701,-183.593750
6702,-183.593750
6703,-183.593750
6704,-187.500000
6705,-187.500000
6706,-187.500000
6707,-187.500000
6708,-187.500000
6709,-187.500000
6710,-187.500000
6711,-187.500000
6712,-187.500000
6713,-187.500000
6714,-187.500000
6715,-187.500000
6716,-187.500000
6717,-191.406250
6718,-191.406250
6719,-191.406250
6720,-191.406250
6721,-191.406250
6722,-191.406250
6723,-191.406250
6724,-191.406250
6725,-191.406250
6726,-191.406250
6727,-191.406250
6728,-191.406250
6729,-191.406250
6730,-191.406250
6731,-195.312500
6732,-191.406250
6733,-195.312500
6734,-191.406250
6735,-191.406250
6736,-191.406250
6737,-195.312500
6738,-191.406250
6739,-195.312500
6740,-195.312500
6741,-195.312500
6742,-195.312500
6743,-195.312500
6744,-195.312500
6745,-195.312500
6746,-195.312500
6747,-195.312500
6748,-195.312500
6749,-195.312500
6750,-195.312500
6751,-195.312500
6752,-195.312500
6753,-195.312500
6754,-195.312500
6755,-195.312500
6756,-195.312500
6757,-195.312500
6758,-195.312500
6759,-195.312500
6760,-195.312500
6761,-195.312500
6762,-195.312500
6763,-195.312500
6764,-191.406250
6765,-191.406250
6766,-195.312500
6767,-191.406250
6768,-195.312500
6769,-191.406250
6770,-191.406250
6771,-191.406250
6772,-191.406250
6773,-191.406250
6774,-191.406250
6775,-191.406250
6776,-191.406250
6777,-191.406250
6778,-191.406250
6779,-191.406250
6780,-191.406250
6781,-191.406250
6782,-191.406250
6783,-191.406250
6784,-191.406250
6785,-187.500000
6786,-191.406250
6787,-187.500000
6788,-187.500000
6789,-187.500000
6790,-187.500000
6791,-187.500000
6792,-187.500000
6793,-187.500000
6794,-187.500000
6795,-187.500000
6796,-187.500000
6797,-183.593750
6798,-183.593750
6799,-183.593750
6800,-183.593750
6801,-183.593750
6802,-183.593750
6803,-183.593750
6804,-183.593750
6805,-183.593750
6806,-183.593750
6807,-183.593750
6808,-179.687500
6809,-179.687500
6810,-179.687500
6811,-179.687500
6812,-179.687500
6813,-179.687500
6814,-179.687500
6815,-179.687500
6816,-175.781250
6817,-175.781250
6818,-175.781250
6819,-175.781250
6820,-175.781250
6821,-175.781250
6822,-175.781250
6823,-171.875000
6824,-171.875000
6825,-171.875000
6826,-171.875000
6827,-171.875000
6828,-171.875000
6829,-171.875000
6830,-171.875000
6831,-167.968750
6832,-167.968750
6833,-167.968750
6834,-167.968750
6835,-167.968750
6836,-164.062500
6837,-164.062500
6838,-164.062500
6839,-164.062500
6840,-164.062500
6841,-164.062500
6842,-160.156250
6843,-160.156250
6844,-160.156250
6845,-160.156250
6846,-160.156250
6847,-160.156250
6848,-156.250000
6849,-156.250000
6850,-156.250000
6851,-156.250000
6852,-156.250000
6853,-156.250000
6854,-152.343750
6855,-152.343750
6856,-152.343750
6857,-152.343750
6858,-148.437500
6859,-148.437500
6860,-148.437500
6861,-148.437500
6862,-148.437500
6863,-144.531250
6864,-144.531250
6865,-144.531250
6866,-144.531250
6867,-144.531250
6868,-140.625000
6869,-140.625000
6870,-140.625000
6871,-140.625000
6872,-136.718750
6873,-136.718750
6874,-136.718750
6875,-136.718750
6876,-136.718750
6877,-132.812500
6878,-132.812500
6879,-132.812500
6880,-132.812500
6881,-128.906250
6882,-128.906250
6883,-128.906250
6884,-128.906250
6885,-125.000000
6886,-125.000000
6887,-125.000000
6888,-121.093750
6889,-121.093750
6890,-121.093750
6891,-121.093750
6892,-121.093750
6893,-117.187500
6894,-117.187500
6895,-117.187500
6896,-117.187500
6897,-117.187500
6898,-113.281250
6899,-113.281250
6900,-109.375000
6901,-109.375000
6902,-109.375000
6903,-109.375000
6904,-109.375000
6905,-105.468750
6906,-105.468750
6907,-105.468750
6908,-101.562500
6909,-101.562500
6910,-101.562500
6911,-101.562500
6912,-97.656250
6913,-97.656250
6914,-97.656250
6915,-97.656250
6916,-93.750000
6917,-93.750000
6918,-93.750000
6919,-93.750000
6920,-89.843750
6921,-89.843750
6922,-89.843750
6923,-85.937500
6924,-85.937500
6925,-85.937500
6926,-85.937500
6927,-82.031250
6928,-82.031250
6929,-82.031250
6930,-82.031250
6931,-78.125000
6932,-78.125000
6933,-78.125000
6934,-74.218750
6935,-74.218750
6936,-74.218750
6937,-74.218750
6938,-70.312500
6939,-70.312500
6940,-70.312500
6941,-66.406250
6942,-66.406250
6943,-66.406250
6944,-66.406250
6945,-66.406250
6946,-62.500000
6947,-62.500000
6948,-58.593750
6949,-58.593750
6950,-58.593750
6951,-58.593750
6952,-54.687500
6953,-54.687500
6954,-54.687500
6955,-50.781250
6956,-50.781250
6957,-50.781250
6958,-46.875000
6959,-46.875000
6960,-46.875000
6961,-46.875000
6962,-42.968750
6963,-42.968750
6964,-42.968750
6965,-39.062500
6966,-39.062500
6967,-39.062500
6968,-39.062500
6969,-35.156250
6970,-35.156250
6971,-35.156250
6972,-35.156250
6973,-31.250000
6974,-31.250000
6975,-31.250000
6976,-27.343750
6977,-27.343750
6978,-27.343750
6979,-23.437500
6980,-23.437500
6981,-23.437500
6982,-23.437500
6983,-23.437500
6984,-19.531250
6985,-19.531250
6986,-15.625000
6987,-15.625000
6988,-15.625000
6989,-15.625000
6990,-11.718750
6991,-11.718750
6992,-11.718750
6993,-7.812500
6994,-7.812500
6995,-7.812500
6996,-3.906250
6997,-3.906250
6998,-3.906250
6999,-3.906250
7000,0.000000
7001,0.000000
7002,0.000000
7003,0.000000
7004,3.906250
7005,3.906250
7006,7.812500
7007,3.906250
7008,7.812500
7009,7.812500
7010,7.812500
7011,11.718750
7012,11.718750
7013,11.718750
7014,15.625000
7015,15.625000
7016,15.625000
7017,19.531250
7018,19.531250
7019,19.531250
7020,19.531250
7021,23.437500
7022,23.437500
7023,23.437500
7024,23.437500
7025,27.343750
7026,27.343750
7027,27.343750
7028,27.343750
7029,31.250000
7030,31.250000
7031,31.250000
7032,31.250000
7033,35.156250
7034,35.156250
7035,35.156250
7036,39.062500
7037,39.062500
7038,39.062500
7039,39.062500
7040,39.062500
7041,42.968750
7042,42.968750
7043,42.968750
7044,46.875000
7045,46.875000
7046,46.875000
7047,46.875000
7048,50.781250
7049,50.781250
7050,50.781250
7051,50.781250
7052,50.781250
7053,54.687500
7054,54.687500
7055,54.687500
7056,54.687500
7057,58.593750
7058,58.593750
7059,58.593750
7060,58.593750
7061,62.500000
7062,62.500000
7063,62.500000
7064,62.500000
7065,66.406250
7066,66.406250
7067,66.406250
7068,66.406250
7069,70.312500
7070,70.312500
7071,70.312500
7072,70.312500
7073,70.312500
7074,74.218750
7075,74.218750
7076,74.218750
7077,74.218750
7078,74.218750
7079,78.125000
7080,78.125000
7081,78.125000
7082,82.031250
7083,82.031250
7084,82.031250
7085,82.031250
7086,82.031250
7087,82.031250
7088,82.031250
7089,85.937500
7090,85.937500
7091,85.937500
7092,85.937500
7093,89.843750
7094,89.843750
7095,89.843750
7096,89.843750
7097,93.750000
7098,93.750000
7099,93.750000
7100,93.750000
7101,93.750000
7102,97.656250
7103,97.656250
7104,97.656250
7105,97.656250
7106,97.656250
7107,97.656250
7108,101.562500
7109,101.562500
7110,101.562500
7111,101.562500
7112,101.562500
7113,105.468750
7114,105.468750
7115,105.468750
7116,105.468750
7117,101.562500
7118,109.375000
7119,109.375000
7120,105.468750
7121,109.375000
7122,109.375000
7123,109.375000
7124,109.375000
7125,109.375000
7126,113.281250
7127,113.281250
7128,113.281250
7129,113.281250
7130,113.281250
7131,113.281250
7132,117.187500
7133,117.187500
7134,117.187500
7135,117.187500
7136,117.187500
7137,117.187500
7138,121.093750
7139,117.187500
7140,121.093750
7141,121.093750
7142,121.093750
7143,121.093750
7144,121.093750
7145,125.000000
7146,125.000000
7147,125.000000
7148,125.000000
7149,125.000000
7150,125.000000
7151,125.000000
7152,125.000000
7153,128.906250
7154,128.906250
7155,128.906250
7156,128.906250
7157,128.906250
7158,128.906250
7159,128.906250
7160,128.906250
7161,128.906250
7162,128.906250
7163,128.906250
7164,132.812500
7165,132.812500
7166,132.812500
7167,132.812500
7168,132.812500
7169,132.812500
7170,132.812500
7171,132.812500
7172,136.718750
7173,136.718750
7174,136.718750
7175,136.718750
7176,136.718750
7177,136.718750
7178,136.718750
7179,136.718750
7180,136.718750
7181,140.625000
7182,140.625000
7183,136.718750
7184,140.625000
7185,140.625000
7186,140.625000
7187,140.625000
7188,140.625000
7189,140.625000
7190,140.625000
7191,140.625000
7192,140.625000
7193,144.531250
7194,144.531250
7195,140.625000
7196,144.531250
7197,144.531250
7198,144.531250
7199,144.531250
7200,144.531250
7201,144.531250
7202,144.531250
7203,144.531250
7204,144.531250
7205,144.531250
7206,144.531250
7207,144.531250
7208,144.531250
7209,144.531250
7210,148.437500
7211,144.531250
7212,148.437500
7213,144.531250
7214,144.531250
7215,144.531250
7216,148.437500
7217,144.531250
7218,148.437500
7219,144.531250
7220,148.437500
7221,148.437500
7222,144.531250
7223,148.437500
7224,148.437500
7225,148.437500
7226,148.437500
7227,148.437500
7228,148.437500
7229,148.437500
7230,148.437500
7231,148.437500
7232,148.437500
7233,148.437500
7234,148.437500
7235,148.437500
7236,148.437500
7237,148.437500
7238,148.437500
7239,148.437500
7240,148.437500
7241,148.437500
7242,148.437500
7243,148.437500
7244,148.437500
7245,148.437500
7246,148.437500
7247,148.437500
7248,148.437500
7249,148.437500
7250,148.437500
7251,148.437500
7252,148.437500
7253,148.437500
7254,148.437500
7255,148.437500
7256,148.437500
7257,148.437500
7258,148.437500
7259,148.437500
7260,148.437500
7261,148.437500
7262,148.437500
7263,148.437500
7264,148.437500
7265,148.437500
7266,148.437500
7267,148.437500
7268,148.437500
7269,148.437500
7270,148.437500
7271,148.437500
7272,148.437500
7273,148.437500
7274,148.437500
7275,148.437500
7276,144.531250
7277,144.531250
7278,148.437500
7279,144.531250
7280,144.531250
7281,144.531250
7282,148.437500
7283,144.531250
7284,144.531250
7285,144.531250
7286,144.531250
7287,144.531250
7288,144.531250
7289,144.531250
7290,144.531250
7291,144.531250
7292,144.531250
7293,144.531250
7294,144.531250
7295,144.531250
7296,144.531250
7297,144.531250
7298,140.625000
7299,140.625000
7300,144.531250
7301,140.625000
7302,140.625000
7303,140.625000
7304,140.625000
7305,140.625000
7306,140.625000
7307,140.625000
7308,140.625000
7309,140.625000
7310,140.625000
7311,140.625000
7312,136.718750
7313,136.718750
7314,136.718750
7315,136.718750
7316,136.718750
7317,136.718750
7318,136.718750
7319,136.718750
7320,136.718750
7321,136.718750
7322,136.718750
7323,132.812500
7324,132.812500
7325,132.812500
7326,132.812500
7327,132.812500
7328,132.812500
7329,132.812500
7330,132.812500
7331,132.812500
7332,128.906250
7333,128.906250
7334,128.906250
7335,128.906250
7336,128.906250
7337,128.906250
7338,128.906250
7339,128.906250
7340,125.000000
7341,125.000000
7342,125.000000
7343,125.000000
7344,125.000000
7345,125.000000
7346,125.000000
7347,121.093750
7348,121.093750
7349,121.093750
7350,121.093750
7351,121.093750
7352,121.093750
7353,121.093750
7354,121.093750
7355,117.187500
7356,117.187500
7357,117.187500
7358,117.187500
7359,117.187500
7360,117.187500
7361,117.187500
7362,117.187500
7363,113.281250
7364,113.281250
7365,113.281250
7366,113.281250
7367,109.375000
7368,109.375000
7369,109.375000
7370,109.375000
7371,109.375000
7372,109.375000
7373,109.375000
7374,109.375000
7375,105.468750
7376,105.468750
7377,105.468750
7378,105.468750
7379,101.562500
7380,101.562500
7381,101.562500
7382,101.562500
7383,101.562500
7384,101.562500
7385,97.656250
7386,97.656250
7387,97.656250
7388,97.656250
7389,97.656250
7390,97.656250
7391,93.750000
7392,93.750000
7393,93.750000
7394,93.750000
7395,93.750000
7396,89.843750
7397,89.843750
7398,89.843750
7399,89.843750
7400,89.843750
7401,85.937500
7402,85.937500
7403,85.937500
7404,85.937500
7405,85.937500
7406,82.031250
7407,82.031250
7408,82.031250
7409,82.031250
7410,82.031250
7411,78.125000
7412,78.125000
7413,78.125000
7414,78.125000
7415,74.218750
7416,74.218750
7417,74.218750
7418,74.218750
7419,70.312500
7420,70.312500
7421,70.312500
7422,70.312500
7423,70.312500
7424,66.406250
7425,66.406250
7426,66.406250
7427,66.406250
7428,62.500000
7429,62.500000
7430,62.500000
7431,62.500000
7432,58.593750
7433,58.593750
7434,58.593750
7435,58.593750
7436,58.593750
7437,54.687500
7438,54.687500
7439,54.687500
7440,54.687500
7441,50.781250
7442,46.875000
7443,50.781250
7444,50.781250
7445,46.875000
7446,46.875000
7447,46.875000
7448,46.875000
7449,42.968750
7450,42.968750
7451,42.968750
7452,42.968750
7453,39.062500
7454,39.062500
7455,39.062500
7456,35.156250
7457,35.156250
7458,35.156250
7459,35.156250
7460,31.250000
7461,31.250000
7462,31.250000
7463,31.250000
7464,27.343750
7465,27.343750
7466,27.343750
7467,23.437500
7468,23.437500
7469,23.437500
7470,19.531250
7471,19.531250
7472,19.531250
7473,19.531250
7474,19.531250
7475,15.625000
7476,15.625000
7477,15.625000
7478,11.718750
7479,11.718750
7480,11.718750
7481,11.718750
7482,7.812500
7483,7.812500
7484,7.812500
7485,3.906250
7486,3.906250
7487,3.906250
7488,0.000000
7489,0.000000
7490,0.000000
7491,0.000000
7492,-3.906250
7493,-3.906250
7494,-3.906250
7495,-3.906250
7496,-7.812500
7497,-7.812500
7498,-7.812500
7499,-11.718750
7500,-11.718750
7501,-11.718750
7502,-15.625000
7503,-15.625000
7504,-15.625000
7505,-15.625000
7506,-19.531250
7507,-19.531250
7508,-19.531250
7509,-23.437500
7510,-23.437500
7511,-23.437500
7512,-23.437500
7513,-27.343750
7514,-27.343750
7515,-27.343750
7516,-31.250000
7517,-31.250000
7518,-31.250000
7519,-31.250000
7520,-35.156250
7521,-35.156250
7522,-35.156250
7523,-39.062500
7524,-39.062500
7525,-39.062500
7526,-39.062500
7527,-42.968750
7528,-42.968750
7529,-46.875000
7530,-46.875000
7531,-46.875000
7532,-46.875000
7533,-46.875000
7534,-50.781250
7535,-50.781250
7536,-50.781250
7537,-54.687500
7538,-54.687500
7539,-54.687500
7540,-54.687500
7541,-58.593750
7542,-58.593750
7543,-58.593750
7544,-62.500000
7545,-62.500000
7546,-62.500000
7547,-62.500000
7548,-66.406250
7549,-66.406250
7550,-66.406250
7551,-70.312500
7552,-70.312500
7553,-70.312500
7554,-70.312500
7555,-74.218750
7556,-74.218750
7557,-74.218750
7558,-78.125000
7559,-78.125000
7560,-78.125000
7561,-78.125000
7562,-82.031250
7563,-82.031250
7564,-82.031250
7565,-82.031250
7566,-85.937500
7567,-85.937500
7568,-85.937500
7569,-85.937500
7570,-89.843750
7571,-89.843750
7572,-89.843750
7573,-93.750000
7574,-93.750000
7575,-93.750000
7576,-93.750000
7577,-93.750000
7578,-97.656250
7579,-97.656250
7580,-97.656250
7581,-105.468750
7582,-101.562500
7583,-101.562500
7584,-105.468750
7585,-105.468750
7586,-105.468750
7587,-109.375000
7588,-109.375000
7589,-109.375000
7590,-109.375000
7591,-113.281250
7592,-113.281250
7593,-113.281250
7594,-113.281250
7595,-117.187500
7596,-117.187500
7597,-117.187500
7598,-117.187500
7599,-121.093750
7600,-121.093750
7601,-121.093750
7602,-121.093750
7603,-125.000000
7604,-125.000000
7605,-125.000000
7606,-125.000000
7607,-125.000000
7608,-128.906250
7609,-128.906250
7610,-128.906250
7611,-132.812500
7612,-132.812500
7613,-132.812500
7614,-132.812500
7615,-132.812500
7616,-136.718750
7617,-136.718750
7618,-136.718750
7619,-140.625000
7620,-140.625000
7621,-140.625000
7622,-140.625000
7623,-140.625000
7624,-140.625000
7625,-144.531250
7626,-148.437500
7627,-144.531250
7628,-144.531250
7629,-144.531250
7630,-148.437500
7631,-148.437500
7632,-148.437500
7633,-148.437500
7634,-148.437500
7635,-152.343750
7636,-152.343750
7637,-152.343750
7638,-152.343750
7639,-152.343750
7640,-156.250000
7641,-156.250000
7642,-156.250000
7643,-156.250000
7644,-160.156250
7645,-160.156250
7646,-160.156250
7647,-160.156250
7648,-160.156250
7649,-160.156250
7650,-160.156250
7651,-164.062500
7652,-164.062500
7653,-164.062500
7654,-164.062500
7655,-167.968750
7656,-167.968750
7657,-167.968750
7658,-167.968750
7659,-167.968750
7660,-171.875000
7661,-167.968750
7662,-167.968750
7663,-171.875000
7664,-171.875000
7665,-171.875000
7666,-171.875000
7667,-171.875000
7668,-171.875000
7669,-171.875000
7670,-175.781250
7671,-175.781250
7672,-175.781250
7673,-175.781250
7674,-175.781250
7675,-175.781250
7676,-179.687500
7677,-179.687500
7678,-179.687500
7679,-179.687500
7680,-179.687500
7681,-179.687500
7682,-179.687500
7683,-179.687500
7684,-179.687500
7685,-183.593750
7686,-183.593750
7687,-183.593750
7688,-183.593750
7689,-183.593750
7690,-183.593750
7691,-183.593750
7692,-183.593750
7693,-183.593750
7694,-183.593750
7695,-187.500000
7696,-187.500000
7697,-187.500000
7698,-187.500000
7699,-187.500000
7700,-187.500000
7701,-187.500000
7702,-187.500000
7703,-187.500000
7704,-187.500000
7705,-187.500000
7706,-187.500000
7707,-191.406250
7708,-191.406250
7709,-191.406250
7710,-191.406250
7711,-191.406250
7712,-191.406250
7713,-191.406250
7714,-191.406250
7715,-191.406250
7716,-191.406250
7717,-191.406250
7718,-191.406250
7719,-191.406250
7720,-191.406250
7721,-191.406250
7722,-191.406250
7723,-191.406250
7724,-191.406250
7725,-191.406250
7726,-195.312500
7727,-195.312500
7728,-195.312500
7729,-191.406250
7730,-195.312500
7731,-195.312500
7732,-191.406250
7733,-195.312500
7734,-195.312500
7735,-195.312500
7736,-195.312500
7737,-195.312500
7738,-195.312500
7739,-195.312500
7740,-195.312500
7741,-195.312500
7742,-195.312500
7743,-195.312500
7744,-195.312500
7745,-195.312500
7746,-195.312500
7747,-195.312500
7748,-195.312500
7749,-195.312500
7750,-195.312500
7751,-195.312500
7752,-195.312500
7753,-195.312500
7754,-195.312500
7755,-191.406250
7756,-191.406250
7757,-191.406250
7758,-195.312500
7759,-191.406250
7760,-191.406250
7761,-191.406250
7762,-191.406250
7763,-191.406250
7764,-191.406250
7765,-191.406250
7766,-191.406250
7767,-191.406250
7768,-191.406250
7769,-191.406250
7770,-191.406250
7771,-191.406250
7772,-191.406250
7773,-187.500000
7774,-187.500000
7775,-187.500000
7776,-187.500000
7777,-187.500000
7778,-191.406250
7779,-187.500000
7780,-187.500000
7781,-187.500000
7782,-187.500000
7783,-187.500000
7784,-187.500000
7785,-187.500000
7786,-187.500000
7787,-187.500000
7788,-183.593750
7789,-183.593750
7790,-183.593750
7791,-183.593750
7792,-183.593750
7793,-183.593750
7794,-183.593750
7795,-183.593750
7796,-183.593750
7797,-179.687500
7798,-179.687500
7799,-179.687500
7800,-179.687500
7801,-179.687500
7802,-179.687500
7803,-179.687500
7804,-179.687500
7805,-179.687500
7806,-175.781250
7807,-175.781250
7808,-175.781250
7809,-175.781250
7810,-175.781250
7811,-175.781250
7812,-171.875000
7813,-171.875000
7814,-171.875000
7815,-171.875000
7816,-171.875000
7817,-171.875000
7818,-171.875000
7819,-167.968750
7820,-167.968750
7821,-167.968750
7822,-167.968750
7823,-167.968750
7824,-167.968750
7825,-167.968750
7826,-164.062500
7827,-164.062500
7828,-164.062500
7829,-164.062500
7830,-164.062500
7831,-160.156250
7832,-164.062500
7833,-160.156250
7834,-160.156250
7835,-160.156250
7836,-160.156250
7837,-160.156250
7838,-156.250000
7839,-156.250000
7840,-156.250000
7841,-156.250000
7842,-156.250000
7843,-152.343750
7844,-152.343750
7845,-152.343750
7846,-152.343750
7847,-152.343750
7848,-152.343750
7849,-148.437500
7850,-148.437500
7851,-148.437500
7852,-144.531250
7853,-144.531250
7854,-144.531250
7855,-144.531250
7856,-144.531250
7857,-144.531250
7858,-140.625000
7859,-140.625000
7860,-140.625000
7861,-140.625000
7862,-136.718750
7863,-136.718750
7864,-136.718750
7865,-136.718750
7866,-136.718750
7867,-132.812500
7868,-132.812500
7869,-132.812500
7870,-132.812500
7871,-128.906250
7872,-128.906250
7873,-128.906250
7874,-128.906250
7875,-125.000000
7876,-125.000000
7877,-125.000000
7878,-125.000000
7879,-125.000000
7880,-121.093750
7881,-121.093750
7882,-121.093750
7883,-117.187500
7884,-117.187500
7885,-121.093750
7886,-117.187500
7887,-117.187500
7888,-113.281250
7889,-113.281250
7890,-113.281250
7891,-109.375000
7892,-109.375000
7893,-109.375000
7894,-109.375000
7895,-105.468750
7896,-105.468750
7897,-105.468750
7898,-105.468750
7899,-101.562500
7900,-101.562500
7901,-101.562500
7902,-101.562500
7903,-97.656250
7904,-97.656250
7905,-97.656250
7906,-97.656250
7907,-93.750000
7908,-93.750000
7909,-93.750000
7910,-89.843750
7911,-89.843750
7912,-89.843750
7913,-89.843750
7914,-85.937500
7915,-85.937500
7916,-85.937500
7917,-85.937500
7918,-82.031250
7919,-82.031250
7920,-82.031250
7921,-82.031250
7922,-78.125000
7923,-78.125000
7924,-78.125000
7925,-74.218750
7926,-74.218750
7927,-74.218750
7928,-70.312500
7929,-70.312500
7930,-70.312500
7931,-70.312500
7932,-66.406250
7933,-66.406250
7934,-62.500000
7935,-62.500000
7936,-62.500000
7937,-62.500000
7938,-58.593750
7939,-58.593750
7940,-58.593750
7941,-58.593750
7942,-54.687500
7943,-54.687500
7944,-54.687500
7945,-50.781250
7946,-50.781250
7947,-50.781250
7948,-46.875000
7949,-46.875000
7950,-46.875000
7951,-46.875000
7952,-42.968750
7953,-42.968750
7954,-42.968750
7955,-42.968750
7956,-39.062500
7957,-39.062500
7958,-39.062500
7959,-35.156250
7960,-35.156250
7961,-35.156250
7962,-35.156250
7963,-31.250000
7964,-31.250000
7965,-31.250000
7966,-27.343750
7967,-27.343750
7968,-27.343750
7969,-27.343750
7970,-23.437500
7971,-23.437500
7972,-23.437500
7973,-19.531250
7974,-19.531250
7975,-19.531250
7976,-15.625000
7977,-15.625000
7978,-15.625000
7979,-15.625000
7980,-11.718750
7981,-11.718750
7982,-11.718750
7983,-7.812500
7984,-7.812500
7985,-7.812500
7986,-7.812500
7987,-7.812500
7988,-3.906250
7989,-3.906250
7990,0.000000
7991,0.000000
7992,0.000000
7993,0.000000
7994,3.906250
7995,3.906250
7996,3.906250
7997,3.906250
7998,7.812500
7999,7.812500
8000,7.812500
8001,11.718750
8002,11.718750
8003,11.718750
8004,11.718750
8005,15.625000
8006,15.625000
8007,15.625000
8008,15.625000
8009,19.531250
8010,19.531250
8011,19.531250
8012,23.437500
8013,23.437500
8014,23.437500
8015,23.437500
8016,27.343750
8017,27.343750
8018,27.343750
8019,27.343750
8020,31.250000
8021,31.250000
8022,31.250000
8023,31.250000
8024,35.156250
8025,35.156250
8026,35.156250
8027,35.156250
8028,39.062500
8029,39.062500
8030,39.062500
8031,39.062500
8032,42.968750
8033,42.968750
8034,42.968750
8035,42.968750
8036,46.875000
8037,46.875000
8038,46.875000
8039,50.781250
8040,50.781250
8041,50.781250
8042,50.781250
8043,50.781250
8044,54.687500
8045,54.687500
8046,54.687500
8047,54.687500
8048,58.593750
8049,58.593750
8050,58.593750
8051,58.593750
8052,62.500000
8053,62.500000
8054,62.500000
8055,62.500000
8056,66.406250
8057,66.406250
8058,66.406250
8059,66.406250
8060,66.406250
8061,70.312500
8062,70.312500
8063,70.312500
8064,70.312500
8065,74.218750
8066,74.218750
8067,74.218750
8068,74.218750
8069,74.218750
8070,78.125000
8071,78.125000
8072,78.125000
8073,78.125000
8074,82.031250
8075,82.031250
8076,82.031250
8077,82.031250
8078,82.031250
8079,85.937500
8080,85.937500
8081,85.937500
8082,85.937500
8083,89.843750
8084,89.843750
8085,89.843750
8086,89.843750
8087,89.843750
8088,93.750000
8089,93.750000
8090,93.750000
8091,93.750000
8092,93.750000
8093,93.750000
8094,97.656250
8095,97.656250
8096,97.656250
8097,97.656250
8098,97.656250
8099,97.656250
8100,101.562500
8101,101.562500
8102,101.562500
8103,101.562500
8104,101.562500
8105,105.468750
8106,105.468750
8107,105.468750
8108,105.468750
8109,105.468750
8110,109.375000
8111,109.375000
8112,109.375000
8113,109.375000
8114,109.375000
8115,109.375000
8116,109.375000
8117,109.375000
8118,113.281250
8119,113.281250
8120,113.281250
8121,113.281250
8122,113.281250
8123,113.281250
8124,117.187500
8125,117.187500
8126,117.187500
8127,117.187500
8128,117.187500
8129,117.187500
8130,121.093750
8131,121.093750
8132,121.093750
8133,121.093750
8134,121.093750
8135,121.093750
8136,121.093750
8137,121.093750
8138,125.000000
8139,125.000000
8140,125.000000
8141,125.000000
8142,125.000000
8143,125.000000
8144,125.000000
8145,125.000000
8146,125.000000
8147,125.000000
8148,128.906250
8149,128.906250
8150,128.906250
8151,128.906250
8152,128.906250
8153,128.906250
8154,128.906250
8155,128.906250
8156,132.812500
8157,132.812500
8158,132.812500
8159,132.812500
8160,132.812500
8161,132.812500
8162,132.812500
8163,132.812500
8164,136.718750
8165,136.718750
8166,136.718750
8167,136.718750
8168,136.718750
8169,136.718750
8170,136.718750
8171,136.718750
8172,136.718750
8173,136.718750
8174,136.718750
8175,136.718750
8176,140.625000
8177,136.718750
8178,140.625000
8179,140.625000
8180,140.625000
8181,140.625000
8182,140.625000
8183,140.625000
8184,140.625000
8185,140.625000
8186,140.625000
8187,140.625000
8188,140.625000
8189,140.625000
8190,144.531250
8191,144.531250
8192,144.531250
8193,144.531250
8194,144.531250
8195,144.531250
8196,144.531250
8197,144.531250
8198,144.531250
8199,144.531250
8200,144.531250
8201,144.531250
8202,144.531250
8203,144.531250
8204,144.531250
8205,144.531250
8206,144.531250
8207,144.531250
8208,144.531250
8209,144.531250
8210,148.437500
8211,144.531250
8212,144.531250
8213,144.531250
8214,148.437500
8215,148.437500
8216,148.437500
8217,148.437500
8218,148.437500
8219,148.437500
8220,148.437500
8221,148.437500
8222,148.437500
8223,148.437500
8224,148.437500
8225,148.437500
8226,148.437500
8227,148.437500
8228,148.437500
8229,148.437500
8230,148.437500
8231,148.437500
8232,148.437500
8233,148.437500
8234,148.437500
8235,148.437500
8236,148.437500
8237,148.437500
8238,148.437500
8239,148.437500
8240,148.437500
8241,148.437500
8242,148.437500
8243,148.437500
8244,148.437500
8245,148.437500
8246,148.437500
8247,148.437500
8248,148.437500
8249,148.437500
8250,148.437500
8251,148.437500
8252,148.437500
8253,148.437500
8254,148.437500
8255,148.437500
8256,148.437500
8257,148.437500
8258,148.437500
8259,144.531250
8260,148.437500
8261,144.531250
8262,144.531250
8263,144.531250
8264,144.531250
8265,144.531250
8266,144.531250
8267,144.531250
8268,144.531250
8269,144.531250
8270,144.531250
8271,144.531250
8272,144.531250
8273,144.531250
8274,144.531250
8275,144.531250
8276,144.531250
8277,144.531250
8278,144.531250
8279,140.625000
8280,140.625000
8281,140.625000
8282,144.531250
8283,140.625000
8284,140.625000
8285,140.625000
8286,140.625000
8287,140.625000
8288,140.625000
8289,140.625000
8290,140.625000
8291,140.625000
8292,140.625000
8293,140.625000
8294,136.718750
8295,136.718750
8296,136.718750
8297,136.718750
8298,136.718750
8299,136.718750
8300,136.718750
8301,136.718750
8302,136.718750
8303,136.718750
8304,136.718750
8305,132.812500
8306,136.718750
8307,132.812500
8308,132.812500
8309,132.812500
8310,132.812500
8311,132.812500
8312,132.812500
8313,132.812500
8314,132.812500
8315,132.812500
8316,132.812500
8317,128.906250
8318,128.906250
8319,128.906250
8320,128.906250
8321,128.906250
8322,128.906250
8323,128.906250
8324,128.906250
8325,128.906250
8326,128.906250
8327,125.000000
8328,125.000000
8329,125.000000
8330,125.000000
8331,125.000000
8332,125.000000
8333,125.000000
8334,125.000000
8335,121.093750
8336,121.093750
8337,121.093750
8338,121.093750
8339,121.093750
8340,121.093750
8341,117.187500
8342,117.187500
8343,117.187500
8344,117.187500
8345,117.187500
8346,117.187500
8347,117.187500
8348,117.187500
8349,113.281250
8350,113.281250
8351,113.281250
8352,113.281250
8353,113.281250
8354,113.281250
8355,109.375000
8356,109.375000
8357,109.375000
8358,109.375000
8359,109.375000
8360,109.375000
8361,105.468750
8362,105.468750
8363,105.468750
8364,105.468750
8365,105.468750
8366,105.468750
8367,105.468750
8368,101.562500
8369,101.562500
8370,101.562500
8371,101.562500
8372,101.562500
8373,97.656250
8374,97.656250
8375,97.656250
8376,97.656250
8377,97.656250
8378,97.656250
8379,93.750000
8380,93.750000
8381,93.750000
8382,93.750000
8383,89.843750
8384,89.843750
8385,89.843750
8386,89.843750
8387,89.843750
8388,85.937500
8389,85.937500
8390,85.937500
8391,85.937500
8392,82.031250
8393,82.031250
8394,82.031250
8395,82.031250
8396,82.031250
8397,82.031250
8398,78.125000
8399,78.125000
8400,78.125000
8401,74.218750
8402,74.218750
8403,74.218750
8404,74.218750
8405,74.218750
8406,74.218750
8407,70.312500
8408,70.312500
8409,70.312500
8410,70.312500
8411,66.406250
8412,66.406250
8413,66.406250
8414,66.406250
8415,62.500000
8416,62.500000
8417,62.500000
8418,62.500000
8419,58.593750
8420,58.593750
8421,58.593750
8422,58.593750
8423,58.593750
8424,54.687500
8425,54.687500
8426,54.687500
8427,54.687500
8428,50.781250
8429,50.781250
8430,50.781250
8431,50.781250
8432,46.875000
8433,46.875000
8434,46.875000
8435,42.968750
8436,42.968750
8437,42.968750
8438,42.968750
8439,42.968750
8440,39.062500
8441,39.062500
8442,39.062500
8443,39.062500
8444,35.156250
8445,35.156250
8446,35.156250
8447,31.250000
8448,31.250000
8449,31.250000
8450,31.250000
8451,27.343750
8452,27.343750
8453,27.343750
8454,27.343750
8455,23.437500
8456,23.437500
8457,23.437500
8458,19.531250
8459,19.531250
8460,19.531250
8461,19.531250
8462,15.625000
8463,15.625000
8464,15.625000
8465,15.625000
8466,11.718750
8467,11.718750
8468,11.718750
8469,7.812500
8470,7.812500
8471,7.812500
8472,7.812500
8473,3.906250
8474,3.906250
8475,3.906250
8476,3.906250
8477,0.000000
8478,0.000000
8479,0.000000
8480,-3.906250
8481,-3.906250
8482,-3.906250
8483,-3.906250
8484,-7.812500
8485,-7.812500
8486,-7.812500
8487,-7.812500
8488,-11.718750
8489,-11.718750
8490,-11.718750
8491,-15.625000
8492,-15.625000
8493,-15.625000
8494,-19.531250
8495,-19.531250
8496,-19.531250
8497,-19.531250
8498,-23.437500
8499,-23.437500
8500,-23.437500
8501,-27.343750
8502,-27.343750
8503,-27.343750
8504,-27.343750
8505,-31.250000
8506,-31.250000
8507,-31.250000
8508,-35.156250
8509,-35.156250
8510,-35.156250
8511,-39.062500
8512,-39.062500
8513,-39.062500
8514,-39.062500
8515,-42.968750
8516,-42.968750
8517,-42.968750
8518,-42.968750
8519,-46.875000
8520,-46.875000
8521,-46.875000
8522,-50.781250
8523,-50.781250
8524,-50.781250
8525,-54.687500
8526,-54.687500
8527,-54.687500
8528,-58.593750
8529,-58.593750
8530,-58.593750
8531,-58.593750
8532,-62.500000
8533,-62.500000
8534,-62.500000
8535,-66.406250
8536,-66.406250
8537,-66.406250
8538,-66.406250
8539,-70.312500
8540,-70.312500
8541,-70.312500
8542,-74.218750
8543,-74.218750
8544,-74.218750
8545,-74.218750
8546,-78.125000
8547,-78.125000
8548,-78.125000
8549,-82.031250
8550,-82.031250
8551,-82.031250
8552,-82.031250
8553,-85.937500
8554,-85.937500
8555,-85.937500
8556,-85.937500
8557,-89.843750
8558,-89.843750
8559,-89.843750
8560,-93.750000
8561,-93.750000
8562,-93.750000
8563,-93.750000
8564,-97.656250
8565,-97.656250
8566,-97.656250
8567,-97.656250
8568,-101.562500
8569,-101.562500
8570,-101.562500
8571,-101.562500
8572,-105.468750
8573,-105.468750
8574,-105.468750
8575,-109.375000
8576,-109.375000
8577,-109.375000
8578,-109.375000
8579,-113.281250
8580,-113.281250
8581,-113.281250
8582,-113.281250
8583,-117.187500
8584,-117.187500
8585,-117.187500
8586,-117.187500
8587,-121.093750
8588,-121.093750
8589,-121.093750
8590,-121.093750
8591,-121.093750
8592,-125.000000
8593,-125.000000
8594,-125.000000
8595,-125.000000
8596,-128.906250
8597,-128.906250
8598,-128.906250
8599,-128.906250
8600,-132.812500
8601,-132.812500
8602,-132.812500
8603,-132.812500
8604,-136.718750
8605,-136.718750
8606,-136.718750
8607,-136.718750
8608,-140.625000
8609,-140.625000
8610,-140.625000
8611,-140.625000
8612,-140.625000
8613,-140.625000
8614,-144.531250
8615,-144.531250
8616,-144.531250
8617,-144.531250
8618,-148.437500
8619,-148.437500
8620,-148.437500
8621,-148.437500
8622,-148.437500
8623,-152.343750
8624,-152.343750
8625,-152.343750
8626,-152.343750
8627,-152.343750
8628,-156.250000
8629,-156.250000
8630,-156.250000
8631,-160.156250
8632,-160.156250
8633,-160.156250
8634,-160.156250
8635,-160.156250
8636,-160.156250
8637,-160.156250
8638,-160.156250
8639,-164.062500
8640,-164.062500
8641,-164.062500
8642,-164.062500
8643,-167.968750
8644,-167.968750
8645,-167.968750
8646,-167.968750
8647,-167.968750
8648,-167.968750
8649,-171.875000
8650,-171.875000
8651,-171.875000
8652,-171.875000
8653,-171.875000
8654,-171.875000
8655,-171.875000
8656,-171.875000
8657,-175.781250
8658,-175.781250
8659,-175.781250
8660,-175.781250
8661,-175.781250
8662,-175.781250
8663,-179.687500
8664,-179.687500
8665,-179.687500
8666,-179.687500
8667,-179.687500
8668,-179.687500
8669,-179.687500
8670,-179.687500
8671,-183.593750
8672,-183.593750
8673,-183.593750
8674,-183.593750
8675,-183.593750
8676,-183.593750
8677,-183.593750
8678,-183.593750
8679,-183.593750
8680,-187.500000
8681,-187.500000
8682,-187.500000
8683,-183.593750
8684,-187.500000
8685,-187.500000
8686,-187.500000
8687,-187.500000
8688,-187.500000
8689,-187.500000
8690,-187.500000
8691,-187.500000
8692,-187.500000
8693,-191.406250
8694,-191.406250
8695,-191.406250
8696,-191.406250
8697,-191.406250
8698,-191.406250
8699,-191.406250
8700,-191.406250
8701,-191.406250
8702,-191.406250
8703,-191.406250
8704,-191.406250
8705,-191.406250
8706,-191.406250
8707,-191.406250
8708,-191.406250
8709,-195.312500
8710,-191.406250
8711,-191.406250
8712,-195.312500
8713,-195.312500
8714,-195.312500
8715,-195.312500
8716,-195.312500
8717,-195.312500
8718,-195.312500
8719,-195.312500
8720,-195.312500
8721,-195.312500
8722,-195.312500
8723,-195.312500
8724,-195.312500
8725,-195.312500
8726,-195.312500
8727,-195.312500
8728,-195.312500
8729,-195.312500
8730,-195.312500
8731,-195.312500
8732,-195.312500
8733,-195.312500
8734,-195.312500
8735,-195.312500
8736,-195.312500
8737,-195.312500
8738,-195.312500
8739,-195.312500
8740,-195.312500
8741,-195.312500
8742,-195.312500
8743,-195.312500
8744,-195.312500
8745,-195.312500
8746,-195.312500
8747,-195.312500
8748,-191.406250
8749,-191.406250
8750,-191.406250
8751,-191.406250
8752,-191.406250
8753,-191.406250
8754,-191.406250
8755,-191.406250
8756,-191.406250
8757,-191.406250
8758,-191.406250
8759,-191.406250
8760,-191.406250
8761,-191.406250
8762,-191.406250
8763,-191.406250
8764,-191.406250
8765,-191.406250
8766,-191.406250
8767,-191.406250
8768,-187.500000
8769,-187.500000
8770,-187.500000
8771,-187.500000
8772,-187.500000
8773,-187.500000
8774,-187.500000
8775,-187.500000
8776,-187.500000
8777,-187.500000
8778,-187.500000
8779,-187.500000
8780,-187.500000
8781,-183.593750
8782,-183.593750
8783,-183.593750
8784,-183.593750
8785,-183.593750
8786,-183.593750
8787,-183.593750
8788,-183.593750
8789,-179.687500
8790,-179.687500
8791,-179.687500
8792,-179.687500
8793,-179.687500
8794,-179.687500
8795,-179.687500
8796,-175.781250
8797,-175.781250
8798,-175.781250
8799,-175.781250
8800,-175.781250
8801,-175.781250
8802,-175.781250
8803,-175.781250
8804,-171.875000
8805,-171.875000
8806,-171.875000
8807,-171.875000
8808,-171.875000
8809,-167.968750
8810,-171.875000
8811,-167.968750
8812,-167.968750
8813,-167.968750
8814,-167.968750
8815,-167.968750
8816,-164.062500
8817,-164.062500
8818,-164.062500
8819,-164.062500
8820,-164.062500
8821,-164.062500
8822,-160.156250
8823,-160.156250
8824,-160.156250
8825,-160.156250
8826,-160.156250
8827,-156.250000
8828,-156.250000
8829,-156.250000
8830,-156.250000
8831,-156.250000
8832,-152.343750
8833,-152.343750
8834,-152.343750
8835,-152.343750
8836,-152.343750
8837,-148.437500
8838,-148.437500
8839,-148.437500
8840,-148.437500
8841,-148.437500
8842,-144.531250
8843,-144.531250
8844,-144.531250
8845,-144.531250
8846,-140.625000
8847,-140.625000
8848,-140.625000
8849,-140.625000
8850,-140.625000
8851,-136.718750
8852,-136.718750
8853,-136.718750
8854,-136.718750
8855,-132.812500
8856,-132.812500
8857,-132.812500
8858,-132.812500
8859,-132.812500
8860,-128.906250
8861,-128.906250
8862,-128.906250
8863,-128.906250
8864,-125.000000
8865,-125.000000
8866,-125.000000
8867,-125.000000
8868,-121.093750
8869,-121.093750
8870,-121.093750
8871,-121.093750
8872,-117.187500
8873,-117.187500
8874,-117.187500
8875,-117.187500
8876,-113.281250
8877,-113.281250
8878,-113.281250
8879,-113.281250
8880,-109.375000
8881,-109.375000
8882,-109.375000
8883,-109.375000
8884,-105.468750
8885,-105.468750
8886,-105.468750
8887,-105.468750
8888,-101.562500
8889,-101.562500
8890,-101.562500
8891,-101.562500
8892,-97.656250
8893,-97.656250
8894,-97.656250
8895,-97.656250
8896,-93.750000
8897,-93.750000
8898,-93.750000
8899,-93.750000
8900,-89.843750
8901,-89.843750
8902,-85.937500
8903,-85.937500
8904,-85.937500
8905,-85.937500
8906,-82.031250
8907,-82.031250
8908,-82.031250
8909,-82.031250
8910,-78.125000
8911,-78.125000
8912,-78.125000
8913,-74.218750
8914,-74.218750
8915,-74.218750
8916,-74.218750
8917,-74.218750
8918,-70.312500
8919,-70.312500
8920,-66.406250
8921,-66.406250
8922,-66.406250
8923,-66.406250
8924,-62.500000
8925,-62.500000
8926,-62.500000
8927,-62.500000
8928,-58.593750
8929,-58.593750
8930,-58.593750
8931,-54.687500
8932,-54.687500
8933,-54.687500
8934,-50.781250
8935,-50.781250
8936,-50.781250
8937,-50.781250
8938,-46.875000
8939,-46.875000
8940,-46.875000
8941,-42.968750
8942,-42.968750
8943,-42.968750
8944,-42.968750
8945,-39.062500
8946,-39.062500
8947,-39.062500
8948,-35.156250
8949,-35.156250
8950,-35.156250
8951,-31.250000
8952,-31.250000
8953,-31.250000
8954,-31.250000
8955,-27.343750
8956,-27.343750
8957,-27.343750
8958,-23.437500
8959,-23.437500
8960,-23.437500
8961,-19.531250
8962,-19.531250
8963,-19.531250
8964,-19.531250
8965,-15.625000
8966,-15.625000
8967,-15.625000
8968,-11.718750
8969,-11.718750
8970,-11.718750
8971,-11.718750
8972,-7.812500
8973,-7.812500
8974,-7.812500
8975,-3.906250
8976,-3.906250
8977,-3.906250
8978,0.000000
8979,0.000000
8980,0.000000
8981,0.000000
8982,3.906250
8983,3.906250
8984,3.906250
8985,7.812500
8986,7.812500
8987,7.812500
8988,7.812500
8989,11.718750
8990,11.718750
8991,11.718750
8992,11.718750
8993,15.625000
8994,15.625000
8995,15.625000
8996,19.531250
8997,19.531250
8998,19.531250
8999,19.531250
9000,23.437500
9001,23.437500
9002,23.437500
9003,23.437500
9004,27.343750
9005,27.343750
9006,27.343750
9007,31.250000
9008,31.250000
9009,31.250000
9010,31.250000
9011,31.250000
9012,35.156250
9013,35.156250
9014,35.156250
9015,39.062500
9016,39.062500
9017,42.968750
9018,39.062500
9019,42.968750
9020,42.968750
9021,42.968750
9022,42.968750
9023,46.875000
9024,46.875000
9025,46.875000
9026,46.875000
9027,50.781250
9028,50.781250
9029,50.781250
9030,50.781250
9031,54.687500
9032,54.687500
9033,54.687500
9034,54.687500
9035,58.593750
9036,58.593750
9037,58.593750
9038,58.593750
9039,62.500000
9040,62.500000
9041,62.500000
9042,62.500000
9043,66.406250
9044,66.406250
9045,66.406250
9046,66.406250
9047,66.406250
9048,70.312500
9049,70.312500
9050,70.312500
9051,70.312500
9052,74.218750
9053,74.218750
9054,74.218750
9055,74.218750
9056,74.218750
9057,78.125000
9058,78.125000
9059,78.125000
9060,78.125000
9061,78.125000
9062,82.031250
9063,82.031250
9064,82.031250
9065,82.031250
9066,85.937500
9067,85.937500
9068,85.937500
9069,85.937500
9070,85.937500
9071,85.937500
9072,89.843750
9073,89.843750
9074,89.843750
9075,89.843750
9076,93.750000
9077,93.750000
9078,93.750000
9079,93.750000
9080,93.750000
9081,93.750000
9082,97.656250
9083,97.656250
9084,97.656250
9085,97.656250
9086,97.656250
9087,101.562500
9088,101.562500
9089,101.562500
9090,101.562500
9091,101.562500
9092,105.468750
9093,101.562500
9094,105.468750
9095,105.468750
9096,105.468750
9097,109.375000
9098,109.375000
9099,109.375000
9100,109.375000
9101,109.375000
9102,109.375000
9103,109.375000
9104,113.281250
9105,113.281250
9106,113.281250
9107,113.281250
9108,113.281250
9109,113.281250
9110,117.187500
9111,117.187500
9112,117.187500
9113,117.187500
9114,117.187500
9115,117.187500
9116,117.187500
9117,121.093750
9118,121.093750
9119,121.093750
9120,121.093750
9121,121.093750
9122,121.093750
9123,121.093750
9124,125.000000
9125,125.000000
9126,125.000000
9127,125.000000
9128,125.000000
9129,125.000000
9130,125.000000
9131,125.000000
9132,125.000000
9133,128.906250
9134,128.906250
9135,128.906250
9136,128.906250
9137,128.906250
9138,132.812500
9139,128.906250
9140,132.812500
9141,132.812500
9142,132.812500
9143,132.812500
9144,132.812500
9145,132.812500
9146,132.812500
9147,132.812500
9148,132.812500
9149,136.718750
9150,136.718750
9151,136.718750
9152,136.718750
9153,136.718750
9154,136.718750
9155,136.718750
9156,136.718750
9157,136.718750
9158,140.625000
9159,136.718750
9160,140.625000
9161,140.625000
9162,140.625000
9163,140.625000
9164,140.625000
9165,140.625000
9166,140.625000
9167,140.625000
9168,140.625000
9169,140.625000
9170,140.625000
9171,140.625000
9172,144.531250
9173,140.625000
9174,140.625000
9175,140.625000
9176,144.531250
9177,144.531250
9178,144.531250
9179,144.531250
9180,144.531250
9181,144.531250
9182,144.531250
9183,144.531250
9184,144.531250
9185,140.625000
9186,144.531250
9187,144.531250
9188,148.437500
9189,144.531250
9190,144.531250
9191,144.531250
9192,144.531250
9193,144.531250
9194,144.531250
9195,148.437500
9196,148.437500
9197,148.437500
9198,148.437500
9199,148.437500
9200,148.437500
9201,148.437500
9202,148.437500
9203,148.437500
9204,148.437500
9205,148.437500
9206,148.437500
9207,148.437500
9208,148.437500
9209,148.437500
9210,148.437500
9211,148.437500
9212,148.437500
9213,148.437500
9214,148.437500
9215,148.437500
9216,148.437500
9217,148.437500
9218,148.437500
9219,148.437500
9220,148.437500
9221,148.437500
9222,148.437500
9223,148.437500
9224,148.437500
9225,148.437500
9226,148.437500
9227,148.437500
9228,148.437500
9229,148.437500
9230,148.437500
9231,148.437500
9232,148.437500
9233,148.437500
9234,148.437500
9235,148.437500
9236,148.437500
9237,148.437500
9238,148.437500
9239,148.437500
9240,148.437500
9241,148.437500
9242,148.437500
9243,148.437500
9244,148.437500
9245,148.437500
9246,148.437500
9247,148.437500
9248,148.437500
9249,148.437500
9250,148.437500
9251,148.437500
9252,148.437500
9253,148.437500
9254,148.437500
9255,148.437500
9256,148.437500
9257,144.531250
9258,148.437500
9259,144.531250
9260,148.437500
9261,144.531250
9262,148.437500
9263,144.531250
9264,144.531250
9265,144.531250
9266,144.531250
9267,144.531250
9268,144.531250
9269,144.531250
9270,144.531250
9271,144.531250
9272,144.531250
9273,144.531250
9274,144.531250
9275,144.531250
9276,144.531250
9277,140.625000
9278,140.625000
9279,140.625000
9280,140.625000
9281,140.625000
9282,140.625000
9283,140.625000
9284,140.625000
9285,140.625000
9286,140.625000
9287,140.625000
9288,140.625000
9289,136.718750
9290,140.625000
9291,136.718750
9292,140.625000
9293,136.718750
9294,136.718750
9295,136.718750
9296,136.718750
9297,136.718750
9298,132.812500
9299,136.718750
9300,136.718750
9301,136.718750
9302,136.718750
9303,132.812500
9304,132.812500
9305,132.812500
9306,132.812500
9307,132.812500
9308,132.812500
9309,128.906250
9310,132.812500
9311,128.906250
9312,128.906250
9313,128.906250
9314,128.906250
9315,128.906250
9316,128.906250
9317,128.906250
9318,128.906250
9319,125.000000
9320,128.906250
9321,125.000000
9322,125.000000
9323,125.000000
9324,125.000000
9325,125.000000
9326,125.000000
9327,121.093750
9328,121.093750
9329,121.093750
9330,121.093750
9331,121.093750
9332,121.093750
9333,121.093750
9334,117.187500
9335,117.187500
9336,117.187500
9337,117.187500
9338,117.187500
9339,117.187500
9340,117.187500
9341,113.281250
9342,113.281250
9343,113.281250
9344,113.281250
9345,113.281250
9346,113.281250
9347,109.375000
9348,109.375000
9349,109.375000
9350,109.375000
9351,109.375000
9352,109.375000
9353,109.375000
9354,109.375000
9355,105.468750
9356,105.468750
9357,105.468750
9358,105.468750
9359,101.562500
9360,101.562500
9361,101.562500
9362,101.562500
9363,101.562500
9364,101.562500
9365,101.562500
9366,101.562500
9367,97.656250
9368,97.656250
9369,97.656250
9370,93.750000
9371,93.750000
9372,93.750000
9373,93.750000
9374,93.750000
9375,93.750000
9376,93.750000
9377,89.843750
9378,89.843750
9379,89.843750
9380,89.843750
9381,85.937500
9382,85.937500
9383,85.937500
9384,85.937500
9385,85.937500
9386,82.031250
9387,82.031250
9388,82.031250
9389,82.031250
9390,82.031250
9391,78.125000
9392,78.125000
9393,78.125000
9394,78.125000
9395,78.125000
9396,74.218750
9397,74.218750
9398,74.218750
9399,74.218750
9400,70.312500
9401,70.312500
9402,70.312500
9403,70.312500
9404,66.406250
9405,66.406250
9406,66.406250
9407,66.406250
9408,62.500000
9409,62.500000
9410,62.500000
9411,62.500000
9412,58.593750
9413,58.593750
9414,58.593750
9415,58.593750
9416,58.593750
9417,54.687500
9418,54.687500
9419,54.687500
9420,54.687500
9421,50.781250
9422,50.781250
9423,50.781250
9424,50.781250
9425,46.875000
9426,46.875000
9427,46.875000
9428,42.968750
9429,42.968750
9430,42.968750
9431,39.062500
9432,39.062500
9433,39.062500
9434,39.062500
9435,39.062500
9436,35.156250
9437,35.156250
9438,35.156250
9439,35.156250
9440,31.250000
9441,31.250000
9442,31.250000
9443,31.250000
9444,27.343750
9445,27.343750
9446,27.343750
9447,23.437500
9448,23.437500
9449,23.437500
9450,23.437500
9451,19.531250
9452,19.531250
9453,19.531250
9454,15.625000
9455,15.625000
9456,15.625000
9457,15.625000
9458,11.718750
9459,11.718750
9460,11.718750
9461,11.718750
9462,7.812500
9463,7.812500
9464,7.812500
9465,3.906250
9466,3.906250
9467,3.906250
9468,3.906250
9469,0.000000
9470,0.000000
9471,0.000000
9472,0.000000
9473,-3.906250
9474,-3.906250
9475,-3.906250
9476,-7.812500
9477,-7.812500
9478,-7.812500
9479,-7.812500
9480,-11.718750
9481,-11.718750
9482,-11.718750
9483,-15.625000
9484,-15.625000
9485,-15.625000
9486,-15.625000
9487,-19.531250
9488,-19.531250
9489,-23.437500
9490,-23.437500
9491,-23.437500
9492,-23.437500
9493,-23.437500
9494,-27.343750
9495,-27.343750
9496,-27.343750
9497,-31.250000
9498,-31.250000
9499,-31.250000
9500,-35.156250
9501,-35.156250
9502,-35.156250
9503,-35.156250
9504,-39.062500
9505,-39.062500
9506,-39.062500
9507,-42.968750
9508,-42.968750
9509,-42.968750
9510,-46.875000
9511,-46.875000
9512,-46.875000
9513,-46.875000
9514,-50.781250
9515,-50.781250
9516,-50.781250
9517,-50.781250
9518,-54.687500
9519,-54.687500
9520,-58.593750
9521,-58.593750
9522,-58.593750
9523,-58.593750
9524,-62.500000
9525,-62.500000
9526,-62.500000
9527,-62.500000
9528,-66.406250
9529,-66.406250
9530,-66.406250
9531,-70.312500
9532,-70.312500
9533,-70.312500
9534,-70.312500
9535,-74.218750
9536,-74.218750
9537,-74.218750
9538,-74.218750
9539,-78.125000
9540,-78.125000
9541,-78.125000
9542,-82.031250
9543,-82.031250
9544,-82.031250
9545,-82.031250
9546,-85.937500
9547,-85.937500
9548,-85.937500
9549,-89.843750
9550,-89.843750
9551,-89.843750
9552,-93.750000
9553,-93.750000
9554,-93.750000
9555,-93.750000
9556,-93.750000
9557,-97.656250
9558,-97.656250
9559,-97.656250
9560,-97.656250
9561,-101.562500
9562,-101.562500
9563,-101.562500
9564,-105.468750
9565,-105.468750
9566,-105.468750
9567,-105.468750
9568,-109.375000
9569,-109.375000
9570,-109.375000
9571,-109.375000
9572,-113.281250
9573,-113.281250
9574,-113.281250
9575,-113.281250
9576,-113.281250
9577,-117.187500
9578,-117.187500
9579,-121.093750
9580,-121.093750
9581,-121.093750
9582,-121.093750
9583,-121.093750
9584,-125.000000
9585,-125.000000
9586,-125.000000
9587,-125.000000
9588,-128.906250
9589,-128.906250
9590,-128.906250
9591,-128.906250
9592,-128.906250
9593,-132.812500
9594,-132.812500
9595,-132.812500
9596,-132.812500
9597,-136.718750
9598,-136.718750
9599,-136.718750
9600,-136.718750
9601,-140.625000
9602,-140.625000
9603,-140.625000
9604,-140.625000
9605,-140.625000
9606,-144.531250
9607,-144.531250
9608,-144.531250
9609,-144.531250
9610,-148.437500
9611,-148.437500
9612,-148.437500
9613,-148.437500
9614,-148.437500
9615,-148.437500
9616,-148.437500
9617,-152.343750
9618,-152.343750
9619,-152.343750
9620,-152.343750
9621,-156.250000
9622,-156.250000
9623,-156.250000
9624,-156.250000
9625,-156.250000
9626,-156.250000
9627,-160.156250
9628,-160.156250
9629,-160.156250
9630,-160.156250
9631,-160.156250
9632,-164.062500
9633,-160.156250
9634,-164.062500
9635,-164.062500
9636,-164.062500
9637,-164.062500
9638,-167.968750
9639,-167.968750
9640,-167.968750
9641,-167.968750
9642,-167.968750
9643,-167.968750
9644,-167.968750
9645,-171.875000
9646,-171.875000
9647,-171.875000
9648,-171.875000
9649,-171.875000
9650,-171.875000
9651,-175.781250
9652,-171.875000
9653,-175.781250
9654,-175.781250
9655,-175.781250
9656,-175.781250
9657,-175.781250
9658,-175.781250
9659,-179.687500
9660,-179.687500
9661,-179.687500
9662,-179.687500
9663,-179.687500
9664,-179.687500
9665,-179.687500
9666,-179.687500
9667,-179.687500
9668,-183.593750
9669,-183.593750
9670,-183.593750
9671,-183.593750
9672,-183.593750
9673,-183.593750
9674,-183.593750
9675,-183.593750
9676,-183.593750
9677,-183.593750
9678,-183.593750
9679,-187.500000
9680,-183.593750
9681,-187.500000
9682,-187.500000
9683,-187.500000
9684,-187.500000
9685,-187.500000
9686,-187.500000
9687,-187.500000
9688,-187.500000
9689,-187.500000
9690,-187.500000
9691,-187.500000
9692,-187.500000
9693,-191.406250
9694,-191.406250
9695,-191.406250
9696,-191.406250
9697,-191.406250
9698,-191.406250
9699,-191.406250
9700,-191.406250
9701,-191.406250
9702,-191.406250
9703,-191.406250
9704,-191.406250
9705,-191.406250
9706,-191.406250
9707,-191.406250
9708,-191.406250
9709,-191.406250
9710,-191.406250
9711,-191.406250
9712,-191.406250
9713,-191.406250
9714,-191.406250
9715,-191.406250
9716,-191.406250
9717,-191.406250
9718,-191.406250
9719,-195.312500
9720,-191.406250
9721,-191.406250
9722,-191.406250
9723,-191.406250
9724,-191.406250
9725,-191.406250
9726,-191.406250
9727,-191.406250
9728,-191.406250
9729,-191.406250
9730,-191.406250
9731,-191.406250
9732,-191.406250
9733,-191.406250
9734,-191.406250
9735,-191.406250
9736,-191.406250
9737,-191.406250
9738,-191.406250
9739,-191.406250
9740,-191.406250
9741,-191.406250
9742,-191.406250
9743,-187.500000
9744,-191.406250
9745,-191.406250
9746,-191.406250
9747,-191.406250
9748,-187.500000
9749,-187.500000
9750,-187.500000
9751,-187.500000
9752,-187.500000
9753,-187.500000
9754,-187.500000
9755,-187.500000
9756,-187.500000
9757,-187.500000
9758,-187.500000
9759,-183.593750
9760,-187.500000
9761,-183.593750
9762,-183.593750
9763,-183.593750
9764,-183.593750
9765,-183.593750
9766,-183.593750
9767,-183.593750
9768,-183.593750
9769,-183.593750
9770,-179.687500
9771,-179.687500
9772,-179.687500
9773,-179.687500
9774,-179.687500
9775,-179.687500
9776,-179.687500
9777,-179.687500
9778,-179.687500
9779,-175.781250
9780,-175.781250
9781,-175.781250
9782,-175.781250
9783,-175.781250
9784,-175.781250
9785,-175.781250
9786,-175.781250
9787,-175.781250
9788,-175.781250
9789,-171.875000
9790,-171.875000
9791,-171.875000
9792,-171.875000
9793,-171.875000
9794,-171.875000
9795,-171.875000
9796,-167.968750
9797,-167.968750
9798,-167.968750
9799,-167.968750
9800,-167.968750
9801,-164.062500
9802,-167.968750
9803,-164.062500
9804,-164.062500
9805,-164.062500
9806,-164.062500
9807,-164.062500
9808,-160.156250
9809,-160.156250
9810,-160.156250
9811,-160.156250
9812,-160.156250
9813,-160.156250
9814,-156.250000
9815,-156.250000
9816,-156.250000
9817,-156.250000
9818,-156.250000
9819,-152.343750
9820,-152.343750
9821,-152.343750
9822,-152.343750
9823,-152.343750
9824,-148.437500
9825,-148.437500
9826,-148.437500
9827,-148.437500
9828,-148.437500
9829,-144.531250
9830,-144.531250
9831,-144.531250
9832,-144.531250
9833,-144.531250
9834,-144.531250
9835,-140.625000
9836,-140.625000
9837,-140.625000
9838,-140.625000
9839,-136.718750
9840,-136.718750
9841,-136.718750
9842,-136.718750
9843,-136.718750
9844,-132.812500
9845,-132.812500
9846,-132.812500
9847,-128.906250
9848,-128.906250
9849,-128.906250
9850,-128.906250
9851,-128.906250
9852,-125.000000
9853,-125.000000
9854,-125.000000
9855,-125.000000
9856,-121.093750
9857,-121.093750
9858,-121.093750
9859,-121.093750
9860,-117.187500
9861,-117.187500
9862,-117.187500
9863,-117.187500
9864,-113.281250
9865,-113.281250
9866,-113.281250
9867,-113.281250
9868,-109.375000
9869,-109.375000
9870,-109.375000
9871,-109.375000
9872,-105.468750
9873,-105.468750
9874,-105.468750
9875,-105.468750
9876,-101.562500
9877,-101.562500
9878,-101.562500
9879,-101.562500
9880,-97.656250
9881,-97.656250
9882,-97.656250
9883,-93.750000
9884,-93.750000
9885,-93.750000
9886,-93.750000
9887,-89.843750
9888,-89.843750
9889,-89.843750
9890,-89.843750
9891,-85.937500
9892,-85.937500
9893,-85.937500
9894,-82.031250
9895,-82.031250
9896,-82.031250
9897,-82.031250
9898,-78.125000
9899,-78.125000
9900,-78.125000
9901,-74.218750
9902,-74.218750
9903,-74.218750
9904,-74.218750
9905,-70.312500
9906,-70.312500
9907,-70.312500
9908,-70.312500
9909,-66.406250
9910,-66.406250
9911,-66.406250
9912,-62.500000
9913,-62.500000
9914,-62.500000
9915,-62.500000
9916,-58.593750
9917,-58.593750
9918,-58.593750
9919,-54.687500
9920,-54.687500
9921,-54.687500
9922,-54.687500
9923,-50.781250
9924,-50.781250
9925,-50.781250
9926,-50.781250
9927,-46.875000
9928,-46.875000
9929,-46.875000
9930,-42.968750
9931,-42.968750
9932,-42.968750
9933,-39.062500
9934,-39.062500
9935,-39.062500
9936,-35.156250
9937,-35.156250
9938,-35.156250
9939,-35.156250
9940,-31.250000
9941,-31.250000
9942,-31.250000
9943,-31.250000
9944,-27.343750
9945,-27.343750
9946,-27.343750
9947,-23.437500
9948,-23.437500
9949,-23.437500
9950,-23.437500
9951,-19.531250
9952,-19.531250
9953,-19.531250
9954,-15.625000
9955,-15.625000
9956,-15.625000
9957,-15.625000
9958,-11.718750
9959,-11.718750
9960,-11.718750
9961,-7.812500
9962,-7.812500
9963,-7.812500
9964,-7.812500
9965,-3.906250
9966,-3.906250
9967,-3.906250
9968,-3.906250
9969,0.000000
9970,0.000000
9971,0.000000
9972,3.906250
9973,3.906250
9974,3.906250
9975,3.906250
9976,7.812500
9977,7.812500
9978,7.812500
9979,11.718750
9980,11.718750
9981,11.718750
9982,15.625000
9983,15.625000
9984,15.625000
9985,15.625000
9986,19.531250
9987,19.531250
9988,19.531250
9989,23.437500
9990,23.437500
9991,23.437500
9992,23.437500
9993,23.437500
9994,27.343750
9995,27.343750
9996,27.343750
9997,31.250000
9998,31.250000
9999,31.250000
10000,35.156250
