Channel              :,CH1
Frequency            :,1.010kHz
Period               :,0.990ms
PK-PK                :,277.3mV
Probe attenuation    :,1X
Voltage per ADC value:,0.244141mV
Time interval        :,1.00000us

index,CH1_Voltage(mV)
1,-70.312500
2,-70.312500
3,-70.312500
4,-70.312500
5,-70.312500
6,-66.406250
7,-66.406250
8,-66.406250
9,-62.500000
10,-62.500000
11,-62.500000
12,-62.500000
13,-62.500000
14,-58.593750
15,-58.593750
16,-58.593750
17,-58.593750
18,-54.687500
19,-54.687500
20,-54.687500
21,-54.687500
22,-54.687500
23,-50.781250
24,-50.781250
25,-50.781250
26,-50.781250
27,-50.781250
28,-46.875000
29,-46.875000
30,-46.875000
31,-46.875000
32,-42.968750
33,-42.968750
34,-42.968750
35,-42.968750
36,-42.968750
37,-39.062500
38,-39.062500
39,-39.062500
40,-39.062500
41,-35.156250
42,-35.156250
43,-35.156250
44,-35.156250
45,-35.156250
46,-31.250000
47,-31.250000
48,-31.250000
49,-31.250000
50,-27.343750
51,-27.343750
52,-27.343750
53,-27.343750
54,-23.437500
55,-23.437500
56,-23.437500
57,-23.437500
58,-23.437500
59,-19.531250
60,-19.531250
61,-19.531250
62,-19.531250
63,-15.625000
64,-15.625000
65,-15.625000
66,-15.625000
67,-15.625000
68,-11.718750
69,-11.718750
70,-11.718750
71,-11.718750
72,-7.812500
73,-7.812500
74,-7.812500
75,-7.812500
76,-3.906250
77,-3.906250
78,-3.906250
79,-3.906250
80,-3.906250
81,-3.906250
82,0.000000
83,0.000000
84,0.000000
85,3.906250
86,3.906250
87,3.906250
88,3.906250
89,3.906250
90,7.812500
91,7.812500
92,7.812500
93,7.812500
94,7.812500
95,7.812500
96,11.718750
97,11.718750
98,15.625000
99,15.625000
100,15.625000
101,15.625000
102,15.625000
103,19.531250
104,19.531250
105,19.531250
106,19.531250
107,19.531250
108,19.531250
109,23.437500
110,23.437500
111,23.437500
112,23.437500
113,27.343750
114,27.343750
115,27.343750
116,27.343750
117,27.343750
118,31.250000
119,31.250000
120,31.250000
121,31.250000
122,31.250000
123,35.156250
124,35.156250
125,35.156250
126,35.156250
127,35.156250
128,39.062500
129,39.062500
130,39.062500
131,39.062500
132,39.062500
133,42.968750
134,42.968750
135,42.968750
136,42.968750
137,42.968750
138,42.968750
139,46.875000
140,46.875000
141,46.875000
142,46.875000
143,50.781250
144,50.781250
145,50.781250
146,50.781250
147,50.781250
148,54.687500
149,54.687500
150,54.687500
151,54.687500
152,54.687500
153,54.687500
154,54.687500
155,58.593750
156,58.593750
157,58.593750
158,58.593750
159,58.593750
160,62.500000
161,62.500000
162,62.500000
163,62.500000
164,62.500000
165,62.500000
166,66.406250
167,66.406250
168,66.406250
169,66.406250
170,66.406250
171,66.406250
172,70.312500
173,70.312500
174,70.312500
175,70.312500
176,70.312500
177,70.312500
178,70.312500
179,74.218750
180,74.218750
181,74.218750
182,74.218750
183,74.218750
184,74.218750
185,74.218750
186,78.125000
187,78.125000
188,78.125000
189,78.125000
190,78.125000
191,78.125000
192,82.031250
193,82.031250
194,82.031250
195,82.031250
196,82.031250
197,82.031250
198,82.031250
199,82.031250
200,85.937500
201,85.937500
202,85.937500
203,85.937500
204,85.937500
205,85.937500
206,85.937500
207,85.937500
208,89.843750
209,89.843750
210,89.843750
211,89.843750
212,89.843750
213,89.843750
214,93.750000
215,89.843750
216,93.750000
217,93.750000
218,93.750000
219,93.750000
220,93.750000
221,93.750000
222,93.750000
223,93.750000
224,97.656250
225,97.656250
226,97.656250
227,97.656250
228,97.656250
229,97.656250
230,97.656250
231,97.656250
232,97.656250
233,97.656250
234,101.562500
235,101.562500
236,101.562500
237,101.562500
238,101.562500
239,101.562500
240,101.562500
241,101.562500
242,101.562500
243,101.562500
244,101.562500
245,105.468750
246,105.468750
247,105.468750
248,105.468750
249,105.468750
250,105.468750
251,105.468750
252,105.468750
253,105.468750
254,105.468750
255,109.375000
256,105.468750
257,105.468750
258,109.375000
259,109.375000
260,109.375000
261,109.375000
262,109.375000
263,109.375000
264,109.375000
265,109.375000
266,109.375000
267,109.375000
268,109.375000
269,109.375000
270,109.375000
271,109.375000
272,113.281250
273,113.281250
274,113.281250
275,113.281250
276,113.281250
277,113.281250
278,113.281250
279,113.281250
280,113.281250
281,113.281250
282,113.281250
283,113.281250
284,113.281250
285,113.281250
286,113.281250
287,113.281250
288,113.281250
289,113.281250
290,113.281250
291,113.281250
292,113.281250
293,113.281250
294,117.187500
295,117.187500
296,113.281250
297,113.281250
298,117.187500
299,117.187500
300,117.187500
301,117.187500
302,117.187500
303,117.187500
304,117.187500
305,117.187500
306,117.187500
307,117.187500
308,117.187500
309,117.187500
310,117.187500
311,117.187500
312,117.187500
313,117.187500
314,117.187500
315,117.187500
316,117.187500
317,117.187500
318,117.187500
319,117.187500
320,117.187500
321,117.187500
322,117.187500
323,117.187500
324,117.187500
325,117.187500
326,117.187500
327,117.187500
328,117.187500
329,117.187500
330,117.187500
331,117.187500
332,117.187500
333,117.187500
334,117.187500
335,117.187500
336,117.187500
337,117.187500
338,117.187500
339,117.187500
340,117.187500
341,117.187500
342,117.187500
343,117.187500
344,117.187500
345,117.187500
346,117.187500
347,113.281250
348,113.281250
349,113.281250
350,117.187500
351,113.281250
352,113.281250
353,113.281250
354,113.281250
355,113.281250
356,113.281250
357,113.281250
358,113.281250
359,113.281250
360,113.281250
361,113.281250
362,113.281250
363,113.281250
364,113.281250
365,113.281250
366,113.281250
367,113.281250
368,113.281250
369,113.281250
370,113.281250
371,113.281250
372,113.281250
373,109.375000
374,109.375000
375,109.375000
376,109.375000
377,109.375000
378,109.375000
379,109.375000
380,109.375000
381,109.375000
382,109.375000
383,109.375000
384,109.375000
385,109.375000
386,109.375000
387,109.375000
388,109.375000
389,109.375000
390,105.468750
391,105.468750
392,105.468750
393,105.468750
394,105.468750
395,105.468750
396,105.468750
397,105.468750
398,105.468750
399,105.468750
400,105.468750
401,105.468750
402,105.468750
403,101.562500
404,101.562500
405,101.562500
406,101.562500
407,101.562500
408,101.562500
409,101.562500
410,101.562500
411,101.562500
412,101.562500
413,97.656250
414,97.656250
415,97.656250
416,97.656250
417,97.656250
418,97.656250
419,97.656250
420,97.656250
421,93.750000
422,93.750000
423,93.750000
424,93.750000
425,93.750000
426,93.750000
427,93.750000
428,93.750000
429,93.750000
430,93.750000
431,89.843750
432,89.843750
433,89.843750
434,89.843750
435,89.843750
436,89.843750
437,89.843750
438,85.937500
439,89.843750
440,85.937500
441,85.937500
442,85.937500
443,85.937500
444,85.937500
445,82.031250
446,82.031250
447,82.031250
448,82.031250
449,82.031250
450,82.031250
451,82.031250
452,82.031250
453,78.125000
454,78.125000
455,78.125000
456,78.125000
457,78.125000
458,78.125000
459,78.125000
460,74.218750
461,74.218750
462,74.218750
463,74.218750
464,74.218750
465,74.218750
466,74.218750
467,74.218750
468,70.312500
469,70.312500
470,70.312500
471,70.312500
472,66.406250
473,66.406250
474,66.406250
475,66.406250
476,66.406250
477,66.406250
478,62.500000
479,62.500000
480,62.500000
481,62.500000
482,62.500000
483,62.500000
484,58.593750
485,58.593750
486,58.593750
487,58.593750
488,58.593750
489,58.593750
490,58.593750
491,58.593750
492,54.687500
493,54.687500
494,54.687500
495,50.781250
496,54.687500
497,50.781250
498,50.781250
499,50.781250
500,50.781250
501,46.875000
502,46.875000
503,46.875000
504,46.875000
505,46.875000
506,46.875000
507,42.968750
508,42.968750
509,42.968750
510,42.968750
511,42.968750
512,39.062500
513,39.062500
514,39.062500
515,39.062500
516,39.062500
517,35.156250
518,35.156250
519,35.156250
520,35.156250
521,35.156250
522,35.156250
523,31.250000
524,31.250000
525,31.250000
526,31.250000
527,27.343750
528,27.343750
529,27.343750
530,27.343750
531,27.343750
532,23.437500
533,23.437500
534,23.437500
535,23.437500
536,23.437500
537,19.531250
538,19.531250
539,19.531250
540,19.531250
541,19.531250
542,19.531250
543,15.625000
544,15.625000
545,15.625000
546,11.718750
547,11.718750
548,11.718750
549,11.718750
550,11.718750
551,7.812500
552,7.812500
553,7.812500
554,3.906250
555,3.906250
556,3.906250
557,3.906250
558,3.906250
559,3.906250
560,0.000000
561,0.000000
562,0.000000
563,0.000000
564,-3.906250
565,-3.906250
566,-3.906250
567,-3.906250
568,-7.812500
569,-7.812500
570,-7.812500
571,-7.812500
572,-7.812500
573,-11.718750
574,-11.718750
575,-11.718750
576,-11.718750
577,-15.625000
578,-15.625000
579,-15.625000
580,-15.625000
581,-15.625000
582,-19.531250
583,-19.531250
584,-19.531250
585,-19.531250
586,-19.531250
587,-23.437500
588,-23.437500
589,-23.437500
590,-23.437500
591,-27.343750
592,-27.343750
593,-27.343750
594,-27.343750
595,-31.250000
596,-31.250000
597,-31.250000
598,-31.250000
599,-35.156250
600,-35.156250
601,-35.156250
602,-35.156250
603,-35.156250
604,-39.062500
605,-39.062500
606,-39.062500
607,-39.062500
608,-42.968750
609,-42.968750
610,-42.968750
611,-42.968750
612,-46.875000
613,-46.875000
614,-46.875000
615,-46.875000
616,-46.875000
617,-50.781250
618,-50.781250
619,-50.781250
620,-50.781250
621,-50.781250
622,-54.687500
623,-54.687500
624,-54.687500
625,-54.687500
626,-58.593750
627,-58.593750
628,-58.593750
629,-58.593750
630,-58.593750
631,-62.500000
632,-62.500000
633,-62.500000
634,-66.406250
635,-66.406250
636,-66.406250
637,-66.406250
638,-66.406250
639,-66.406250
640,-70.312500
641,-70.312500
642,-70.312500
643,-70.312500
644,-70.312500
645,-74.218750
646,-74.218750
647,-74.218750
648,-78.125000
649,-78.125000
650,-78.125000
651,-78.125000
652,-78.125000
653,-78.125000
654,-82.031250
655,-82.031250
656,-82.031250
657,-82.031250
658,-82.031250
659,-85.937500
660,-85.937500
661,-85.937500
662,-85.937500
663,-85.937500
664,-89.843750
665,-89.843750
666,-89.843750
667,-89.843750
668,-89.843750
669,-93.750000
670,-93.750000
671,-93.750000
672,-93.750000
673,-97.656250
674,-97.656250
675,-97.656250
676,-97.656250
677,-97.656250
678,-97.656250
679,-101.562500
680,-101.562500
681,-101.562500
682,-101.562500
683,-101.562500
684,-105.468750
685,-105.468750
686,-105.468750
687,-105.468750
688,-105.468750
689,-105.468750
690,-109.375000
691,-109.375000
692,-109.375000
693,-109.375000
694,-109.375000
695,-113.281250
696,-113.281250
697,-113.281250
698,-113.281250
699,-113.281250
700,-113.281250
701,-117.187500
702,-117.187500
703,-117.187500
704,-117.187500
705,-117.187500
706,-117.187500
707,-117.187500
708,-121.093750
709,-121.093750
710,-121.093750
711,-121.093750
712,-121.093750
713,-125.000000
714,-125.000000
715,-125.000000
716,-125.000000
717,-125.000000
718,-125.000000
719,-125.000000
720,-128.906250
721,-128.906250
722,-128.906250
723,-128.906250
724,-128.906250
725,-128.906250
726,-132.812500
727,-132.812500
728,-132.812500
729,-132.812500
730,-132.812500
731,-132.812500
732,-132.812500
733,-136.718750
734,-136.718750
735,-136.718750
736,-136.718750
737,-136.718750
738,-136.718750
739,-136.718750
740,-136.718750
741,-136.718750
742,-140.625000
743,-140.625000
744,-140.625000
745,-140.625000
746,-140.625000
747,-140.625000
748,-140.625000
749,-140.625000
750,-140.625000
751,-144.531250
752,-144.531250
753,-144.531250
754,-144.531250
755,-144.531250
756,-144.531250
757,-144.531250
758,-144.531250
759,-144.531250
760,-144.531250
761,-144.531250
762,-148.437500
763,-148.437500
764,-148.437500
765,-148.437500
766,-148.437500
767,-148.437500
768,-148.437500
769,-148.437500
770,-148.437500
771,-148.437500
772,-148.437500
773,-148.437500
774,-148.437500
775,-152.343750
776,-152.343750
777,-152.343750
778,-152.343750
779,-152.343750
780,-152.343750
781,-152.343750
782,-152.343750
783,-152.343750
784,-152.343750
785,-152.343750
786,-152.343750
787,-152.343750
788,-152.343750
789,-152.343750
790,-152.343750
791,-152.343750
792,-152.343750
793,-156.250000
794,-156.250000
795,-156.250000
796,-156.250000
797,-156.250000
798,-156.250000
799,-156.250000
800,-156.250000
801,-156.250000
802,-156.250000
803,-156.250000
804,-156.250000
805,-152.343750
806,-156.250000
807,-156.250000
808,-156.250000
809,-156.250000
810,-156.250000
811,-156.250000
812,-156.250000
813,-156.250000
814,-156.250000
815,-156.250000
816,-156.250000
817,-156.250000
818,-156.250000
819,-156.250000
820,-156.250000
821,-156.250000
822,-156.250000
823,-156.250000
824,-156.250000
825,-156.250000
826,-156.250000
827,-156.250000
828,-156.250000
829,-156.250000
830,-156.250000
831,-156.250000
832,-156.250000
833,-156.250000
834,-156.250000
835,-156.250000
836,-156.250000
837,-156.250000
838,-152.343750
839,-156.250000
840,-156.250000
841,-156.250000
842,-152.343750
843,-152.343750
844,-156.250000
845,-152.343750
846,-152.343750
847,-152.343750
848,-152.343750
849,-152.343750
850,-152.343750
851,-152.343750
852,-152.343750
853,-152.343750
854,-152.343750
855,-152.343750
856,-152.343750
857,-152.343750
858,-152.343750
859,-152.343750
860,-152.343750
861,-152.343750
862,-152.343750
863,-148.437500
864,-148.437500
865,-148.437500
866,-148.437500
867,-148.437500
868,-148.437500
869,-148.437500
870,-148.437500
871,-148.437500
872,-148.437500
873,-144.531250
874,-144.531250
875,-144.531250
876,-144.531250
877,-144.531250
878,-144.531250
879,-144.531250
880,-144.531250
881,-144.531250
882,-144.531250
883,-140.625000
884,-140.625000
885,-140.625000
886,-140.625000
887,-140.625000
888,-140.625000
889,-140.625000
890,-140.625000
891,-140.625000
892,-136.718750
893,-136.718750
894,-136.718750
895,-136.718750
896,-136.718750
897,-136.718750
898,-136.718750
899,-136.718750
900,-136.718750
901,-136.718750
902,-132.812500
903,-132.812500
904,-132.812500
905,-132.812500
906,-132.812500
907,-132.812500
908,-132.812500
909,-132.812500
910,-128.906250
911,-128.906250
912,-128.906250
913,-128.906250
914,-125.000000
915,-125.000000
916,-125.000000
917,-125.000000
918,-125.000000
919,-125.000000
920,-125.000000
921,-125.000000
922,-121.093750
923,-121.093750
924,-121.093750
925,-121.093750
926,-121.093750
927,-121.093750
928,-117.187500
929,-117.187500
930,-117.187500
931,-117.187500
932,-113.281250
933,-117.187500
934,-113.281250
935,-113.281250
936,-113.281250
937,-113.281250
938,-113.281250
939,-113.281250
940,-109.375000
941,-109.375000
942,-109.375000
943,-109.375000
944,-109.375000
945,-109.375000
946,-105.468750
947,-105.468750
948,-105.468750
949,-105.468750
950,-105.468750
951,-101.562500
952,-101.562500
953,-101.562500
954,-101.562500
955,-101.562500
956,-101.562500
957,-97.656250
958,-97.656250
959,-97.656250
960,-97.656250
961,-93.750000
962,-93.750000
963,-93.750000
964,-93.750000
965,-93.750000
966,-93.750000
967,-89.843750
968,-89.843750
969,-89.843750
970,-89.843750
971,-89.843750
972,-85.937500
973,-85.937500
974,-85.937500
975,-85.937500
976,-82.031250
977,-82.031250
978,-82.031250
979,-82.031250
980,-82.031250
981,-78.125000
982,-78.125000
983,-78.125000
984,-78.125000
985,-78.125000
986,-74.218750
987,-74.218750
988,-74.218750
989,-74.218750
990,-74.218750
991,-70.312500
992,-70.312500
993,-70.312500
994,-70.312500
995,-66.406250
996,-66.406250
997,-66.406250
998,-66.406250
999,-66.406250
1000,-62.500000
1001,-62.500000
1002,-62.500000
1003,-58.593750
1004,-58.593750
1005,-58.593750
1006,-58.593750
1007,-58.593750
1008,-54.687500
1009,-54.687500
1010,-54.687500
1011,-54.687500
1012,-54.687500
1013,-54.687500
1014,-50.781250
1015,-50.781250
1016,-50.781250
1017,-50.781250
1018,-46.875000
1019,-46.875000
1020,-46.875000
1021,-46.875000
1022,-42.968750
1023,-42.968750
1024,-42.968750
1025,-42.968750
1026,-39.062500
1027,-39.062500
1028,-39.062500
1029,-39.062500
1030,-39.062500
1031,-35.156250
1032,-35.156250
1033,-35.156250
1034,-31.250000
1035,-31.250000
1036,-31.250000
1037,-31.250000
1038,-31.250000
1039,-31.250000
1040,-27.343750
1041,-27.343750
1042,-27.343750
1043,-23.437500
1044,-23.437500
1045,-23.437500
1046,-23.437500
1047,-23.437500
1048,-19.531250
1049,-19.531250
1050,-19.531250
1051,-19.531250
1052,-15.625000
1053,-15.625000
1054,-15.625000
1055,-15.625000
1056,-15.625000
1057,-11.718750
1058,-11.718750
1059,-11.718750
1060,-11.718750
1061,-7.812500
1062,-7.812500
1063,-7.812500
1064,-7.812500
1065,-7.812500
1066,-3.906250
1067,-3.906250
1068,-3.906250
1069,-3.906250
1070,0.000000
1071,0.000000
1072,0.000000
1073,0.000000
1074,3.906250
1075,3.906250
1076,3.906250
1077,3.906250
1078,3.906250
1079,3.906250
1080,7.812500
1081,7.812500
1082,7.812500
1083,7.812500
1084,11.718750
1085,11.718750
1086,11.718750
1087,11.718750
1088,11.718750
1089,15.625000
1090,15.625000
1091,15.625000
1092,15.625000
1093,15.625000
1094,19.531250
1095,19.531250
1096,19.531250
1097,19.531250
1098,23.437500
1099,23.437500
1100,23.437500
1101,23.437500
1102,23.437500
1103,27.343750
1104,27.343750
1105,27.343750
1106,27.343750
1107,31.250000
1108,31.250000
1109,31.250000
1110,31.250000
1111,31.250000
1112,35.156250
1113,35.156250
1114,35.156250
1115,35.156250
1116,35.156250
1117,35.156250
1118,39.062500
1119,39.062500
1120,39.062500
1121,39.062500
1122,42.968750
1123,42.968750
1124,42.968750
1125,42.968750
1126,42.968750
1127,42.968750
1128,46.875000
1129,46.875000
1130,46.875000
1131,46.875000
1132,46.875000
1133,50.781250
1134,50.781250
1135,50.781250
1136,50.781250
1137,50.781250
1138,54.687500
1139,54.687500
1140,54.687500
1141,54.687500
1142,54.687500
1143,54.687500
1144,54.687500
1145,58.593750
1146,58.593750
1147,58.593750
1148,58.593750
1149,58.593750
1150,58.593750
1151,62.500000
1152,62.500000
1153,62.500000
1154,62.500000
1155,62.500000
1156,66.406250
1157,66.406250
1158,66.406250
1159,66.406250
1160,66.406250
1161,66.406250
1162,70.312500
1163,70.312500
1164,70.312500
1165,70.312500
1166,70.312500
1167,74.218750
1168,70.312500
1169,74.218750
1170,74.218750
1171,74.218750
1172,74.218750
1173,74.218750
1174,74.218750
1175,78.125000
1176,78.125000
1177,78.125000
1178,78.125000
1179,78.125000
1180,78.125000
1181,78.125000
1182,82.031250
1183,82.031250
1184,82.031250
1185,82.031250
1186,82.031250
1187,85.937500
1188,82.031250
1189,85.937500
1190,85.937500
1191,85.937500
1192,85.937500
1193,85.937500
1194,85.937500
1195,85.937500
1196,89.843750
1197,89.843750
1198,89.843750
1199,89.843750
1200,89.843750
1201,89.843750
1202,89.843750
1203,89.843750
1204,93.750000
1205,89.843750
1206,93.750000
1207,93.750000
1208,93.750000
1209,93.750000
1210,93.750000
1211,93.750000
1212,93.750000
1213,97.656250
1214,97.656250
1215,97.656250
1216,97.656250
1217,97.656250
1218,97.656250
1219,97.656250
1220,97.656250
1221,97.656250
1222,97.656250
1223,97.656250
1224,101.562500
1225,101.562500
1226,101.562500
1227,101.562500
1228,101.562500
1229,101.562500
1230,101.562500
1231,101.562500
1232,101.562500
1233,101.562500
1234,101.562500
1235,105.468750
1236,101.562500
1237,105.468750
1238,105.468750
1239,105.468750
1240,105.468750
1241,105.468750
1242,105.468750
1243,105.468750
1244,105.468750
1245,105.468750
1246,105.468750
1247,109.375000
1248,105.468750
1249,109.375000
1250,109.375000
1251,105.468750
1252,109.375000
1253,109.375000
1254,109.375000
1255,109.375000
1256,109.375000
1257,109.375000
1258,109.375000
1259,109.375000
1260,109.375000
1261,109.375000
1262,109.375000
1263,113.281250
1264,113.281250
1265,113.281250
1266,113.281250
1267,113.281250
1268,113.281250
1269,113.281250
1270,113.281250
1271,113.281250
1272,113.281250
1273,113.281250
1274,113.281250
1275,113.281250
1276,113.281250
1277,113.281250
1278,113.281250
1279,113.281250
1280,113.281250
1281,113.281250
1282,113.281250
1283,113.281250
1284,117.187500
1285,117.187500
1286,117.187500
1287,113.281250
1288,117.187500
1289,113.281250
1290,113.281250
1291,117.187500
1292,117.187500
1293,117.187500
1294,117.187500
1295,117.187500
1296,117.187500
1297,117.187500
1298,117.187500
1299,117.187500
1300,117.187500
1301,117.187500
1302,117.187500
1303,117.187500
1304,117.187500
1305,117.187500
1306,117.187500
1307,117.187500
1308,117.187500
1309,117.187500
1310,117.187500
1311,117.187500
1312,117.187500
1313,117.187500
1314,117.187500
1315,117.187500
1316,117.187500
1317,117.187500
1318,117.187500
1319,117.187500
1320,117.187500
1321,117.187500
1322,117.187500
1323,117.187500
1324,117.187500
1325,117.187500
1326,117.187500
1327,117.187500
1328,117.187500
1329,117.187500
1330,117.187500
1331,117.187500
1332,117.187500
1333,117.187500
1334,117.187500
1335,117.187500
1336,117.187500
1337,117.187500
1338,113.281250
1339,113.281250
1340,113.281250
1341,113.281250
1342,113.281250
1343,113.281250
1344,113.281250
1345,113.281250
1346,113.281250
1347,113.281250
1348,113.281250
1349,113.281250
1350,113.281250
1351,113.281250
1352,113.281250
1353,113.281250
1354,113.281250
1355,113.281250
1356,113.281250
1357,113.281250
1358,113.281250
1359,109.375000
1360,109.375000
1361,109.375000
1362,109.375000
1363,113.281250
1364,109.375000
1365,109.375000
1366,109.375000
1367,109.375000
1368,109.375000
1369,109.375000
1370,109.375000
1371,109.375000
1372,109.375000
1373,109.375000
1374,109.375000
1375,109.375000
1376,105.468750
1377,105.468750
1378,105.468750
1379,105.468750
1380,105.468750
1381,105.468750
1382,105.468750
1383,105.468750
1384,105.468750
1385,105.468750
1386,105.468750
1387,105.468750
1388,105.468750
1389,105.468750
1390,101.562500
1391,101.562500
1392,101.562500
1393,101.562500
1394,101.562500
1395,101.562500
1396,101.562500
1397,101.562500
1398,101.562500
1399,101.562500
1400,101.562500
1401,101.562500
1402,97.656250
1403,97.656250
1404,97.656250
1405,97.656250
1406,97.656250
1407,97.656250
1408,97.656250
1409,93.750000
1410,93.750000
1411,93.750000
1412,93.750000
1413,93.750000
1414,93.750000
1415,93.750000
1416,93.750000
1417,93.750000
1418,93.750000
1419,93.750000
1420,89.843750
1421,89.843750
1422,89.843750
1423,89.843750
1424,89.843750
1425,89.843750
1426,89.843750
1427,89.843750
1428,89.843750
1429,85.937500
1430,85.937500
1431,85.937500
1432,85.937500
1433,85.937500
1434,85.937500
1435,85.937500
1436,82.031250
1437,82.031250
1438,82.031250
1439,82.031250
1440,82.031250
1441,82.031250
1442,82.031250
1443,82.031250
1444,78.125000
1445,78.125000
1446,78.125000
1447,78.125000
1448,78.125000
1449,78.125000
1450,78.125000
1451,74.218750
1452,74.218750
1453,74.218750
1454,74.218750
1455,74.218750
1456,74.218750
1457,70.312500
1458,70.312500
1459,70.312500
1460,70.312500
1461,70.312500
1462,66.406250
1463,66.406250
1464,66.406250
1465,66.406250
1466,66.406250
1467,66.406250
1468,66.406250
1469,62.500000
1470,62.500000
1471,62.500000
1472,62.500000
1473,62.500000
1474,62.500000
1475,58.593750
1476,58.593750
1477,58.593750
1478,58.593750
1479,58.593750
1480,58.593750
1481,54.687500
1482,54.687500
1483,54.687500
1484,54.687500
1485,54.687500
1486,50.781250
1487,50.781250
1488,50.781250
1489,50.781250
1490,50.781250
1491,50.781250
1492,46.875000
1493,46.875000
1494,46.875000
1495,46.875000
1496,42.968750
1497,42.968750
1498,42.968750
1499,42.968750
1500,42.968750
1501,42.968750
1502,39.062500
1503,39.062500
1504,39.062500
1505,35.156250
1506,35.156250
1507,35.156250
1508,35.156250
1509,35.156250
1510,35.156250
1511,35.156250
1512,31.250000
1513,31.250000
1514,31.250000
1515,31.250000
1516,31.250000
1517,27.343750
1518,27.343750
1519,27.343750
1520,27.343750
1521,27.343750
1522,23.437500
1523,23.437500
1524,23.437500
1525,23.437500
1526,23.437500
1527,19.531250
1528,19.531250
1529,19.531250
1530,19.531250
1531,15.625000
1532,15.625000
1533,15.625000
1534,15.625000
1535,11.718750
1536,11.718750
1537,11.718750
1538,11.718750
1539,11.718750
1540,11.718750
1541,7.812500
1542,7.812500
1543,7.812500
1544,7.812500
1545,3.906250
1546,3.906250
1547,3.906250
1548,3.906250
1549,3.906250
1550,0.000000
1551,0.000000
1552,0.000000
1553,-3.906250
1554,-3.906250
1555,-3.906250
1556,-3.906250
1557,-3.906250
1558,-3.906250
1559,-7.812500
1560,-7.812500
1561,-7.812500
1562,-7.812500
1563,-11.718750
1564,-11.718750
1565,-11.718750
1566,-11.718750
1567,-15.625000
1568,-15.625000
1569,-15.625000
1570,-15.625000
1571,-15.625000
1572,-19.531250
1573,-19.531250
1574,-19.531250
1575,-19.531250
1576,-19.531250
1577,-23.437500
1578,-23.437500
1579,-23.437500
1580,-27.343750
1581,-27.343750
1582,-27.343750
1583,-27.343750
1584,-27.343750
1585,-31.250000
1586,-31.250000
1587,-31.250000
1588,-31.250000
1589,-35.156250
1590,-35.156250
1591,-35.156250
1592,-35.156250
1593,-35.156250
1594,-39.062500
1595,-39.062500
1596,-39.062500
1597,-39.062500
1598,-42.968750
1599,-42.968750
1600,-42.968750
1601,-42.968750
1602,-46.875000
1603,-46.875000
1604,-46.875000
1605,-46.875000
1606,-46.875000
1607,-50.781250
1608,-50.781250
1609,-50.781250
1610,-54.687500
1611,-54.687500
1612,-54.687500
1613,-54.687500
1614,-54.687500
1615,-54.687500
1616,-58.593750
1617,-58.593750
1618,-58.593750
1619,-62.500000
1620,-62.500000
1621,-62.500000
1622,-62.500000
1623,-62.500000
1624,-62.500000
1625,-66.406250
1626,-66.406250
1627,-66.406250
1628,-70.312500
1629,-70.312500
1630,-70.312500
1631,-70.312500
1632,-70.312500
1633,-70.312500
1634,-74.218750
1635,-74.218750
1636,-74.218750
1637,-74.218750
1638,-74.218750
1639,-78.125000
1640,-78.125000
1641,-78.125000
1642,-78.125000
1643,-82.031250
1644,-82.031250
1645,-82.031250
1646,-82.031250
1647,-85.937500
1648,-85.937500
1649,-85.937500
1650,-85.937500
1651,-85.937500
1652,-85.937500
1653,-89.843750
1654,-89.843750
1655,-89.843750
1656,-89.843750
1657,-89.843750
1658,-93.750000
1659,-93.750000
1660,-93.750000
1661,-93.750000
1662,-93.750000
1663,-97.656250
1664,-97.656250
1665,-97.656250
1666,-97.656250
1667,-97.656250
1668,-101.562500
1669,-101.562500
1670,-101.562500
1671,-101.562500
1672,-101.562500
1673,-101.562500
1674,-105.468750
1675,-105.468750
1676,-105.468750
1677,-105.468750
1678,-105.468750
1679,-109.375000
1680,-109.375000
1681,-109.375000
1682,-109.375000
1683,-109.375000
1684,-109.375000
1685,-113.281250
1686,-113.281250
1687,-113.281250
1688,-113.281250
1689,-117.187500
1690,-113.281250
1691,-113.281250
1692,-117.187500
1693,-117.187500
1694,-117.187500
1695,-117.187500
1696,-117.187500
1697,-121.093750
1698,-121.093750
1699,-121.093750
1700,-121.093750
1701,-121.093750
1702,-121.093750
1703,-125.000000
1704,-125.000000
1705,-125.000000
1706,-125.000000
1707,-125.000000
1708,-125.000000
1709,-128.906250
1710,-128.906250
1711,-128.906250
1712,-128.906250
1713,-128.906250
1714,-128.906250
1715,-132.812500
1716,-132.812500
1717,-132.812500
1718,-132.812500
1719,-132.812500
1720,-132.812500
1721,-132.812500
1722,-132.812500
1723,-136.718750
1724,-136.718750
1725,-136.718750
1726,-136.718750
1727,-136.718750
1728,-136.718750
1729,-136.718750
1730,-136.718750
1731,-140.625000
1732,-140.625000
1733,-140.625000
1734,-140.625000
1735,-140.625000
1736,-140.625000
1737,-140.625000
1738,-140.625000
1739,-140.625000
1740,-140.625000
1741,-144.531250
1742,-144.531250
1743,-144.531250
1744,-144.531250
1745,-144.531250
1746,-144.531250
1747,-144.531250
1748,-144.531250
1749,-148.437500
1750,-144.531250
1751,-148.437500
1752,-148.437500
1753,-148.437500
1754,-148.437500
1755,-148.437500
1756,-148.437500
1757,-148.437500
1758,-148.437500
1759,-148.437500
1760,-148.437500
1761,-148.437500
1762,-148.437500
1763,-148.437500
1764,-152.343750
1765,-152.343750
1766,-152.343750
1767,-152.343750
1768,-152.343750
1769,-152.343750
1770,-152.343750
1771,-152.343750
1772,-152.343750
1773,-152.343750
1774,-152.343750
1775,-152.343750
1776,-152.343750
1777,-152.343750
1778,-152.343750
1779,-152.343750
1780,-156.250000
1781,-152.343750
1782,-156.250000
1783,-156.250000
1784,-156.250000
1785,-156.250000
1786,-156.250000
1787,-156.250000
1788,-156.250000
1789,-156.250000
1790,-156.250000
1791,-156.250000
1792,-156.250000
1793,-156.250000
1794,-156.250000
1795,-156.250000
1796,-156.250000
1797,-156.250000
1798,-156.250000
1799,-156.250000
1800,-156.250000
1801,-156.250000
1802,-156.250000
1803,-156.250000
1804,-156.250000
1805,-156.250000
1806,-156.250000
1807,-156.250000
1808,-156.250000
1809,-156.250000
1810,-156.250000
1811,-156.250000
1812,-156.250000
1813,-156.250000
1814,-156.250000
1815,-156.250000
1816,-156.250000
1817,-156.250000
1818,-156.250000
1819,-156.250000
1820,-156.250000
1821,-156.250000
1822,-156.250000
1823,-156.250000
1824,-156.250000
1825,-156.250000
1826,-156.250000
1827,-156.250000
1828,-156.250000
1829,-156.250000
1830,-156.250000
1831,-152.343750
1832,-152.343750
1833,-152.343750
1834,-152.343750
1835,-152.343750
1836,-152.343750
1837,-152.343750
1838,-152.343750
1839,-152.343750
1840,-152.343750
1841,-152.343750
1842,-152.343750
1843,-152.343750
1844,-152.343750
1845,-152.343750
1846,-152.343750
1847,-152.343750
1848,-152.343750
1849,-152.343750
1850,-152.343750
1851,-148.437500
1852,-148.437500
1853,-148.437500
1854,-148.437500
1855,-148.437500
1856,-148.437500
1857,-148.437500
1858,-148.437500
1859,-148.437500
1860,-148.437500
1861,-148.437500
1862,-148.437500
1863,-144.531250
1864,-144.531250
1865,-144.531250
1866,-144.531250
1867,-144.531250
1868,-144.531250
1869,-144.531250
1870,-144.531250
1871,-144.531250
1872,-144.531250
1873,-140.625000
1874,-140.625000
1875,-140.625000
1876,-140.625000
1877,-140.625000
1878,-140.625000
1879,-140.625000
1880,-140.625000
1881,-136.718750
1882,-136.718750
1883,-136.718750
1884,-136.718750
1885,-136.718750
1886,-136.718750
1887,-136.718750
1888,-136.718750
1889,-136.718750
1890,-132.812500
1891,-136.718750
1892,-132.812500
1893,-132.812500
1894,-132.812500
1895,-132.812500
1896,-128.906250
1897,-128.906250
1898,-132.812500
1899,-128.906250
1900,-128.906250
1901,-128.906250
1902,-125.000000
1903,-128.906250
1904,-128.906250
1905,-125.000000
1906,-125.000000
1907,-125.000000
1908,-125.000000
1909,-125.000000
1910,-121.093750
1911,-121.093750
1912,-121.093750
1913,-121.093750
1914,-121.093750
1915,-121.093750
1916,-121.093750
1917,-117.187500
1918,-117.187500
1919,-117.187500
1920,-117.187500
1921,-117.187500
1922,-117.187500
1923,-117.187500
1924,-113.281250
1925,-113.281250
1926,-113.281250
1927,-113.281250
1928,-113.281250
1929,-113.281250
1930,-113.281250
1931,-109.375000
1932,-109.375000
1933,-109.375000
1934,-109.375000
1935,-105.468750
1936,-105.468750
1937,-105.468750
1938,-105.468750
1939,-105.468750
1940,-105.468750
1941,-101.562500
1942,-101.562500
1943,-101.562500
1944,-101.562500
1945,-97.656250
1946,-97.656250
1947,-97.656250
1948,-97.656250
1949,-97.656250
1950,-97.656250
1951,-93.750000
1952,-93.750000
1953,-93.750000
1954,-93.750000
1955,-93.750000
1956,-89.843750
1957,-89.843750
1958,-89.843750
1959,-89.843750
1960,-89.843750
1961,-85.937500
1962,-85.937500
1963,-85.937500
1964,-85.937500
1965,-82.031250
1966,-82.031250
1967,-82.031250
1968,-82.031250
1969,-82.031250
1970,-82.031250
1971,-78.125000
1972,-78.125000
1973,-78.125000
1974,-78.125000
1975,-74.218750
1976,-74.218750
1977,-74.218750
1978,-74.218750
1979,-74.218750
1980,-74.218750
1981,-70.312500
1982,-70.312500
1983,-70.312500
1984,-70.312500
1985,-66.406250
1986,-66.406250
1987,-66.406250
1988,-66.406250
1989,-62.500000
1990,-62.500000
1991,-62.500000
1992,-62.500000
1993,-62.500000
1994,-58.593750
1995,-58.593750
1996,-58.593750
1997,-58.593750
1998,-54.687500
1999,-54.687500
2000,-54.687500
2001,-54.687500
2002,-50.781250
2003,-50.781250
2004,-50.781250
2005,-50.781250
2006,-50.781250
2007,-46.875000
2008,-46.875000
2009,-46.875000
2010,-46.875000
2011,-46.875000
2012,-46.875000
2013,-42.968750
2014,-42.968750
2015,-42.968750
2016,-39.062500
2017,-39.062500
2018,-39.062500
2019,-39.062500
2020,-39.062500
2021,-35.156250
2022,-35.156250
2023,-35.156250
2024,-35.156250
2025,-31.250000
2026,-31.250000
2027,-31.250000
2028,-31.250000
2029,-27.343750
2030,-27.343750
2031,-27.343750
2032,-27.343750
2033,-27.343750
2034,-23.437500
2035,-23.437500
2036,-23.437500
2037,-23.437500
2038,-19.531250
2039,-19.531250
2040,-19.531250
2041,-19.531250
2042,-15.625000
2043,-15.625000
2044,-15.625000
2045,-15.625000
2046,-15.625000
2047,-15.625000
2048,-11.718750
2049,-11.718750
2050,-7.812500
2051,-7.812500
2052,-7.812500
2053,-7.812500
2054,-7.812500
2055,-7.812500
2056,-3.906250
2057,-3.906250
2058,-3.906250
2059,-3.906250
2060,0.000000
2061,0.000000
2062,0.000000
2063,0.000000
2064,0.000000
2065,3.906250
2066,3.906250
2067,3.906250
2068,3.906250
2069,7.812500
2070,7.812500
2071,7.812500
2072,7.812500
2073,11.718750
2074,11.718750
2075,11.718750
2076,11.718750
2077,11.718750
2078,15.625000
2079,15.625000
2080,15.625000
2081,15.625000
2082,19.531250
2083,19.531250
2084,19.531250
2085,19.531250
2086,19.531250
2087,23.437500
2088,23.437500
2089,23.437500
2090,23.437500
2091,23.437500
2092,27.343750
2093,27.343750
2094,27.343750
2095,27.343750
2096,27.343750
2097,31.250000
2098,31.250000
2099,31.250000
2100,31.250000
2101,31.250000
2102,35.156250
2103,35.156250
2104,35.156250
2105,35.156250
2106,35.156250
2107,35.156250
2108,39.062500
2109,39.062500
2110,39.062500
2111,42.968750
2112,42.968750
2113,42.968750
2114,42.968750
2115,42.968750
2116,42.968750
2117,42.968750
2118,46.875000
2119,46.875000
2120,46.875000
2121,46.875000
2122,50.781250
2123,50.781250
2124,50.781250
2125,50.781250
2126,50.781250
2127,50.781250
2128,54.687500
2129,54.687500
2130,54.687500
2131,54.687500
2132,54.687500
2133,54.687500
2134,58.593750
2135,58.593750
2136,58.593750
2137,58.593750
2138,62.500000
2139,62.500000
2140,62.500000
2141,62.500000
2142,62.500000
2143,62.500000
2144,62.500000
2145,62.500000
2146,66.406250
2147,66.406250
2148,66.406250
2149,66.406250
2150,66.406250
2151,66.406250
2152,66.406250
2153,70.312500
2154,70.312500
2155,70.312500
2156,70.312500
2157,70.312500
2158,74.218750
2159,74.218750
2160,74.218750
2161,74.218750
2162,74.218750
2163,74.218750
2164,74.218750
2165,78.125000
2166,78.125000
2167,78.125000
2168,78.125000
2169,78.125000
2170,78.125000
2171,78.125000
2172,82.031250
2173,82.031250
2174,82.031250
2175,82.031250
2176,82.031250
2177,82.031250
2178,82.031250
2179,82.031250
2180,85.937500
2181,85.937500
2182,85.937500
2183,85.937500
2184,85.937500
2185,85.937500
2186,89.843750
2187,89.843750
2188,89.843750
2189,89.843750
2190,89.843750
2191,89.843750
2192,89.843750
2193,89.843750
2194,93.750000
2195,93.750000
2196,93.750000
2197,93.750000
2198,93.750000
2199,93.750000
2200,93.750000
2201,93.750000
2202,93.750000
2203,97.656250
2204,97.656250
2205,97.656250
2206,97.656250
2207,97.656250
2208,97.656250
2209,97.656250
2210,97.656250
2211,97.656250
2212,97.656250
2213,101.562500
2214,101.562500
2215,101.562500
2216,101.562500
2217,101.562500
2218,101.562500
2219,101.562500
2220,101.562500
2221,101.562500
2222,101.562500
2223,101.562500
2224,105.468750
2225,105.468750
2226,105.468750
2227,105.468750
2228,105.468750
2229,105.468750
2230,105.468750
2231,105.468750
2232,105.468750
2233,105.468750
2234,105.468750
2235,105.468750
2236,109.375000
2237,109.375000
2238,109.375000
2239,105.468750
2240,109.375000
2241,109.375000
2242,109.375000
2243,109.375000
2244,109.375000
2245,109.375000
2246,109.375000
2247,109.375000
2248,109.375000
2249,109.375000
2250,109.375000
2251,109.375000
2252,109.375000
2253,109.375000
2254,113.281250
2255,113.281250
2256,113.281250
2257,113.281250
2258,113.281250
2259,113.281250
2260,113.281250
2261,113.281250
2262,113.281250
2263,113.281250
2264,113.281250
2265,113.281250
2266,113.281250
2267,113.281250
2268,113.281250
2269,113.281250
2270,113.281250
2271,113.281250
2272,113.281250
2273,113.281250
2274,113.281250
2275,117.187500
2276,117.187500
2277,113.281250
2278,113.281250
2279,113.281250
2280,117.187500
2281,113.281250
2282,117.187500
2283,117.187500
2284,117.187500
2285,113.281250
2286,117.187500
2287,117.187500
2288,117.187500
2289,117.187500
2290,113.281250
2291,117.187500
2292,117.187500
2293,117.187500
2294,117.187500
2295,117.187500
2296,117.187500
2297,117.187500
2298,117.187500
2299,117.187500
2300,117.187500
2301,117.187500
2302,117.187500
2303,117.187500
2304,117.187500
2305,117.187500
2306,117.187500
2307,117.187500
2308,117.187500
2309,117.187500
2310,117.187500
2311,117.187500
2312,117.187500
2313,117.187500
2314,117.187500
2315,117.187500
2316,117.187500
2317,117.187500
2318,117.187500
2319,117.187500
2320,117.187500
2321,113.281250
2322,117.187500
2323,117.187500
2324,117.187500
2325,113.281250
2326,117.187500
2327,117.187500
2328,113.281250
2329,113.281250
2330,117.187500
2331,113.281250
2332,113.281250
2333,113.281250
2334,113.281250
2335,113.281250
2336,113.281250
2337,113.281250
2338,113.281250
2339,113.281250
2340,113.281250
2341,113.281250
2342,113.281250
2343,113.281250
2344,113.281250
2345,113.281250
2346,113.281250
2347,113.281250
2348,113.281250
2349,109.375000
2350,113.281250
2351,113.281250
2352,113.281250
2353,113.281250
2354,109.375000
2355,109.375000
2356,109.375000
2357,109.375000
2358,109.375000
2359,109.375000
2360,109.375000
2361,109.375000
2362,109.375000
2363,109.375000
2364,109.375000
2365,109.375000
2366,109.375000
2367,109.375000
2368,109.375000
2369,105.468750
2370,105.468750
2371,105.468750
2372,105.468750
2373,105.468750
2374,105.468750
2375,105.468750
2376,105.468750
2377,105.468750
2378,105.468750
2379,105.468750
2380,101.562500
2381,101.562500
2382,101.562500
2383,101.562500
2384,101.562500
2385,101.562500
2386,101.562500
2387,101.562500
2388,101.562500
2389,101.562500
2390,101.562500
2391,97.656250
2392,97.656250
2393,97.656250
2394,97.656250
2395,97.656250
2396,97.656250
2397,97.656250
2398,97.656250
2399,97.656250
2400,93.750000
2401,93.750000
2402,93.750000
2403,93.750000
2404,93.750000
2405,93.750000
2406,93.750000
2407,93.750000
2408,93.750000
2409,93.750000
2410,89.843750
2411,89.843750
2412,89.843750
2413,89.843750
2414,89.843750
2415,89.843750
2416,89.843750
2417,89.843750
2418,89.843750
2419,85.937500
2420,85.937500
2421,85.937500
2422,85.937500
2423,85.937500
2424,85.937500
2425,85.937500
2426,82.031250
2427,82.031250
2428,82.031250
2429,82.031250
2430,82.031250
2431,82.031250
2432,78.125000
2433,78.125000
2434,78.125000
2435,78.125000
2436,78.125000
2437,78.125000
2438,78.125000
2439,78.125000
2440,74.218750
2441,74.218750
2442,74.218750
2443,74.218750
2444,74.218750
2445,74.218750
2446,70.312500
2447,70.312500
2448,70.312500
2449,70.312500
2450,70.312500
2451,70.312500
2452,66.406250
2453,66.406250
2454,66.406250
2455,66.406250
2456,66.406250
2457,66.406250
2458,66.406250
2459,62.500000
2460,62.500000
2461,62.500000
2462,62.500000
2463,62.500000
2464,58.593750
2465,58.593750
2466,58.593750
2467,58.593750
2468,58.593750
2469,58.593750
2470,54.687500
2471,54.687500
2472,54.687500
2473,54.687500
2474,54.687500
2475,54.687500
2476,50.781250
2477,50.781250
2478,50.781250
2479,50.781250
2480,50.781250
2481,46.875000
2482,46.875000
2483,46.875000
2484,46.875000
2485,42.968750
2486,42.968750
2487,42.968750
2488,42.968750
2489,42.968750
2490,42.968750
2491,39.062500
2492,39.062500
2493,39.062500
2494,39.062500
2495,39.062500
2496,39.062500
2497,35.156250
2498,35.156250
2499,35.156250
2500,35.156250
2501,31.250000
2502,31.250000
2503,31.250000
2504,31.250000
2505,31.250000
2506,31.250000
2507,27.343750
2508,27.343750
2509,27.343750
2510,27.343750
2511,23.437500
2512,23.437500
2513,23.437500
2514,23.437500
2515,23.437500
2516,19.531250
2517,19.531250
2518,19.531250
2519,19.531250
2520,19.531250
2521,15.625000
2522,15.625000
2523,15.625000
2524,15.625000
2525,11.718750
2526,11.718750
2527,11.718750
2528,11.718750
2529,11.718750
2530,11.718750
2531,7.812500
2532,7.812500
2533,7.812500
2534,7.812500
2535,3.906250
2536,3.906250
2537,3.906250
2538,3.906250
2539,0.000000
2540,0.000000
2541,0.000000
2542,0.000000
2543,-3.906250
2544,-3.906250
2545,-3.906250
2546,-3.906250
2547,-3.906250
2548,-7.812500
2549,-7.812500
2550,-7.812500
2551,-7.812500
2552,-7.812500
2553,-11.718750
2554,-11.718750
2555,-11.718750
2556,-11.718750
2557,-15.625000
2558,-15.625000
2559,-15.625000
2560,-15.625000
2561,-19.531250
2562,-19.531250
2563,-19.531250
2564,-19.531250
2565,-23.437500
2566,-23.437500
2567,-23.437500
2568,-23.437500
2569,-23.437500
2570,-27.343750
2571,-27.343750
2572,-27.343750
2573,-27.343750
2574,-31.250000
2575,-31.250000
2576,-31.250000
2577,-31.250000
2578,-31.250000
2579,-35.156250
2580,-35.156250
2581,-35.156250
2582,-35.156250
2583,-39.062500
2584,-39.062500
2585,-39.062500
2586,-39.062500
2587,-39.062500
2588,-42.968750
2589,-42.968750
2590,-42.968750
2591,-46.875000
2592,-42.968750
2593,-46.875000
2594,-46.875000
2595,-46.875000
2596,-46.875000
2597,-50.781250
2598,-50.781250
2599,-50.781250
2600,-50.781250
2601,-50.781250
2602,-54.687500
2603,-54.687500
2604,-54.687500
2605,-54.687500
2606,-58.593750
2607,-58.593750
2608,-58.593750
2609,-58.593750
2610,-62.500000
2611,-62.500000
2612,-62.500000
2613,-62.500000
2614,-62.500000
2615,-66.406250
2616,-66.406250
2617,-66.406250
2618,-66.406250
2619,-70.312500
2620,-70.312500
2621,-70.312500
2622,-70.312500
2623,-70.312500
2624,-74.218750
2625,-74.218750
2626,-74.218750
2627,-74.218750
2628,-78.125000
2629,-78.125000
2630,-78.125000
2631,-78.125000
2632,-78.125000
2633,-82.031250
2634,-82.031250
2635,-82.031250
2636,-82.031250
2637,-82.031250
2638,-85.937500
2639,-85.937500
2640,-85.937500
2641,-85.937500
2642,-85.937500
2643,-89.843750
2644,-89.843750
2645,-89.843750
2646,-89.843750
2647,-89.843750
2648,-93.750000
2649,-93.750000
2650,-93.750000
2651,-93.750000
2652,-93.750000
2653,-97.656250
2654,-97.656250
2655,-97.656250
2656,-97.656250
2657,-97.656250
2658,-101.562500
2659,-101.562500
2660,-101.562500
2661,-101.562500
2662,-101.562500
2663,-105.468750
2664,-105.468750
2665,-105.468750
2666,-105.468750
2667,-105.468750
2668,-105.468750
2669,-105.468750
2670,-109.375000
2671,-109.375000
2672,-109.375000
2673,-113.281250
2674,-113.281250
2675,-113.281250
2676,-113.281250
2677,-113.281250
2678,-113.281250
2679,-117.187500
2680,-117.187500
2681,-117.187500
2682,-117.187500
2683,-117.187500
2684,-117.187500
2685,-117.187500
2686,-117.187500
2687,-121.093750
2688,-121.093750
2689,-121.093750
2690,-121.093750
2691,-121.093750
2692,-121.093750
2693,-125.000000
2694,-125.000000
2695,-121.093750
2696,-125.000000
2697,-125.000000
2698,-125.000000
2699,-128.906250
2700,-128.906250
2701,-128.906250
2702,-128.906250
2703,-128.906250
2704,-128.906250
2705,-128.906250
2706,-128.906250
2707,-132.812500
2708,-132.812500
2709,-132.812500
2710,-132.812500
2711,-132.812500
2712,-132.812500
2713,-132.812500
2714,-132.812500
2715,-136.718750
2716,-136.718750
2717,-136.718750
2718,-136.718750
2719,-136.718750
2720,-136.718750
2721,-136.718750
2722,-140.625000
2723,-140.625000
2724,-140.625000
2725,-140.625000
2726,-140.625000
2727,-140.625000
2728,-140.625000
2729,-140.625000
2730,-140.625000
2731,-144.531250
2732,-144.531250
2733,-144.531250
2734,-144.531250
2735,-144.531250
2736,-144.531250
2737,-144.531250
2738,-144.531250
2739,-144.531250
2740,-144.531250
2741,-144.531250
2742,-148.437500
2743,-148.437500
2744,-148.437500
2745,-148.437500
2746,-148.437500
2747,-148.437500
2748,-148.437500
2749,-148.437500
2750,-148.437500
2751,-148.437500
2752,-148.437500
2753,-148.437500
2754,-148.437500
2755,-148.437500
2756,-152.343750
2757,-152.343750
2758,-152.343750
2759,-152.343750
2760,-152.343750
2761,-152.343750
2762,-152.343750
2763,-152.343750
2764,-152.343750
2765,-152.343750
2766,-152.343750
2767,-152.343750
2768,-152.343750
2769,-152.343750
2770,-156.250000
2771,-152.343750
2772,-156.250000
2773,-156.250000
2774,-152.343750
2775,-152.343750
2776,-152.343750
2777,-156.250000
2778,-156.250000
2779,-156.250000
2780,-156.250000
2781,-156.250000
2782,-156.250000
2783,-156.250000
2784,-156.250000
2785,-156.250000
2786,-156.250000
2787,-156.250000
2788,-156.250000
2789,-156.250000
2790,-156.250000
2791,-156.250000
2792,-156.250000
2793,-156.250000
2794,-156.250000
2795,-156.250000
2796,-156.250000
2797,-156.250000
2798,-156.250000
2799,-156.250000
2800,-156.250000
2801,-156.250000
2802,-156.250000
2803,-156.250000
2804,-156.250000
2805,-156.250000
2806,-156.250000
2807,-156.250000
2808,-156.250000
2809,-156.250000
2810,-156.250000
2811,-156.250000
2812,-156.250000
2813,-156.250000
2814,-156.250000
2815,-156.250000
2816,-152.343750
2817,-152.343750
2818,-156.250000
2819,-156.250000
2820,-156.250000
2821,-152.343750
2822,-152.343750
2823,-152.343750
2824,-152.343750
2825,-152.343750
2826,-152.343750
2827,-152.343750
2828,-152.343750
2829,-152.343750
2830,-152.343750
2831,-152.343750
2832,-152.343750
2833,-152.343750
2834,-152.343750
2835,-152.343750
2836,-152.343750
2837,-152.343750
2838,-148.437500
2839,-148.437500
2840,-148.437500
2841,-148.437500
2842,-148.437500
2843,-148.437500
2844,-148.437500
2845,-148.437500
2846,-148.437500
2847,-148.437500
2848,-148.437500
2849,-148.437500
2850,-148.437500
2851,-144.531250
2852,-144.531250
2853,-144.531250
2854,-144.531250
2855,-144.531250
2856,-144.531250
2857,-144.531250
2858,-144.531250
2859,-144.531250
2860,-144.531250
2861,-140.625000
2862,-140.625000
2863,-140.625000
2864,-140.625000
2865,-140.625000
2866,-140.625000
2867,-140.625000
2868,-140.625000
2869,-136.718750
2870,-136.718750
2871,-136.718750
2872,-136.718750
2873,-136.718750
2874,-136.718750
2875,-136.718750
2876,-136.718750
2877,-136.718750
2878,-136.718750
2879,-136.718750
2880,-136.718750
2881,-132.812500
2882,-132.812500
2883,-132.812500
2884,-132.812500
2885,-132.812500
2886,-132.812500
2887,-128.906250
2888,-128.906250
2889,-128.906250
2890,-128.906250
2891,-128.906250
2892,-128.906250
2893,-128.906250
2894,-125.000000
2895,-125.000000
2896,-125.000000
2897,-125.000000
2898,-125.000000
2899,-125.000000
2900,-125.000000
2901,-121.093750
2902,-121.093750
2903,-121.093750
2904,-121.093750
2905,-121.093750
2906,-121.093750
2907,-117.187500
2908,-117.187500
2909,-117.187500
2910,-117.187500
2911,-117.187500
2912,-117.187500
2913,-113.281250
2914,-113.281250
2915,-113.281250
2916,-113.281250
2917,-113.281250
2918,-113.281250
2919,-109.375000
2920,-109.375000
2921,-109.375000
2922,-109.375000
2923,-109.375000
2924,-109.375000
2925,-105.468750
2926,-105.468750
2927,-105.468750
2928,-105.468750
2929,-105.468750
2930,-105.468750
2931,-101.562500
2932,-101.562500
2933,-101.562500
2934,-101.562500
2935,-101.562500
2936,-97.656250
2937,-97.656250
2938,-97.656250
2939,-97.656250
2940,-93.750000
2941,-93.750000
2942,-93.750000
2943,-93.750000
2944,-93.750000
2945,-93.750000
2946,-89.843750
2947,-89.843750
2948,-89.843750
2949,-89.843750
2950,-85.937500
2951,-85.937500
2952,-85.937500
2953,-85.937500
2954,-85.937500
2955,-85.937500
2956,-82.031250
2957,-82.031250
2958,-82.031250
2959,-82.031250
2960,-78.125000
2961,-78.125000
2962,-78.125000
2963,-78.125000
2964,-74.218750
2965,-74.218750
2966,-74.218750
2967,-74.218750
2968,-74.218750
2969,-74.218750
2970,-70.312500
2971,-70.312500
2972,-70.312500
2973,-70.312500
2974,-66.406250
2975,-66.406250
2976,-66.406250
2977,-66.406250
2978,-66.406250
2979,-62.500000
2980,-62.500000
2981,-62.500000
2982,-62.500000
2983,-58.593750
2984,-58.593750
2985,-58.593750
2986,-58.593750
2987,-54.687500
2988,-54.687500
2989,-54.687500
2990,-54.687500
2991,-54.687500
2992,-50.781250
2993,-50.781250
2994,-50.781250
2995,-50.781250
2996,-46.875000
2997,-46.875000
2998,-46.875000
2999,-46.875000
3000,-46.875000
3001,-42.968750
3002,-42.968750
3003,-42.968750
3004,-42.968750
3005,-42.968750
3006,-39.062500
3007,-39.062500
3008,-39.062500
3009,-39.062500
3010,-35.156250
3011,-35.156250
3012,-35.156250
3013,-35.156250
3014,-31.250000
3015,-31.250000
3016,-31.250000
3017,-31.250000
3018,-27.343750
3019,-27.343750
3020,-27.343750
3021,-27.343750
3022,-27.343750
3023,-27.343750
3024,-23.437500
3025,-23.437500
3026,-23.437500
3027,-19.531250
3028,-19.531250
3029,-19.531250
3030,-19.531250
3031,-19.531250
3032,-19.531250
3033,-15.625000
3034,-15.625000
3035,-15.625000
3036,-11.718750
3037,-11.718750
3038,-11.718750
3039,-11.718750
3040,-11.718750
3041,-7.812500
3042,-7.812500
3043,-7.812500
3044,-7.812500
3045,-3.906250
3046,-3.906250
3047,-3.906250
3048,-3.906250
3049,0.000000
3050,0.000000
3051,0.000000
3052,0.000000
3053,0.000000
3054,0.000000
3055,3.906250
3056,3.906250
3057,3.906250
3058,3.906250
3059,7.812500
3060,7.812500
3061,7.812500
3062,7.812500
3063,7.812500
3064,11.718750
3065,11.718750
3066,11.718750
3067,11.718750
3068,15.625000
3069,15.625000
3070,15.625000
3071,15.625000
3072,15.625000
3073,19.531250
3074,19.531250
3075,19.531250
3076,19.531250
3077,23.437500
3078,23.437500
3079,27.343750
3080,23.437500
3081,27.343750
3082,23.437500
3083,27.343750
3084,27.343750
3085,27.343750
3086,27.343750
3087,31.250000
3088,31.250000
3089,31.250000
3090,31.250000
3091,35.156250
3092,31.250000
3093,35.156250
3094,35.156250
3095,35.156250
3096,35.156250
3097,39.062500
3098,39.062500
3099,39.062500
3100,39.062500
3101,39.062500
3102,42.968750
3103,42.968750
3104,42.968750
3105,42.968750
3106,46.875000
3107,46.875000
3108,46.875000
3109,46.875000
3110,46.875000
3111,46.875000
3112,50.781250
3113,50.781250
3114,50.781250
3115,50.781250
3116,50.781250
3117,54.687500
3118,54.687500
3119,54.687500
3120,54.687500
3121,54.687500
3122,54.687500
3123,54.687500
3124,58.593750
3125,58.593750
3126,58.593750
3127,58.593750
3128,58.593750
3129,58.593750
3130,62.500000
3131,62.500000
3132,62.500000
3133,62.500000
3134,62.500000
3135,66.406250
3136,66.406250
3137,66.406250
3138,66.406250
3139,66.406250
3140,66.406250
3141,70.312500
3142,70.312500
3143,70.312500
3144,70.312500
3145,70.312500
3146,70.312500
3147,70.312500
3148,74.218750
3149,74.218750
3150,74.218750
3151,74.218750
3152,74.218750
3153,74.218750
3154,74.218750
3155,78.125000
3156,78.125000
3157,78.125000
3158,78.125000
3159,78.125000
3160,78.125000
3161,78.125000
3162,82.031250
3163,82.031250
3164,82.031250
3165,82.031250
3166,82.031250
3167,82.031250
3168,85.937500
3169,85.937500
3170,85.937500
3171,85.937500
3172,85.937500
3173,85.937500
3174,85.937500
3175,85.937500
3176,85.937500
3177,89.843750
3178,85.937500
3179,89.843750
3180,89.843750
3181,89.843750
3182,89.843750
3183,89.843750
3184,89.843750
3185,89.843750
3186,93.750000
3187,93.750000
3188,93.750000
3189,93.750000
3190,93.750000
3191,93.750000
3192,93.750000
3193,93.750000
3194,93.750000
3195,97.656250
3196,97.656250
3197,97.656250
3198,97.656250
3199,97.656250
3200,97.656250
3201,97.656250
3202,97.656250
3203,101.562500
3204,97.656250
3205,101.562500
3206,101.562500
3207,101.562500
3208,101.562500
3209,101.562500
3210,101.562500
3211,101.562500
3212,101.562500
3213,101.562500
3214,101.562500
3215,101.562500
3216,105.468750
3217,105.468750
3218,105.468750
3219,105.468750
3220,105.468750
3221,105.468750
3222,105.468750
3223,105.468750
3224,105.468750
3225,105.468750
3226,105.468750
3227,109.375000
3228,109.375000
3229,109.375000
3230,109.375000
3231,109.375000
3232,109.375000
3233,109.375000
3234,109.375000
3235,109.375000
3236,109.375000
3237,109.375000
3238,109.375000
3239,109.375000
3240,109.375000
3241,109.375000
3242,109.375000
3243,113.281250
3244,109.375000
3245,113.281250
3246,113.281250
3247,113.281250
3248,113.281250
3249,113.281250
3250,113.281250
3251,113.281250
3252,113.281250
3253,113.281250
3254,113.281250
3255,113.281250
3256,113.281250
3257,113.281250
3258,113.281250
3259,113.281250
3260,113.281250
3261,113.281250
3262,113.281250
3263,117.187500
3264,113.281250
3265,113.281250
3266,113.281250
3267,113.281250
3268,113.281250
3269,113.281250
3270,117.187500
3271,117.187500
3272,117.187500
3273,117.187500
3274,117.187500
3275,117.187500
3276,117.187500
3277,117.187500
3278,117.187500
3279,117.187500
3280,117.187500
3281,117.187500
3282,117.187500
3283,117.187500
3284,117.187500
3285,117.187500
3286,117.187500
3287,117.187500
3288,117.187500
3289,117.187500
3290,117.187500
3291,117.187500
3292,117.187500
3293,117.187500
3294,117.187500
3295,117.187500
3296,117.187500
3297,117.187500
3298,117.187500
3299,117.187500
3300,117.187500
3301,117.187500
3302,117.187500
3303,117.187500
3304,117.187500
3305,117.187500
3306,117.187500
3307,117.187500
3308,117.187500
3309,117.187500
3310,117.187500
3311,117.187500
3312,117.187500
3313,117.187500
3314,113.281250
3315,113.281250
3316,113.281250
3317,113.281250
3318,113.281250
3319,113.281250
3320,117.187500
3321,113.281250
3322,113.281250
3323,113.281250
3324,113.281250
3325,113.281250
3326,113.281250
3327,113.281250
3328,113.281250
3329,113.281250
3330,113.281250
3331,113.281250
3332,113.281250
3333,113.281250
3334,113.281250
3335,113.281250
3336,113.281250
3337,113.281250
3338,113.281250
3339,113.281250
3340,109.375000
3341,113.281250
3342,109.375000
3343,109.375000
3344,109.375000
3345,109.375000
3346,109.375000
3347,109.375000
3348,109.375000
3349,109.375000
3350,109.375000
3351,109.375000
3352,109.375000
3353,109.375000
3354,109.375000
3355,109.375000
3356,109.375000
3357,109.375000
3358,109.375000
3359,105.468750
3360,105.468750
3361,105.468750
3362,105.468750
3363,105.468750
3364,105.468750
3365,105.468750
3366,105.468750
3367,105.468750
3368,105.468750
3369,105.468750
3370,101.562500
3371,101.562500
3372,101.562500
3373,101.562500
3374,101.562500
3375,101.562500
3376,101.562500
3377,101.562500
3378,101.562500
3379,101.562500
3380,101.562500
3381,101.562500
3382,97.656250
3383,101.562500
3384,97.656250
3385,97.656250
3386,97.656250
3387,97.656250
3388,97.656250
3389,97.656250
3390,97.656250
3391,93.750000
3392,93.750000
3393,93.750000
3394,93.750000
3395,93.750000
3396,93.750000
3397,89.843750
3398,93.750000
3399,89.843750
3400,89.843750
3401,89.843750
3402,89.843750
3403,89.843750
3404,89.843750
3405,89.843750
3406,89.843750
3407,85.937500
3408,85.937500
3409,85.937500
3410,85.937500
3411,85.937500
3412,85.937500
3413,85.937500
3414,82.031250
3415,85.937500
3416,82.031250
3417,82.031250
3418,82.031250
3419,82.031250
3420,82.031250
3421,82.031250
3422,78.125000
3423,78.125000
3424,78.125000
3425,78.125000
3426,78.125000
3427,78.125000
3428,78.125000
3429,74.218750
3430,74.218750
3431,74.218750
3432,74.218750
3433,74.218750
3434,74.218750
3435,74.218750
3436,70.312500
3437,70.312500
3438,70.312500
3439,70.312500
3440,70.312500
3441,66.406250
3442,66.406250
3443,66.406250
3444,66.406250
3445,66.406250
3446,66.406250
3447,62.500000
3448,62.500000
3449,62.500000
3450,58.593750
3451,62.500000
3452,62.500000
3453,58.593750
3454,58.593750
3455,58.593750
3456,58.593750
3457,58.593750
3458,58.593750
3459,54.687500
3460,54.687500
3461,54.687500
3462,54.687500
3463,54.687500
3464,54.687500
3465,50.781250
3466,50.781250
3467,50.781250
3468,50.781250
3469,50.781250
3470,50.781250
3471,46.875000
3472,46.875000
3473,46.875000
3474,46.875000
3475,46.875000
3476,46.875000
3477,42.968750
3478,42.968750
3479,42.968750
3480,42.968750
3481,39.062500
3482,39.062500
3483,39.062500
3484,39.062500
3485,39.062500
3486,35.156250
3487,35.156250
3488,35.156250
3489,35.156250
3490,31.250000
3491,31.250000
3492,31.250000
3493,31.250000
3494,31.250000
3495,31.250000
3496,31.250000
3497,27.343750
3498,27.343750
3499,27.343750
3500,27.343750
3501,27.343750
3502,23.437500
3503,23.437500
3504,23.437500
3505,23.437500
3506,19.531250
3507,19.531250
3508,19.531250
3509,19.531250
3510,19.531250
3511,15.625000
3512,15.625000
3513,15.625000
3514,15.625000
3515,11.718750
3516,11.718750
3517,11.718750
3518,11.718750
3519,11.718750
3520,7.812500
3521,7.812500
3522,7.812500
3523,7.812500
3524,3.906250
3525,3.906250
3526,3.906250
3527,3.906250
3528,3.906250
3529,0.000000
3530,0.000000
3531,0.000000
3532,0.000000
3533,-3.906250
3534,-3.906250
3535,-3.906250
3536,-3.906250
3537,-7.812500
3538,-7.812500
3539,-7.812500
3540,-7.812500
3541,-7.812500
3542,-11.718750
3543,-11.718750
3544,-11.718750
3545,-11.718750
3546,-11.718750
3547,-15.625000
3548,-15.625000
3549,-15.625000
3550,-15.625000
3551,-19.531250
3552,-19.531250
3553,-19.531250
3554,-19.531250
3555,-23.437500
3556,-23.437500
3557,-23.437500
3558,-23.437500
3559,-23.437500
3560,-27.343750
3561,-27.343750
3562,-27.343750
3563,-27.343750
3564,-31.250000
3565,-31.250000
3566,-31.250000
3567,-35.156250
3568,-35.156250
3569,-35.156250
3570,-35.156250
3571,-35.156250
3572,-35.156250
3573,-39.062500
3574,-39.062500
3575,-39.062500
3576,-39.062500
3577,-42.968750
3578,-42.968750
3579,-42.968750
3580,-46.875000
3581,-42.968750
3582,-46.875000
3583,-46.875000
3584,-46.875000
3585,-46.875000
3586,-50.781250
3587,-50.781250
3588,-50.781250
3589,-50.781250
3590,-54.687500
3591,-54.687500
3592,-54.687500
3593,-54.687500
3594,-54.687500
3595,-58.593750
3596,-58.593750
3597,-58.593750
3598,-58.593750
3599,-62.500000
3600,-62.500000
3601,-62.500000
3602,-62.500000
3603,-62.500000
3604,-62.500000
3605,-66.406250
3606,-66.406250
3607,-66.406250
3608,-66.406250
3609,-70.312500
3610,-70.312500
3611,-70.312500
3612,-70.312500
3613,-74.218750
3614,-74.218750
3615,-74.218750
3616,-74.218750
3617,-74.218750
3618,-78.125000
3619,-78.125000
3620,-78.125000
3621,-78.125000
3622,-82.031250
3623,-82.031250
3624,-82.031250
3625,-82.031250
3626,-82.031250
3627,-82.031250
3628,-85.937500
3629,-85.937500
3630,-85.937500
3631,-85.937500
3632,-89.843750
3633,-89.843750
3634,-89.843750
3635,-89.843750
3636,-89.843750
3637,-89.843750
3638,-93.750000
3639,-93.750000
3640,-93.750000
3641,-93.750000
3642,-97.656250
3643,-97.656250
3644,-97.656250
3645,-97.656250
3646,-97.656250
3647,-97.656250
3648,-97.656250
3649,-101.562500
3650,-101.562500
3651,-101.562500
3652,-101.562500
3653,-105.468750
3654,-105.468750
3655,-105.468750
3656,-105.468750
3657,-105.468750
3658,-105.468750
3659,-109.375000
3660,-109.375000
3661,-109.375000
3662,-109.375000
3663,-109.375000
3664,-113.281250
3665,-113.281250
3666,-113.281250
3667,-113.281250
3668,-113.281250
3669,-113.281250
3670,-117.187500
3671,-117.187500
3672,-117.187500
3673,-117.187500
3674,-117.187500
3675,-117.187500
3676,-121.093750
3677,-121.093750
3678,-121.093750
3679,-121.093750
3680,-121.093750
3681,-121.093750
3682,-121.093750
3683,-125.000000
3684,-125.000000
3685,-125.000000
3686,-125.000000
3687,-125.000000
3688,-125.000000
3689,-125.000000
3690,-128.906250
3691,-128.906250
3692,-128.906250
3693,-128.906250
3694,-128.906250
3695,-128.906250
3696,-132.812500
3697,-132.812500
3698,-132.812500
3699,-132.812500
3700,-132.812500
3701,-132.812500
3702,-132.812500
3703,-136.718750
3704,-136.718750
3705,-136.718750
3706,-136.718750
3707,-136.718750
3708,-136.718750
3709,-136.718750
3710,-136.718750
3711,-136.718750
3712,-136.718750
3713,-140.625000
3714,-140.625000
3715,-140.625000
3716,-140.625000
3717,-140.625000
3718,-140.625000
3719,-140.625000
3720,-140.625000
3721,-144.531250
3722,-144.531250
3723,-144.531250
3724,-144.531250
3725,-144.531250
3726,-144.531250
3727,-144.531250
3728,-144.531250
3729,-144.531250
3730,-144.531250
3731,-144.531250
3732,-148.437500
3733,-144.531250
3734,-148.437500
3735,-148.437500
3736,-148.437500
3737,-148.437500
3738,-148.437500
3739,-148.437500
3740,-148.437500
3741,-148.437500
3742,-148.437500
3743,-148.437500
3744,-148.437500
3745,-152.343750
3746,-152.343750
3747,-152.343750
3748,-152.343750
3749,-152.343750
3750,-152.343750
3751,-152.343750
3752,-152.343750
3753,-152.343750
3754,-152.343750
3755,-152.343750
3756,-152.343750
3757,-152.343750
3758,-152.343750
3759,-152.343750
3760,-152.343750
3761,-152.343750
3762,-152.343750
3763,-152.343750
3764,-156.250000
3765,-152.343750
3766,-156.250000
3767,-156.250000
3768,-156.250000
3769,-156.250000
3770,-152.343750
3771,-152.343750
3772,-156.250000
3773,-156.250000
3774,-156.250000
3775,-156.250000
3776,-156.250000
3777,-156.250000
3778,-156.250000
3779,-156.250000
3780,-156.250000
3781,-156.250000
3782,-156.250000
3783,-156.250000
3784,-156.250000
3785,-156.250000
3786,-156.250000
3787,-156.250000
3788,-156.250000
3789,-156.250000
3790,-156.250000
3791,-156.250000
3792,-156.250000
3793,-156.250000
3794,-156.250000
3795,-156.250000
3796,-156.250000
3797,-156.250000
3798,-156.250000
3799,-156.250000
3800,-156.250000
3801,-156.250000
3802,-156.250000
3803,-156.250000
3804,-156.250000
3805,-156.250000
3806,-156.250000
3807,-156.250000
3808,-156.250000
3809,-156.250000
3810,-152.343750
3811,-152.343750
3812,-152.343750
3813,-152.343750
3814,-152.343750
3815,-152.343750
3816,-152.343750
3817,-152.343750
3818,-152.343750
3819,-152.343750
3820,-152.343750
3821,-152.343750
3822,-152.343750
3823,-152.343750
3824,-152.343750
3825,-152.343750
3826,-152.343750
3827,-152.343750
3828,-152.343750
3829,-148.437500
3830,-148.437500
3831,-148.437500
3832,-148.437500
3833,-148.437500
3834,-148.437500
3835,-148.437500
3836,-148.437500
3837,-148.437500
3838,-148.437500
3839,-148.437500
3840,-148.437500
3841,-144.531250
3842,-144.531250
3843,-144.531250
3844,-144.531250
3845,-144.531250
3846,-144.531250
3847,-144.531250
3848,-144.531250
3849,-144.531250
3850,-144.531250
3851,-144.531250
3852,-144.531250
3853,-140.625000
3854,-140.625000
3855,-140.625000
3856,-140.625000
3857,-140.625000
3858,-140.625000
3859,-140.625000
3860,-140.625000
3861,-140.625000
3862,-136.718750
3863,-136.718750
3864,-136.718750
3865,-136.718750
3866,-136.718750
3867,-136.718750
3868,-132.812500
3869,-132.812500
3870,-132.812500
3871,-132.812500
3872,-132.812500
3873,-132.812500
3874,-132.812500
3875,-132.812500
3876,-132.812500
3877,-128.906250
3878,-128.906250
3879,-128.906250
3880,-128.906250
3881,-128.906250
3882,-128.906250
3883,-128.906250
3884,-125.000000
3885,-125.000000
3886,-125.000000
3887,-125.000000
3888,-125.000000
3889,-125.000000
3890,-121.093750
3891,-121.093750
3892,-121.093750
3893,-121.093750
3894,-121.093750
3895,-121.093750
3896,-117.187500
3897,-117.187500
3898,-117.187500
3899,-117.187500
3900,-117.187500
3901,-117.187500
3902,-117.187500
3903,-113.281250
3904,-113.281250
3905,-113.281250
3906,-113.281250
3907,-113.281250
3908,-109.375000
3909,-109.375000
3910,-109.375000
3911,-109.375000
3912,-109.375000
3913,-109.375000
3914,-105.468750
3915,-105.468750
3916,-105.468750
3917,-105.468750
3918,-105.468750
3919,-101.562500
3920,-101.562500
3921,-101.562500
3922,-101.562500
3923,-101.562500
3924,-101.562500
3925,-97.656250
3926,-97.656250
3927,-97.656250
3928,-97.656250
3929,-97.656250
3930,-93.750000
3931,-93.750000
3932,-93.750000
3933,-93.750000
3934,-93.750000
3935,-89.843750
3936,-89.843750
3937,-89.843750
3938,-89.843750
3939,-89.843750
3940,-85.937500
3941,-85.937500
3942,-85.937500
3943,-85.937500
3944,-85.937500
3945,-85.937500
3946,-82.031250
3947,-82.031250
3948,-82.031250
3949,-82.031250
3950,-82.031250
3951,-78.125000
3952,-78.125000
3953,-78.125000
3954,-78.125000
3955,-78.125000
3956,-74.218750
3957,-74.218750
3958,-74.218750
3959,-70.312500
3960,-70.312500
3961,-70.312500
3962,-70.312500
3963,-70.312500
3964,-66.406250
3965,-66.406250
3966,-66.406250
3967,-66.406250
3968,-66.406250
3969,-62.500000
3970,-62.500000
3971,-62.500000
3972,-62.500000
3973,-62.500000
3974,-58.593750
3975,-58.593750
3976,-58.593750
3977,-54.687500
3978,-54.687500
3979,-54.687500
3980,-54.687500
3981,-54.687500
3982,-50.781250
3983,-50.781250
3984,-50.781250
3985,-50.781250
3986,-50.781250
3987,-46.875000
3988,-46.875000
3989,-46.875000
3990,-46.875000
3991,-46.875000
3992,-42.968750
3993,-42.968750
3994,-42.968750
3995,-39.062500
3996,-39.062500
3997,-39.062500
3998,-39.062500
3999,-35.156250
4000,-35.156250
4001,-35.156250
4002,-35.156250
4003,-35.156250
4004,-31.250000
4005,-31.250000
4006,-31.250000
4007,-31.250000
4008,-31.250000
4009,-27.343750
4010,-27.343750
4011,-27.343750
4012,-23.437500
4013,-23.437500
4014,-23.437500
4015,-23.437500
4016,-23.437500
4017,-23.437500
4018,-19.531250
4019,-19.531250
4020,-19.531250
4021,-19.531250
4022,-15.625000
4023,-15.625000
4024,-15.625000
4025,-15.625000
4026,-15.625000
4027,-11.718750
4028,-11.718750
4029,-11.718750
4030,-7.812500
4031,-7.812500
4032,-7.812500
4033,-7.812500
4034,-3.906250
4035,-3.906250
4036,-3.906250
4037,-3.906250
4038,-3.906250
4039,0.000000
4040,0.000000
4041,0.000000
4042,0.000000
4043,0.000000
4044,3.906250
4045,3.906250
4046,3.906250
4047,3.906250
4048,3.906250
4049,7.812500
4050,7.812500
4051,7.812500
4052,7.812500
4053,11.718750
4054,11.718750
4055,11.718750
4056,11.718750
4057,11.718750
4058,15.625000
4059,15.625000
4060,15.625000
4061,15.625000
4062,19.531250
4063,19.531250
4064,19.531250
4065,19.531250
4066,19.531250
4067,23.437500
4068,23.437500
4069,23.437500
4070,23.437500
4071,23.437500
4072,27.343750
4073,27.343750
4074,27.343750
4075,27.343750
4076,27.343750
4077,31.250000
4078,31.250000
4079,31.250000
4080,31.250000
4081,31.250000
4082,35.156250
4083,35.156250
4084,35.156250
4085,35.156250
4086,35.156250
4087,39.062500
4088,39.062500
4089,39.062500
4090,39.062500
4091,39.062500
4092,42.968750
4093,42.968750
4094,42.968750
4095,42.968750
4096,42.968750
4097,46.875000
4098,46.875000
4099,46.875000
4100,46.875000
4101,46.875000
4102,46.875000
4103,50.781250
4104,50.781250
4105,50.781250
4106,50.781250
4107,50.781250
4108,54.687500
4109,54.687500
4110,54.687500
4111,54.687500
4112,54.687500
4113,54.687500
4114,58.593750
4115,58.593750
4116,58.593750
4117,58.593750
4118,58.593750
4119,62.500000
4120,62.500000
4121,62.500000
4122,62.500000
4123,62.500000
4124,62.500000
4125,62.500000
4126,66.406250
4127,66.406250
4128,66.406250
4129,66.406250
4130,66.406250
4131,70.312500
4132,70.312500
4133,70.312500
4134,70.312500
4135,70.312500
4136,70.312500
4137,74.218750
4138,74.218750
4139,74.218750
4140,74.218750
4141,74.218750
4142,74.218750
4143,74.218750
4144,78.125000
4145,74.218750
4146,78.125000
4147,78.125000
4148,78.125000
4149,78.125000
4150,82.031250
4151,82.031250
4152,82.031250
4153,82.031250
4154,82.031250
4155,82.031250
4156,82.031250
4157,85.937500
4158,85.937500
4159,85.937500
4160,85.937500
4161,85.937500
4162,85.937500
4163,85.937500
4164,85.937500
4165,85.937500
4166,89.843750
4167,89.843750
4168,89.843750
4169,89.843750
4170,89.843750
4171,89.843750
4172,89.843750
4173,89.843750
4174,93.750000
4175,93.750000
4176,93.750000
4177,93.750000
4178,93.750000
4179,93.750000
4180,93.750000
4181,93.750000
4182,93.750000
4183,97.656250
4184,97.656250
4185,97.656250
4186,97.656250
4187,97.656250
4188,97.656250
4189,97.656250
4190,97.656250
4191,97.656250
4192,97.656250
4193,97.656250
4194,101.562500
4195,101.562500
4196,101.562500
4197,101.562500
4198,101.562500
4199,101.562500
4200,101.562500
4201,101.562500
4202,101.562500
4203,101.562500
4204,105.468750
4205,105.468750
4206,105.468750
4207,105.468750
4208,105.468750
4209,105.468750
4210,105.468750
4211,105.468750
4212,105.468750
4213,105.468750
4214,105.468750
4215,105.468750
4216,105.468750
4217,105.468750
4218,109.375000
4219,109.375000
4220,109.375000
4221,109.375000
4222,109.375000
4223,109.375000
4224,109.375000
4225,109.375000
4226,109.375000
4227,109.375000
4228,109.375000
4229,109.375000
4230,109.375000
4231,109.375000
4232,109.375000
4233,109.375000
4234,109.375000
4235,109.375000
4236,109.375000
4237,113.281250
4238,113.281250
4239,113.281250
4240,113.281250
4241,113.281250
4242,113.281250
4243,113.281250
4244,113.281250
4245,113.281250
4246,113.281250
4247,113.281250
4248,113.281250
4249,113.281250
4250,113.281250
4251,117.187500
4252,113.281250
4253,113.281250
4254,113.281250
4255,113.281250
4256,113.281250
4257,113.281250
4258,117.187500
4259,117.187500
4260,117.187500
4261,117.187500
4262,113.281250
4263,113.281250
4264,113.281250
4265,113.281250
4266,113.281250
4267,117.187500
4268,117.187500
4269,117.187500
4270,117.187500
4271,113.281250
4272,117.187500
4273,117.187500
4274,121.093750
4275,117.187500
4276,117.187500
4277,117.187500
4278,117.187500
4279,117.187500
4280,117.187500
4281,117.187500
4282,117.187500
4283,117.187500
4284,117.187500
4285,117.187500
4286,121.093750
4287,117.187500
4288,117.187500
4289,117.187500
4290,117.187500
4291,117.187500
4292,117.187500
4293,117.187500
4294,117.187500
4295,117.187500
4296,117.187500
4297,117.187500
4298,117.187500
4299,117.187500
4300,117.187500
4301,113.281250
4302,113.281250
4303,117.187500
4304,117.187500
4305,117.187500
4306,117.187500
4307,113.281250
4308,113.281250
4309,113.281250
4310,113.281250
4311,113.281250
4312,113.281250
4313,113.281250
4314,113.281250
4315,113.281250
4316,113.281250
4317,113.281250
4318,113.281250
4319,113.281250
4320,113.281250
4321,113.281250
4322,113.281250
4323,113.281250
4324,113.281250
4325,113.281250
4326,113.281250
4327,113.281250
4328,109.375000
4329,109.375000
4330,109.375000
4331,109.375000
4332,109.375000
4333,109.375000
4334,109.375000
4335,109.375000
4336,109.375000
4337,109.375000
4338,109.375000
4339,109.375000
4340,105.468750
4341,109.375000
4342,109.375000
4343,109.375000
4344,109.375000
4345,105.468750
4346,109.375000
4347,105.468750
4348,105.468750
4349,105.468750
4350,105.468750
4351,105.468750
4352,105.468750
4353,105.468750
4354,105.468750
4355,105.468750
4356,105.468750
4357,105.468750
4358,105.468750
4359,101.562500
4360,101.562500
4361,101.562500
4362,101.562500
4363,101.562500
4364,101.562500
4365,101.562500
4366,101.562500
4367,101.562500
4368,101.562500
4369,97.656250
4370,97.656250
4371,97.656250
4372,97.656250
4373,97.656250
4374,97.656250
4375,97.656250
4376,97.656250
4377,97.656250
4378,97.656250
4379,93.750000
4380,93.750000
4381,93.750000
4382,93.750000
4383,93.750000
4384,93.750000
4385,93.750000
4386,93.750000
4387,93.750000
4388,93.750000
4389,93.750000
4390,89.843750
4391,89.843750
4392,89.843750
4393,89.843750
4394,89.843750
4395,89.843750
4396,89.843750
4397,85.937500
4398,85.937500
4399,85.937500
4400,85.937500
4401,85.937500
4402,85.937500
4403,85.937500
4404,85.937500
4405,82.031250
4406,82.031250
4407,82.031250
4408,82.031250
4409,82.031250
4410,82.031250
4411,82.031250
4412,82.031250
4413,78.125000
4414,78.125000
4415,78.125000
4416,78.125000
4417,74.218750
4418,74.218750
4419,74.218750
4420,74.218750
4421,74.218750
4422,74.218750
4423,74.218750
4424,74.218750
4425,70.312500
4426,70.312500
4427,70.312500
4428,70.312500
4429,70.312500
4430,70.312500
4431,70.312500
4432,70.312500
4433,66.406250
4434,66.406250
4435,66.406250
4436,66.406250
4437,62.500000
4438,62.500000
4439,62.500000
4440,62.500000
4441,62.500000
4442,62.500000
4443,58.593750
4444,58.593750
4445,58.593750
4446,58.593750
4447,58.593750
4448,58.593750
4449,58.593750
4450,54.687500
4451,54.687500
4452,54.687500
4453,54.687500
4454,50.781250
4455,50.781250
4456,50.781250
4457,50.781250
4458,50.781250
4459,50.781250
4460,46.875000
4461,46.875000
4462,46.875000
4463,46.875000
4464,46.875000
4465,42.968750
4466,42.968750
4467,42.968750
4468,42.968750
4469,42.968750
4470,42.968750
4471,39.062500
4472,39.062500
4473,39.062500
4474,39.062500
4475,39.062500
4476,35.156250
4477,35.156250
4478,35.156250
4479,35.156250
4480,35.156250
4481,31.250000
4482,31.250000
4483,31.250000
4484,31.250000
4485,31.250000
4486,27.343750
4487,27.343750
4488,27.343750
4489,27.343750
4490,23.437500
4491,23.437500
4492,23.437500
4493,23.437500
4494,23.437500
4495,19.531250
4496,19.531250
4497,19.531250
4498,19.531250
4499,19.531250
4500,19.531250
4501,15.625000
4502,15.625000
4503,15.625000
4504,11.718750
4505,11.718750
4506,11.718750
4507,11.718750
4508,11.718750
4509,11.718750
4510,7.812500
4511,7.812500
4512,7.812500
4513,3.906250
4514,3.906250
4515,3.906250
4516,3.906250
4517,3.906250
4518,3.906250
4519,0.000000
4520,0.000000
4521,0.000000
4522,0.000000
4523,-3.906250
4524,-3.906250
4525,-3.906250
4526,-3.906250
4527,-7.812500
4528,-7.812500
4529,-7.812500
4530,-7.812500
4531,-7.812500
4532,-11.718750
4533,-11.718750
4534,-11.718750
4535,-11.718750
4536,-15.625000
4537,-15.625000
4538,-15.625000
4539,-15.625000
4540,-15.625000
4541,-19.531250
4542,-19.531250
4543,-19.531250
4544,-19.531250
4545,-23.437500
4546,-23.437500
4547,-23.437500
4548,-23.437500
4549,-23.437500
4550,-27.343750
4551,-27.343750
4552,-27.343750
4553,-27.343750
4554,-31.250000
4555,-31.250000
4556,-31.250000
4557,-31.250000
4558,-35.156250
4559,-35.156250
4560,-35.156250
4561,-35.156250
4562,-35.156250
4563,-39.062500
4564,-39.062500
4565,-39.062500
4566,-39.062500
4567,-42.968750
4568,-42.968750
4569,-42.968750
4570,-42.968750
4571,-42.968750
4572,-46.875000
4573,-46.875000
4574,-46.875000
4575,-46.875000
4576,-50.781250
4577,-50.781250
4578,-50.781250
4579,-50.781250
4580,-54.687500
4581,-54.687500
4582,-54.687500
4583,-54.687500
4584,-54.687500
4585,-58.593750
4586,-58.593750
4587,-58.593750
4588,-58.593750
4589,-62.500000
4590,-62.500000
4591,-62.500000
4592,-62.500000
4593,-66.406250
4594,-66.406250
4595,-66.406250
4596,-66.406250
4597,-66.406250
4598,-66.406250
4599,-70.312500
4600,-70.312500
4601,-70.312500
4602,-74.218750
4603,-74.218750
4604,-74.218750
4605,-74.218750
4606,-74.218750
4607,-74.218750
4608,-78.125000
4609,-78.125000
4610,-78.125000
4611,-78.125000
4612,-82.031250
4613,-82.031250
4614,-82.031250
4615,-82.031250
4616,-82.031250
4617,-85.937500
4618,-85.937500
4619,-85.937500
4620,-85.937500
4621,-85.937500
4622,-89.843750
4623,-89.843750
4624,-89.843750
4625,-89.843750
4626,-93.750000
4627,-93.750000
4628,-93.750000
4629,-93.750000
4630,-93.750000
4631,-93.750000
4632,-97.656250
4633,-97.656250
4634,-97.656250
4635,-97.656250
4636,-97.656250
4637,-101.562500
4638,-101.562500
4639,-101.562500
4640,-101.562500
4641,-101.562500
4642,-105.468750
4643,-105.468750
4644,-105.468750
4645,-105.468750
4646,-105.468750
4647,-105.468750
4648,-105.468750
4649,-109.375000
4650,-109.375000
4651,-109.375000
4652,-109.375000
4653,-109.375000
4654,-113.281250
4655,-113.281250
4656,-113.281250
4657,-113.281250
4658,-113.281250
4659,-113.281250
4660,-113.281250
4661,-117.187500
4662,-117.187500
4663,-117.187500
4664,-117.187500
4665,-121.093750
4666,-121.093750
4667,-121.093750
4668,-121.093750
4669,-121.093750
4670,-121.093750
4671,-121.093750
4672,-125.000000
4673,-125.000000
4674,-125.000000
4675,-125.000000
4676,-125.000000
4677,-125.000000
4678,-125.000000
4679,-128.906250
4680,-128.906250
4681,-128.906250
4682,-128.906250
4683,-128.906250
4684,-128.906250
4685,-132.812500
4686,-128.906250
4687,-132.812500
4688,-132.812500
4689,-132.812500
4690,-132.812500
4691,-132.812500
4692,-132.812500
4693,-136.718750
4694,-136.718750
4695,-136.718750
4696,-136.718750
4697,-136.718750
4698,-136.718750
4699,-136.718750
4700,-136.718750
4701,-136.718750
4702,-136.718750
4703,-140.625000
4704,-140.625000
4705,-140.625000
4706,-140.625000
4707,-140.625000
4708,-140.625000
4709,-140.625000
4710,-144.531250
4711,-140.625000
4712,-144.531250
4713,-144.531250
4714,-144.531250
4715,-144.531250
4716,-144.531250
4717,-144.531250
4718,-144.531250
4719,-148.437500
4720,-144.531250
4721,-148.437500
4722,-148.437500
4723,-148.437500
4724,-148.437500
4725,-148.437500
4726,-148.437500
4727,-148.437500
4728,-148.437500
4729,-148.437500
4730,-148.437500
4731,-148.437500
4732,-148.437500
4733,-152.343750
4734,-152.343750
4735,-148.437500
4736,-152.343750
4737,-152.343750
4738,-152.343750
4739,-152.343750
4740,-152.343750
4741,-152.343750
4742,-152.343750
4743,-152.343750
4744,-152.343750
4745,-152.343750
4746,-152.343750
4747,-152.343750
4748,-152.343750
4749,-156.250000
4750,-152.343750
4751,-156.250000
4752,-156.250000
4753,-156.250000
4754,-152.343750
4755,-156.250000
4756,-156.250000
4757,-152.343750
4758,-156.250000
4759,-156.250000
4760,-156.250000
4761,-156.250000
4762,-156.250000
4763,-156.250000
4764,-156.250000
4765,-156.250000
4766,-156.250000
4767,-156.250000
4768,-156.250000
4769,-156.250000
4770,-156.250000
4771,-156.250000
4772,-156.250000
4773,-156.250000
4774,-156.250000
4775,-156.250000
4776,-156.250000
4777,-156.250000
4778,-156.250000
4779,-156.250000
4780,-156.250000
4781,-156.250000
4782,-156.250000
4783,-156.250000
4784,-156.250000
4785,-156.250000
4786,-156.250000
4787,-156.250000
4788,-156.250000
4789,-156.250000
4790,-156.250000
4791,-156.250000
4792,-156.250000
4793,-152.343750
4794,-152.343750
4795,-152.343750
4796,-152.343750
4797,-152.343750
4798,-156.250000
4799,-156.250000
4800,-156.250000
4801,-156.250000
4802,-152.343750
4803,-152.343750
4804,-152.343750
4805,-152.343750
4806,-152.343750
4807,-152.343750
4808,-152.343750
4809,-152.343750
4810,-152.343750
4811,-152.343750
4812,-152.343750
4813,-152.343750
4814,-152.343750
4815,-152.343750
4816,-152.343750
4817,-148.437500
4818,-148.437500
4819,-148.437500
4820,-148.437500
4821,-148.437500
4822,-148.437500
4823,-148.437500
4824,-148.437500
4825,-148.437500
4826,-148.437500
4827,-148.437500
4828,-148.437500
4829,-148.437500
4830,-144.531250
4831,-144.531250
4832,-144.531250
4833,-144.531250
4834,-144.531250
4835,-144.531250
4836,-144.531250
4837,-144.531250
4838,-144.531250
4839,-144.531250
4840,-144.531250
4841,-140.625000
4842,-140.625000
4843,-140.625000
4844,-140.625000
4845,-140.625000
4846,-140.625000
4847,-140.625000
4848,-140.625000
4849,-140.625000
4850,-136.718750
4851,-140.625000
4852,-136.718750
4853,-136.718750
4854,-136.718750
4855,-136.718750
4856,-136.718750
4857,-136.718750
4858,-136.718750
4859,-136.718750
4860,-136.718750
4861,-132.812500
4862,-132.812500
4863,-132.812500
4864,-132.812500
4865,-132.812500
4866,-128.906250
4867,-128.906250
4868,-128.906250
4869,-128.906250
4870,-128.906250
4871,-128.906250
4872,-128.906250
4873,-128.906250
4874,-125.000000
4875,-125.000000
4876,-125.000000
4877,-125.000000
4878,-125.000000
4879,-125.000000
4880,-121.093750
4881,-121.093750
4882,-121.093750
4883,-121.093750
4884,-121.093750
4885,-121.093750
4886,-121.093750
4887,-117.187500
4888,-117.187500
4889,-117.187500
4890,-117.187500
4891,-117.187500
4892,-113.281250
4893,-113.281250
4894,-113.281250
4895,-113.281250
4896,-113.281250
4897,-113.281250
4898,-113.281250
4899,-109.375000
4900,-109.375000
4901,-109.375000
4902,-109.375000
4903,-105.468750
4904,-105.468750
4905,-105.468750
4906,-105.468750
4907,-105.468750
4908,-105.468750
4909,-105.468750
4910,-101.562500
4911,-101.562500
4912,-101.562500
4913,-97.656250
4914,-101.562500
4915,-97.656250
4916,-97.656250
4917,-97.656250
4918,-97.656250
4919,-97.656250
4920,-93.750000
4921,-93.750000
4922,-93.750000
4923,-93.750000
4924,-93.750000
4925,-89.843750
4926,-89.843750
4927,-89.843750
4928,-89.843750
4929,-89.843750
4930,-85.937500
4931,-85.937500
4932,-85.937500
4933,-85.937500
4934,-82.031250
4935,-82.031250
4936,-82.031250
4937,-82.031250
4938,-82.031250
4939,-78.125000
4940,-78.125000
4941,-78.125000
4942,-78.125000
4943,-78.125000
4944,-74.218750
4945,-74.218750
4946,-74.218750
4947,-74.218750
4948,-74.218750
4949,-70.312500
4950,-70.312500
4951,-70.312500
4952,-66.406250
4953,-66.406250
4954,-66.406250
4955,-66.406250
4956,-66.406250
4957,-66.406250
4958,-62.500000
4959,-62.500000
4960,-62.500000
4961,-62.500000
4962,-58.593750
4963,-58.593750
4964,-58.593750
4965,-58.593750
4966,-58.593750
4967,-54.687500
4968,-54.687500
4969,-54.687500
4970,-50.781250
4971,-54.687500
4972,-50.781250
4973,-50.781250
4974,-50.781250
4975,-46.875000
4976,-46.875000
4977,-46.875000
4978,-46.875000
4979,-46.875000
4980,-46.875000
4981,-42.968750
4982,-42.968750
4983,-42.968750
4984,-42.968750
4985,-39.062500
4986,-39.062500
4987,-39.062500
4988,-39.062500
4989,-35.156250
4990,-35.156250
4991,-35.156250
4992,-35.156250
4993,-35.156250
4994,-31.250000
4995,-31.250000
4996,-31.250000
4997,-31.250000
4998,-31.250000
4999,-27.343750
5000,-27.343750
5001,-27.343750
5002,-27.343750
5003,-23.437500
5004,-23.437500
5005,-23.437500
5006,-23.437500
5007,-23.437500
5008,-19.531250
5009,-19.531250
5010,-19.531250
5011,-19.531250
5012,-15.625000
5013,-15.625000
5014,-11.718750
5015,-15.625000
5016,-11.718750
5017,-11.718750
5018,-11.718750
5019,-11.718750
5020,-11.718750
5021,-11.718750
5022,-7.812500
5023,-7.812500
5024,-3.906250
5025,-3.906250
5026,0.000000
5027,-3.906250
5028,-3.906250
5029,0.000000
5030,0.000000
5031,0.000000
5032,0.000000
5033,0.000000
5034,3.906250
5035,3.906250
5036,3.906250
5037,3.906250
5038,7.812500
5039,7.812500
5040,7.812500
5041,7.812500
5042,11.718750
5043,11.718750
5044,11.718750
5045,11.718750
5046,11.718750
5047,15.625000
5048,15.625000
5049,15.625000
5050,15.625000
5051,15.625000
5052,19.531250
5053,19.531250
5054,19.531250
5055,19.531250
5056,23.437500
5057,23.437500
5058,23.437500
5059,23.437500
5060,23.437500
5061,23.437500
5062,27.343750
5063,27.343750
5064,27.343750
5065,27.343750
5066,27.343750
5067,31.250000
5068,31.250000
5069,31.250000
5070,31.250000
5071,31.250000
5072,35.156250
5073,35.156250
5074,35.156250
5075,35.156250
5076,39.062500
5077,39.062500
5078,39.062500
5079,39.062500
5080,39.062500
5081,39.062500
5082,42.968750
5083,42.968750
5084,42.968750
5085,42.968750
5086,46.875000
5087,46.875000
5088,46.875000
5089,46.875000
5090,46.875000
5091,46.875000
5092,46.875000
5093,50.781250
5094,50.781250
5095,50.781250
5096,50.781250
5097,50.781250
5098,50.781250
5099,54.687500
5100,54.687500
5101,54.687500
5102,54.687500
5103,58.593750
5104,58.593750
5105,58.593750
5106,62.500000
5107,58.593750
5108,58.593750
5109,62.500000
5110,62.500000
5111,62.500000
5112,62.500000
5113,62.500000
5114,62.500000
5115,66.406250
5116,66.406250
5117,66.406250
5118,66.406250
5119,66.406250
5120,66.406250
5121,66.406250
5122,70.312500
5123,70.312500
5124,70.312500
5125,70.312500
5126,70.312500
5127,74.218750
5128,74.218750
5129,74.218750
5130,74.218750
5131,74.218750
5132,74.218750
5133,74.218750
5134,78.125000
5135,78.125000
5136,78.125000
5137,78.125000
5138,78.125000
5139,78.125000
5140,82.031250
5141,78.125000
5142,82.031250
5143,82.031250
5144,82.031250
5145,82.031250
5146,82.031250
5147,82.031250
5148,82.031250
5149,85.937500
5150,85.937500
5151,85.937500
5152,85.937500
5153,85.937500
5154,85.937500
5155,85.937500
5156,89.843750
5157,89.843750
5158,89.843750
5159,89.843750
5160,89.843750
5161,89.843750
5162,89.843750
5163,89.843750
5164,89.843750
5165,93.750000
5166,93.750000
5167,93.750000
5168,93.750000
5169,93.750000
5170,93.750000
5171,93.750000
5172,93.750000
5173,97.656250
5174,93.750000
5175,97.656250
5176,97.656250
5177,97.656250
5178,97.656250
5179,97.656250
5180,97.656250
5181,97.656250
5182,97.656250
5183,97.656250
5184,101.562500
5185,101.562500
5186,101.562500
5187,101.562500
5188,101.562500
5189,101.562500
5190,101.562500
5191,101.562500
5192,101.562500
5193,101.562500
5194,105.468750
5195,105.468750
5196,105.468750
5197,105.468750
5198,105.468750
5199,105.468750
5200,105.468750
5201,105.468750
5202,105.468750
5203,105.468750
5204,105.468750
5205,105.468750
5206,109.375000
5207,109.375000
5208,109.375000
5209,109.375000
5210,109.375000
5211,109.375000
5212,109.375000
5213,109.375000
5214,109.375000
5215,109.375000
5216,109.375000
5217,109.375000
5218,109.375000
5219,109.375000
5220,109.375000
5221,109.375000
5222,109.375000
5223,109.375000
5224,113.281250
5225,109.375000
5226,113.281250
5227,113.281250
5228,113.281250
5229,113.281250
5230,113.281250
5231,113.281250
5232,113.281250
5233,113.281250
5234,113.281250
5235,113.281250
5236,113.281250
5237,113.281250
5238,113.281250
5239,113.281250
5240,113.281250
5241,113.281250
5242,113.281250
5243,113.281250
5244,113.281250
5245,113.281250
5246,113.281250
5247,117.187500
5248,117.187500
5249,117.187500
5250,117.187500
5251,117.187500
5252,113.281250
5253,113.281250
5254,117.187500
5255,117.187500
5256,117.187500
5257,117.187500
5258,113.281250
5259,117.187500
5260,117.187500
5261,117.187500
5262,117.187500
5263,117.187500
5264,117.187500
5265,117.187500
5266,117.187500
5267,117.187500
5268,117.187500
5269,117.187500
5270,117.187500
5271,117.187500
5272,117.187500
5273,117.187500
5274,117.187500
5275,117.187500
5276,117.187500
5277,117.187500
5278,117.187500
5279,117.187500
5280,117.187500
5281,117.187500
5282,117.187500
5283,117.187500
5284,113.281250
5285,117.187500
5286,117.187500
5287,117.187500
5288,117.187500
5289,117.187500
5290,113.281250
5291,117.187500
5292,117.187500
5293,117.187500
5294,117.187500
5295,117.187500
5296,117.187500
5297,113.281250
5298,113.281250
5299,113.281250
5300,113.281250
5301,113.281250
5302,113.281250
5303,113.281250
5304,113.281250
5305,113.281250
5306,113.281250
5307,113.281250
5308,113.281250
5309,113.281250
5310,113.281250
5311,113.281250
5312,113.281250
5313,113.281250
5314,113.281250
5315,113.281250
5316,113.281250
5317,113.281250
5318,113.281250
5319,109.375000
5320,109.375000
5321,109.375000
5322,109.375000
5323,109.375000
5324,113.281250
5325,109.375000
5326,109.375000
5327,109.375000
5328,109.375000
5329,109.375000
5330,109.375000
5331,109.375000
5332,109.375000
5333,109.375000
5334,109.375000
5335,105.468750
5336,109.375000
5337,105.468750
5338,109.375000
5339,109.375000
5340,105.468750
5341,105.468750
5342,105.468750
5343,105.468750
5344,105.468750
5345,105.468750
5346,105.468750
5347,105.468750
5348,105.468750
5349,101.562500
5350,101.562500
5351,101.562500
5352,101.562500
5353,101.562500
5354,101.562500
5355,101.562500
5356,101.562500
5357,101.562500
5358,101.562500
5359,97.656250
5360,101.562500
5361,97.656250
5362,97.656250
5363,97.656250
5364,97.656250
5365,97.656250
5366,97.656250
5367,97.656250
5368,97.656250
5369,97.656250
5370,93.750000
5371,93.750000
5372,93.750000
5373,93.750000
5374,93.750000
5375,93.750000
5376,93.750000
5377,93.750000
5378,89.843750
5379,89.843750
5380,89.843750
5381,89.843750
5382,89.843750
5383,89.843750
5384,89.843750
5385,89.843750
5386,89.843750
5387,85.937500
5388,85.937500
5389,85.937500
5390,85.937500
5391,85.937500
5392,85.937500
5393,85.937500
5394,82.031250
5395,82.031250
5396,82.031250
5397,82.031250
5398,82.031250
5399,82.031250
5400,82.031250
5401,78.125000
5402,78.125000
5403,78.125000
5404,78.125000
5405,78.125000
5406,78.125000
5407,78.125000
5408,74.218750
5409,74.218750
5410,74.218750
5411,74.218750
5412,74.218750
5413,74.218750
5414,74.218750
5415,70.312500
5416,70.312500
5417,70.312500
5418,70.312500
5419,70.312500
5420,70.312500
5421,66.406250
5422,66.406250
5423,66.406250
5424,66.406250
5425,66.406250
5426,66.406250
5427,66.406250
5428,62.500000
5429,62.500000
5430,62.500000
5431,58.593750
5432,62.500000
5433,62.500000
5434,58.593750
5435,58.593750
5436,58.593750
5437,54.687500
5438,58.593750
5439,54.687500
5440,54.687500
5441,54.687500
5442,54.687500
5443,50.781250
5444,54.687500
5445,54.687500
5446,50.781250
5447,50.781250
5448,46.875000
5449,50.781250
5450,46.875000
5451,46.875000
5452,46.875000
5453,46.875000
5454,46.875000
5455,42.968750
5456,42.968750
5457,42.968750
5458,42.968750
5459,42.968750
5460,42.968750
5461,39.062500
5462,39.062500
5463,39.062500
5464,39.062500
5465,39.062500
5466,39.062500
5467,35.156250
5468,35.156250
5469,35.156250
5470,35.156250
5471,31.250000
5472,31.250000
5473,31.250000
5474,31.250000
5475,31.250000
5476,27.343750
5477,27.343750
5478,27.343750
5479,27.343750
5480,27.343750
5481,23.437500
5482,23.437500
5483,23.437500
5484,23.437500
5485,19.531250
5486,19.531250
5487,19.531250
5488,19.531250
5489,19.531250
5490,15.625000
5491,15.625000
5492,15.625000
5493,15.625000
5494,11.718750
5495,11.718750
5496,11.718750
5497,11.718750
5498,11.718750
5499,7.812500
5500,7.812500
5501,7.812500
5502,7.812500
5503,7.812500
5504,3.906250
5505,3.906250
5506,3.906250
5507,3.906250
5508,0.000000
5509,0.000000
5510,0.000000
5511,0.000000
5512,-3.906250
5513,-3.906250
5514,-3.906250
5515,-3.906250
5516,-3.906250
5517,-7.812500
5518,-7.812500
5519,-7.812500
5520,-7.812500
5521,-7.812500
5522,-11.718750
5523,-11.718750
5524,-11.718750
5525,-11.718750
5526,-15.625000
5527,-15.625000
5528,-15.625000
5529,-15.625000
5530,-19.531250
5531,-19.531250
5532,-19.531250
5533,-19.531250
5534,-23.437500
5535,-23.437500
5536,-23.437500
5537,-23.437500
5538,-23.437500
5539,-23.437500
5540,-27.343750
5541,-27.343750
5542,-27.343750
5543,-27.343750
5544,-31.250000
5545,-31.250000
5546,-31.250000
5547,-31.250000
5548,-35.156250
5549,-35.156250
5550,-35.156250
5551,-35.156250
5552,-39.062500
5553,-39.062500
5554,-39.062500
5555,-39.062500
5556,-39.062500
5557,-42.968750
5558,-42.968750
5559,-42.968750
5560,-42.968750
5561,-46.875000
5562,-46.875000
5563,-46.875000
5564,-46.875000
5565,-50.781250
5566,-50.781250
5567,-50.781250
5568,-50.781250
5569,-50.781250
5570,-50.781250
5571,-54.687500
5572,-54.687500
5573,-54.687500
5574,-54.687500
5575,-58.593750
5576,-58.593750
5577,-58.593750
5578,-58.593750
5579,-58.593750
5580,-62.500000
5581,-62.500000
5582,-62.500000
5583,-66.406250
5584,-66.406250
5585,-66.406250
5586,-66.406250
5587,-66.406250
5588,-70.312500
5589,-70.312500
5590,-70.312500
5591,-70.312500
5592,-74.218750
5593,-74.218750
5594,-74.218750
5595,-74.218750
5596,-74.218750
5597,-78.125000
5598,-78.125000
5599,-78.125000
5600,-78.125000
5601,-78.125000
5602,-82.031250
5603,-82.031250
5604,-82.031250
5605,-82.031250
5606,-82.031250
5607,-85.937500
5608,-85.937500
5609,-85.937500
5610,-85.937500
5611,-85.937500
5612,-89.843750
5613,-89.843750
5614,-89.843750
5615,-89.843750
5616,-93.750000
5617,-93.750000
5618,-93.750000
5619,-93.750000
5620,-93.750000
5621,-93.750000
5622,-97.656250
5623,-97.656250
5624,-97.656250
5625,-97.656250
5626,-97.656250
5627,-97.656250
5628,-101.562500
5629,-101.562500
5630,-101.562500
5631,-101.562500
5632,-105.468750
5633,-105.468750
5634,-105.468750
5635,-105.468750
5636,-105.468750
5637,-105.468750
5638,-105.468750
5639,-109.375000
5640,-109.375000
5641,-109.375000
5642,-109.375000
5643,-113.281250
5644,-113.281250
5645,-113.281250
5646,-113.281250
5647,-113.281250
5648,-113.281250
5649,-117.187500
5650,-117.187500
5651,-117.187500
5652,-117.187500
5653,-117.187500
5654,-117.187500
5655,-121.093750
5656,-121.093750
5657,-121.093750
5658,-121.093750
5659,-121.093750
5660,-121.093750
5661,-121.093750
5662,-125.000000
5663,-125.000000
5664,-125.000000
5665,-125.000000
5666,-125.000000
5667,-125.000000
5668,-128.906250
5669,-128.906250
5670,-128.906250
5671,-128.906250
5672,-128.906250
5673,-128.906250
5674,-132.812500
5675,-128.906250
5676,-132.812500
5677,-132.812500
5678,-132.812500
5679,-132.812500
5680,-132.812500
5681,-132.812500
5682,-132.812500
5683,-136.718750
5684,-136.718750
5685,-136.718750
5686,-136.718750
5687,-136.718750
5688,-136.718750
5689,-136.718750
5690,-136.718750
5691,-140.625000
5692,-140.625000
5693,-140.625000
5694,-140.625000
5695,-140.625000
5696,-140.625000
5697,-140.625000
5698,-140.625000
5699,-140.625000
5700,-144.531250
5701,-144.531250
5702,-144.531250
5703,-144.531250
5704,-144.531250
5705,-144.531250
5706,-144.531250
5707,-144.531250
5708,-144.531250
5709,-144.531250
5710,-144.531250
5711,-144.531250
5712,-148.437500
5713,-148.437500
5714,-148.437500
5715,-148.437500
5716,-148.437500
5717,-148.437500
5718,-148.437500
5719,-148.437500
5720,-148.437500
5721,-152.343750
5722,-148.437500
5723,-152.343750
5724,-148.437500
5725,-152.343750
5726,-152.343750
5727,-152.343750
5728,-152.343750
5729,-152.343750
5730,-152.343750
5731,-152.343750
5732,-152.343750
5733,-152.343750
5734,-152.343750
5735,-152.343750
5736,-152.343750
5737,-152.343750
5738,-152.343750
5739,-152.343750
5740,-156.250000
5741,-156.250000
5742,-152.343750
5743,-152.343750
5744,-152.343750
5745,-152.343750
5746,-156.250000
5747,-156.250000
5748,-156.250000
5749,-156.250000
5750,-156.250000
5751,-156.250000
5752,-156.250000
5753,-156.250000
5754,-156.250000
5755,-156.250000
5756,-156.250000
5757,-156.250000
5758,-156.250000
5759,-156.250000
5760,-156.250000
5761,-156.250000
5762,-156.250000
5763,-156.250000
5764,-156.250000
5765,-156.250000
5766,-156.250000
5767,-156.250000
5768,-156.250000
5769,-156.250000
5770,-156.250000
5771,-156.250000
5772,-156.250000
5773,-156.250000
5774,-156.250000
5775,-156.250000
5776,-156.250000
5777,-156.250000
5778,-156.250000
5779,-156.250000
5780,-156.250000
5781,-156.250000
5782,-156.250000
5783,-156.250000
5784,-156.250000
5785,-156.250000
5786,-156.250000
5787,-156.250000
5788,-152.343750
5789,-152.343750
5790,-152.343750
5791,-152.343750
5792,-152.343750
5793,-152.343750
5794,-152.343750
5795,-152.343750
5796,-152.343750
5797,-152.343750
5798,-152.343750
5799,-152.343750
5800,-152.343750
5801,-152.343750
5802,-152.343750
5803,-152.343750
5804,-152.343750
5805,-152.343750
5806,-152.343750
5807,-152.343750
5808,-148.437500
5809,-152.343750
5810,-148.437500
5811,-148.437500
5812,-148.437500
5813,-148.437500
5814,-148.437500
5815,-148.437500
5816,-148.437500
5817,-148.437500
5818,-148.437500
5819,-144.531250
5820,-144.531250
5821,-148.437500
5822,-144.531250
5823,-144.531250
5824,-144.531250
5825,-144.531250
5826,-144.531250
5827,-144.531250
5828,-144.531250
5829,-144.531250
5830,-144.531250
5831,-140.625000
5832,-140.625000
5833,-140.625000
5834,-140.625000
5835,-140.625000
5836,-140.625000
5837,-140.625000
5838,-140.625000
5839,-136.718750
5840,-136.718750
5841,-136.718750
5842,-136.718750
5843,-136.718750
5844,-136.718750
5845,-136.718750
5846,-136.718750
5847,-136.718750
5848,-136.718750
5849,-132.812500
5850,-132.812500
5851,-132.812500
5852,-132.812500
5853,-132.812500
5854,-132.812500
5855,-132.812500
5856,-128.906250
5857,-128.906250
5858,-128.906250
5859,-128.906250
5860,-128.906250
5861,-128.906250
5862,-125.000000
5863,-125.000000
5864,-125.000000
5865,-121.093750
5866,-125.000000
5867,-125.000000
5868,-125.000000
5869,-125.000000
5870,-121.093750
5871,-121.093750
5872,-121.093750
5873,-121.093750
5874,-121.093750
5875,-121.093750
5876,-121.093750
5877,-117.187500
5878,-117.187500
5879,-117.187500
5880,-117.187500
5881,-117.187500
5882,-113.281250
5883,-113.281250
5884,-113.281250
5885,-113.281250
5886,-113.281250
5887,-113.281250
5888,-109.375000
5889,-109.375000
5890,-109.375000
5891,-109.375000
5892,-105.468750
5893,-105.468750
5894,-105.468750
5895,-105.468750
5896,-105.468750
5897,-105.468750
5898,-105.468750
5899,-101.562500
5900,-101.562500
5901,-101.562500
5902,-101.562500
5903,-101.562500
5904,-97.656250
5905,-97.656250
5906,-97.656250
5907,-97.656250
5908,-97.656250
5909,-97.656250
5910,-93.750000
5911,-93.750000
5912,-93.750000
5913,-93.750000
5914,-93.750000
5915,-89.843750
5916,-89.843750
5917,-89.843750
5918,-89.843750
5919,-89.843750
5920,-89.843750
5921,-85.937500
5922,-85.937500
5923,-85.937500
5924,-82.031250
5925,-82.031250
5926,-82.031250
5927,-82.031250
5928,-82.031250
5929,-82.031250
5930,-78.125000
5931,-78.125000
5932,-78.125000
5933,-78.125000
5934,-74.218750
5935,-74.218750
5936,-74.218750
5937,-74.218750
5938,-70.312500
5939,-70.312500
5940,-70.312500
5941,-70.312500
5942,-70.312500
5943,-66.406250
5944,-66.406250
5945,-66.406250
5946,-66.406250
5947,-66.406250
5948,-62.500000
5949,-62.500000
5950,-62.500000
5951,-62.500000
5952,-58.593750
5953,-58.593750
5954,-58.593750
5955,-58.593750
5956,-58.593750
5957,-54.687500
5958,-54.687500
5959,-54.687500
5960,-54.687500
5961,-50.781250
5962,-50.781250
5963,-50.781250
5964,-50.781250
5965,-46.875000
5966,-46.875000
5967,-46.875000
5968,-46.875000
5969,-46.875000
5970,-42.968750
5971,-42.968750
5972,-42.968750
5973,-42.968750
5974,-42.968750
5975,-39.062500
5976,-39.062500
5977,-39.062500
5978,-35.156250
5979,-35.156250
5980,-35.156250
5981,-35.156250
5982,-35.156250
5983,-31.250000
5984,-31.250000
5985,-31.250000
5986,-31.250000
5987,-31.250000
5988,-27.343750
5989,-27.343750
5990,-27.343750
5991,-27.343750
5992,-23.437500
5993,-23.437500
5994,-23.437500
5995,-23.437500
5996,-19.531250
5997,-19.531250
5998,-19.531250
5999,-19.531250
6000,-19.531250
6001,-15.625000
6002,-15.625000
6003,-15.625000
6004,-15.625000
6005,-11.718750
6006,-11.718750
6007,-11.718750
6008,-11.718750
6009,-11.718750
6010,-11.718750
6011,-7.812500
6012,-7.812500
6013,-7.812500
6014,-3.906250
6015,-3.906250
6016,-3.906250
6017,-3.906250
6018,-3.906250
6019,0.000000
6020,0.000000
6021,0.000000
6022,0.000000
6023,0.000000
6024,3.906250
6025,3.906250
6026,3.906250
6027,7.812500
6028,7.812500
6029,7.812500
6030,7.812500
6031,7.812500
6032,7.812500
6033,11.718750
6034,11.718750
6035,11.718750
6036,11.718750
6037,15.625000
6038,15.625000
6039,15.625000
6040,15.625000
6041,15.625000
6042,15.625000
6043,19.531250
6044,19.531250
6045,19.531250
6046,23.437500
6047,23.437500
6048,23.437500
6049,23.437500
6050,23.437500
6051,23.437500
6052,27.343750
6053,27.343750
6054,27.343750
6055,27.343750
6056,31.250000
6057,31.250000
6058,31.250000
6059,31.250000
6060,31.250000
6061,31.250000
6062,35.156250
6063,35.156250
6064,35.156250
6065,35.156250
6066,39.062500
6067,39.062500
6068,39.062500
6069,39.062500
6070,39.062500
6071,39.062500
6072,42.968750
6073,42.968750
6074,42.968750
6075,42.968750
6076,46.875000
6077,46.875000
6078,46.875000
6079,46.875000
6080,46.875000
6081,46.875000
6082,50.781250
6083,50.781250
6084,50.781250
6085,50.781250
6086,50.781250
6087,50.781250
6088,54.687500
6089,54.687500
6090,54.687500
6091,54.687500
6092,54.687500
6093,58.593750
6094,58.593750
6095,58.593750
6096,58.593750
6097,58.593750
6098,62.500000
6099,62.500000
6100,62.500000
6101,62.500000
6102,62.500000
6103,62.500000
6104,66.406250
6105,66.406250
6106,66.406250
6107,66.406250
6108,66.406250
6109,66.406250
6110,66.406250
6111,70.312500
6112,70.312500
6113,70.312500
6114,70.312500
6115,70.312500
6116,74.218750
6117,74.218750
6118,74.218750
6119,74.218750
6120,74.218750
6121,74.218750
6122,78.125000
6123,74.218750
6124,78.125000
6125,78.125000
6126,78.125000
6127,78.125000
6128,78.125000
6129,78.125000
6130,82.031250
6131,82.031250
6132,82.031250
6133,82.031250
6134,82.031250
6135,82.031250
6136,82.031250
6137,82.031250
6138,85.937500
6139,85.937500
6140,85.937500
6141,85.937500
6142,85.937500
6143,85.937500
6144,85.937500
6145,89.843750
6146,89.843750
6147,89.843750
6148,89.843750
6149,89.843750
6150,89.843750
6151,89.843750
6152,89.843750
6153,89.843750
6154,89.843750
6155,93.750000
6156,93.750000
6157,93.750000
6158,93.750000
6159,93.750000
6160,93.750000
6161,93.750000
6162,93.750000
6163,97.656250
6164,97.656250
6165,97.656250
6166,97.656250
6167,97.656250
6168,97.656250
6169,97.656250
6170,97.656250
6171,97.656250
6172,97.656250
6173,97.656250
6174,97.656250
6175,101.562500
6176,101.562500
6177,101.562500
6178,101.562500
6179,101.562500
6180,101.562500
6181,101.562500
6182,101.562500
6183,101.562500
6184,101.562500
6185,105.468750
6186,105.468750
6187,105.468750
6188,105.468750
6189,105.468750
6190,105.468750
6191,105.468750
6192,105.468750
6193,105.468750
6194,105.468750
6195,109.375000
6196,105.468750
6197,105.468750
6198,109.375000
6199,109.375000
6200,109.375000
6201,109.375000
6202,109.375000
6203,109.375000
6204,109.375000
6205,109.375000
6206,109.375000
6207,109.375000
6208,109.375000
6209,109.375000
6210,109.375000
6211,109.375000
6212,109.375000
6213,109.375000
6214,109.375000
6215,109.375000
6216,113.281250
6217,113.281250
6218,113.281250
6219,117.187500
6220,113.281250
6221,113.281250
6222,113.281250
6223,113.281250
6224,113.281250
6225,113.281250
6226,113.281250
6227,113.281250
6228,113.281250
6229,113.281250
6230,113.281250
6231,113.281250
6232,113.281250
6233,113.281250
6234,113.281250
6235,113.281250
6236,113.281250
6237,117.187500
6238,117.187500
6239,117.187500
6240,117.187500
6241,117.187500
6242,117.187500
6243,117.187500
6244,117.187500
6245,117.187500
6246,117.187500
6247,117.187500
6248,117.187500
6249,117.187500
6250,117.187500
6251,117.187500
6252,117.187500
6253,117.187500
6254,117.187500
6255,117.187500
6256,117.187500
6257,117.187500
6258,117.187500
6259,117.187500
6260,117.187500
6261,117.187500
6262,117.187500
6263,117.187500
6264,117.187500
6265,117.187500
6266,117.187500
6267,117.187500
6268,117.187500
6269,117.187500
6270,117.187500
6271,117.187500
6272,117.187500
6273,117.187500
6274,117.187500
6275,117.187500
6276,117.187500
6277,117.187500
6278,117.187500
6279,117.187500
6280,113.281250
6281,113.281250
6282,113.281250
6283,113.281250
6284,117.187500
6285,117.187500
6286,113.281250
6287,113.281250
6288,113.281250
6289,113.281250
6290,113.281250
6291,113.281250
6292,113.281250
6293,113.281250
6294,113.281250
6295,113.281250
6296,113.281250
6297,113.281250
6298,113.281250
6299,113.281250
6300,113.281250
6301,113.281250
6302,113.281250
6303,113.281250
6304,113.281250
6305,113.281250
6306,113.281250
6307,109.375000
6308,109.375000
6309,109.375000
6310,109.375000
6311,109.375000
6312,109.375000
6313,109.375000
6314,109.375000
6315,109.375000
6316,109.375000
6317,109.375000
6318,109.375000
6319,109.375000
6320,109.375000
6321,109.375000
6322,109.375000
6323,109.375000
6324,109.375000
6325,109.375000
6326,109.375000
6327,105.468750
6328,105.468750
6329,105.468750
6330,105.468750
6331,105.468750
6332,105.468750
6333,105.468750
6334,105.468750
6335,105.468750
6336,105.468750
6337,105.468750
6338,105.468750
6339,101.562500
6340,101.562500
6341,101.562500
6342,101.562500
6343,101.562500
6344,101.562500
6345,101.562500
6346,101.562500
6347,101.562500
6348,101.562500
6349,97.656250
6350,97.656250
6351,97.656250
6352,97.656250
6353,97.656250
6354,97.656250
6355,97.656250
6356,97.656250
6357,97.656250
6358,97.656250
6359,97.656250
6360,93.750000
6361,93.750000
6362,93.750000
6363,93.750000
6364,93.750000
6365,93.750000
6366,93.750000
6367,93.750000
6368,89.843750
6369,89.843750
6370,89.843750
6371,89.843750
6372,89.843750
6373,89.843750
6374,89.843750
6375,89.843750
6376,89.843750
6377,85.937500
6378,85.937500
6379,85.937500
6380,85.937500
6381,85.937500
6382,85.937500
6383,85.937500
6384,85.937500
6385,82.031250
6386,82.031250
6387,82.031250
6388,82.031250
6389,82.031250
6390,82.031250
6391,78.125000
6392,78.125000
6393,78.125000
6394,78.125000
6395,78.125000
6396,78.125000
6397,78.125000
6398,74.218750
6399,74.218750
6400,74.218750
6401,74.218750
6402,74.218750
6403,74.218750
6404,74.218750
6405,70.312500
6406,70.312500
6407,70.312500
6408,70.312500
6409,70.312500
6410,66.406250
6411,66.406250
6412,66.406250
6413,66.406250
6414,66.406250
6415,66.406250
6416,66.406250
6417,66.406250
6418,62.500000
6419,62.500000
6420,62.500000
6421,62.500000
6422,58.593750
6423,58.593750
6424,58.593750
6425,58.593750
6426,58.593750
6427,58.593750
6428,58.593750
6429,54.687500
6430,54.687500
6431,54.687500
6432,54.687500
6433,54.687500
6434,54.687500
6435,50.781250
6436,50.781250
6437,50.781250
6438,50.781250
6439,50.781250
6440,46.875000
6441,46.875000
6442,46.875000
6443,46.875000
6444,46.875000
6445,42.968750
6446,42.968750
6447,42.968750
6448,42.968750
6449,39.062500
6450,39.062500
6451,39.062500
6452,39.062500
6453,39.062500
6454,39.062500
6455,35.156250
6456,35.156250
6457,35.156250
6458,35.156250
6459,35.156250
6460,31.250000
6461,31.250000
6462,31.250000
6463,31.250000
6464,31.250000
6465,27.343750
6466,27.343750
6467,27.343750
6468,27.343750
6469,27.343750
6470,23.437500
6471,23.437500
6472,23.437500
6473,23.437500
6474,23.437500
6475,19.531250
6476,19.531250
6477,19.531250
6478,19.531250
6479,19.531250
6480,15.625000
6481,15.625000
6482,15.625000
6483,15.625000
6484,11.718750
6485,11.718750
6486,11.718750
6487,11.718750
6488,7.812500
6489,7.812500
6490,7.812500
6491,7.812500
6492,7.812500
6493,7.812500
6494,3.906250
6495,3.906250
6496,3.906250
6497,3.906250
6498,0.000000
6499,0.000000
6500,0.000000
6501,0.000000
6502,0.000000
6503,-3.906250
6504,-3.906250
6505,-3.906250
6506,-3.906250
6507,-7.812500
6508,-7.812500
6509,-7.812500
6510,-7.812500
6511,-11.718750
6512,-11.718750
6513,-11.718750
6514,-11.718750
6515,-11.718750
6516,-15.625000
6517,-15.625000
6518,-15.625000
6519,-15.625000
6520,-19.531250
6521,-19.531250
6522,-19.531250
6523,-19.531250
6524,-19.531250
6525,-23.437500
6526,-23.437500
6527,-23.437500
6528,-23.437500
6529,-27.343750
6530,-27.343750
6531,-27.343750
6532,-27.343750
6533,-27.343750
6534,-31.250000
6535,-31.250000
6536,-31.250000
6537,-35.156250
6538,-35.156250
6539,-35.156250
6540,-35.156250
6541,-35.156250
6542,-39.062500
6543,-35.156250
6544,-39.062500
6545,-39.062500
6546,-39.062500
6547,-42.968750
6548,-42.968750
6549,-42.968750
6550,-42.968750
6551,-46.875000
6552,-46.875000
6553,-46.875000
6554,-46.875000
6555,-50.781250
6556,-50.781250
6557,-50.781250
6558,-50.781250
6559,-54.687500
6560,-54.687500
6561,-54.687500
6562,-54.687500
6563,-54.687500
6564,-54.687500
6565,-58.593750
6566,-58.593750
6567,-58.593750
6568,-62.500000
6569,-62.500000
6570,-62.500000
6571,-62.500000
6572,-62.500000
6573,-62.500000
6574,-66.406250
6575,-66.406250
6576,-66.406250
6577,-66.406250
6578,-70.312500
6579,-70.312500
6580,-70.312500
6581,-70.312500
6582,-74.218750
6583,-74.218750
6584,-74.218750
6585,-74.218750
6586,-74.218750
6587,-78.125000
6588,-78.125000
6589,-78.125000
6590,-78.125000
6591,-78.125000
6592,-82.031250
6593,-82.031250
6594,-82.031250
6595,-82.031250
6596,-82.031250
6597,-85.937500
6598,-85.937500
6599,-85.937500
6600,-85.937500
6601,-89.843750
6602,-89.843750
6603,-89.843750
6604,-89.843750
6605,-85.937500
6606,-89.843750
6607,-97.656250
6608,-89.843750
6609,-93.750000
6610,-93.750000
6611,-93.750000
6612,-97.656250
6613,-97.656250
6614,-93.750000
6615,-97.656250
6616,-101.562500
6617,-97.656250
6618,-101.562500
6619,-101.562500
6620,-101.562500
6621,-101.562500
6622,-105.468750
6623,-105.468750
6624,-105.468750
6625,-105.468750
6626,-109.375000
6627,-105.468750
6628,-109.375000
6629,-109.375000
6630,-109.375000
6631,-109.375000
6632,-109.375000
6633,-109.375000
6634,-113.281250
6635,-113.281250
6636,-113.281250
6637,-113.281250
6638,-113.281250
6639,-113.281250
6640,-117.187500
6641,-117.187500
6642,-117.187500
6643,-117.187500
6644,-121.093750
6645,-121.093750
6646,-121.093750
6647,-121.093750
6648,-121.093750
6649,-121.093750
6650,-121.093750
6651,-121.093750
6652,-125.000000
6653,-125.000000
6654,-125.000000
6655,-125.000000
6656,-128.906250
6657,-125.000000
6658,-125.000000
6659,-128.906250
6660,-128.906250
6661,-128.906250
6662,-128.906250
6663,-128.906250
6664,-128.906250
6665,-132.812500
6666,-132.812500
6667,-132.812500
6668,-132.812500
6669,-132.812500
6670,-132.812500
6671,-132.812500
6672,-136.718750
6673,-136.718750
6674,-136.718750
6675,-136.718750
6676,-140.625000
6677,-136.718750
6678,-136.718750
6679,-136.718750
6680,-136.718750
6681,-140.625000
6682,-140.625000
6683,-140.625000
6684,-140.625000
6685,-140.625000
6686,-140.625000
6687,-140.625000
6688,-144.531250
6689,-140.625000
6690,-144.531250
6691,-144.531250
6692,-144.531250
6693,-144.531250
6694,-144.531250
6695,-144.531250
6696,-144.531250
6697,-144.531250
6698,-144.531250
6699,-144.531250
6700,-144.531250
6701,-148.437500
6702,-148.437500
6703,-148.437500
6704,-148.437500
6705,-148.437500
6706,-148.437500
6707,-148.437500
6708,-148.437500
6709,-148.437500
6710,-148.437500
6711,-148.437500
6712,-148.437500
6713,-148.437500
6714,-152.343750
6715,-152.343750
6716,-152.343750
6717,-152.343750
6718,-152.343750
6719,-152.343750
6720,-152.343750
6721,-152.343750
6722,-152.343750
6723,-152.343750
6724,-152.343750
6725,-152.343750
6726,-152.343750
6727,-152.343750
6728,-152.343750
6729,-152.343750
6730,-152.343750
6731,-152.343750
6732,-152.343750
6733,-156.250000
6734,-152.343750
6735,-156.250000
6736,-156.250000
6737,-156.250000
6738,-156.250000
6739,-156.250000
6740,-156.250000
6741,-156.250000
6742,-156.250000
6743,-156.250000
6744,-156.250000
6745,-156.250000
6746,-156.250000
6747,-156.250000
6748,-156.250000
6749,-156.250000
6750,-156.250000
6751,-156.250000
6752,-156.250000
6753,-156.250000
6754,-156.250000
6755,-156.250000
6756,-156.250000
6757,-156.250000
6758,-156.250000
6759,-156.250000
6760,-156.250000
6761,-156.250000
6762,-156.250000
6763,-156.250000
6764,-156.250000
6765,-156.250000
6766,-156.250000
6767,-156.250000
6768,-156.250000
6769,-156.250000
6770,-156.250000
6771,-152.343750
6772,-156.250000
6773,-156.250000
6774,-156.250000
6775,-152.343750
6776,-152.343750
6777,-156.250000
6778,-156.250000
6779,-152.343750
6780,-152.343750
6781,-152.343750
6782,-152.343750
6783,-152.343750
6784,-152.343750
6785,-152.343750
6786,-152.343750
6787,-152.343750
6788,-152.343750
6789,-152.343750
6790,-152.343750
6791,-152.343750
6792,-152.343750
6793,-152.343750
6794,-152.343750
6795,-152.343750
6796,-148.437500
6797,-152.343750
6798,-148.437500
6799,-148.437500
6800,-148.437500
6801,-148.437500
6802,-148.437500
6803,-148.437500
6804,-148.437500
6805,-148.437500
6806,-148.437500
6807,-148.437500
6808,-148.437500
6809,-148.437500
6810,-148.437500
6811,-148.437500
6812,-144.531250
6813,-144.531250
6814,-144.531250
6815,-144.531250
6816,-144.531250
6817,-144.531250
6818,-144.531250
6819,-144.531250
6820,-144.531250
6821,-140.625000
6822,-140.625000
6823,-140.625000
6824,-140.625000
6825,-140.625000
6826,-140.625000
6827,-140.625000
6828,-140.625000
6829,-140.625000
6830,-140.625000
6831,-136.718750
6832,-136.718750
6833,-136.718750
6834,-136.718750
6835,-136.718750
6836,-136.718750
6837,-136.718750
6838,-136.718750
6839,-132.812500
6840,-132.812500
6841,-132.812500
6842,-132.812500
6843,-132.812500
6844,-132.812500
6845,-132.812500
6846,-128.906250
6847,-128.906250
6848,-128.906250
6849,-128.906250
6850,-125.000000
6851,-128.906250
6852,-125.000000
6853,-125.000000
6854,-125.000000
6855,-125.000000
6856,-125.000000
6857,-125.000000
6858,-125.000000
6859,-121.093750
6860,-121.093750
6861,-121.093750
6862,-121.093750
6863,-121.093750
6864,-121.093750
6865,-121.093750
6866,-117.187500
6867,-117.187500
6868,-117.187500
6869,-117.187500
6870,-117.187500
6871,-113.281250
6872,-113.281250
6873,-113.281250
6874,-113.281250
6875,-113.281250
6876,-113.281250
6877,-109.375000
6878,-109.375000
6879,-109.375000
6880,-109.375000
6881,-109.375000
6882,-109.375000
6883,-105.468750
6884,-105.468750
6885,-105.468750
6886,-105.468750
6887,-105.468750
6888,-105.468750
6889,-105.468750
6890,-101.562500
6891,-101.562500
6892,-101.562500
6893,-97.656250
6894,-97.656250
6895,-97.656250
6896,-97.656250
6897,-97.656250
6898,-97.656250
6899,-93.750000
6900,-93.750000
6901,-93.750000
6902,-93.750000
6903,-93.750000
6904,-93.750000
6905,-89.843750
6906,-89.843750
6907,-89.843750
6908,-89.843750
6909,-85.937500
6910,-85.937500
6911,-85.937500
6912,-85.937500
6913,-85.937500
6914,-82.031250
6915,-82.031250
6916,-82.031250
6917,-82.031250
6918,-82.031250
6919,-78.125000
6920,-78.125000
6921,-78.125000
6922,-78.125000
6923,-74.218750
6924,-74.218750
6925,-74.218750
6926,-74.218750
6927,-74.218750
6928,-74.218750
6929,-70.312500
6930,-70.312500
6931,-70.312500
6932,-70.312500
6933,-66.406250
6934,-66.406250
6935,-66.406250
6936,-66.406250
6937,-62.500000
6938,-62.500000
6939,-62.500000
6940,-62.500000
6941,-62.500000
6942,-62.500000
6943,-58.593750
6944,-58.593750
6945,-58.593750
6946,-58.593750
6947,-58.593750
6948,-54.687500
6949,-54.687500
6950,-54.687500
6951,-54.687500
6952,-50.781250
6953,-50.781250
6954,-50.781250
6955,-50.781250
6956,-50.781250
6957,-46.875000
6958,-46.875000
6959,-46.875000
6960,-46.875000
6961,-46.875000
6962,-42.968750
6963,-42.968750
6964,-42.968750
6965,-39.062500
6966,-39.062500
6967,-39.062500
6968,-39.062500
6969,-35.156250
6970,-35.156250
6971,-35.156250
6972,-35.156250
6973,-31.250000
6974,-31.250000
6975,-31.250000
6976,-31.250000
6977,-31.250000
6978,-27.343750
6979,-27.343750
6980,-27.343750
6981,-23.437500
6982,-23.437500
6983,-23.437500
6984,-23.437500
6985,-23.437500
6986,-23.437500
6987,-19.531250
6988,-19.531250
6989,-19.531250
6990,-15.625000
6991,-15.625000
6992,-15.625000
6993,-15.625000
6994,-15.625000
6995,-15.625000
6996,-11.718750
6997,-11.718750
6998,-11.718750
6999,-7.812500
7000,-7.812500
7001,-7.812500
7002,-7.812500
7003,-7.812500
7004,-3.906250
7005,-3.906250
7006,-3.906250
7007,-3.906250
7008,0.000000
7009,0.000000
7010,0.000000
7011,0.000000
7012,0.000000
7013,3.906250
7014,3.906250
7015,3.906250
7016,7.812500
7017,7.812500
7018,7.812500
7019,7.812500
7020,7.812500
7021,7.812500
7022,11.718750
7023,11.718750
7024,11.718750
7025,11.718750
7026,15.625000
7027,15.625000
7028,15.625000
7029,15.625000
7030,15.625000
7031,19.531250
7032,19.531250
7033,19.531250
7034,19.531250
7035,19.531250
7036,23.437500
7037,23.437500
7038,23.437500
7039,23.437500
7040,23.437500
7041,23.437500
7042,27.343750
7043,27.343750
7044,27.343750
7045,27.343750
7046,31.250000
7047,31.250000
7048,31.250000
7049,31.250000
7050,31.250000
7051,35.156250
7052,35.156250
7053,35.156250
7054,35.156250
7055,35.156250
7056,39.062500
7057,39.062500
7058,39.062500
7059,39.062500
7060,39.062500
7061,42.968750
7062,42.968750
7063,46.875000
7064,42.968750
7065,46.875000
7066,42.968750
7067,46.875000
7068,46.875000
7069,46.875000
7070,46.875000
7071,46.875000
7072,50.781250
7073,50.781250
7074,50.781250
7075,50.781250
7076,50.781250
7077,54.687500
7078,54.687500
7079,54.687500
7080,54.687500
7081,54.687500
7082,58.593750
7083,58.593750
7084,58.593750
7085,58.593750
7086,58.593750
7087,58.593750
7088,62.500000
7089,62.500000
7090,62.500000
7091,62.500000
7092,62.500000
7093,62.500000
7094,62.500000
7095,66.406250
7096,66.406250
7097,66.406250
7098,66.406250
7099,66.406250
7100,70.312500
7101,70.312500
7102,70.312500
7103,70.312500
7104,70.312500
7105,70.312500
7106,74.218750
7107,74.218750
7108,74.218750
7109,74.218750
7110,74.218750
7111,74.218750
7112,74.218750
7113,78.125000
7114,78.125000
7115,78.125000
7116,78.125000
7117,78.125000
7118,78.125000
7119,78.125000
7120,82.031250
7121,82.031250
7122,82.031250
7123,82.031250
7124,82.031250
7125,82.031250
7126,82.031250
7127,82.031250
7128,82.031250
7129,85.937500
7130,85.937500
7131,85.937500
7132,85.937500
7133,85.937500
7134,85.937500
7135,89.843750
7136,89.843750
7137,89.843750
7138,89.843750
7139,89.843750
7140,89.843750
7141,89.843750
7142,89.843750
7143,93.750000
7144,93.750000
7145,93.750000
7146,93.750000
7147,93.750000
7148,93.750000
7149,93.750000
7150,93.750000
7151,93.750000
7152,93.750000
7153,93.750000
7154,97.656250
7155,97.656250
7156,97.656250
7157,97.656250
7158,97.656250
7159,97.656250
7160,97.656250
7161,97.656250
7162,97.656250
7163,97.656250
7164,101.562500
7165,101.562500
7166,101.562500
7167,101.562500
7168,101.562500
7169,101.562500
7170,101.562500
7171,101.562500
7172,101.562500
7173,101.562500
7174,105.468750
7175,105.468750
7176,105.468750
7177,105.468750
7178,105.468750
7179,105.468750
7180,105.468750
7181,105.468750
7182,105.468750
7183,105.468750
7184,105.468750
7185,105.468750
7186,105.468750
7187,105.468750
7188,105.468750
7189,109.375000
7190,109.375000
7191,109.375000
7192,109.375000
7193,109.375000
7194,109.375000
7195,109.375000
7196,109.375000
7197,109.375000
7198,109.375000
7199,109.375000
7200,109.375000
7201,109.375000
7202,109.375000
7203,109.375000
7204,113.281250
7205,113.281250
7206,113.281250
7207,113.281250
7208,113.281250
7209,113.281250
7210,113.281250
7211,113.281250
7212,113.281250
7213,113.281250
7214,113.281250
7215,113.281250
7216,113.281250
7217,113.281250
7218,113.281250
7219,113.281250
7220,113.281250
7221,113.281250
7222,113.281250
7223,113.281250
7224,113.281250
7225,113.281250
7226,117.187500
7227,117.187500
7228,117.187500
7229,113.281250
7230,113.281250
7231,117.187500
7232,117.187500
7233,117.187500
7234,117.187500
7235,117.187500
7236,117.187500
7237,117.187500
7238,117.187500
7239,117.187500
7240,117.187500
7241,117.187500
7242,117.187500
7243,117.187500
7244,117.187500
7245,117.187500
7246,117.187500
7247,117.187500
7248,117.187500
7249,117.187500
7250,117.187500
7251,117.187500
7252,117.187500
7253,117.187500
7254,117.187500
7255,117.187500
7256,117.187500
7257,117.187500
7258,117.187500
7259,117.187500
7260,117.187500
7261,117.187500
7262,117.187500
7263,117.187500
7264,117.187500
7265,117.187500
7266,117.187500
7267,117.187500
7268,117.187500
7269,117.187500
7270,117.187500
7271,117.187500
7272,117.187500
7273,113.281250
7274,117.187500
7275,113.281250
7276,113.281250
7277,113.281250
7278,113.281250
7279,117.187500
7280,117.187500
7281,113.281250
7282,113.281250
7283,113.281250
7284,113.281250
7285,113.281250
7286,113.281250
7287,113.281250
7288,113.281250
7289,113.281250
7290,113.281250
7291,113.281250
7292,113.281250
7293,113.281250
7294,113.281250
7295,113.281250
7296,113.281250
7297,113.281250
7298,113.281250
7299,113.281250
7300,113.281250
7301,113.281250
7302,109.375000
7303,109.375000
7304,109.375000
7305,109.375000
7306,109.375000
7307,109.375000
7308,109.375000
7309,109.375000
7310,109.375000
7311,109.375000
7312,109.375000
7313,109.375000
7314,109.375000
7315,105.468750
7316,109.375000
7317,105.468750
7318,105.468750
7319,105.468750
7320,105.468750
7321,105.468750
7322,105.468750
7323,105.468750
7324,105.468750
7325,105.468750
7326,105.468750
7327,101.562500
7328,101.562500
7329,101.562500
7330,101.562500
7331,101.562500
7332,101.562500
7333,101.562500
7334,101.562500
7335,101.562500
7336,101.562500
7337,101.562500
7338,101.562500
7339,97.656250
7340,97.656250
7341,97.656250
7342,97.656250
7343,97.656250
7344,97.656250
7345,97.656250
7346,97.656250
7347,97.656250
7348,97.656250
7349,97.656250
7350,97.656250
7351,93.750000
7352,93.750000
7353,93.750000
7354,93.750000
7355,93.750000
7356,93.750000
7357,93.750000
7358,89.843750
7359,89.843750
7360,89.843750
7361,89.843750
7362,89.843750
7363,89.843750
7364,89.843750
7365,89.843750
7366,89.843750
7367,85.937500
7368,85.937500
7369,85.937500
7370,85.937500
7371,85.937500
7372,85.937500
7373,85.937500
7374,85.937500
7375,82.031250
7376,82.031250
7377,82.031250
7378,82.031250
7379,82.031250
7380,82.031250
7381,78.125000
7382,78.125000
7383,78.125000
7384,78.125000
7385,78.125000
7386,78.125000
7387,78.125000
7388,78.125000
7389,74.218750
7390,74.218750
7391,74.218750
7392,74.218750
7393,74.218750
7394,74.218750
7395,70.312500
7396,70.312500
7397,70.312500
7398,70.312500
7399,70.312500
7400,70.312500
7401,66.406250
7402,66.406250
7403,66.406250
7404,66.406250
7405,66.406250
7406,66.406250
7407,62.500000
7408,62.500000
7409,62.500000
7410,62.500000
7411,62.500000
7412,58.593750
7413,58.593750
7414,58.593750
7415,58.593750
7416,58.593750
7417,58.593750
7418,58.593750
7419,54.687500
7420,54.687500
7421,54.687500
7422,54.687500
7423,54.687500
7424,54.687500
7425,50.781250
7426,50.781250
7427,50.781250
7428,50.781250
7429,46.875000
7430,46.875000
7431,46.875000
7432,46.875000
7433,46.875000
7434,46.875000
7435,42.968750
7436,42.968750
7437,42.968750
7438,42.968750
7439,42.968750
7440,39.062500
7441,39.062500
7442,39.062500
7443,39.062500
7444,39.062500
7445,35.156250
7446,35.156250
7447,35.156250
7448,35.156250
7449,35.156250
7450,31.250000
7451,31.250000
7452,31.250000
7453,31.250000
7454,31.250000
7455,27.343750
7456,27.343750
7457,27.343750
7458,27.343750
7459,23.437500
7460,23.437500
7461,23.437500
7462,23.437500
7463,23.437500
7464,19.531250
7465,19.531250
7466,19.531250
7467,19.531250
7468,19.531250
7469,19.531250
7470,15.625000
7471,15.625000
7472,15.625000
7473,15.625000
7474,11.718750
7475,11.718750
7476,11.718750
7477,11.718750
7478,11.718750
7479,7.812500
7480,7.812500
7481,7.812500
7482,7.812500
7483,3.906250
7484,3.906250
7485,3.906250
7486,3.906250
7487,0.000000
7488,0.000000
7489,0.000000
7490,0.000000
7491,0.000000
7492,0.000000
7493,-3.906250
7494,-3.906250
7495,-3.906250
7496,-3.906250
7497,-7.812500
7498,-7.812500
7499,-7.812500
7500,-7.812500
7501,-7.812500
7502,-11.718750
7503,-11.718750
7504,-11.718750
7505,-11.718750
7506,-15.625000
7507,-15.625000
7508,-15.625000
7509,-15.625000
7510,-19.531250
7511,-19.531250
7512,-19.531250
7513,-19.531250
7514,-23.437500
7515,-23.437500
7516,-23.437500
7517,-23.437500
7518,-27.343750
7519,-27.343750
7520,-27.343750
7521,-27.343750
7522,-27.343750
7523,-31.250000
7524,-31.250000
7525,-31.250000
7526,-31.250000
7527,-35.156250
7528,-35.156250
7529,-35.156250
7530,-35.156250
7531,-39.062500
7532,-35.156250
7533,-39.062500
7534,-39.062500
7535,-39.062500
7536,-42.968750
7537,-42.968750
7538,-42.968750
7539,-42.968750
7540,-42.968750
7541,-46.875000
7542,-46.875000
7543,-46.875000
7544,-46.875000
7545,-50.781250
7546,-50.781250
7547,-50.781250
7548,-50.781250
7549,-50.781250
7550,-54.687500
7551,-54.687500
7552,-54.687500
7553,-54.687500
7554,-58.593750
7555,-58.593750
7556,-58.593750
7557,-58.593750
7558,-58.593750
7559,-62.500000
7560,-62.500000
7561,-62.500000
7562,-62.500000
7563,-66.406250
7564,-66.406250
7565,-66.406250
7566,-66.406250
7567,-66.406250
7568,-70.312500
7569,-70.312500
7570,-70.312500
7571,-70.312500
7572,-74.218750
7573,-74.218750
7574,-74.218750
7575,-74.218750
7576,-74.218750
7577,-78.125000
7578,-78.125000
7579,-78.125000
7580,-78.125000
7581,-78.125000
7582,-82.031250
7583,-82.031250
7584,-82.031250
7585,-82.031250
7586,-85.937500
7587,-85.937500
7588,-85.937500
7589,-85.937500
7590,-85.937500
7591,-85.937500
7592,-89.843750
7593,-89.843750
7594,-89.843750
7595,-89.843750
7596,-89.843750
7597,-93.750000
7598,-93.750000
7599,-93.750000
7600,-93.750000
7601,-97.656250
7602,-97.656250
7603,-97.656250
7604,-97.656250
7605,-97.656250
7606,-97.656250
7607,-101.562500
7608,-101.562500
7609,-101.562500
7610,-101.562500
7611,-105.468750
7612,-105.468750
7613,-105.468750
7614,-105.468750
7615,-105.468750
7616,-105.468750
7617,-105.468750
7618,-109.375000
7619,-109.375000
7620,-109.375000
7621,-109.375000
7622,-109.375000
7623,-109.375000
7624,-113.281250
7625,-113.281250
7626,-113.281250
7627,-113.281250
7628,-113.281250
7629,-113.281250
7630,-117.187500
7631,-117.187500
7632,-117.187500
7633,-117.187500
7634,-117.187500
7635,-117.187500
7636,-121.093750
7637,-121.093750
7638,-121.093750
7639,-121.093750
7640,-121.093750
7641,-121.093750
7642,-125.000000
7643,-125.000000
7644,-125.000000
7645,-125.000000
7646,-125.000000
7647,-125.000000
7648,-125.000000
7649,-125.000000
7650,-128.906250
7651,-128.906250
7652,-128.906250
7653,-128.906250
7654,-128.906250
7655,-132.812500
7656,-132.812500
7657,-132.812500
7658,-132.812500
7659,-132.812500
7660,-132.812500
7661,-132.812500
7662,-132.812500
7663,-136.718750
7664,-136.718750
7665,-136.718750
7666,-136.718750
7667,-136.718750
7668,-136.718750
7669,-136.718750
7670,-136.718750
7671,-140.625000
7672,-140.625000
7673,-140.625000
7674,-140.625000
7675,-140.625000
7676,-140.625000
7677,-140.625000
7678,-140.625000
7679,-140.625000
7680,-140.625000
7681,-140.625000
7682,-144.531250
7683,-144.531250
7684,-144.531250
7685,-144.531250
7686,-144.531250
7687,-144.531250
7688,-144.531250
7689,-148.437500
7690,-148.437500
7691,-148.437500
7692,-148.437500
7693,-148.437500
7694,-148.437500
7695,-148.437500
7696,-148.437500
7697,-148.437500
7698,-148.437500
7699,-148.437500
7700,-148.437500
7701,-148.437500
7702,-148.437500
7703,-152.343750
7704,-152.343750
7705,-152.343750
7706,-148.437500
7707,-152.343750
7708,-152.343750
7709,-152.343750
7710,-152.343750
7711,-152.343750
7712,-152.343750
7713,-152.343750
7714,-152.343750
7715,-152.343750
7716,-152.343750
7717,-152.343750
7718,-152.343750
7719,-152.343750
7720,-152.343750
7721,-152.343750
7722,-152.343750
7723,-156.250000
7724,-156.250000
7725,-152.343750
7726,-156.250000
7727,-156.250000
7728,-156.250000
7729,-156.250000
7730,-156.250000
7731,-156.250000
7732,-156.250000
7733,-156.250000
7734,-156.250000
7735,-156.250000
7736,-156.250000
7737,-156.250000
7738,-156.250000
7739,-156.250000
7740,-156.250000
7741,-156.250000
7742,-156.250000
7743,-156.250000
7744,-156.250000
7745,-156.250000
7746,-156.250000
7747,-156.250000
7748,-156.250000
7749,-156.250000
7750,-156.250000
7751,-156.250000
7752,-156.250000
7753,-156.250000
7754,-156.250000
7755,-156.250000
7756,-156.250000
7757,-156.250000
7758,-156.250000
7759,-156.250000
7760,-156.250000
7761,-156.250000
7762,-156.250000
7763,-156.250000
7764,-156.250000
7765,-152.343750
7766,-152.343750
7767,-152.343750
7768,-152.343750
7769,-152.343750
7770,-152.343750
7771,-156.250000
7772,-152.343750
7773,-152.343750
7774,-152.343750
7775,-152.343750
7776,-152.343750
7777,-152.343750
7778,-152.343750
7779,-152.343750
7780,-152.343750
7781,-152.343750
7782,-152.343750
7783,-152.343750
7784,-152.343750
7785,-152.343750
7786,-148.437500
7787,-148.437500
7788,-148.437500
7789,-148.437500
7790,-148.437500
7791,-148.437500
7792,-148.437500
7793,-148.437500
7794,-148.437500
7795,-148.437500
7796,-144.531250
7797,-148.437500
7798,-144.531250
7799,-144.531250
7800,-144.531250
7801,-144.531250
7802,-148.437500
7803,-144.531250
7804,-144.531250
7805,-144.531250
7806,-144.531250
7807,-140.625000
7808,-144.531250
7809,-144.531250
7810,-140.625000
7811,-140.625000
7812,-140.625000
7813,-140.625000
7814,-140.625000
7815,-140.625000
7816,-140.625000
7817,-140.625000
7818,-140.625000
7819,-136.718750
7820,-136.718750
7821,-136.718750
7822,-136.718750
7823,-136.718750
7824,-136.718750
7825,-136.718750
7826,-136.718750
7827,-136.718750
7828,-132.812500
7829,-132.812500
7830,-132.812500
7831,-132.812500
7832,-132.812500
7833,-132.812500
7834,-132.812500
7835,-132.812500
7836,-128.906250
7837,-128.906250
7838,-128.906250
7839,-128.906250
7840,-128.906250
7841,-128.906250
7842,-128.906250
7843,-125.000000
7844,-125.000000
7845,-125.000000
7846,-125.000000
7847,-125.000000
7848,-125.000000
7849,-121.093750
7850,-121.093750
7851,-121.093750
7852,-121.093750
7853,-121.093750
7854,-121.093750
7855,-117.187500
7856,-117.187500
7857,-117.187500
7858,-117.187500
7859,-117.187500
7860,-117.187500
7861,-117.187500
7862,-113.281250
7863,-113.281250
7864,-113.281250
7865,-113.281250
7866,-113.281250
7867,-109.375000
7868,-109.375000
7869,-109.375000
7870,-109.375000
7871,-109.375000
7872,-109.375000
7873,-105.468750
7874,-105.468750
7875,-105.468750
7876,-105.468750
7877,-105.468750
7878,-101.562500
7879,-101.562500
7880,-101.562500
7881,-101.562500
7882,-101.562500
7883,-97.656250
7884,-97.656250
7885,-97.656250
7886,-97.656250
7887,-97.656250
7888,-93.750000
7889,-93.750000
7890,-93.750000
7891,-93.750000
7892,-93.750000
7893,-93.750000
7894,-89.843750
7895,-89.843750
7896,-89.843750
7897,-89.843750
7898,-85.937500
7899,-85.937500
7900,-85.937500
7901,-85.937500
7902,-85.937500
7903,-85.937500
7904,-85.937500
7905,-82.031250
7906,-82.031250
7907,-82.031250
7908,-78.125000
7909,-78.125000
7910,-78.125000
7911,-78.125000
7912,-74.218750
7913,-74.218750
7914,-74.218750
7915,-74.218750
7916,-74.218750
7917,-74.218750
7918,-70.312500
7919,-70.312500
7920,-70.312500
7921,-70.312500
7922,-66.406250
7923,-66.406250
7924,-66.406250
7925,-66.406250
7926,-66.406250
7927,-62.500000
7928,-62.500000
7929,-62.500000
7930,-58.593750
7931,-58.593750
7932,-58.593750
7933,-58.593750
7934,-58.593750
7935,-58.593750
7936,-54.687500
7937,-54.687500
7938,-54.687500
7939,-54.687500
7940,-54.687500
7941,-50.781250
7942,-50.781250
7943,-50.781250
7944,-46.875000
7945,-46.875000
7946,-46.875000
7947,-46.875000
7948,-46.875000
7949,-42.968750
7950,-42.968750
7951,-42.968750
7952,-42.968750
7953,-39.062500
7954,-39.062500
7955,-39.062500
7956,-39.062500
7957,-39.062500
7958,-39.062500
7959,-35.156250
7960,-35.156250
7961,-35.156250
7962,-35.156250
7963,-31.250000
7964,-31.250000
7965,-31.250000
7966,-31.250000
7967,-27.343750
7968,-27.343750
7969,-27.343750
7970,-27.343750
7971,-23.437500
7972,-23.437500
7973,-23.437500
7974,-23.437500
7975,-19.531250
7976,-19.531250
7977,-19.531250
7978,-19.531250
7979,-19.531250
7980,-19.531250
7981,-15.625000
7982,-15.625000
7983,-15.625000
7984,-15.625000
7985,-11.718750
7986,-11.718750
7987,-11.718750
7988,-11.718750
7989,-7.812500
7990,-7.812500
7991,-7.812500
7992,-7.812500
7993,-7.812500
7994,-3.906250
7995,-3.906250
7996,-3.906250
7997,0.000000
7998,0.000000
7999,0.000000
8000,0.000000
8001,0.000000
8002,0.000000
8003,3.906250
8004,3.906250
8005,3.906250
8006,3.906250
8007,7.812500
8008,7.812500
8009,7.812500
8010,7.812500
8011,7.812500
8012,11.718750
8013,11.718750
8014,11.718750
8015,11.718750
8016,15.625000
8017,15.625000
8018,15.625000
8019,15.625000
8020,19.531250
8021,19.531250
8022,19.531250
8023,19.531250
8024,19.531250
8025,23.437500
8026,23.437500
8027,23.437500
8028,23.437500
8029,23.437500
8030,23.437500
8031,27.343750
8032,27.343750
8033,27.343750
8034,27.343750
8035,31.250000
8036,31.250000
8037,31.250000
8038,31.250000
8039,31.250000
8040,35.156250
8041,35.156250
8042,35.156250
8043,35.156250
8044,35.156250
8045,39.062500
8046,39.062500
8047,39.062500
8048,39.062500
8049,39.062500
8050,42.968750
8051,42.968750
8052,42.968750
8053,42.968750
8054,42.968750
8055,46.875000
8056,46.875000
8057,46.875000
8058,46.875000
8059,46.875000
8060,50.781250
8061,50.781250
8062,50.781250
8063,50.781250
8064,50.781250
8065,50.781250
8066,50.781250
8067,54.687500
8068,54.687500
8069,54.687500
8070,54.687500
8071,54.687500
8072,58.593750
8073,58.593750
8074,58.593750
8075,58.593750
8076,58.593750
8077,58.593750
8078,62.500000
8079,62.500000
8080,62.500000
8081,62.500000
8082,62.500000
8083,62.500000
8084,66.406250
8085,66.406250
8086,66.406250
8087,66.406250
8088,66.406250
8089,70.312500
8090,70.312500
8091,70.312500
8092,70.312500
8093,70.312500
8094,70.312500
8095,70.312500
8096,70.312500
8097,74.218750
8098,74.218750
8099,74.218750
8100,74.218750
8101,74.218750
8102,74.218750
8103,78.125000
8104,78.125000
8105,78.125000
8106,78.125000
8107,78.125000
8108,78.125000
8109,78.125000
8110,82.031250
8111,82.031250
8112,82.031250
8113,82.031250
8114,82.031250
8115,82.031250
8116,82.031250
8117,85.937500
8118,85.937500
8119,85.937500
8120,85.937500
8121,85.937500
8122,85.937500
8123,85.937500
8124,89.843750
8125,89.843750
8126,89.843750
8127,89.843750
8128,89.843750
8129,89.843750
8130,89.843750
8131,89.843750
8132,89.843750
8133,93.750000
8134,93.750000
8135,93.750000
8136,93.750000
8137,93.750000
8138,93.750000
8139,93.750000
8140,93.750000
8141,93.750000
8142,97.656250
8143,97.656250
8144,97.656250
8145,97.656250
8146,97.656250
8147,97.656250
8148,97.656250
8149,97.656250
8150,97.656250
8151,97.656250
8152,101.562500
8153,101.562500
8154,101.562500
8155,101.562500
8156,101.562500
8157,101.562500
8158,101.562500
8159,101.562500
8160,101.562500
8161,105.468750
8162,105.468750
8163,105.468750
8164,105.468750
8165,105.468750
8166,105.468750
8167,105.468750
8168,105.468750
8169,105.468750
8170,105.468750
8171,105.468750
8172,109.375000
8173,105.468750
8174,105.468750
8175,105.468750
8176,109.375000
8177,109.375000
8178,109.375000
8179,109.375000
8180,109.375000
8181,109.375000
8182,109.375000
8183,109.375000
8184,109.375000
8185,109.375000
8186,109.375000
8187,109.375000
8188,109.375000
8189,113.281250
8190,113.281250
8191,113.281250
8192,109.375000
8193,113.281250
8194,113.281250
8195,109.375000
8196,113.281250
8197,117.187500
8198,113.281250
8199,113.281250
8200,117.187500
8201,113.281250
8202,113.281250
8203,113.281250
8204,117.187500
8205,113.281250
8206,113.281250
8207,113.281250
8208,113.281250
8209,113.281250
8210,113.281250
8211,113.281250
8212,113.281250
8213,113.281250
8214,117.187500
8215,117.187500
8216,113.281250
8217,113.281250
8218,113.281250
8219,117.187500
8220,117.187500
8221,117.187500
8222,113.281250
8223,117.187500
8224,117.187500
8225,117.187500
8226,117.187500
8227,117.187500
8228,117.187500
8229,117.187500
8230,117.187500
8231,117.187500
8232,117.187500
8233,117.187500
8234,117.187500
8235,117.187500
8236,117.187500
8237,117.187500
8238,117.187500
8239,117.187500
8240,117.187500
8241,117.187500
8242,117.187500
8243,117.187500
8244,117.187500
8245,117.187500
8246,117.187500
8247,117.187500
8248,117.187500
8249,117.187500
8250,117.187500
8251,117.187500
8252,117.187500
8253,113.281250
8254,117.187500
8255,117.187500
8256,117.187500
8257,113.281250
8258,117.187500
8259,113.281250
8260,113.281250
8261,113.281250
8262,113.281250
8263,113.281250
8264,117.187500
8265,113.281250
8266,117.187500
8267,113.281250
8268,113.281250
8269,117.187500
8270,113.281250
8271,113.281250
8272,113.281250
8273,113.281250
8274,113.281250
8275,113.281250
8276,113.281250
8277,113.281250
8278,113.281250
8279,113.281250
8280,113.281250
8281,113.281250
8282,113.281250
8283,113.281250
8284,113.281250
8285,113.281250
8286,113.281250
8287,113.281250
8288,113.281250
8289,113.281250
8290,113.281250
8291,109.375000
8292,109.375000
8293,109.375000
8294,109.375000
8295,109.375000
8296,109.375000
8297,109.375000
8298,109.375000
8299,109.375000
8300,109.375000
8301,109.375000
8302,109.375000
8303,109.375000
8304,109.375000
8305,109.375000
8306,105.468750
8307,109.375000
8308,105.468750
8309,105.468750
8310,105.468750
8311,105.468750
8312,105.468750
8313,105.468750
8314,105.468750
8315,105.468750
8316,105.468750
8317,105.468750
8318,105.468750
8319,101.562500
8320,101.562500
8321,101.562500
8322,101.562500
8323,101.562500
8324,101.562500
8325,101.562500
8326,101.562500
8327,101.562500
8328,101.562500
8329,101.562500
8330,101.562500
8331,97.656250
8332,101.562500
8333,97.656250
8334,97.656250
8335,97.656250
8336,97.656250
8337,97.656250
8338,97.656250
8339,93.750000
8340,93.750000
8341,93.750000
8342,93.750000
8343,93.750000
8344,93.750000
8345,93.750000
8346,93.750000
8347,93.750000
8348,89.843750
8349,89.843750
8350,89.843750
8351,89.843750
8352,89.843750
8353,89.843750
8354,89.843750
8355,89.843750
8356,85.937500
8357,85.937500
8358,85.937500
8359,85.937500
8360,85.937500
8361,85.937500
8362,85.937500
8363,85.937500
8364,82.031250
8365,82.031250
8366,82.031250
8367,82.031250
8368,82.031250
8369,82.031250
8370,82.031250
8371,78.125000
8372,78.125000
8373,78.125000
8374,78.125000
8375,78.125000
8376,78.125000
8377,78.125000
8378,74.218750
8379,74.218750
8380,74.218750
8381,74.218750
8382,74.218750
8383,74.218750
8384,70.312500
8385,70.312500
8386,70.312500
8387,70.312500
8388,70.312500
8389,70.312500
8390,70.312500
8391,66.406250
8392,66.406250
8393,66.406250
8394,66.406250
8395,66.406250
8396,66.406250
8397,62.500000
8398,62.500000
8399,62.500000
8400,62.500000
8401,62.500000
8402,62.500000
8403,58.593750
8404,58.593750
8405,58.593750
8406,58.593750
8407,58.593750
8408,54.687500
8409,54.687500
8410,54.687500
8411,54.687500
8412,54.687500
8413,54.687500
8414,50.781250
8415,50.781250
8416,50.781250
8417,50.781250
8418,50.781250
8419,46.875000
8420,46.875000
8421,46.875000
8422,46.875000
8423,46.875000
8424,46.875000
8425,42.968750
8426,42.968750
8427,42.968750
8428,42.968750
8429,39.062500
8430,39.062500
8431,39.062500
8432,39.062500
8433,39.062500
8434,39.062500
8435,39.062500
8436,35.156250
8437,35.156250
8438,35.156250
8439,35.156250
8440,35.156250
8441,31.250000
8442,31.250000
8443,31.250000
8444,31.250000
8445,27.343750
8446,27.343750
8447,27.343750
8448,27.343750
8449,27.343750
8450,27.343750
8451,23.437500
8452,23.437500
8453,23.437500
8454,23.437500
8455,19.531250
8456,19.531250
8457,19.531250
8458,19.531250
8459,19.531250
8460,15.625000
8461,15.625000
8462,15.625000
8463,15.625000
8464,11.718750
8465,11.718750
8466,11.718750
8467,11.718750
8468,11.718750
8469,7.812500
8470,7.812500
8471,7.812500
8472,7.812500
8473,7.812500
8474,3.906250
8475,3.906250
8476,3.906250
8477,0.000000
8478,0.000000
8479,0.000000
8480,0.000000
8481,0.000000
8482,0.000000
8483,-3.906250
8484,-3.906250
8485,-3.906250
8486,-3.906250
8487,-7.812500
8488,-7.812500
8489,-7.812500
8490,-7.812500
8491,-11.718750
8492,-11.718750
8493,-11.718750
8494,-11.718750
8495,-11.718750
8496,-15.625000
8497,-15.625000
8498,-15.625000
8499,-19.531250
8500,-19.531250
8501,-19.531250
8502,-19.531250
8503,-19.531250
8504,-19.531250
8505,-23.437500
8506,-23.437500
8507,-23.437500
8508,-23.437500
8509,-27.343750
8510,-27.343750
8511,-27.343750
8512,-27.343750
8513,-31.250000
8514,-31.250000
8515,-31.250000
8516,-31.250000
8517,-35.156250
8518,-35.156250
8519,-35.156250
8520,-35.156250
8521,-39.062500
8522,-39.062500
8523,-39.062500
8524,-39.062500
8525,-39.062500
8526,-39.062500
8527,-42.968750
8528,-46.875000
8529,-42.968750
8530,-46.875000
8531,-46.875000
8532,-46.875000
8533,-46.875000
8534,-50.781250
8535,-50.781250
8536,-50.781250
8537,-50.781250
8538,-50.781250
8539,-54.687500
8540,-54.687500
8541,-54.687500
8542,-54.687500
8543,-54.687500
8544,-58.593750
8545,-58.593750
8546,-58.593750
8547,-58.593750
8548,-58.593750
8549,-58.593750
8550,-62.500000
8551,-62.500000
8552,-62.500000
8553,-66.406250
8554,-66.406250
8555,-66.406250
8556,-66.406250
8557,-66.406250
8558,-66.406250
8559,-70.312500
8560,-70.312500
8561,-70.312500
8562,-74.218750
8563,-74.218750
8564,-74.218750
8565,-74.218750
8566,-74.218750
8567,-74.218750
8568,-78.125000
8569,-78.125000
8570,-78.125000
8571,-78.125000
8572,-82.031250
8573,-82.031250
8574,-82.031250
8575,-82.031250
8576,-82.031250
8577,-85.937500
8578,-85.937500
8579,-85.937500
8580,-85.937500
8581,-89.843750
8582,-89.843750
8583,-89.843750
8584,-89.843750
8585,-89.843750
8586,-93.750000
8587,-93.750000
8588,-93.750000
8589,-93.750000
8590,-93.750000
8591,-93.750000
8592,-97.656250
8593,-97.656250
8594,-97.656250
8595,-97.656250
8596,-97.656250
8597,-101.562500
8598,-101.562500
8599,-101.562500
8600,-101.562500
8601,-101.562500
8602,-105.468750
8603,-105.468750
8604,-105.468750
8605,-105.468750
8606,-105.468750
8607,-109.375000
8608,-109.375000
8609,-109.375000
8610,-109.375000
8611,-109.375000
8612,-109.375000
8613,-109.375000
8614,-113.281250
8615,-113.281250
8616,-113.281250
8617,-113.281250
8618,-113.281250
8619,-113.281250
8620,-117.187500
8621,-117.187500
8622,-117.187500
8623,-117.187500
8624,-117.187500
8625,-121.093750
8626,-121.093750
8627,-121.093750
8628,-121.093750
8629,-121.093750
8630,-121.093750
8631,-121.093750
8632,-125.000000
8633,-125.000000
8634,-125.000000
8635,-125.000000
8636,-125.000000
8637,-125.000000
8638,-128.906250
8639,-128.906250
8640,-128.906250
8641,-128.906250
8642,-128.906250
8643,-128.906250
8644,-132.812500
8645,-132.812500
8646,-132.812500
8647,-132.812500
8648,-132.812500
8649,-132.812500
8650,-132.812500
8651,-132.812500
8652,-136.718750
8653,-136.718750
8654,-136.718750
8655,-136.718750
8656,-136.718750
8657,-136.718750
8658,-136.718750
8659,-136.718750
8660,-140.625000
8661,-140.625000
8662,-140.625000
8663,-140.625000
8664,-140.625000
8665,-140.625000
8666,-140.625000
8667,-140.625000
8668,-140.625000
8669,-140.625000
8670,-144.531250
8671,-144.531250
8672,-144.531250
8673,-144.531250
8674,-144.531250
8675,-144.531250
8676,-144.531250
8677,-144.531250
8678,-144.531250
8679,-144.531250
8680,-148.437500
8681,-144.531250
8682,-148.437500
8683,-148.437500
8684,-148.437500
8685,-148.437500
8686,-148.437500
8687,-148.437500
8688,-148.437500
8689,-148.437500
8690,-148.437500
8691,-148.437500
8692,-148.437500
8693,-148.437500
8694,-148.437500
8695,-148.437500
8696,-152.343750
8697,-148.437500
8698,-152.343750
8699,-152.343750
8700,-152.343750
8701,-152.343750
8702,-152.343750
8703,-152.343750
8704,-152.343750
8705,-152.343750
8706,-152.343750
8707,-152.343750
8708,-152.343750
8709,-152.343750
8710,-156.250000
8711,-152.343750
8712,-152.343750
8713,-152.343750
8714,-152.343750
8715,-156.250000
8716,-156.250000
8717,-156.250000
8718,-156.250000
8719,-156.250000
8720,-156.250000
8721,-156.250000
8722,-156.250000
8723,-156.250000
8724,-156.250000
8725,-156.250000
8726,-156.250000
8727,-156.250000
8728,-156.250000
8729,-156.250000
8730,-156.250000
8731,-156.250000
8732,-156.250000
8733,-156.250000
8734,-156.250000
8735,-156.250000
8736,-156.250000
8737,-156.250000
8738,-156.250000
8739,-156.250000
8740,-156.250000
8741,-156.250000
8742,-156.250000
8743,-156.250000
8744,-156.250000
8745,-156.250000
8746,-156.250000
8747,-156.250000
8748,-156.250000
8749,-156.250000
8750,-152.343750
8751,-156.250000
8752,-156.250000
8753,-156.250000
8754,-156.250000
8755,-156.250000
8756,-152.343750
8757,-156.250000
8758,-156.250000
8759,-152.343750
8760,-152.343750
8761,-152.343750
8762,-152.343750
8763,-152.343750
8764,-152.343750
8765,-152.343750
8766,-152.343750
8767,-152.343750
8768,-152.343750
8769,-152.343750
8770,-152.343750
8771,-152.343750
8772,-152.343750
8773,-152.343750
8774,-152.343750
8775,-152.343750
8776,-152.343750
8777,-152.343750
8778,-148.437500
8779,-148.437500
8780,-148.437500
8781,-148.437500
8782,-148.437500
8783,-148.437500
8784,-148.437500
8785,-148.437500
8786,-148.437500
8787,-148.437500
8788,-148.437500
8789,-148.437500
8790,-148.437500
8791,-144.531250
8792,-144.531250
8793,-144.531250
8794,-144.531250
8795,-144.531250
8796,-144.531250
8797,-144.531250
8798,-144.531250
8799,-140.625000
8800,-140.625000
8801,-140.625000
8802,-140.625000
8803,-140.625000
8804,-140.625000
8805,-140.625000
8806,-140.625000
8807,-140.625000
8808,-136.718750
8809,-136.718750
8810,-136.718750
8811,-136.718750
8812,-136.718750
8813,-136.718750
8814,-136.718750
8815,-136.718750
8816,-132.812500
8817,-132.812500
8818,-132.812500
8819,-132.812500
8820,-132.812500
8821,-132.812500
8822,-132.812500
8823,-132.812500
8824,-132.812500
8825,-128.906250
8826,-128.906250
8827,-128.906250
8828,-128.906250
8829,-128.906250
8830,-128.906250
8831,-125.000000
8832,-125.000000
8833,-125.000000
8834,-125.000000
8835,-125.000000
8836,-125.000000
8837,-121.093750
8838,-125.000000
8839,-121.093750
8840,-121.093750
8841,-121.093750
8842,-121.093750
8843,-121.093750
8844,-121.093750
8845,-121.093750
8846,-117.187500
8847,-117.187500
8848,-117.187500
8849,-117.187500
8850,-113.281250
8851,-117.187500
8852,-113.281250
8853,-113.281250
8854,-113.281250
8855,-113.281250
8856,-113.281250
8857,-109.375000
8858,-109.375000
8859,-109.375000
8860,-109.375000
8861,-109.375000
8862,-105.468750
8863,-105.468750
8864,-105.468750
8865,-105.468750
8866,-105.468750
8867,-105.468750
8868,-101.562500
8869,-101.562500
8870,-101.562500
8871,-101.562500
8872,-101.562500
8873,-97.656250
8874,-97.656250
8875,-97.656250
8876,-97.656250
8877,-97.656250
8878,-93.750000
8879,-97.656250
8880,-93.750000
8881,-93.750000
8882,-93.750000
8883,-89.843750
8884,-89.843750
8885,-89.843750
8886,-89.843750
8887,-89.843750
8888,-85.937500
8889,-85.937500
8890,-85.937500
8891,-85.937500
8892,-85.937500
8893,-85.937500
8894,-82.031250
8895,-82.031250
8896,-82.031250
8897,-82.031250
8898,-82.031250
8899,-78.125000
8900,-78.125000
8901,-78.125000
8902,-78.125000
8903,-74.218750
8904,-74.218750
8905,-74.218750
8906,-74.218750
8907,-70.312500
8908,-70.312500
8909,-70.312500
8910,-70.312500
8911,-70.312500
8912,-66.406250
8913,-66.406250
8914,-66.406250
8915,-66.406250
8916,-62.500000
8917,-62.500000
8918,-62.500000
8919,-62.500000
8920,-62.500000
8921,-62.500000
8922,-58.593750
8923,-58.593750
8924,-58.593750
8925,-58.593750
8926,-58.593750
8927,-54.687500
8928,-54.687500
8929,-54.687500
8930,-50.781250
8931,-50.781250
8932,-50.781250
8933,-50.781250
8934,-50.781250
8935,-46.875000
8936,-46.875000
8937,-46.875000
8938,-42.968750
8939,-42.968750
8940,-42.968750
8941,-42.968750
8942,-42.968750
8943,-39.062500
8944,-39.062500
8945,-39.062500
8946,-39.062500
8947,-35.156250
8948,-35.156250
8949,-35.156250
8950,-35.156250
8951,-35.156250
8952,-35.156250
8953,-31.250000
8954,-31.250000
8955,-31.250000
8956,-27.343750
8957,-27.343750
8958,-27.343750
8959,-27.343750
8960,-27.343750
8961,-23.437500
8962,-23.437500
8963,-23.437500
8964,-23.437500
8965,-19.531250
8966,-19.531250
8967,-19.531250
8968,-19.531250
8969,-19.531250
8970,-15.625000
8971,-15.625000
8972,-15.625000
8973,-15.625000
8974,-11.718750
8975,-11.718750
8976,-11.718750
8977,-11.718750
8978,-11.718750
8979,-7.812500
8980,-7.812500
8981,-7.812500
8982,-7.812500
8983,-3.906250
8984,-3.906250
8985,-3.906250
8986,-3.906250
8987,-3.906250
8988,0.000000
8989,0.000000
8990,0.000000
8991,0.000000
8992,0.000000
8993,3.906250
8994,3.906250
8995,3.906250
8996,3.906250
8997,7.812500
8998,7.812500
8999,7.812500
9000,7.812500
9001,11.718750
9002,11.718750
9003,11.718750
9004,11.718750
9005,11.718750
9006,15.625000
9007,15.625000
9008,15.625000
9009,15.625000
9010,15.625000
9011,19.531250
9012,19.531250
9013,19.531250
9014,19.531250
9015,19.531250
9016,19.531250
9017,23.437500
9018,23.437500
9019,23.437500
9020,27.343750
9021,27.343750
9022,27.343750
9023,27.343750
9024,27.343750
9025,31.250000
9026,31.250000
9027,31.250000
9028,31.250000
9029,35.156250
9030,35.156250
9031,35.156250
9032,35.156250
9033,35.156250
9034,35.156250
9035,35.156250
9036,39.062500
9037,39.062500
9038,39.062500
9039,39.062500
9040,42.968750
9041,42.968750
9042,42.968750
9043,42.968750
9044,42.968750
9045,42.968750
9046,46.875000
9047,46.875000
9048,46.875000
9049,50.781250
9050,46.875000
9051,50.781250
9052,50.781250
9053,50.781250
9054,50.781250
9055,50.781250
9056,54.687500
9057,54.687500
9058,54.687500
9059,54.687500
9060,54.687500
9061,58.593750
9062,58.593750
9063,58.593750
9064,58.593750
9065,58.593750
9066,58.593750
9067,62.500000
9068,62.500000
9069,62.500000
9070,62.500000
9071,62.500000
9072,62.500000
9073,62.500000
9074,66.406250
9075,66.406250
9076,66.406250
9077,66.406250
9078,66.406250
9079,70.312500
9080,70.312500
9081,70.312500
9082,70.312500
9083,70.312500
9084,70.312500
9085,70.312500
9086,74.218750
9087,74.218750
9088,74.218750
9089,74.218750
9090,74.218750
9091,74.218750
9092,74.218750
9093,78.125000
9094,78.125000
9095,78.125000
9096,78.125000
9097,78.125000
9098,78.125000
9099,82.031250
9100,82.031250
9101,82.031250
9102,82.031250
9103,82.031250
9104,82.031250
9105,82.031250
9106,85.937500
9107,85.937500
9108,85.937500
9109,85.937500
9110,85.937500
9111,85.937500
9112,85.937500
9113,85.937500
9114,85.937500
9115,89.843750
9116,89.843750
9117,89.843750
9118,89.843750
9119,89.843750
9120,89.843750
9121,89.843750
9122,89.843750
9123,93.750000
9124,93.750000
9125,93.750000
9126,93.750000
9127,93.750000
9128,93.750000
9129,93.750000
9130,97.656250
9131,97.656250
9132,97.656250
9133,97.656250
9134,97.656250
9135,97.656250
9136,97.656250
9137,97.656250
9138,97.656250
9139,97.656250
9140,97.656250
9141,101.562500
9142,101.562500
9143,101.562500
9144,101.562500
9145,101.562500
9146,101.562500
9147,101.562500
9148,101.562500
9149,101.562500
9150,101.562500
9151,101.562500
9152,101.562500
9153,105.468750
9154,105.468750
9155,105.468750
9156,105.468750
9157,105.468750
9158,105.468750
9159,105.468750
9160,105.468750
9161,105.468750
9162,105.468750
9163,105.468750
9164,105.468750
9165,105.468750
9166,109.375000
9167,105.468750
9168,109.375000
9169,109.375000
9170,109.375000
9171,109.375000
9172,109.375000
9173,109.375000
9174,109.375000
9175,109.375000
9176,109.375000
9177,109.375000
9178,109.375000
9179,109.375000
9180,113.281250
9181,113.281250
9182,113.281250
9183,113.281250
9184,113.281250
9185,113.281250
9186,113.281250
9187,113.281250
9188,113.281250
9189,113.281250
9190,113.281250
9191,113.281250
9192,113.281250
9193,113.281250
9194,113.281250
9195,113.281250
9196,113.281250
9197,113.281250
9198,113.281250
9199,113.281250
9200,113.281250
9201,113.281250
9202,117.187500
9203,117.187500
9204,117.187500
9205,113.281250
9206,117.187500
9207,117.187500
9208,117.187500
9209,117.187500
9210,117.187500
9211,117.187500
9212,117.187500
9213,117.187500
9214,117.187500
9215,117.187500
9216,117.187500
9217,117.187500
9218,117.187500
9219,117.187500
9220,117.187500
9221,117.187500
9222,117.187500
9223,117.187500
9224,117.187500
9225,117.187500
9226,117.187500
9227,117.187500
9228,117.187500
9229,117.187500
9230,117.187500
9231,117.187500
9232,117.187500
9233,117.187500
9234,117.187500
9235,117.187500
9236,117.187500
9237,117.187500
9238,117.187500
9239,117.187500
9240,117.187500
9241,117.187500
9242,117.187500
9243,117.187500
9244,117.187500
9245,117.187500
9246,117.187500
9247,117.187500
9248,117.187500
9249,117.187500
9250,117.187500
9251,117.187500
9252,117.187500
9253,113.281250
9254,113.281250
9255,113.281250
9256,117.187500
9257,117.187500
9258,113.281250
9259,113.281250
9260,113.281250
9261,113.281250
9262,113.281250
9263,113.281250
9264,113.281250
9265,113.281250
9266,113.281250
9267,113.281250
9268,113.281250
9269,113.281250
9270,113.281250
9271,113.281250
9272,113.281250
9273,113.281250
9274,113.281250
9275,113.281250
9276,113.281250
9277,113.281250
9278,113.281250
9279,109.375000
9280,113.281250
9281,113.281250
9282,109.375000
9283,109.375000
9284,109.375000
9285,109.375000
9286,109.375000
9287,109.375000
9288,109.375000
9289,109.375000
9290,109.375000
9291,109.375000
9292,109.375000
9293,109.375000
9294,109.375000
9295,105.468750
9296,109.375000
9297,105.468750
9298,105.468750
9299,105.468750
9300,105.468750
9301,105.468750
9302,105.468750
9303,105.468750
9304,105.468750
9305,105.468750
9306,105.468750
9307,105.468750
9308,101.562500
9309,101.562500
9310,101.562500
9311,101.562500
9312,101.562500
9313,101.562500
9314,101.562500
9315,101.562500
9316,101.562500
9317,101.562500
9318,101.562500
9319,101.562500
9320,97.656250
9321,97.656250
9322,97.656250
9323,97.656250
9324,97.656250
9325,97.656250
9326,97.656250
9327,97.656250
9328,97.656250
9329,93.750000
9330,93.750000
9331,93.750000
9332,93.750000
9333,93.750000
9334,93.750000
9335,93.750000
9336,93.750000
9337,93.750000
9338,89.843750
9339,89.843750
9340,89.843750
9341,89.843750
9342,89.843750
9343,89.843750
9344,89.843750
9345,89.843750
9346,89.843750
9347,85.937500
9348,85.937500
9349,85.937500
9350,85.937500
9351,85.937500
9352,85.937500
9353,85.937500
9354,82.031250
9355,82.031250
9356,82.031250
9357,82.031250
9358,82.031250
9359,82.031250
9360,82.031250
9361,82.031250
9362,78.125000
9363,78.125000
9364,78.125000
9365,78.125000
9366,78.125000
9367,78.125000
9368,78.125000
9369,74.218750
9370,74.218750
9371,74.218750
9372,74.218750
9373,74.218750
9374,74.218750
9375,70.312500
9376,70.312500
9377,70.312500
9378,70.312500
9379,66.406250
9380,70.312500
9381,70.312500
9382,66.406250
9383,66.406250
9384,66.406250
9385,66.406250
9386,62.500000
9387,62.500000
9388,62.500000
9389,62.500000
9390,62.500000
9391,62.500000
9392,62.500000
9393,58.593750
9394,58.593750
9395,58.593750
9396,58.593750
9397,58.593750
9398,54.687500
9399,54.687500
9400,54.687500
9401,54.687500
9402,54.687500
9403,54.687500
9404,50.781250
9405,50.781250
9406,50.781250
9407,50.781250
9408,50.781250
9409,50.781250
9410,46.875000
9411,46.875000
9412,46.875000
9413,46.875000
9414,42.968750
9415,42.968750
9416,42.968750
9417,42.968750
9418,42.968750
9419,42.968750
9420,39.062500
9421,39.062500
9422,39.062500
9423,35.156250
9424,39.062500
9425,39.062500
9426,35.156250
9427,35.156250
9428,35.156250
9429,31.250000
9430,31.250000
9431,31.250000
9432,31.250000
9433,31.250000
9434,31.250000
9435,27.343750
9436,27.343750
9437,27.343750
9438,27.343750
9439,23.437500
9440,23.437500
9441,23.437500
9442,23.437500
9443,23.437500
9444,19.531250
9445,19.531250
9446,19.531250
9447,19.531250
9448,19.531250
9449,15.625000
9450,15.625000
9451,15.625000
9452,15.625000
9453,15.625000
9454,11.718750
9455,11.718750
9456,11.718750
9457,11.718750
9458,11.718750
9459,7.812500
9460,7.812500
9461,7.812500
9462,3.906250
9463,3.906250
9464,3.906250
9465,3.906250
9466,3.906250
9467,0.000000
9468,0.000000
9469,0.000000
9470,0.000000
9471,0.000000
9472,-3.906250
9473,-3.906250
9474,-3.906250
9475,-3.906250
9476,-3.906250
9477,-7.812500
9478,-7.812500
9479,-7.812500
9480,-7.812500
9481,-11.718750
9482,-11.718750
9483,-11.718750
9484,-11.718750
9485,-15.625000
9486,-15.625000
9487,-15.625000
9488,-15.625000
9489,-19.531250
9490,-19.531250
9491,-19.531250
9492,-19.531250
9493,-19.531250
9494,-23.437500
9495,-23.437500
9496,-23.437500
9497,-23.437500
9498,-27.343750
9499,-27.343750
9500,-27.343750
9501,-27.343750
9502,-27.343750
9503,-31.250000
9504,-31.250000
9505,-31.250000
9506,-31.250000
9507,-35.156250
9508,-35.156250
9509,-35.156250
9510,-35.156250
9511,-39.062500
9512,-39.062500
9513,-39.062500
9514,-39.062500
9515,-39.062500
9516,-42.968750
9517,-42.968750
9518,-42.968750
9519,-42.968750
9520,-46.875000
9521,-46.875000
9522,-46.875000
9523,-46.875000
9524,-46.875000
9525,-50.781250
9526,-50.781250
9527,-50.781250
9528,-50.781250
9529,-54.687500
9530,-54.687500
9531,-54.687500
9532,-54.687500
9533,-58.593750
9534,-58.593750
9535,-58.593750
9536,-58.593750
9537,-58.593750
9538,-62.500000
9539,-62.500000
9540,-62.500000
9541,-62.500000
9542,-66.406250
9543,-66.406250
9544,-66.406250
9545,-66.406250
9546,-66.406250
9547,-70.312500
9548,-70.312500
9549,-70.312500
9550,-70.312500
9551,-70.312500
9552,-74.218750
9553,-74.218750
9554,-74.218750
9555,-74.218750
9556,-78.125000
9557,-78.125000
9558,-78.125000
9559,-78.125000
9560,-78.125000
9561,-82.031250
9562,-82.031250
9563,-82.031250
9564,-82.031250
9565,-82.031250
9566,-85.937500
9567,-85.937500
9568,-85.937500
9569,-85.937500
9570,-85.937500
9571,-85.937500
9572,-89.843750
9573,-89.843750
9574,-89.843750
9575,-89.843750
9576,-93.750000
9577,-93.750000
9578,-93.750000
9579,-93.750000
9580,-93.750000
9581,-93.750000
9582,-97.656250
9583,-97.656250
9584,-97.656250
9585,-97.656250
9586,-97.656250
9587,-101.562500
9588,-101.562500
9589,-101.562500
9590,-101.562500
9591,-105.468750
9592,-105.468750
9593,-105.468750
9594,-105.468750
9595,-105.468750
9596,-105.468750
9597,-109.375000
9598,-109.375000
9599,-109.375000
9600,-109.375000
9601,-109.375000
9602,-109.375000
9603,-109.375000
9604,-113.281250
9605,-113.281250
9606,-113.281250
9607,-113.281250
9608,-113.281250
9609,-117.187500
9610,-117.187500
9611,-117.187500
9612,-117.187500
9613,-117.187500
9614,-117.187500
9615,-121.093750
9616,-121.093750
9617,-121.093750
9618,-121.093750
9619,-121.093750
9620,-121.093750
9621,-125.000000
9622,-125.000000
9623,-125.000000
9624,-125.000000
9625,-125.000000
9626,-125.000000
9627,-125.000000
9628,-128.906250
9629,-128.906250
9630,-128.906250
9631,-128.906250
9632,-128.906250
9633,-128.906250
9634,-128.906250
9635,-132.812500
9636,-132.812500
9637,-132.812500
9638,-132.812500
9639,-132.812500
9640,-132.812500
9641,-132.812500
9642,-132.812500
9643,-136.718750
9644,-136.718750
9645,-136.718750
9646,-136.718750
9647,-136.718750
9648,-136.718750
9649,-136.718750
9650,-136.718750
9651,-136.718750
9652,-140.625000
9653,-140.625000
9654,-140.625000
9655,-140.625000
9656,-140.625000
9657,-140.625000
9658,-140.625000
9659,-140.625000
9660,-144.531250
9661,-144.531250
9662,-144.531250
9663,-144.531250
9664,-144.531250
9665,-144.531250
9666,-144.531250
9667,-144.531250
9668,-148.437500
9669,-144.531250
9670,-148.437500
9671,-148.437500
9672,-148.437500
9673,-148.437500
9674,-148.437500
9675,-148.437500
9676,-148.437500
9677,-148.437500
9678,-148.437500
9679,-148.437500
9680,-148.437500
9681,-148.437500
9682,-148.437500
9683,-148.437500
9684,-148.437500
9685,-152.343750
9686,-152.343750
9687,-152.343750
9688,-152.343750
9689,-152.343750
9690,-152.343750
9691,-152.343750
9692,-152.343750
9693,-152.343750
9694,-152.343750
9695,-152.343750
9696,-152.343750
9697,-152.343750
9698,-152.343750
9699,-152.343750
9700,-152.343750
9701,-152.343750
9702,-152.343750
9703,-156.250000
9704,-152.343750
9705,-152.343750
9706,-156.250000
9707,-152.343750
9708,-152.343750
9709,-156.250000
9710,-156.250000
9711,-152.343750
9712,-156.250000
9713,-156.250000
9714,-156.250000
9715,-156.250000
9716,-152.343750
9717,-160.156250
9718,-152.343750
9719,-156.250000
9720,-156.250000
9721,-156.250000
9722,-156.250000
9723,-156.250000
9724,-156.250000
9725,-156.250000
9726,-156.250000
9727,-156.250000
9728,-156.250000
9729,-156.250000
9730,-156.250000
9731,-156.250000
9732,-156.250000
9733,-156.250000
9734,-156.250000
9735,-156.250000
9736,-156.250000
9737,-156.250000
9738,-156.250000
9739,-156.250000
9740,-156.250000
9741,-156.250000
9742,-156.250000
9743,-152.343750
9744,-156.250000
9745,-156.250000
9746,-156.250000
9747,-152.343750
9748,-152.343750
9749,-152.343750
9750,-152.343750
9751,-152.343750
9752,-152.343750
9753,-152.343750
9754,-152.343750
9755,-152.343750
9756,-152.343750
9757,-152.343750
9758,-152.343750
9759,-152.343750
9760,-152.343750
9761,-152.343750
9762,-152.343750
9763,-152.343750
9764,-152.343750
9765,-152.343750
9766,-148.437500
9767,-148.437500
9768,-148.437500
9769,-148.437500
9770,-148.437500
9771,-148.437500
9772,-148.437500
9773,-148.437500
9774,-148.437500
9775,-144.531250
9776,-148.437500
9777,-148.437500
9778,-144.531250
9779,-148.437500
9780,-144.531250
9781,-144.531250
9782,-144.531250
9783,-144.531250
9784,-144.531250
9785,-144.531250
9786,-144.531250
9787,-144.531250
9788,-144.531250
9789,-144.531250
9790,-140.625000
9791,-140.625000
9792,-140.625000
9793,-140.625000
9794,-140.625000
9795,-140.625000
9796,-140.625000
9797,-140.625000
9798,-140.625000
9799,-136.718750
9800,-136.718750
9801,-136.718750
9802,-136.718750
9803,-136.718750
9804,-136.718750
9805,-136.718750
9806,-136.718750
9807,-132.812500
9808,-136.718750
9809,-132.812500
9810,-132.812500
9811,-132.812500
9812,-132.812500
9813,-132.812500
9814,-128.906250
9815,-128.906250
9816,-128.906250
9817,-128.906250
9818,-128.906250
9819,-128.906250
9820,-128.906250
9821,-125.000000
9822,-125.000000
9823,-125.000000
9824,-125.000000
9825,-125.000000
9826,-125.000000
9827,-125.000000
9828,-125.000000
9829,-121.093750
9830,-121.093750
9831,-121.093750
9832,-121.093750
9833,-121.093750
9834,-117.187500
9835,-117.187500
9836,-117.187500
9837,-117.187500
9838,-117.187500
9839,-117.187500
9840,-117.187500
9841,-113.281250
9842,-113.281250
9843,-113.281250
9844,-113.281250
9845,-113.281250
9846,-113.281250
9847,-109.375000
9848,-109.375000
9849,-109.375000
9850,-109.375000
9851,-109.375000
9852,-105.468750
9853,-105.468750
9854,-105.468750
9855,-105.468750
9856,-105.468750
9857,-101.562500
9858,-101.562500
9859,-101.562500
9860,-101.562500
9861,-101.562500
9862,-101.562500
9863,-97.656250
9864,-97.656250
9865,-97.656250
9866,-97.656250
9867,-93.750000
9868,-93.750000
9869,-93.750000
9870,-93.750000
9871,-93.750000
9872,-93.750000
9873,-89.843750
9874,-89.843750
9875,-89.843750
9876,-89.843750
9877,-89.843750
9878,-85.937500
9879,-85.937500
9880,-85.937500
9881,-85.937500
9882,-85.937500
9883,-82.031250
9884,-82.031250
9885,-82.031250
9886,-82.031250
9887,-82.031250
9888,-78.125000
9889,-78.125000
9890,-78.125000
9891,-78.125000
9892,-74.218750
9893,-74.218750
9894,-74.218750
9895,-74.218750
9896,-74.218750
9897,-74.218750
9898,-70.312500
9899,-70.312500
9900,-70.312500
9901,-70.312500
9902,-66.406250
9903,-66.406250
9904,-66.406250
9905,-66.406250
9906,-66.406250
9907,-62.500000
9908,-62.500000
9909,-62.500000
9910,-62.500000
9911,-62.500000
9912,-58.593750
9913,-58.593750
9914,-58.593750
9915,-54.687500
9916,-54.687500
9917,-54.687500
9918,-54.687500
9919,-54.687500
9920,-54.687500
9921,-50.781250
9922,-50.781250
9923,-50.781250
9924,-46.875000
9925,-46.875000
9926,-46.875000
9927,-46.875000
9928,-46.875000
9929,-42.968750
9930,-42.968750
9931,-42.968750
9932,-42.968750
9933,-39.062500
9934,-39.062500
9935,-39.062500
9936,-39.062500
9937,-39.062500
9938,-35.156250
9939,-35.156250
9940,-35.156250
9941,-35.156250
9942,-31.250000
9943,-31.250000
9944,-31.250000
9945,-31.250000
9946,-31.250000
9947,-27.343750
9948,-27.343750
9949,-27.343750
9950,-27.343750
9951,-23.437500
9952,-23.437500
9953,-23.437500
9954,-23.437500
9955,-23.437500
9956,-19.531250
9957,-19.531250
9958,-19.531250
9959,-15.625000
9960,-15.625000
9961,-15.625000
9962,-15.625000
9963,-15.625000
9964,-11.718750
9965,-11.718750
9966,-11.718750
9967,-11.718750
9968,-7.812500
9969,-7.812500
9970,-7.812500
9971,-7.812500
9972,-3.906250
9973,-3.906250
9974,-3.906250
9975,-3.906250
9976,-3.906250
9977,0.000000
9978,0.000000
9979,0.000000
9980,0.000000
9981,0.000000
9982,3.906250
9983,3.906250
9984,3.906250
9985,3.906250
9986,7.812500
9987,7.812500
9988,7.812500
9989,7.812500
9990,7.812500
9991,11.718750
9992,11.718750
9993,11.718750
9994,11.718750
9995,15.625000
9996,15.625000
9997,15.625000
9998,15.625000
9999,15.625000
10000,19.531250
