Channel              :,CH1
Frequency            :,1.010kHz
Period               :,0.990ms
PK-PK                :,230.5mV
Probe attenuation    :,1X
Voltage per ADC value:,0.244141mV
Time interval        :,1.00000us

index,CH1_Voltage(mV)
1,-62.500000
2,-62.500000
3,-58.593750
4,-62.500000
5,-58.593750
6,-58.593750
7,-58.593750
8,-58.593750
9,-58.593750
10,-58.593750
11,-54.687500
12,-54.687500
13,-54.687500
14,-54.687500
15,-50.781250
16,-50.781250
17,-50.781250
18,-50.781250
19,-50.781250
20,-50.781250
21,-46.875000
22,-46.875000
23,-46.875000
24,-46.875000
25,-46.875000
26,-46.875000
27,-42.968750
28,-42.968750
29,-42.968750
30,-42.968750
31,-39.062500
32,-39.062500
33,-39.062500
34,-39.062500
35,-39.062500
36,-35.156250
37,-35.156250
38,-35.156250
39,-35.156250
40,-35.156250
41,-35.156250
42,-31.250000
43,-31.250000
44,-31.250000
45,-31.250000
46,-31.250000
47,-27.343750
48,-27.343750
49,-27.343750
50,-27.343750
51,-27.343750
52,-27.343750
53,-23.437500
54,-23.437500
55,-23.437500
56,-23.437500
57,-23.437500
58,-19.531250
59,-19.531250
60,-19.531250
61,-19.531250
62,-15.625000
63,-15.625000
64,-15.625000
65,-15.625000
66,-15.625000
67,-15.625000
68,-15.625000
69,-11.718750
70,-11.718750
71,-11.718750
72,-11.718750
73,-11.718750
74,-7.812500
75,-7.812500
76,-7.812500
77,-7.812500
78,-7.812500
79,-7.812500
80,-3.906250
81,-3.906250
82,-3.906250
83,-3.906250
84,-3.906250
85,0.000000
86,0.000000
87,0.000000
88,0.000000
89,0.000000
90,3.906250
91,3.906250
92,3.906250
93,3.906250
94,3.906250
95,3.906250
96,7.812500
97,7.812500
98,7.812500
99,7.812500
100,7.812500
101,11.718750
102,11.718750
103,11.718750
104,11.718750
105,11.718750
106,11.718750
107,15.625000
108,15.625000
109,15.625000
110,15.625000
111,15.625000
112,19.531250
113,19.531250
114,19.531250
115,19.531250
116,19.531250
117,19.531250
118,19.531250
119,19.531250
120,23.437500
121,23.437500
122,23.437500
123,23.437500
124,27.343750
125,27.343750
126,27.343750
127,27.343750
128,27.343750
129,27.343750
130,27.343750
131,31.250000
132,31.250000
133,31.250000
134,31.250000
135,31.250000
136,31.250000
137,35.156250
138,35.156250
139,35.156250
140,35.156250
141,35.156250
142,39.062500
143,39.062500
144,39.062500
145,39.062500
146,39.062500
147,39.062500
148,39.062500
149,39.062500
150,42.968750
151,42.968750
152,42.968750
153,42.968750
154,42.968750
155,42.968750
156,46.875000
157,46.875000
158,46.875000
159,46.875000
160,46.875000
161,46.875000
162,50.781250
163,50.781250
164,50.781250
165,50.781250
166,50.781250
167,50.781250
168,54.687500
169,54.687500
170,54.687500
171,54.687500
172,54.687500
173,54.687500
174,54.687500
175,58.593750
176,54.687500
177,58.593750
178,58.593750
179,58.593750
180,58.593750
181,58.593750
182,58.593750
183,58.593750
184,58.593750
185,62.500000
186,62.500000
187,62.500000
188,62.500000
189,62.500000
190,62.500000
191,62.500000
192,66.406250
193,66.406250
194,66.406250
195,66.406250
196,66.406250
197,66.406250
198,66.406250
199,70.312500
200,70.312500
201,70.312500
202,70.312500
203,70.312500
204,70.312500
205,70.312500
206,70.312500
207,74.218750
208,70.312500
209,74.218750
210,74.218750
211,74.218750
212,74.218750
213,74.218750
214,74.218750
215,74.218750
216,74.218750
217,74.218750
218,78.125000
219,78.125000
220,78.125000
221,78.125000
222,78.125000
223,78.125000
224,78.125000
225,78.125000
226,78.125000
227,78.125000
228,78.125000
229,82.031250
230,82.031250
231,82.031250
232,82.031250
233,82.031250
234,82.031250
235,82.031250
236,82.031250
237,82.031250
238,82.031250
239,82.031250
240,82.031250
241,85.937500
242,85.937500
243,85.937500
244,85.937500
245,85.937500
246,85.937500
247,85.937500
248,85.937500
249,85.937500
250,85.937500
251,85.937500
252,85.937500
253,89.843750
254,89.843750
255,89.843750
256,89.843750
257,89.843750
258,89.843750
259,89.843750
260,89.843750
261,89.843750
262,89.843750
263,89.843750
264,89.843750
265,89.843750
266,89.843750
267,93.750000
268,93.750000
269,93.750000
270,93.750000
271,93.750000
272,93.750000
273,93.750000
274,93.750000
275,93.750000
276,93.750000
277,93.750000
278,93.750000
279,93.750000
280,93.750000
281,93.750000
282,93.750000
283,93.750000
284,93.750000
285,93.750000
286,93.750000
287,93.750000
288,93.750000
289,97.656250
290,97.656250
291,97.656250
292,97.656250
293,97.656250
294,97.656250
295,97.656250
296,97.656250
297,97.656250
298,97.656250
299,97.656250
300,97.656250
301,97.656250
302,97.656250
303,97.656250
304,97.656250
305,97.656250
306,97.656250
307,97.656250
308,97.656250
309,97.656250
310,97.656250
311,97.656250
312,97.656250
313,97.656250
314,97.656250
315,97.656250
316,97.656250
317,97.656250
318,97.656250
319,97.656250
320,97.656250
321,97.656250
322,97.656250
323,97.656250
324,97.656250
325,97.656250
326,97.656250
327,97.656250
328,97.656250
329,97.656250
330,97.656250
331,97.656250
332,97.656250
333,97.656250
334,97.656250
335,97.656250
336,97.656250
337,97.656250
338,97.656250
339,101.562500
340,97.656250
341,97.656250
342,97.656250
343,97.656250
344,97.656250
345,97.656250
346,97.656250
347,97.656250
348,97.656250
349,97.656250
350,97.656250
351,97.656250
352,97.656250
353,97.656250
354,97.656250
355,97.656250
356,97.656250
357,97.656250
358,97.656250
359,97.656250
360,97.656250
361,97.656250
362,97.656250
363,97.656250
364,97.656250
365,93.750000
366,97.656250
367,97.656250
368,93.750000
369,93.750000
370,93.750000
371,93.750000
372,93.750000
373,93.750000
374,93.750000
375,93.750000
376,93.750000
377,93.750000
378,93.750000
379,93.750000
380,93.750000
381,93.750000
382,93.750000
383,93.750000
384,93.750000
385,93.750000
386,93.750000
387,89.843750
388,89.843750
389,89.843750
390,89.843750
391,89.843750
392,89.843750
393,89.843750
394,89.843750
395,89.843750
396,89.843750
397,89.843750
398,89.843750
399,89.843750
400,89.843750
401,89.843750
402,85.937500
403,89.843750
404,85.937500
405,85.937500
406,85.937500
407,85.937500
408,85.937500
409,85.937500
410,85.937500
411,85.937500
412,85.937500
413,85.937500
414,85.937500
415,85.937500
416,85.937500
417,82.031250
418,82.031250
419,82.031250
420,82.031250
421,82.031250
422,82.031250
423,82.031250
424,82.031250
425,82.031250
426,82.031250
427,82.031250
428,78.125000
429,78.125000
430,78.125000
431,78.125000
432,78.125000
433,78.125000
434,78.125000
435,78.125000
436,78.125000
437,74.218750
438,74.218750
439,74.218750
440,74.218750
441,74.218750
442,74.218750
443,74.218750
444,74.218750
445,74.218750
446,74.218750
447,70.312500
448,74.218750
449,70.312500
450,70.312500
451,70.312500
452,70.312500
453,70.312500
454,70.312500
455,66.406250
456,66.406250
457,66.406250
458,66.406250
459,66.406250
460,66.406250
461,66.406250
462,66.406250
463,66.406250
464,66.406250
465,62.500000
466,62.500000
467,62.500000
468,62.500000
469,62.500000
470,58.593750
471,62.500000
472,58.593750
473,58.593750
474,58.593750
475,58.593750
476,58.593750
477,58.593750
478,58.593750
479,54.687500
480,54.687500
481,54.687500
482,54.687500
483,54.687500
484,54.687500
485,54.687500
486,50.781250
487,50.781250
488,50.781250
489,50.781250
490,50.781250
491,50.781250
492,50.781250
493,46.875000
494,46.875000
495,46.875000
496,46.875000
497,46.875000
498,46.875000
499,46.875000
500,42.968750
501,42.968750
502,42.968750
503,42.968750
504,42.968750
505,39.062500
506,39.062500
507,39.062500
508,39.062500
509,39.062500
510,39.062500
511,39.062500
512,35.156250
513,35.156250
514,35.156250
515,35.156250
516,35.156250
517,35.156250
518,31.250000
519,31.250000
520,31.250000
521,31.250000
522,31.250000
523,31.250000
524,27.343750
525,27.343750
526,27.343750
527,27.343750
528,27.343750
529,27.343750
530,27.343750
531,23.437500
532,23.437500
533,23.437500
534,23.437500
535,23.437500
536,23.437500
537,19.531250
538,19.531250
539,19.531250
540,19.531250
541,19.531250
542,15.625000
543,15.625000
544,15.625000
545,15.625000
546,15.625000
547,15.625000
548,11.718750
549,11.718750
550,11.718750
551,11.718750
552,11.718750
553,7.812500
554,7.812500
555,7.812500
556,7.812500
557,7.812500
558,7.812500
559,7.812500
560,3.906250
561,3.906250
562,3.906250
563,3.906250
564,3.906250
565,0.000000
566,0.000000
567,0.000000
568,0.000000
569,0.000000
570,-3.906250
571,-3.906250
572,-3.906250
573,-3.906250
574,-3.906250
575,-3.906250
576,-7.812500
577,-7.812500
578,-7.812500
579,-7.812500
580,-7.812500
581,-11.718750
582,-11.718750
583,-11.718750
584,-11.718750
585,-11.718750
586,-11.718750
587,-15.625000
588,-15.625000
589,-15.625000
590,-15.625000
591,-19.531250
592,-19.531250
593,-19.531250
594,-19.531250
595,-19.531250
596,-19.531250
597,-19.531250
598,-23.437500
599,-23.437500
600,-23.437500
601,-23.437500
602,-27.343750
603,-27.343750
604,-27.343750
605,-27.343750
606,-27.343750
607,-27.343750
608,-31.250000
609,-31.250000
610,-31.250000
611,-31.250000
612,-31.250000
613,-35.156250
614,-35.156250
615,-35.156250
616,-35.156250
617,-35.156250
618,-39.062500
619,-39.062500
620,-39.062500
621,-39.062500
622,-39.062500
623,-39.062500
624,-42.968750
625,-42.968750
626,-42.968750
627,-42.968750
628,-46.875000
629,-46.875000
630,-46.875000
631,-46.875000
632,-46.875000
633,-46.875000
634,-46.875000
635,-50.781250
636,-50.781250
637,-50.781250
638,-50.781250
639,-50.781250
640,-54.687500
641,-54.687500
642,-54.687500
643,-54.687500
644,-54.687500
645,-58.593750
646,-58.593750
647,-58.593750
648,-58.593750
649,-58.593750
650,-58.593750
651,-62.500000
652,-62.500000
653,-62.500000
654,-62.500000
655,-62.500000
656,-62.500000
657,-66.406250
658,-66.406250
659,-66.406250
660,-66.406250
661,-70.312500
662,-70.312500
663,-70.312500
664,-70.312500
665,-70.312500
666,-70.312500
667,-70.312500
668,-74.218750
669,-74.218750
670,-74.218750
671,-74.218750
672,-74.218750
673,-74.218750
674,-78.125000
675,-78.125000
676,-78.125000
677,-78.125000
678,-78.125000
679,-78.125000
680,-78.125000
681,-82.031250
682,-82.031250
683,-82.031250
684,-82.031250
685,-82.031250
686,-82.031250
687,-82.031250
688,-85.937500
689,-85.937500
690,-85.937500
691,-85.937500
692,-85.937500
693,-85.937500
694,-85.937500
695,-89.843750
696,-89.843750
697,-89.843750
698,-89.843750
699,-89.843750
700,-89.843750
701,-93.750000
702,-93.750000
703,-93.750000
704,-93.750000
705,-93.750000
706,-93.750000
707,-93.750000
708,-93.750000
709,-93.750000
710,-97.656250
711,-97.656250
712,-97.656250
713,-97.656250
714,-97.656250
715,-97.656250
716,-101.562500
717,-101.562500
718,-101.562500
719,-101.562500
720,-101.562500
721,-101.562500
722,-101.562500
723,-101.562500
724,-105.468750
725,-105.468750
726,-105.468750
727,-105.468750
728,-105.468750
729,-105.468750
730,-105.468750
731,-105.468750
732,-105.468750
733,-105.468750
734,-109.375000
735,-109.375000
736,-109.375000
737,-109.375000
738,-109.375000
739,-109.375000
740,-109.375000
741,-109.375000
742,-109.375000
743,-113.281250
744,-109.375000
745,-113.281250
746,-113.281250
747,-113.281250
748,-113.281250
749,-113.281250
750,-113.281250
751,-113.281250
752,-113.281250
753,-117.187500
754,-117.187500
755,-117.187500
756,-117.187500
757,-117.187500
758,-117.187500
759,-117.187500
760,-117.187500
761,-117.187500
762,-117.187500
763,-117.187500
764,-117.187500
765,-121.093750
766,-121.093750
767,-121.093750
768,-121.093750
769,-121.093750
770,-121.093750
771,-121.093750
772,-121.093750
773,-121.093750
774,-121.093750
775,-121.093750
776,-121.093750
777,-121.093750
778,-121.093750
779,-125.000000
780,-121.093750
781,-125.000000
782,-125.000000
783,-125.000000
784,-125.000000
785,-125.000000
786,-125.000000
787,-125.000000
788,-125.000000
789,-125.000000
790,-125.000000
791,-125.000000
792,-125.000000
793,-125.000000
794,-125.000000
795,-125.000000
796,-125.000000
797,-125.000000
798,-125.000000
799,-128.906250
800,-125.000000
801,-125.000000
802,-125.000000
803,-125.000000
804,-125.000000
805,-128.906250
806,-128.906250
807,-128.906250
808,-125.000000
809,-128.906250
810,-128.906250
811,-128.906250
812,-128.906250
813,-128.906250
814,-128.906250
815,-128.906250
816,-128.906250
817,-128.906250
818,-128.906250
819,-128.906250
820,-128.906250
821,-128.906250
822,-128.906250
823,-128.906250
824,-128.906250
825,-125.000000
826,-125.000000
827,-128.906250
828,-128.906250
829,-125.000000
830,-125.000000
831,-125.000000
832,-125.000000
833,-128.906250
834,-128.906250
835,-128.906250
836,-128.906250
837,-125.000000
838,-125.000000
839,-125.000000
840,-125.000000
841,-128.906250
842,-128.906250
843,-125.000000
844,-125.000000
845,-125.000000
846,-125.000000
847,-125.000000
848,-125.000000
849,-125.000000
850,-125.000000
851,-125.000000
852,-125.000000
853,-125.000000
854,-125.000000
855,-125.000000
856,-125.000000
857,-125.000000
858,-125.000000
859,-125.000000
860,-125.000000
861,-125.000000
862,-125.000000
863,-121.093750
864,-125.000000
865,-121.093750
866,-121.093750
867,-121.093750
868,-121.093750
869,-121.093750
870,-121.093750
871,-121.093750
872,-121.093750
873,-121.093750
874,-121.093750
875,-121.093750
876,-121.093750
877,-121.093750
878,-121.093750
879,-121.093750
880,-121.093750
881,-117.187500
882,-117.187500
883,-117.187500
884,-117.187500
885,-117.187500
886,-117.187500
887,-117.187500
888,-117.187500
889,-117.187500
890,-117.187500
891,-117.187500
892,-117.187500
893,-113.281250
894,-113.281250
895,-113.281250
896,-113.281250
897,-113.281250
898,-113.281250
899,-113.281250
900,-113.281250
901,-113.281250
902,-113.281250
903,-109.375000
904,-109.375000
905,-109.375000
906,-109.375000
907,-109.375000
908,-109.375000
909,-109.375000
910,-109.375000
911,-105.468750
912,-105.468750
913,-105.468750
914,-105.468750
915,-105.468750
916,-105.468750
917,-105.468750
918,-105.468750
919,-105.468750
920,-105.468750
921,-101.562500
922,-101.562500
923,-101.562500
924,-101.562500
925,-101.562500
926,-101.562500
927,-101.562500
928,-101.562500
929,-97.656250
930,-97.656250
931,-97.656250
932,-97.656250
933,-97.656250
934,-97.656250
935,-97.656250
936,-97.656250
937,-93.750000
938,-93.750000
939,-93.750000
940,-93.750000
941,-93.750000
942,-93.750000
943,-89.843750
944,-89.843750
945,-89.843750
946,-89.843750
947,-89.843750
948,-89.843750
949,-89.843750
950,-89.843750
951,-85.937500
952,-85.937500
953,-85.937500
954,-85.937500
955,-85.937500
956,-85.937500
957,-82.031250
958,-82.031250
959,-82.031250
960,-82.031250
961,-82.031250
962,-82.031250
963,-78.125000
964,-78.125000
965,-78.125000
966,-78.125000
967,-78.125000
968,-78.125000
969,-78.125000
970,-74.218750
971,-74.218750
972,-74.218750
973,-74.218750
974,-74.218750
975,-74.218750
976,-70.312500
977,-70.312500
978,-70.312500
979,-70.312500
980,-70.312500
981,-66.406250
982,-66.406250
983,-66.406250
984,-66.406250
985,-66.406250
986,-66.406250
987,-66.406250
988,-62.500000
989,-62.500000
990,-62.500000
991,-62.500000
992,-62.500000
993,-58.593750
994,-58.593750
995,-58.593750
996,-58.593750
997,-58.593750
998,-58.593750
999,-54.687500
1000,-54.687500
1001,-54.687500
1002,-54.687500
1003,-50.781250
1004,-50.781250
1005,-50.781250
1006,-50.781250
1007,-50.781250
1008,-50.781250
1009,-50.781250
1010,-50.781250
1011,-50.781250
1012,-46.875000
1013,-46.875000
1014,-46.875000
1015,-46.875000
1016,-42.968750
1017,-42.968750
1018,-42.968750
1019,-42.968750
1020,-42.968750
1021,-39.062500
1022,-39.062500
1023,-39.062500
1024,-39.062500
1025,-39.062500
1026,-39.062500
1027,-35.156250
1028,-35.156250
1029,-35.156250
1030,-35.156250
1031,-35.156250
1032,-35.156250
1033,-31.250000
1034,-31.250000
1035,-31.250000
1036,-31.250000
1037,-31.250000
1038,-27.343750
1039,-27.343750
1040,-27.343750
1041,-27.343750
1042,-27.343750
1043,-27.343750
1044,-23.437500
1045,-23.437500
1046,-23.437500
1047,-23.437500
1048,-23.437500
1049,-19.531250
1050,-19.531250
1051,-19.531250
1052,-19.531250
1053,-15.625000
1054,-15.625000
1055,-15.625000
1056,-15.625000
1057,-15.625000
1058,-11.718750
1059,-11.718750
1060,-11.718750
1061,-11.718750
1062,-11.718750
1063,-7.812500
1064,-11.718750
1065,-7.812500
1066,-7.812500
1067,-7.812500
1068,-7.812500
1069,-7.812500
1070,-3.906250
1071,-3.906250
1072,-3.906250
1073,-3.906250
1074,-3.906250
1075,0.000000
1076,0.000000
1077,0.000000
1078,0.000000
1079,0.000000
1080,0.000000
1081,3.906250
1082,3.906250
1083,3.906250
1084,3.906250
1085,7.812500
1086,7.812500
1087,7.812500
1088,7.812500
1089,7.812500
1090,7.812500
1091,11.718750
1092,11.718750
1093,11.718750
1094,11.718750
1095,11.718750
1096,11.718750
1097,15.625000
1098,15.625000
1099,15.625000
1100,15.625000
1101,15.625000
1102,15.625000
1103,19.531250
1104,19.531250
1105,19.531250
1106,19.531250
1107,19.531250
1108,19.531250
1109,23.437500
1110,23.437500
1111,23.437500
1112,23.437500
1113,23.437500
1114,23.437500
1115,27.343750
1116,27.343750
1117,27.343750
1118,27.343750
1119,27.343750
1120,31.250000
1121,31.250000
1122,31.250000
1123,31.250000
1124,31.250000
1125,31.250000
1126,31.250000
1127,35.156250
1128,35.156250
1129,35.156250
1130,35.156250
1131,35.156250
1132,39.062500
1133,39.062500
1134,39.062500
1135,39.062500
1136,39.062500
1137,39.062500
1138,39.062500
1139,42.968750
1140,42.968750
1141,42.968750
1142,42.968750
1143,42.968750
1144,42.968750
1145,42.968750
1146,46.875000
1147,46.875000
1148,46.875000
1149,46.875000
1150,46.875000
1151,46.875000
1152,46.875000
1153,50.781250
1154,50.781250
1155,50.781250
1156,50.781250
1157,50.781250
1158,50.781250
1159,50.781250
1160,54.687500
1161,54.687500
1162,54.687500
1163,54.687500
1164,54.687500
1165,54.687500
1166,54.687500
1167,54.687500
1168,58.593750
1169,58.593750
1170,58.593750
1171,58.593750
1172,58.593750
1173,58.593750
1174,58.593750
1175,62.500000
1176,62.500000
1177,62.500000
1178,62.500000
1179,62.500000
1180,62.500000
1181,62.500000
1182,62.500000
1183,66.406250
1184,66.406250
1185,66.406250
1186,66.406250
1187,66.406250
1188,66.406250
1189,70.312500
1190,70.312500
1191,70.312500
1192,70.312500
1193,70.312500
1194,70.312500
1195,70.312500
1196,70.312500
1197,70.312500
1198,70.312500
1199,70.312500
1200,74.218750
1201,74.218750
1202,74.218750
1203,74.218750
1204,74.218750
1205,74.218750
1206,74.218750
1207,78.125000
1208,78.125000
1209,78.125000
1210,78.125000
1211,78.125000
1212,78.125000
1213,78.125000
1214,78.125000
1215,78.125000
1216,78.125000
1217,82.031250
1218,82.031250
1219,82.031250
1220,82.031250
1221,82.031250
1222,82.031250
1223,82.031250
1224,82.031250
1225,82.031250
1226,82.031250
1227,82.031250
1228,85.937500
1229,85.937500
1230,85.937500
1231,85.937500
1232,85.937500
1233,85.937500
1234,85.937500
1235,85.937500
1236,85.937500
1237,85.937500
1238,85.937500
1239,85.937500
1240,85.937500
1241,89.843750
1242,89.843750
1243,89.843750
1244,89.843750
1245,89.843750
1246,89.843750
1247,89.843750
1248,89.843750
1249,89.843750
1250,89.843750
1251,89.843750
1252,89.843750
1253,89.843750
1254,89.843750
1255,89.843750
1256,89.843750
1257,93.750000
1258,93.750000
1259,93.750000
1260,93.750000
1261,93.750000
1262,93.750000
1263,93.750000
1264,93.750000
1265,93.750000
1266,93.750000
1267,93.750000
1268,93.750000
1269,93.750000
1270,93.750000
1271,93.750000
1272,93.750000
1273,93.750000
1274,93.750000
1275,93.750000
1276,97.656250
1277,93.750000
1278,93.750000
1279,97.656250
1280,97.656250
1281,97.656250
1282,97.656250
1283,97.656250
1284,97.656250
1285,97.656250
1286,97.656250
1287,97.656250
1288,97.656250
1289,97.656250
1290,97.656250
1291,97.656250
1292,97.656250
1293,97.656250
1294,97.656250
1295,97.656250
1296,97.656250
1297,97.656250
1298,97.656250
1299,97.656250
1300,97.656250
1301,97.656250
1302,97.656250
1303,97.656250
1304,97.656250
1305,97.656250
1306,97.656250
1307,97.656250
1308,97.656250
1309,97.656250
1310,97.656250
1311,97.656250
1312,97.656250
1313,97.656250
1314,97.656250
1315,97.656250
1316,97.656250
1317,97.656250
1318,97.656250
1319,97.656250
1320,97.656250
1321,97.656250
1322,97.656250
1323,97.656250
1324,97.656250
1325,97.656250
1326,97.656250
1327,97.656250
1328,97.656250
1329,97.656250
1330,97.656250
1331,97.656250
1332,97.656250
1333,97.656250
1334,97.656250
1335,97.656250
1336,97.656250
1337,97.656250
1338,97.656250
1339,97.656250
1340,97.656250
1341,97.656250
1342,97.656250
1343,97.656250
1344,97.656250
1345,97.656250
1346,97.656250
1347,97.656250
1348,97.656250
1349,97.656250
1350,97.656250
1351,97.656250
1352,97.656250
1353,97.656250
1354,97.656250
1355,97.656250
1356,97.656250
1357,97.656250
1358,93.750000
1359,93.750000
1360,97.656250
1361,97.656250
1362,93.750000
1363,93.750000
1364,93.750000
1365,93.750000
1366,93.750000
1367,93.750000
1368,93.750000
1369,93.750000
1370,93.750000
1371,93.750000
1372,93.750000
1373,93.750000
1374,93.750000
1375,93.750000
1376,93.750000
1377,93.750000
1378,89.843750
1379,89.843750
1380,89.843750
1381,89.843750
1382,89.843750
1383,89.843750
1384,89.843750
1385,89.843750
1386,89.843750
1387,89.843750
1388,89.843750
1389,89.843750
1390,89.843750
1391,89.843750
1392,89.843750
1393,89.843750
1394,85.937500
1395,85.937500
1396,85.937500
1397,85.937500
1398,85.937500
1399,85.937500
1400,85.937500
1401,85.937500
1402,85.937500
1403,85.937500
1404,85.937500
1405,85.937500
1406,85.937500
1407,82.031250
1408,82.031250
1409,82.031250
1410,82.031250
1411,82.031250
1412,82.031250
1413,82.031250
1414,82.031250
1415,82.031250
1416,82.031250
1417,78.125000
1418,78.125000
1419,78.125000
1420,78.125000
1421,78.125000
1422,78.125000
1423,78.125000
1424,78.125000
1425,78.125000
1426,74.218750
1427,74.218750
1428,74.218750
1429,74.218750
1430,74.218750
1431,74.218750
1432,74.218750
1433,74.218750
1434,74.218750
1435,74.218750
1436,70.312500
1437,74.218750
1438,70.312500
1439,70.312500
1440,70.312500
1441,70.312500
1442,70.312500
1443,70.312500
1444,66.406250
1445,70.312500
1446,70.312500
1447,66.406250
1448,66.406250
1449,66.406250
1450,66.406250
1451,66.406250
1452,62.500000
1453,62.500000
1454,62.500000
1455,62.500000
1456,62.500000
1457,62.500000
1458,62.500000
1459,62.500000
1460,62.500000
1461,58.593750
1462,58.593750
1463,58.593750
1464,58.593750
1465,58.593750
1466,58.593750
1467,58.593750
1468,58.593750
1469,58.593750
1470,54.687500
1471,54.687500
1472,54.687500
1473,54.687500
1474,54.687500
1475,54.687500
1476,50.781250
1477,50.781250
1478,50.781250
1479,50.781250
1480,50.781250
1481,50.781250
1482,50.781250
1483,50.781250
1484,46.875000
1485,46.875000
1486,46.875000
1487,46.875000
1488,46.875000
1489,46.875000
1490,46.875000
1491,42.968750
1492,42.968750
1493,42.968750
1494,42.968750
1495,42.968750
1496,39.062500
1497,39.062500
1498,39.062500
1499,39.062500
1500,39.062500
1501,39.062500
1502,35.156250
1503,35.156250
1504,35.156250
1505,35.156250
1506,35.156250
1507,35.156250
1508,35.156250
1509,31.250000
1510,31.250000
1511,31.250000
1512,31.250000
1513,31.250000
1514,27.343750
1515,27.343750
1516,27.343750
1517,27.343750
1518,27.343750
1519,27.343750
1520,27.343750
1521,23.437500
1522,23.437500
1523,23.437500
1524,23.437500
1525,23.437500
1526,19.531250
1527,19.531250
1528,19.531250
1529,19.531250
1530,19.531250
1531,19.531250
1532,15.625000
1533,15.625000
1534,15.625000
1535,15.625000
1536,15.625000
1537,11.718750
1538,11.718750
1539,11.718750
1540,11.718750
1541,11.718750
1542,7.812500
1543,7.812500
1544,7.812500
1545,7.812500
1546,7.812500
1547,7.812500
1548,7.812500
1549,3.906250
1550,3.906250
1551,3.906250
1552,3.906250
1553,0.000000
1554,0.000000
1555,0.000000
1556,0.000000
1557,0.000000
1558,0.000000
1559,0.000000
1560,-3.906250
1561,-3.906250
1562,-3.906250
1563,-3.906250
1564,-7.812500
1565,-7.812500
1566,-7.812500
1567,-7.812500
1568,-7.812500
1569,-7.812500
1570,-11.718750
1571,-11.718750
1572,-11.718750
1573,-11.718750
1574,-11.718750
1575,-15.625000
1576,-15.625000
1577,-15.625000
1578,-15.625000
1579,-15.625000
1580,-19.531250
1581,-19.531250
1582,-19.531250
1583,-19.531250
1584,-19.531250
1585,-23.437500
1586,-23.437500
1587,-23.437500
1588,-23.437500
1589,-23.437500
1590,-23.437500
1591,-23.437500
1592,-27.343750
1593,-27.343750
1594,-27.343750
1595,-27.343750
1596,-31.250000
1597,-31.250000
1598,-31.250000
1599,-31.250000
1600,-31.250000
1601,-35.156250
1602,-35.156250
1603,-35.156250
1604,-35.156250
1605,-35.156250
1606,-35.156250
1607,-35.156250
1608,-39.062500
1609,-39.062500
1610,-39.062500
1611,-39.062500
1612,-42.968750
1613,-42.968750
1614,-42.968750
1615,-42.968750
1616,-42.968750
1617,-42.968750
1618,-42.968750
1619,-46.875000
1620,-46.875000
1621,-46.875000
1622,-46.875000
1623,-46.875000
1624,-50.781250
1625,-50.781250
1626,-50.781250
1627,-50.781250
1628,-50.781250
1629,-54.687500
1630,-54.687500
1631,-54.687500
1632,-54.687500
1633,-54.687500
1634,-54.687500
1635,-54.687500
1636,-58.593750
1637,-58.593750
1638,-58.593750
1639,-58.593750
1640,-62.500000
1641,-62.500000
1642,-62.500000
1643,-62.500000
1644,-62.500000
1645,-62.500000
1646,-66.406250
1647,-66.406250
1648,-66.406250
1649,-66.406250
1650,-66.406250
1651,-66.406250
1652,-70.312500
1653,-70.312500
1654,-70.312500
1655,-70.312500
1656,-70.312500
1657,-70.312500
1658,-74.218750
1659,-74.218750
1660,-74.218750
1661,-74.218750
1662,-74.218750
1663,-74.218750
1664,-78.125000
1665,-78.125000
1666,-78.125000
1667,-78.125000
1668,-78.125000
1669,-78.125000
1670,-78.125000
1671,-82.031250
1672,-82.031250
1673,-82.031250
1674,-82.031250
1675,-82.031250
1676,-85.937500
1677,-85.937500
1678,-85.937500
1679,-85.937500
1680,-85.937500
1681,-85.937500
1682,-85.937500
1683,-89.843750
1684,-89.843750
1685,-89.843750
1686,-89.843750
1687,-89.843750
1688,-89.843750
1689,-89.843750
1690,-89.843750
1691,-93.750000
1692,-93.750000
1693,-93.750000
1694,-93.750000
1695,-93.750000
1696,-93.750000
1697,-97.656250
1698,-97.656250
1699,-97.656250
1700,-97.656250
1701,-97.656250
1702,-97.656250
1703,-97.656250
1704,-97.656250
1705,-101.562500
1706,-101.562500
1707,-101.562500
1708,-101.562500
1709,-101.562500
1710,-101.562500
1711,-101.562500
1712,-101.562500
1713,-101.562500
1714,-105.468750
1715,-105.468750
1716,-105.468750
1717,-105.468750
1718,-105.468750
1719,-105.468750
1720,-105.468750
1721,-109.375000
1722,-109.375000
1723,-109.375000
1724,-109.375000
1725,-109.375000
1726,-109.375000
1727,-109.375000
1728,-109.375000
1729,-109.375000
1730,-109.375000
1731,-109.375000
1732,-113.281250
1733,-113.281250
1734,-113.281250
1735,-113.281250
1736,-113.281250
1737,-113.281250
1738,-113.281250
1739,-113.281250
1740,-113.281250
1741,-113.281250
1742,-113.281250
1743,-113.281250
1744,-117.187500
1745,-117.187500
1746,-117.187500
1747,-117.187500
1748,-117.187500
1749,-117.187500
1750,-117.187500
1751,-117.187500
1752,-117.187500
1753,-117.187500
1754,-117.187500
1755,-121.093750
1756,-121.093750
1757,-121.093750
1758,-121.093750
1759,-121.093750
1760,-121.093750
1761,-121.093750
1762,-121.093750
1763,-121.093750
1764,-121.093750
1765,-121.093750
1766,-121.093750
1767,-121.093750
1768,-121.093750
1769,-121.093750
1770,-121.093750
1771,-125.000000
1772,-125.000000
1773,-125.000000
1774,-125.000000
1775,-125.000000
1776,-125.000000
1777,-125.000000
1778,-125.000000
1779,-125.000000
1780,-125.000000
1781,-125.000000
1782,-125.000000
1783,-125.000000
1784,-125.000000
1785,-125.000000
1786,-125.000000
1787,-125.000000
1788,-125.000000
1789,-125.000000
1790,-128.906250
1791,-125.000000
1792,-125.000000
1793,-125.000000
1794,-125.000000
1795,-128.906250
1796,-128.906250
1797,-128.906250
1798,-128.906250
1799,-128.906250
1800,-128.906250
1801,-128.906250
1802,-128.906250
1803,-128.906250
1804,-128.906250
1805,-128.906250
1806,-128.906250
1807,-128.906250
1808,-128.906250
1809,-128.906250
1810,-128.906250
1811,-128.906250
1812,-128.906250
1813,-128.906250
1814,-128.906250
1815,-128.906250
1816,-128.906250
1817,-128.906250
1818,-128.906250
1819,-128.906250
1820,-125.000000
1821,-128.906250
1822,-128.906250
1823,-125.000000
1824,-128.906250
1825,-125.000000
1826,-125.000000
1827,-128.906250
1828,-128.906250
1829,-125.000000
1830,-128.906250
1831,-125.000000
1832,-125.000000
1833,-125.000000
1834,-128.906250
1835,-125.000000
1836,-125.000000
1837,-125.000000
1838,-125.000000
1839,-125.000000
1840,-125.000000
1841,-125.000000
1842,-125.000000
1843,-125.000000
1844,-125.000000
1845,-125.000000
1846,-125.000000
1847,-121.093750
1848,-125.000000
1849,-125.000000
1850,-125.000000
1851,-121.093750
1852,-125.000000
1853,-125.000000
1854,-125.000000
1855,-121.093750
1856,-121.093750
1857,-121.093750
1858,-121.093750
1859,-121.093750
1860,-121.093750
1861,-121.093750
1862,-121.093750
1863,-121.093750
1864,-121.093750
1865,-121.093750
1866,-117.187500
1867,-117.187500
1868,-117.187500
1869,-121.093750
1870,-117.187500
1871,-117.187500
1872,-117.187500
1873,-117.187500
1874,-117.187500
1875,-117.187500
1876,-117.187500
1877,-117.187500
1878,-117.187500
1879,-117.187500
1880,-113.281250
1881,-113.281250
1882,-113.281250
1883,-113.281250
1884,-113.281250
1885,-113.281250
1886,-113.281250
1887,-113.281250
1888,-113.281250
1889,-113.281250
1890,-109.375000
1891,-109.375000
1892,-109.375000
1893,-109.375000
1894,-109.375000
1895,-109.375000
1896,-109.375000
1897,-109.375000
1898,-109.375000
1899,-109.375000
1900,-109.375000
1901,-109.375000
1902,-105.468750
1903,-105.468750
1904,-105.468750
1905,-105.468750
1906,-105.468750
1907,-105.468750
1908,-105.468750
1909,-105.468750
1910,-101.562500
1911,-101.562500
1912,-101.562500
1913,-101.562500
1914,-101.562500
1915,-101.562500
1916,-101.562500
1917,-97.656250
1918,-97.656250
1919,-97.656250
1920,-97.656250
1921,-97.656250
1922,-97.656250
1923,-97.656250
1924,-97.656250
1925,-97.656250
1926,-93.750000
1927,-93.750000
1928,-93.750000
1929,-93.750000
1930,-93.750000
1931,-93.750000
1932,-93.750000
1933,-93.750000
1934,-89.843750
1935,-89.843750
1936,-89.843750
1937,-89.843750
1938,-89.843750
1939,-89.843750
1940,-85.937500
1941,-85.937500
1942,-85.937500
1943,-85.937500
1944,-85.937500
1945,-85.937500
1946,-85.937500
1947,-85.937500
1948,-82.031250
1949,-82.031250
1950,-82.031250
1951,-82.031250
1952,-82.031250
1953,-82.031250
1954,-82.031250
1955,-78.125000
1956,-78.125000
1957,-78.125000
1958,-78.125000
1959,-78.125000
1960,-78.125000
1961,-74.218750
1962,-74.218750
1963,-74.218750
1964,-74.218750
1965,-74.218750
1966,-70.312500
1967,-70.312500
1968,-70.312500
1969,-70.312500
1970,-70.312500
1971,-70.312500
1972,-66.406250
1973,-66.406250
1974,-66.406250
1975,-66.406250
1976,-66.406250
1977,-66.406250
1978,-62.500000
1979,-62.500000
1980,-62.500000
1981,-62.500000
1982,-62.500000
1983,-58.593750
1984,-58.593750
1985,-58.593750
1986,-58.593750
1987,-58.593750
1988,-54.687500
1989,-58.593750
1990,-54.687500
1991,-54.687500
1992,-54.687500
1993,-54.687500
1994,-54.687500
1995,-50.781250
1996,-50.781250
1997,-50.781250
1998,-50.781250
1999,-50.781250
2000,-46.875000
2001,-46.875000
2002,-46.875000
2003,-46.875000
2004,-46.875000
2005,-46.875000
2006,-42.968750
2007,-42.968750
2008,-42.968750
2009,-42.968750
2010,-39.062500
2011,-39.062500
2012,-39.062500
2013,-39.062500
2014,-39.062500
2015,-39.062500
2016,-35.156250
2017,-35.156250
2018,-35.156250
2019,-35.156250
2020,-35.156250
2021,-31.250000
2022,-31.250000
2023,-31.250000
2024,-31.250000
2025,-31.250000
2026,-31.250000
2027,-27.343750
2028,-27.343750
2029,-27.343750
2030,-27.343750
2031,-27.343750
2032,-23.437500
2033,-23.437500
2034,-23.437500
2035,-23.437500
2036,-23.437500
2037,-23.437500
2038,-19.531250
2039,-19.531250
2040,-19.531250
2041,-19.531250
2042,-19.531250
2043,-15.625000
2044,-15.625000
2045,-15.625000
2046,-15.625000
2047,-15.625000
2048,-15.625000
2049,-11.718750
2050,-11.718750
2051,-11.718750
2052,-11.718750
2053,-11.718750
2054,-7.812500
2055,-7.812500
2056,-7.812500
2057,-7.812500
2058,-7.812500
2059,-7.812500
2060,-3.906250
2061,-3.906250
2062,-3.906250
2063,-3.906250
2064,0.000000
2065,0.000000
2066,0.000000
2067,0.000000
2068,0.000000
2069,0.000000
2070,3.906250
2071,3.906250
2072,3.906250
2073,3.906250
2074,3.906250
2075,3.906250
2076,7.812500
2077,7.812500
2078,7.812500
2079,7.812500
2080,7.812500
2081,11.718750
2082,11.718750
2083,11.718750
2084,11.718750
2085,11.718750
2086,15.625000
2087,15.625000
2088,15.625000
2089,15.625000
2090,15.625000
2091,15.625000
2092,19.531250
2093,19.531250
2094,19.531250
2095,19.531250
2096,19.531250
2097,19.531250
2098,19.531250
2099,23.437500
2100,23.437500
2101,23.437500
2102,23.437500
2103,23.437500
2104,27.343750
2105,27.343750
2106,27.343750
2107,27.343750
2108,27.343750
2109,27.343750
2110,31.250000
2111,31.250000
2112,31.250000
2113,31.250000
2114,31.250000
2115,35.156250
2116,35.156250
2117,35.156250
2118,35.156250
2119,35.156250
2120,35.156250
2121,35.156250
2122,35.156250
2123,39.062500
2124,39.062500
2125,39.062500
2126,39.062500
2127,39.062500
2128,39.062500
2129,42.968750
2130,42.968750
2131,42.968750
2132,42.968750
2133,42.968750
2134,42.968750
2135,46.875000
2136,46.875000
2137,46.875000
2138,46.875000
2139,46.875000
2140,46.875000
2141,46.875000
2142,50.781250
2143,50.781250
2144,50.781250
2145,50.781250
2146,50.781250
2147,50.781250
2148,54.687500
2149,54.687500
2150,54.687500
2151,54.687500
2152,54.687500
2153,54.687500
2154,54.687500
2155,58.593750
2156,58.593750
2157,58.593750
2158,58.593750
2159,58.593750
2160,58.593750
2161,58.593750
2162,62.500000
2163,62.500000
2164,62.500000
2165,62.500000
2166,62.500000
2167,62.500000
2168,62.500000
2169,62.500000
2170,62.500000
2171,66.406250
2172,66.406250
2173,66.406250
2174,66.406250
2175,66.406250
2176,66.406250
2177,66.406250
2178,66.406250
2179,66.406250
2180,70.312500
2181,70.312500
2182,70.312500
2183,70.312500
2184,70.312500
2185,70.312500
2186,70.312500
2187,70.312500
2188,74.218750
2189,74.218750
2190,74.218750
2191,74.218750
2192,74.218750
2193,74.218750
2194,74.218750
2195,78.125000
2196,78.125000
2197,78.125000
2198,78.125000
2199,78.125000
2200,78.125000
2201,78.125000
2202,78.125000
2203,78.125000
2204,78.125000
2205,78.125000
2206,78.125000
2207,78.125000
2208,78.125000
2209,82.031250
2210,82.031250
2211,82.031250
2212,82.031250
2213,82.031250
2214,82.031250
2215,82.031250
2216,82.031250
2217,82.031250
2218,85.937500
2219,85.937500
2220,85.937500
2221,85.937500
2222,85.937500
2223,85.937500
2224,85.937500
2225,85.937500
2226,85.937500
2227,85.937500
2228,85.937500
2229,85.937500
2230,85.937500
2231,85.937500
2232,85.937500
2233,89.843750
2234,89.843750
2235,89.843750
2236,89.843750
2237,89.843750
2238,89.843750
2239,89.843750
2240,89.843750
2241,89.843750
2242,89.843750
2243,89.843750
2244,89.843750
2245,89.843750
2246,89.843750
2247,93.750000
2248,93.750000
2249,93.750000
2250,93.750000
2251,93.750000
2252,93.750000
2253,93.750000
2254,93.750000
2255,93.750000
2256,93.750000
2257,93.750000
2258,93.750000
2259,93.750000
2260,93.750000
2261,93.750000
2262,93.750000
2263,97.656250
2264,93.750000
2265,97.656250
2266,93.750000
2267,97.656250
2268,97.656250
2269,97.656250
2270,97.656250
2271,93.750000
2272,97.656250
2273,97.656250
2274,97.656250
2275,97.656250
2276,97.656250
2277,97.656250
2278,97.656250
2279,97.656250
2280,97.656250
2281,97.656250
2282,97.656250
2283,97.656250
2284,97.656250
2285,97.656250
2286,97.656250
2287,97.656250
2288,97.656250
2289,97.656250
2290,97.656250
2291,97.656250
2292,97.656250
2293,97.656250
2294,97.656250
2295,97.656250
2296,97.656250
2297,97.656250
2298,97.656250
2299,97.656250
2300,97.656250
2301,97.656250
2302,97.656250
2303,97.656250
2304,97.656250
2305,97.656250
2306,97.656250
2307,97.656250
2308,97.656250
2309,97.656250
2310,97.656250
2311,97.656250
2312,97.656250
2313,97.656250
2314,97.656250
2315,97.656250
2316,97.656250
2317,97.656250
2318,97.656250
2319,97.656250
2320,97.656250
2321,97.656250
2322,97.656250
2323,97.656250
2324,97.656250
2325,97.656250
2326,97.656250
2327,97.656250
2328,97.656250
2329,97.656250
2330,97.656250
2331,97.656250
2332,97.656250
2333,97.656250
2334,97.656250
2335,97.656250
2336,97.656250
2337,97.656250
2338,97.656250
2339,97.656250
2340,97.656250
2341,97.656250
2342,97.656250
2343,97.656250
2344,93.750000
2345,93.750000
2346,93.750000
2347,93.750000
2348,93.750000
2349,93.750000
2350,93.750000
2351,93.750000
2352,93.750000
2353,93.750000
2354,93.750000
2355,93.750000
2356,93.750000
2357,93.750000
2358,93.750000
2359,93.750000
2360,93.750000
2361,93.750000
2362,93.750000
2363,93.750000
2364,93.750000
2365,93.750000
2366,89.843750
2367,93.750000
2368,89.843750
2369,89.843750
2370,89.843750
2371,89.843750
2372,89.843750
2373,89.843750
2374,89.843750
2375,89.843750
2376,89.843750
2377,89.843750
2378,89.843750
2379,89.843750
2380,89.843750
2381,89.843750
2382,89.843750
2383,89.843750
2384,89.843750
2385,85.937500
2386,85.937500
2387,85.937500
2388,85.937500
2389,85.937500
2390,85.937500
2391,85.937500
2392,85.937500
2393,85.937500
2394,85.937500
2395,85.937500
2396,82.031250
2397,82.031250
2398,82.031250
2399,82.031250
2400,82.031250
2401,82.031250
2402,82.031250
2403,82.031250
2404,82.031250
2405,82.031250
2406,82.031250
2407,82.031250
2408,78.125000
2409,78.125000
2410,78.125000
2411,78.125000
2412,78.125000
2413,78.125000
2414,78.125000
2415,78.125000
2416,74.218750
2417,78.125000
2418,74.218750
2419,74.218750
2420,74.218750
2421,74.218750
2422,74.218750
2423,74.218750
2424,74.218750
2425,74.218750
2426,74.218750
2427,70.312500
2428,70.312500
2429,70.312500
2430,70.312500
2431,70.312500
2432,70.312500
2433,70.312500
2434,70.312500
2435,66.406250
2436,66.406250
2437,66.406250
2438,66.406250
2439,66.406250
2440,66.406250
2441,66.406250
2442,66.406250
2443,66.406250
2444,62.500000
2445,62.500000
2446,62.500000
2447,62.500000
2448,62.500000
2449,62.500000
2450,62.500000
2451,58.593750
2452,58.593750
2453,58.593750
2454,58.593750
2455,58.593750
2456,58.593750
2457,54.687500
2458,54.687500
2459,54.687500
2460,54.687500
2461,54.687500
2462,54.687500
2463,54.687500
2464,50.781250
2465,50.781250
2466,50.781250
2467,50.781250
2468,50.781250
2469,50.781250
2470,50.781250
2471,50.781250
2472,46.875000
2473,46.875000
2474,46.875000
2475,46.875000
2476,46.875000
2477,46.875000
2478,46.875000
2479,42.968750
2480,42.968750
2481,42.968750
2482,42.968750
2483,42.968750
2484,42.968750
2485,42.968750
2486,39.062500
2487,39.062500
2488,39.062500
2489,39.062500
2490,39.062500
2491,39.062500
2492,35.156250
2493,35.156250
2494,35.156250
2495,35.156250
2496,35.156250
2497,35.156250
2498,31.250000
2499,31.250000
2500,31.250000
2501,31.250000
2502,31.250000
2503,31.250000
2504,27.343750
2505,27.343750
2506,27.343750
2507,27.343750
2508,27.343750
2509,23.437500
2510,23.437500
2511,23.437500
2512,23.437500
2513,23.437500
2514,23.437500
2515,23.437500
2516,19.531250
2517,19.531250
2518,19.531250
2519,19.531250
2520,19.531250
2521,15.625000
2522,15.625000
2523,15.625000
2524,15.625000
2525,15.625000
2526,15.625000
2527,15.625000
2528,11.718750
2529,11.718750
2530,11.718750
2531,11.718750
2532,11.718750
2533,11.718750
2534,7.812500
2535,7.812500
2536,7.812500
2537,7.812500
2538,3.906250
2539,3.906250
2540,3.906250
2541,3.906250
2542,3.906250
2543,0.000000
2544,0.000000
2545,0.000000
2546,0.000000
2547,0.000000
2548,-3.906250
2549,-3.906250
2550,-3.906250
2551,-3.906250
2552,-3.906250
2553,-3.906250
2554,-3.906250
2555,-7.812500
2556,-7.812500
2557,-7.812500
2558,-7.812500
2559,-7.812500
2560,-11.718750
2561,-11.718750
2562,-11.718750
2563,-11.718750
2564,-11.718750
2565,-15.625000
2566,-15.625000
2567,-15.625000
2568,-15.625000
2569,-15.625000
2570,-19.531250
2571,-19.531250
2572,-19.531250
2573,-19.531250
2574,-19.531250
2575,-19.531250
2576,-23.437500
2577,-23.437500
2578,-23.437500
2579,-23.437500
2580,-23.437500
2581,-23.437500
2582,-27.343750
2583,-27.343750
2584,-27.343750
2585,-27.343750
2586,-31.250000
2587,-31.250000
2588,-31.250000
2589,-31.250000
2590,-31.250000
2591,-31.250000
2592,-35.156250
2593,-35.156250
2594,-35.156250
2595,-35.156250
2596,-39.062500
2597,-35.156250
2598,-39.062500
2599,-39.062500
2600,-39.062500
2601,-39.062500
2602,-39.062500
2603,-42.968750
2604,-42.968750
2605,-42.968750
2606,-42.968750
2607,-42.968750
2608,-46.875000
2609,-46.875000
2610,-46.875000
2611,-46.875000
2612,-46.875000
2613,-46.875000
2614,-50.781250
2615,-50.781250
2616,-50.781250
2617,-50.781250
2618,-54.687500
2619,-54.687500
2620,-54.687500
2621,-54.687500
2622,-54.687500
2623,-54.687500
2624,-54.687500
2625,-58.593750
2626,-58.593750
2627,-58.593750
2628,-58.593750
2629,-62.500000
2630,-62.500000
2631,-62.500000
2632,-62.500000
2633,-62.500000
2634,-62.500000
2635,-62.500000
2636,-62.500000
2637,-66.406250
2638,-66.406250
2639,-66.406250
2640,-66.406250
2641,-66.406250
2642,-70.312500
2643,-70.312500
2644,-70.312500
2645,-70.312500
2646,-70.312500
2647,-70.312500
2648,-74.218750
2649,-74.218750
2650,-74.218750
2651,-74.218750
2652,-74.218750
2653,-74.218750
2654,-74.218750
2655,-78.125000
2656,-78.125000
2657,-78.125000
2658,-78.125000
2659,-78.125000
2660,-78.125000
2661,-82.031250
2662,-82.031250
2663,-82.031250
2664,-82.031250
2665,-82.031250
2666,-82.031250
2667,-82.031250
2668,-85.937500
2669,-85.937500
2670,-85.937500
2671,-85.937500
2672,-85.937500
2673,-85.937500
2674,-89.843750
2675,-89.843750
2676,-89.843750
2677,-89.843750
2678,-89.843750
2679,-89.843750
2680,-89.843750
2681,-93.750000
2682,-93.750000
2683,-93.750000
2684,-93.750000
2685,-93.750000
2686,-93.750000
2687,-93.750000
2688,-97.656250
2689,-97.656250
2690,-97.656250
2691,-97.656250
2692,-97.656250
2693,-97.656250
2694,-97.656250
2695,-97.656250
2696,-101.562500
2697,-101.562500
2698,-101.562500
2699,-101.562500
2700,-101.562500
2701,-101.562500
2702,-101.562500
2703,-105.468750
2704,-105.468750
2705,-105.468750
2706,-105.468750
2707,-105.468750
2708,-105.468750
2709,-105.468750
2710,-105.468750
2711,-105.468750
2712,-109.375000
2713,-109.375000
2714,-109.375000
2715,-109.375000
2716,-109.375000
2717,-109.375000
2718,-109.375000
2719,-113.281250
2720,-109.375000
2721,-113.281250
2722,-113.281250
2723,-113.281250
2724,-113.281250
2725,-113.281250
2726,-113.281250
2727,-113.281250
2728,-113.281250
2729,-113.281250
2730,-117.187500
2731,-117.187500
2732,-117.187500
2733,-117.187500
2734,-117.187500
2735,-117.187500
2736,-117.187500
2737,-117.187500
2738,-117.187500
2739,-117.187500
2740,-117.187500
2741,-117.187500
2742,-117.187500
2743,-117.187500
2744,-117.187500
2745,-121.093750
2746,-121.093750
2747,-121.093750
2748,-121.093750
2749,-121.093750
2750,-121.093750
2751,-121.093750
2752,-121.093750
2753,-125.000000
2754,-121.093750
2755,-121.093750
2756,-121.093750
2757,-121.093750
2758,-125.000000
2759,-121.093750
2760,-121.093750
2761,-125.000000
2762,-125.000000
2763,-125.000000
2764,-125.000000
2765,-125.000000
2766,-125.000000
2767,-125.000000
2768,-125.000000
2769,-125.000000
2770,-125.000000
2771,-125.000000
2772,-125.000000
2773,-125.000000
2774,-125.000000
2775,-125.000000
2776,-125.000000
2777,-125.000000
2778,-125.000000
2779,-125.000000
2780,-125.000000
2781,-125.000000
2782,-125.000000
2783,-125.000000
2784,-128.906250
2785,-128.906250
2786,-128.906250
2787,-128.906250
2788,-128.906250
2789,-128.906250
2790,-128.906250
2791,-125.000000
2792,-128.906250
2793,-125.000000
2794,-128.906250
2795,-125.000000
2796,-128.906250
2797,-128.906250
2798,-128.906250
2799,-128.906250
2800,-128.906250
2801,-128.906250
2802,-128.906250
2803,-125.000000
2804,-128.906250
2805,-128.906250
2806,-128.906250
2807,-128.906250
2808,-128.906250
2809,-128.906250
2810,-128.906250
2811,-128.906250
2812,-128.906250
2813,-125.000000
2814,-128.906250
2815,-125.000000
2816,-125.000000
2817,-125.000000
2818,-125.000000
2819,-125.000000
2820,-125.000000
2821,-125.000000
2822,-128.906250
2823,-125.000000
2824,-125.000000
2825,-125.000000
2826,-125.000000
2827,-125.000000
2828,-125.000000
2829,-125.000000
2830,-125.000000
2831,-125.000000
2832,-125.000000
2833,-125.000000
2834,-125.000000
2835,-125.000000
2836,-125.000000
2837,-125.000000
2838,-125.000000
2839,-125.000000
2840,-125.000000
2841,-125.000000
2842,-125.000000
2843,-125.000000
2844,-121.093750
2845,-121.093750
2846,-125.000000
2847,-121.093750
2848,-121.093750
2849,-121.093750
2850,-121.093750
2851,-121.093750
2852,-121.093750
2853,-121.093750
2854,-121.093750
2855,-121.093750
2856,-121.093750
2857,-121.093750
2858,-117.187500
2859,-121.093750
2860,-117.187500
2861,-121.093750
2862,-117.187500
2863,-117.187500
2864,-117.187500
2865,-117.187500
2866,-117.187500
2867,-117.187500
2868,-117.187500
2869,-117.187500
2870,-117.187500
2871,-113.281250
2872,-117.187500
2873,-113.281250
2874,-113.281250
2875,-113.281250
2876,-113.281250
2877,-113.281250
2878,-113.281250
2879,-113.281250
2880,-113.281250
2881,-109.375000
2882,-113.281250
2883,-109.375000
2884,-109.375000
2885,-109.375000
2886,-109.375000
2887,-109.375000
2888,-109.375000
2889,-109.375000
2890,-105.468750
2891,-105.468750
2892,-105.468750
2893,-105.468750
2894,-105.468750
2895,-105.468750
2896,-105.468750
2897,-105.468750
2898,-105.468750
2899,-105.468750
2900,-105.468750
2901,-101.562500
2902,-101.562500
2903,-101.562500
2904,-101.562500
2905,-101.562500
2906,-101.562500
2907,-97.656250
2908,-97.656250
2909,-97.656250
2910,-97.656250
2911,-97.656250
2912,-97.656250
2913,-97.656250
2914,-97.656250
2915,-93.750000
2916,-93.750000
2917,-93.750000
2918,-93.750000
2919,-93.750000
2920,-93.750000
2921,-93.750000
2922,-89.843750
2923,-89.843750
2924,-89.843750
2925,-89.843750
2926,-89.843750
2927,-89.843750
2928,-89.843750
2929,-85.937500
2930,-85.937500
2931,-85.937500
2932,-85.937500
2933,-85.937500
2934,-85.937500
2935,-85.937500
2936,-82.031250
2937,-82.031250
2938,-82.031250
2939,-82.031250
2940,-82.031250
2941,-82.031250
2942,-78.125000
2943,-78.125000
2944,-78.125000
2945,-78.125000
2946,-78.125000
2947,-78.125000
2948,-78.125000
2949,-74.218750
2950,-74.218750
2951,-74.218750
2952,-74.218750
2953,-74.218750
2954,-74.218750
2955,-74.218750
2956,-70.312500
2957,-70.312500
2958,-70.312500
2959,-70.312500
2960,-70.312500
2961,-66.406250
2962,-66.406250
2963,-66.406250
2964,-66.406250
2965,-66.406250
2966,-66.406250
2967,-66.406250
2968,-62.500000
2969,-62.500000
2970,-62.500000
2971,-62.500000
2972,-62.500000
2973,-58.593750
2974,-58.593750
2975,-58.593750
2976,-58.593750
2977,-58.593750
2978,-58.593750
2979,-54.687500
2980,-54.687500
2981,-54.687500
2982,-54.687500
2983,-54.687500
2984,-50.781250
2985,-50.781250
2986,-50.781250
2987,-50.781250
2988,-50.781250
2989,-50.781250
2990,-50.781250
2991,-46.875000
2992,-46.875000
2993,-46.875000
2994,-46.875000
2995,-42.968750
2996,-42.968750
2997,-42.968750
2998,-42.968750
2999,-42.968750
3000,-42.968750
3001,-39.062500
3002,-39.062500
3003,-39.062500
3004,-39.062500
3005,-39.062500
3006,-35.156250
3007,-35.156250
3008,-35.156250
3009,-35.156250
3010,-35.156250
3011,-31.250000
3012,-35.156250
3013,-31.250000
3014,-31.250000
3015,-31.250000
3016,-27.343750
3017,-27.343750
3018,-27.343750
3019,-27.343750
3020,-27.343750
3021,-27.343750
3022,-27.343750
3023,-23.437500
3024,-23.437500
3025,-23.437500
3026,-23.437500
3027,-19.531250
3028,-19.531250
3029,-19.531250
3030,-19.531250
3031,-19.531250
3032,-15.625000
3033,-15.625000
3034,-15.625000
3035,-15.625000
3036,-15.625000
3037,-11.718750
3038,-11.718750
3039,-11.718750
3040,-11.718750
3041,-11.718750
3042,-11.718750
3043,-7.812500
3044,-7.812500
3045,-7.812500
3046,-7.812500
3047,-3.906250
3048,-3.906250
3049,-3.906250
3050,-3.906250
3051,-3.906250
3052,-3.906250
3053,0.000000
3054,0.000000
3055,0.000000
3056,0.000000
3057,0.000000
3058,0.000000
3059,3.906250
3060,3.906250
3061,3.906250
3062,3.906250
3063,3.906250
3064,7.812500
3065,7.812500
3066,7.812500
3067,7.812500
3068,7.812500
3069,7.812500
3070,7.812500
3071,11.718750
3072,11.718750
3073,11.718750
3074,11.718750
3075,15.625000
3076,15.625000
3077,15.625000
3078,15.625000
3079,15.625000
3080,15.625000
3081,15.625000
3082,19.531250
3083,19.531250
3084,19.531250
3085,19.531250
3086,19.531250
3087,23.437500
3088,23.437500
3089,23.437500
3090,23.437500
3091,23.437500
3092,23.437500
3093,23.437500
3094,27.343750
3095,27.343750
3096,27.343750
3097,27.343750
3098,27.343750
3099,27.343750
3100,31.250000
3101,31.250000
3102,31.250000
3103,31.250000
3104,31.250000
3105,31.250000
3106,35.156250
3107,35.156250
3108,35.156250
3109,35.156250
3110,35.156250
3111,35.156250
3112,35.156250
3113,39.062500
3114,39.062500
3115,39.062500
3116,39.062500
3117,39.062500
3118,39.062500
3119,42.968750
3120,42.968750
3121,42.968750
3122,42.968750
3123,42.968750
3124,42.968750
3125,42.968750
3126,46.875000
3127,46.875000
3128,46.875000
3129,46.875000
3130,46.875000
3131,50.781250
3132,50.781250
3133,50.781250
3134,50.781250
3135,50.781250
3136,50.781250
3137,50.781250
3138,54.687500
3139,54.687500
3140,54.687500
3141,54.687500
3142,54.687500
3143,54.687500
3144,54.687500
3145,54.687500
3146,58.593750
3147,58.593750
3148,58.593750
3149,58.593750
3150,58.593750
3151,58.593750
3152,62.500000
3153,62.500000
3154,62.500000
3155,62.500000
3156,62.500000
3157,62.500000
3158,62.500000
3159,66.406250
3160,62.500000
3161,66.406250
3162,66.406250
3163,66.406250
3164,66.406250
3165,66.406250
3166,66.406250
3167,66.406250
3168,66.406250
3169,66.406250
3170,70.312500
3171,70.312500
3172,70.312500
3173,70.312500
3174,70.312500
3175,70.312500
3176,74.218750
3177,74.218750
3178,74.218750
3179,74.218750
3180,74.218750
3181,74.218750
3182,74.218750
3183,74.218750
3184,74.218750
3185,74.218750
3186,74.218750
3187,78.125000
3188,78.125000
3189,78.125000
3190,78.125000
3191,78.125000
3192,78.125000
3193,78.125000
3194,78.125000
3195,78.125000
3196,78.125000
3197,82.031250
3198,82.031250
3199,82.031250
3200,82.031250
3201,82.031250
3202,82.031250
3203,82.031250
3204,82.031250
3205,82.031250
3206,82.031250
3207,85.937500
3208,85.937500
3209,85.937500
3210,85.937500
3211,85.937500
3212,85.937500
3213,85.937500
3214,85.937500
3215,85.937500
3216,85.937500
3217,85.937500
3218,85.937500
3219,89.843750
3220,85.937500
3221,89.843750
3222,89.843750
3223,89.843750
3224,89.843750
3225,89.843750
3226,89.843750
3227,89.843750
3228,89.843750
3229,89.843750
3230,89.843750
3231,89.843750
3232,89.843750
3233,89.843750
3234,89.843750
3235,89.843750
3236,89.843750
3237,89.843750
3238,93.750000
3239,93.750000
3240,93.750000
3241,93.750000
3242,93.750000
3243,93.750000
3244,93.750000
3245,93.750000
3246,93.750000
3247,93.750000
3248,93.750000
3249,93.750000
3250,93.750000
3251,93.750000
3252,93.750000
3253,93.750000
3254,93.750000
3255,97.656250
3256,93.750000
3257,97.656250
3258,93.750000
3259,93.750000
3260,93.750000
3261,97.656250
3262,97.656250
3263,97.656250
3264,97.656250
3265,97.656250
3266,97.656250
3267,97.656250
3268,97.656250
3269,97.656250
3270,97.656250
3271,97.656250
3272,97.656250
3273,97.656250
3274,97.656250
3275,97.656250
3276,97.656250
3277,97.656250
3278,97.656250
3279,97.656250
3280,97.656250
3281,97.656250
3282,101.562500
3283,97.656250
3284,97.656250
3285,97.656250
3286,97.656250
3287,97.656250
3288,97.656250
3289,97.656250
3290,97.656250
3291,97.656250
3292,97.656250
3293,97.656250
3294,97.656250
3295,97.656250
3296,101.562500
3297,97.656250
3298,101.562500
3299,97.656250
3300,97.656250
3301,97.656250
3302,97.656250
3303,97.656250
3304,97.656250
3305,97.656250
3306,97.656250
3307,97.656250
3308,97.656250
3309,97.656250
3310,97.656250
3311,97.656250
3312,97.656250
3313,97.656250
3314,97.656250
3315,97.656250
3316,97.656250
3317,97.656250
3318,97.656250
3319,101.562500
3320,97.656250
3321,97.656250
3322,97.656250
3323,97.656250
3324,97.656250
3325,97.656250
3326,97.656250
3327,97.656250
3328,97.656250
3329,97.656250
3330,97.656250
3331,97.656250
3332,93.750000
3333,97.656250
3334,97.656250
3335,93.750000
3336,93.750000
3337,93.750000
3338,93.750000
3339,93.750000
3340,93.750000
3341,93.750000
3342,93.750000
3343,93.750000
3344,93.750000
3345,93.750000
3346,93.750000
3347,93.750000
3348,93.750000
3349,93.750000
3350,93.750000
3351,93.750000
3352,93.750000
3353,93.750000
3354,93.750000
3355,93.750000
3356,89.843750
3357,89.843750
3358,89.843750
3359,89.843750
3360,89.843750
3361,89.843750
3362,89.843750
3363,89.843750
3364,89.843750
3365,85.937500
3366,89.843750
3367,89.843750
3368,89.843750
3369,89.843750
3370,89.843750
3371,89.843750
3372,89.843750
3373,85.937500
3374,85.937500
3375,85.937500
3376,85.937500
3377,85.937500
3378,85.937500
3379,85.937500
3380,85.937500
3381,85.937500
3382,85.937500
3383,85.937500
3384,82.031250
3385,82.031250
3386,85.937500
3387,82.031250
3388,82.031250
3389,82.031250
3390,82.031250
3391,82.031250
3392,82.031250
3393,82.031250
3394,78.125000
3395,82.031250
3396,78.125000
3397,78.125000
3398,78.125000
3399,78.125000
3400,78.125000
3401,78.125000
3402,78.125000
3403,78.125000
3404,78.125000
3405,78.125000
3406,78.125000
3407,74.218750
3408,74.218750
3409,74.218750
3410,74.218750
3411,74.218750
3412,74.218750
3413,74.218750
3414,74.218750
3415,74.218750
3416,74.218750
3417,70.312500
3418,70.312500
3419,70.312500
3420,70.312500
3421,70.312500
3422,70.312500
3423,70.312500
3424,70.312500
3425,70.312500
3426,66.406250
3427,66.406250
3428,66.406250
3429,66.406250
3430,66.406250
3431,66.406250
3432,66.406250
3433,66.406250
3434,66.406250
3435,62.500000
3436,62.500000
3437,62.500000
3438,62.500000
3439,62.500000
3440,62.500000
3441,58.593750
3442,58.593750
3443,58.593750
3444,58.593750
3445,58.593750
3446,58.593750
3447,58.593750
3448,54.687500
3449,54.687500
3450,54.687500
3451,54.687500
3452,54.687500
3453,54.687500
3454,54.687500
3455,54.687500
3456,50.781250
3457,50.781250
3458,50.781250
3459,50.781250
3460,50.781250
3461,50.781250
3462,50.781250
3463,50.781250
3464,46.875000
3465,46.875000
3466,46.875000
3467,46.875000
3468,42.968750
3469,42.968750
3470,42.968750
3471,42.968750
3472,42.968750
3473,42.968750
3474,42.968750
3475,39.062500
3476,39.062500
3477,39.062500
3478,39.062500
3479,39.062500
3480,39.062500
3481,35.156250
3482,35.156250
3483,35.156250
3484,35.156250
3485,35.156250
3486,35.156250
3487,35.156250
3488,31.250000
3489,31.250000
3490,31.250000
3491,31.250000
3492,27.343750
3493,27.343750
3494,27.343750
3495,27.343750
3496,27.343750
3497,27.343750
3498,23.437500
3499,23.437500
3500,27.343750
3501,23.437500
3502,23.437500
3503,23.437500
3504,19.531250
3505,19.531250
3506,19.531250
3507,19.531250
3508,19.531250
3509,19.531250
3510,19.531250
3511,15.625000
3512,15.625000
3513,15.625000
3514,15.625000
3515,15.625000
3516,11.718750
3517,11.718750
3518,11.718750
3519,11.718750
3520,11.718750
3521,7.812500
3522,7.812500
3523,7.812500
3524,7.812500
3525,7.812500
3526,7.812500
3527,3.906250
3528,3.906250
3529,3.906250
3530,3.906250
3531,3.906250
3532,3.906250
3533,0.000000
3534,0.000000
3535,0.000000
3536,0.000000
3537,0.000000
3538,0.000000
3539,-3.906250
3540,-3.906250
3541,-3.906250
3542,-3.906250
3543,-3.906250
3544,-3.906250
3545,-7.812500
3546,-7.812500
3547,-7.812500
3548,-7.812500
3549,-11.718750
3550,-11.718750
3551,-11.718750
3552,-11.718750
3553,-11.718750
3554,-11.718750
3555,-15.625000
3556,-15.625000
3557,-15.625000
3558,-15.625000
3559,-15.625000
3560,-15.625000
3561,-19.531250
3562,-19.531250
3563,-19.531250
3564,-19.531250
3565,-19.531250
3566,-23.437500
3567,-23.437500
3568,-23.437500
3569,-23.437500
3570,-23.437500
3571,-27.343750
3572,-27.343750
3573,-27.343750
3574,-27.343750
3575,-27.343750
3576,-31.250000
3577,-31.250000
3578,-31.250000
3579,-31.250000
3580,-31.250000
3581,-31.250000
3582,-35.156250
3583,-35.156250
3584,-35.156250
3585,-35.156250
3586,-35.156250
3587,-39.062500
3588,-39.062500
3589,-39.062500
3590,-39.062500
3591,-39.062500
3592,-42.968750
3593,-42.968750
3594,-42.968750
3595,-42.968750
3596,-42.968750
3597,-46.875000
3598,-46.875000
3599,-46.875000
3600,-46.875000
3601,-46.875000
3602,-50.781250
3603,-46.875000
3604,-50.781250
3605,-50.781250
3606,-50.781250
3607,-50.781250
3608,-54.687500
3609,-54.687500
3610,-54.687500
3611,-54.687500
3612,-54.687500
3613,-54.687500
3614,-58.593750
3615,-58.593750
3616,-58.593750
3617,-58.593750
3618,-58.593750
3619,-58.593750
3620,-58.593750
3621,-62.500000
3622,-62.500000
3623,-62.500000
3624,-62.500000
3625,-66.406250
3626,-66.406250
3627,-66.406250
3628,-66.406250
3629,-66.406250
3630,-66.406250
3631,-70.312500
3632,-66.406250
3633,-70.312500
3634,-70.312500
3635,-70.312500
3636,-70.312500
3637,-74.218750
3638,-74.218750
3639,-74.218750
3640,-74.218750
3641,-74.218750
3642,-74.218750
3643,-78.125000
3644,-78.125000
3645,-78.125000
3646,-78.125000
3647,-78.125000
3648,-78.125000
3649,-78.125000
3650,-82.031250
3651,-82.031250
3652,-82.031250
3653,-82.031250
3654,-82.031250
3655,-85.937500
3656,-85.937500
3657,-85.937500
3658,-85.937500
3659,-85.937500
3660,-85.937500
3661,-89.843750
3662,-85.937500
3663,-89.843750
3664,-89.843750
3665,-89.843750
3666,-89.843750
3667,-89.843750
3668,-89.843750
3669,-89.843750
3670,-93.750000
3671,-93.750000
3672,-93.750000
3673,-93.750000
3674,-93.750000
3675,-93.750000
3676,-97.656250
3677,-97.656250
3678,-97.656250
3679,-97.656250
3680,-97.656250
3681,-97.656250
3682,-97.656250
3683,-97.656250
3684,-97.656250
3685,-101.562500
3686,-101.562500
3687,-101.562500
3688,-101.562500
3689,-101.562500
3690,-101.562500
3691,-101.562500
3692,-101.562500
3693,-105.468750
3694,-105.468750
3695,-105.468750
3696,-105.468750
3697,-105.468750
3698,-105.468750
3699,-105.468750
3700,-105.468750
3701,-105.468750
3702,-109.375000
3703,-109.375000
3704,-109.375000
3705,-109.375000
3706,-109.375000
3707,-109.375000
3708,-109.375000
3709,-109.375000
3710,-109.375000
3711,-109.375000
3712,-113.281250
3713,-113.281250
3714,-113.281250
3715,-113.281250
3716,-113.281250
3717,-113.281250
3718,-113.281250
3719,-113.281250
3720,-113.281250
3721,-113.281250
3722,-113.281250
3723,-117.187500
3724,-117.187500
3725,-117.187500
3726,-117.187500
3727,-117.187500
3728,-117.187500
3729,-117.187500
3730,-117.187500
3731,-117.187500
3732,-117.187500
3733,-117.187500
3734,-121.093750
3735,-121.093750
3736,-117.187500
3737,-121.093750
3738,-121.093750
3739,-121.093750
3740,-121.093750
3741,-121.093750
3742,-121.093750
3743,-121.093750
3744,-121.093750
3745,-121.093750
3746,-121.093750
3747,-121.093750
3748,-121.093750
3749,-125.000000
3750,-125.000000
3751,-125.000000
3752,-125.000000
3753,-125.000000
3754,-125.000000
3755,-125.000000
3756,-125.000000
3757,-125.000000
3758,-125.000000
3759,-125.000000
3760,-125.000000
3761,-125.000000
3762,-125.000000
3763,-125.000000
3764,-125.000000
3765,-125.000000
3766,-125.000000
3767,-125.000000
3768,-125.000000
3769,-125.000000
3770,-125.000000
3771,-125.000000
3772,-128.906250
3773,-125.000000
3774,-125.000000
3775,-125.000000
3776,-125.000000
3777,-128.906250
3778,-128.906250
3779,-128.906250
3780,-128.906250
3781,-128.906250
3782,-128.906250
3783,-128.906250
3784,-128.906250
3785,-125.000000
3786,-128.906250
3787,-125.000000
3788,-128.906250
3789,-128.906250
3790,-128.906250
3791,-128.906250
3792,-125.000000
3793,-128.906250
3794,-125.000000
3795,-125.000000
3796,-125.000000
3797,-125.000000
3798,-125.000000
3799,-125.000000
3800,-125.000000
3801,-128.906250
3802,-125.000000
3803,-128.906250
3804,-125.000000
3805,-128.906250
3806,-128.906250
3807,-125.000000
3808,-125.000000
3809,-125.000000
3810,-125.000000
3811,-125.000000
3812,-125.000000
3813,-125.000000
3814,-125.000000
3815,-125.000000
3816,-125.000000
3817,-125.000000
3818,-125.000000
3819,-125.000000
3820,-125.000000
3821,-125.000000
3822,-125.000000
3823,-125.000000
3824,-125.000000
3825,-125.000000
3826,-125.000000
3827,-125.000000
3828,-125.000000
3829,-125.000000
3830,-125.000000
3831,-121.093750
3832,-121.093750
3833,-121.093750
3834,-121.093750
3835,-121.093750
3836,-121.093750
3837,-121.093750
3838,-121.093750
3839,-121.093750
3840,-121.093750
3841,-121.093750
3842,-121.093750
3843,-121.093750
3844,-121.093750
3845,-121.093750
3846,-121.093750
3847,-121.093750
3848,-121.093750
3849,-117.187500
3850,-117.187500
3851,-117.187500
3852,-117.187500
3853,-117.187500
3854,-117.187500
3855,-117.187500
3856,-113.281250
3857,-117.187500
3858,-117.187500
3859,-113.281250
3860,-113.281250
3861,-113.281250
3862,-113.281250
3863,-113.281250
3864,-113.281250
3865,-113.281250
3866,-113.281250
3867,-113.281250
3868,-113.281250
3869,-113.281250
3870,-113.281250
3871,-113.281250
3872,-109.375000
3873,-109.375000
3874,-109.375000
3875,-109.375000
3876,-109.375000
3877,-109.375000
3878,-109.375000
3879,-109.375000
3880,-109.375000
3881,-105.468750
3882,-105.468750
3883,-105.468750
3884,-105.468750
3885,-105.468750
3886,-105.468750
3887,-105.468750
3888,-105.468750
3889,-105.468750
3890,-101.562500
3891,-101.562500
3892,-101.562500
3893,-101.562500
3894,-101.562500
3895,-101.562500
3896,-101.562500
3897,-97.656250
3898,-97.656250
3899,-97.656250
3900,-97.656250
3901,-97.656250
3902,-97.656250
3903,-97.656250
3904,-97.656250
3905,-93.750000
3906,-93.750000
3907,-93.750000
3908,-93.750000
3909,-93.750000
3910,-93.750000
3911,-93.750000
3912,-89.843750
3913,-89.843750
3914,-89.843750
3915,-89.843750
3916,-89.843750
3917,-89.843750
3918,-89.843750
3919,-89.843750
3920,-85.937500
3921,-85.937500
3922,-85.937500
3923,-85.937500
3924,-85.937500
3925,-82.031250
3926,-82.031250
3927,-82.031250
3928,-82.031250
3929,-82.031250
3930,-82.031250
3931,-82.031250
3932,-78.125000
3933,-78.125000
3934,-78.125000
3935,-78.125000
3936,-78.125000
3937,-78.125000
3938,-74.218750
3939,-74.218750
3940,-74.218750
3941,-74.218750
3942,-74.218750
3943,-74.218750
3944,-70.312500
3945,-70.312500
3946,-70.312500
3947,-70.312500
3948,-70.312500
3949,-70.312500
3950,-66.406250
3951,-66.406250
3952,-66.406250
3953,-66.406250
3954,-66.406250
3955,-62.500000
3956,-62.500000
3957,-62.500000
3958,-62.500000
3959,-62.500000
3960,-62.500000
3961,-58.593750
3962,-58.593750
3963,-58.593750
3964,-58.593750
3965,-58.593750
3966,-58.593750
3967,-58.593750
3968,-54.687500
3969,-54.687500
3970,-54.687500
3971,-54.687500
3972,-50.781250
3973,-50.781250
3974,-50.781250
3975,-50.781250
3976,-50.781250
3977,-50.781250
3978,-50.781250
3979,-46.875000
3980,-46.875000
3981,-46.875000
3982,-46.875000
3983,-42.968750
3984,-42.968750
3985,-42.968750
3986,-42.968750
3987,-42.968750
3988,-42.968750
3989,-42.968750
3990,-39.062500
3991,-39.062500
3992,-39.062500
3993,-39.062500
3994,-35.156250
3995,-35.156250
3996,-35.156250
3997,-35.156250
3998,-35.156250
3999,-35.156250
4000,-31.250000
4001,-31.250000
4002,-31.250000
4003,-31.250000
4004,-31.250000
4005,-27.343750
4006,-27.343750
4007,-27.343750
4008,-27.343750
4009,-27.343750
4010,-27.343750
4011,-23.437500
4012,-23.437500
4013,-23.437500
4014,-23.437500
4015,-23.437500
4016,-19.531250
4017,-19.531250
4018,-19.531250
4019,-19.531250
4020,-19.531250
4021,-19.531250
4022,-15.625000
4023,-15.625000
4024,-15.625000
4025,-15.625000
4026,-15.625000
4027,-15.625000
4028,-11.718750
4029,-11.718750
4030,-11.718750
4031,-11.718750
4032,-11.718750
4033,-7.812500
4034,-7.812500
4035,-7.812500
4036,-7.812500
4037,-7.812500
4038,-3.906250
4039,-3.906250
4040,-3.906250
4041,-3.906250
4042,-3.906250
4043,-3.906250
4044,0.000000
4045,0.000000
4046,0.000000
4047,0.000000
4048,0.000000
4049,3.906250
4050,3.906250
4051,3.906250
4052,3.906250
4053,3.906250
4054,7.812500
4055,7.812500
4056,7.812500
4057,7.812500
4058,7.812500
4059,7.812500
4060,11.718750
4061,11.718750
4062,11.718750
4063,11.718750
4064,11.718750
4065,15.625000
4066,15.625000
4067,15.625000
4068,15.625000
4069,15.625000
4070,19.531250
4071,19.531250
4072,19.531250
4073,19.531250
4074,19.531250
4075,19.531250
4076,19.531250
4077,23.437500
4078,23.437500
4079,23.437500
4080,23.437500
4081,27.343750
4082,27.343750
4083,27.343750
4084,27.343750
4085,27.343750
4086,27.343750
4087,27.343750
4088,31.250000
4089,31.250000
4090,31.250000
4091,31.250000
4092,31.250000
4093,31.250000
4094,35.156250
4095,35.156250
4096,35.156250
4097,35.156250
4098,35.156250
4099,35.156250
4100,39.062500
4101,39.062500
4102,39.062500
4103,39.062500
4104,39.062500
4105,39.062500
4106,39.062500
4107,42.968750
4108,39.062500
4109,42.968750
4110,42.968750
4111,42.968750
4112,42.968750
4113,46.875000
4114,46.875000
4115,46.875000
4116,46.875000
4117,46.875000
4118,46.875000
4119,46.875000
4120,50.781250
4121,50.781250
4122,50.781250
4123,50.781250
4124,50.781250
4125,50.781250
4126,50.781250
4127,54.687500
4128,54.687500
4129,54.687500
4130,54.687500
4131,54.687500
4132,54.687500
4133,54.687500
4134,58.593750
4135,58.593750
4136,58.593750
4137,58.593750
4138,58.593750
4139,58.593750
4140,58.593750
4141,58.593750
4142,58.593750
4143,62.500000
4144,62.500000
4145,62.500000
4146,62.500000
4147,62.500000
4148,62.500000
4149,62.500000
4150,66.406250
4151,66.406250
4152,66.406250
4153,66.406250
4154,66.406250
4155,66.406250
4156,66.406250
4157,66.406250
4158,66.406250
4159,66.406250
4160,70.312500
4161,70.312500
4162,70.312500
4163,70.312500
4164,70.312500
4165,70.312500
4166,70.312500
4167,74.218750
4168,70.312500
4169,74.218750
4170,74.218750
4171,74.218750
4172,74.218750
4173,74.218750
4174,74.218750
4175,78.125000
4176,74.218750
4177,78.125000
4178,78.125000
4179,78.125000
4180,78.125000
4181,78.125000
4182,78.125000
4183,78.125000
4184,78.125000
4185,78.125000
4186,82.031250
4187,82.031250
4188,82.031250
4189,82.031250
4190,82.031250
4191,82.031250
4192,82.031250
4193,85.937500
4194,82.031250
4195,82.031250
4196,85.937500
4197,82.031250
4198,85.937500
4199,85.937500
4200,85.937500
4201,85.937500
4202,85.937500
4203,85.937500
4204,85.937500
4205,85.937500
4206,85.937500
4207,85.937500
4208,85.937500
4209,85.937500
4210,89.843750
4211,89.843750
4212,89.843750
4213,89.843750
4214,89.843750
4215,89.843750
4216,89.843750
4217,89.843750
4218,89.843750
4219,89.843750
4220,89.843750
4221,89.843750
4222,89.843750
4223,93.750000
4224,93.750000
4225,93.750000
4226,89.843750
4227,93.750000
4228,93.750000
4229,93.750000
4230,93.750000
4231,93.750000
4232,93.750000
4233,93.750000
4234,93.750000
4235,93.750000
4236,93.750000
4237,93.750000
4238,93.750000
4239,93.750000
4240,93.750000
4241,93.750000
4242,97.656250
4243,97.656250
4244,93.750000
4245,93.750000
4246,93.750000
4247,97.656250
4248,97.656250
4249,97.656250
4250,97.656250
4251,97.656250
4252,97.656250
4253,97.656250
4254,97.656250
4255,97.656250
4256,97.656250
4257,97.656250
4258,97.656250
4259,97.656250
4260,97.656250
4261,97.656250
4262,97.656250
4263,97.656250
4264,97.656250
4265,97.656250
4266,97.656250
4267,97.656250
4268,97.656250
4269,97.656250
4270,97.656250
4271,97.656250
4272,97.656250
4273,97.656250
4274,97.656250
4275,97.656250
4276,97.656250
4277,97.656250
4278,97.656250
4279,97.656250
4280,97.656250
4281,97.656250
4282,97.656250
4283,97.656250
4284,97.656250
4285,97.656250
4286,97.656250
4287,97.656250
4288,97.656250
4289,97.656250
4290,97.656250
4291,97.656250
4292,97.656250
4293,97.656250
4294,97.656250
4295,97.656250
4296,97.656250
4297,97.656250
4298,97.656250
4299,97.656250
4300,97.656250
4301,97.656250
4302,97.656250
4303,97.656250
4304,97.656250
4305,97.656250
4306,97.656250
4307,97.656250
4308,97.656250
4309,97.656250
4310,97.656250
4311,97.656250
4312,97.656250
4313,97.656250
4314,97.656250
4315,97.656250
4316,97.656250
4317,97.656250
4318,97.656250
4319,97.656250
4320,97.656250
4321,93.750000
4322,93.750000
4323,93.750000
4324,97.656250
4325,97.656250
4326,93.750000
4327,93.750000
4328,97.656250
4329,93.750000
4330,93.750000
4331,93.750000
4332,93.750000
4333,93.750000
4334,93.750000
4335,93.750000
4336,93.750000
4337,93.750000
4338,93.750000
4339,93.750000
4340,93.750000
4341,93.750000
4342,93.750000
4343,93.750000
4344,89.843750
4345,89.843750
4346,89.843750
4347,89.843750
4348,93.750000
4349,93.750000
4350,89.843750
4351,89.843750
4352,89.843750
4353,89.843750
4354,89.843750
4355,89.843750
4356,89.843750
4357,89.843750
4358,89.843750
4359,89.843750
4360,89.843750
4361,85.937500
4362,89.843750
4363,89.843750
4364,85.937500
4365,85.937500
4366,85.937500
4367,85.937500
4368,85.937500
4369,85.937500
4370,85.937500
4371,85.937500
4372,85.937500
4373,85.937500
4374,85.937500
4375,85.937500
4376,82.031250
4377,85.937500
4378,82.031250
4379,82.031250
4380,82.031250
4381,82.031250
4382,82.031250
4383,82.031250
4384,78.125000
4385,78.125000
4386,78.125000
4387,78.125000
4388,78.125000
4389,78.125000
4390,78.125000
4391,78.125000
4392,78.125000
4393,78.125000
4394,78.125000
4395,78.125000
4396,74.218750
4397,74.218750
4398,74.218750
4399,74.218750
4400,74.218750
4401,74.218750
4402,74.218750
4403,74.218750
4404,70.312500
4405,70.312500
4406,70.312500
4407,70.312500
4408,70.312500
4409,70.312500
4410,70.312500
4411,70.312500
4412,70.312500
4413,66.406250
4414,66.406250
4415,66.406250
4416,66.406250
4417,66.406250
4418,66.406250
4419,66.406250
4420,66.406250
4421,62.500000
4422,62.500000
4423,62.500000
4424,62.500000
4425,62.500000
4426,62.500000
4427,62.500000
4428,62.500000
4429,62.500000
4430,58.593750
4431,58.593750
4432,58.593750
4433,58.593750
4434,58.593750
4435,58.593750
4436,58.593750
4437,54.687500
4438,54.687500
4439,54.687500
4440,54.687500
4441,54.687500
4442,54.687500
4443,54.687500
4444,50.781250
4445,50.781250
4446,50.781250
4447,50.781250
4448,50.781250
4449,50.781250
4450,50.781250
4451,50.781250
4452,46.875000
4453,46.875000
4454,46.875000
4455,46.875000
4456,46.875000
4457,46.875000
4458,42.968750
4459,42.968750
4460,42.968750
4461,42.968750
4462,42.968750
4463,42.968750
4464,42.968750
4465,39.062500
4466,39.062500
4467,39.062500
4468,39.062500
4469,39.062500
4470,39.062500
4471,35.156250
4472,35.156250
4473,35.156250
4474,35.156250
4475,35.156250
4476,35.156250
4477,31.250000
4478,31.250000
4479,31.250000
4480,31.250000
4481,31.250000
4482,31.250000
4483,27.343750
4484,27.343750
4485,27.343750
4486,27.343750
4487,27.343750
4488,27.343750
4489,27.343750
4490,27.343750
4491,23.437500
4492,23.437500
4493,23.437500
4494,23.437500
4495,23.437500
4496,19.531250
4497,19.531250
4498,19.531250
4499,19.531250
4500,19.531250
4501,15.625000
4502,15.625000
4503,15.625000
4504,15.625000
4505,15.625000
4506,15.625000
4507,11.718750
4508,11.718750
4509,11.718750
4510,11.718750
4511,11.718750
4512,7.812500
4513,7.812500
4514,7.812500
4515,7.812500
4516,3.906250
4517,3.906250
4518,3.906250
4519,3.906250
4520,3.906250
4521,3.906250
4522,0.000000
4523,0.000000
4524,0.000000
4525,0.000000
4526,0.000000
4527,-3.906250
4528,-3.906250
4529,-3.906250
4530,-3.906250
4531,-3.906250
4532,-3.906250
4533,-3.906250
4534,-7.812500
4535,-7.812500
4536,-7.812500
4537,-11.718750
4538,-11.718750
4539,-11.718750
4540,-11.718750
4541,-11.718750
4542,-11.718750
4543,-11.718750
4544,-15.625000
4545,-11.718750
4546,-15.625000
4547,-15.625000
4548,-15.625000
4549,-15.625000
4550,-19.531250
4551,-19.531250
4552,-19.531250
4553,-19.531250
4554,-19.531250
4555,-23.437500
4556,-23.437500
4557,-23.437500
4558,-23.437500
4559,-23.437500
4560,-23.437500
4561,-27.343750
4562,-27.343750
4563,-27.343750
4564,-27.343750
4565,-27.343750
4566,-31.250000
4567,-31.250000
4568,-31.250000
4569,-31.250000
4570,-35.156250
4571,-35.156250
4572,-35.156250
4573,-35.156250
4574,-35.156250
4575,-35.156250
4576,-39.062500
4577,-39.062500
4578,-39.062500
4579,-39.062500
4580,-39.062500
4581,-39.062500
4582,-42.968750
4583,-42.968750
4584,-42.968750
4585,-42.968750
4586,-46.875000
4587,-42.968750
4588,-46.875000
4589,-46.875000
4590,-46.875000
4591,-46.875000
4592,-46.875000
4593,-46.875000
4594,-50.781250
4595,-50.781250
4596,-50.781250
4597,-50.781250
4598,-54.687500
4599,-54.687500
4600,-54.687500
4601,-54.687500
4602,-54.687500
4603,-54.687500
4604,-58.593750
4605,-58.593750
4606,-58.593750
4607,-58.593750
4608,-58.593750
4609,-58.593750
4610,-62.500000
4611,-62.500000
4612,-62.500000
4613,-62.500000
4614,-62.500000
4615,-66.406250
4616,-66.406250
4617,-66.406250
4618,-66.406250
4619,-66.406250
4620,-66.406250
4621,-70.312500
4622,-70.312500
4623,-70.312500
4624,-70.312500
4625,-70.312500
4626,-70.312500
4627,-74.218750
4628,-74.218750
4629,-74.218750
4630,-74.218750
4631,-74.218750
4632,-74.218750
4633,-74.218750
4634,-78.125000
4635,-78.125000
4636,-78.125000
4637,-78.125000
4638,-78.125000
4639,-82.031250
4640,-82.031250
4641,-82.031250
4642,-82.031250
4643,-82.031250
4644,-82.031250
4645,-82.031250
4646,-85.937500
4647,-85.937500
4648,-85.937500
4649,-85.937500
4650,-85.937500
4651,-85.937500
4652,-89.843750
4653,-89.843750
4654,-89.843750
4655,-89.843750
4656,-89.843750
4657,-89.843750
4658,-89.843750
4659,-93.750000
4660,-93.750000
4661,-93.750000
4662,-93.750000
4663,-93.750000
4664,-93.750000
4665,-93.750000
4666,-97.656250
4667,-97.656250
4668,-97.656250
4669,-97.656250
4670,-97.656250
4671,-97.656250
4672,-97.656250
4673,-97.656250
4674,-101.562500
4675,-101.562500
4676,-101.562500
4677,-101.562500
4678,-101.562500
4679,-101.562500
4680,-101.562500
4681,-101.562500
4682,-105.468750
4683,-105.468750
4684,-105.468750
4685,-105.468750
4686,-105.468750
4687,-105.468750
4688,-105.468750
4689,-105.468750
4690,-109.375000
4691,-109.375000
4692,-109.375000
4693,-109.375000
4694,-109.375000
4695,-109.375000
4696,-109.375000
4697,-109.375000
4698,-109.375000
4699,-113.281250
4700,-113.281250
4701,-113.281250
4702,-113.281250
4703,-113.281250
4704,-113.281250
4705,-113.281250
4706,-113.281250
4707,-113.281250
4708,-113.281250
4709,-117.187500
4710,-117.187500
4711,-117.187500
4712,-117.187500
4713,-117.187500
4714,-117.187500
4715,-117.187500
4716,-117.187500
4717,-117.187500
4718,-117.187500
4719,-117.187500
4720,-117.187500
4721,-117.187500
4722,-117.187500
4723,-117.187500
4724,-121.093750
4725,-121.093750
4726,-121.093750
4727,-121.093750
4728,-121.093750
4729,-121.093750
4730,-121.093750
4731,-121.093750
4732,-121.093750
4733,-121.093750
4734,-121.093750
4735,-121.093750
4736,-121.093750
4737,-121.093750
4738,-125.000000
4739,-121.093750
4740,-121.093750
4741,-121.093750
4742,-125.000000
4743,-125.000000
4744,-125.000000
4745,-125.000000
4746,-125.000000
4747,-125.000000
4748,-125.000000
4749,-125.000000
4750,-125.000000
4751,-125.000000
4752,-125.000000
4753,-125.000000
4754,-125.000000
4755,-125.000000
4756,-125.000000
4757,-125.000000
4758,-125.000000
4759,-125.000000
4760,-125.000000
4761,-125.000000
4762,-125.000000
4763,-125.000000
4764,-128.906250
4765,-128.906250
4766,-125.000000
4767,-128.906250
4768,-125.000000
4769,-125.000000
4770,-125.000000
4771,-125.000000
4772,-125.000000
4773,-128.906250
4774,-128.906250
4775,-128.906250
4776,-128.906250
4777,-125.000000
4778,-128.906250
4779,-128.906250
4780,-128.906250
4781,-128.906250
4782,-128.906250
4783,-128.906250
4784,-128.906250
4785,-128.906250
4786,-128.906250
4787,-125.000000
4788,-128.906250
4789,-128.906250
4790,-128.906250
4791,-128.906250
4792,-128.906250
4793,-128.906250
4794,-125.000000
4795,-128.906250
4796,-125.000000
4797,-125.000000
4798,-128.906250
4799,-128.906250
4800,-125.000000
4801,-125.000000
4802,-128.906250
4803,-125.000000
4804,-125.000000
4805,-125.000000
4806,-125.000000
4807,-125.000000
4808,-125.000000
4809,-125.000000
4810,-125.000000
4811,-125.000000
4812,-125.000000
4813,-125.000000
4814,-125.000000
4815,-125.000000
4816,-125.000000
4817,-125.000000
4818,-125.000000
4819,-121.093750
4820,-125.000000
4821,-125.000000
4822,-125.000000
4823,-125.000000
4824,-121.093750
4825,-121.093750
4826,-121.093750
4827,-121.093750
4828,-121.093750
4829,-121.093750
4830,-121.093750
4831,-121.093750
4832,-121.093750
4833,-121.093750
4834,-121.093750
4835,-121.093750
4836,-121.093750
4837,-117.187500
4838,-117.187500
4839,-117.187500
4840,-117.187500
4841,-117.187500
4842,-117.187500
4843,-117.187500
4844,-117.187500
4845,-117.187500
4846,-117.187500
4847,-117.187500
4848,-117.187500
4849,-117.187500
4850,-113.281250
4851,-113.281250
4852,-113.281250
4853,-113.281250
4854,-113.281250
4855,-113.281250
4856,-113.281250
4857,-113.281250
4858,-113.281250
4859,-109.375000
4860,-109.375000
4861,-109.375000
4862,-109.375000
4863,-109.375000
4864,-109.375000
4865,-109.375000
4866,-109.375000
4867,-109.375000
4868,-109.375000
4869,-105.468750
4870,-105.468750
4871,-105.468750
4872,-105.468750
4873,-105.468750
4874,-105.468750
4875,-105.468750
4876,-105.468750
4877,-101.562500
4878,-101.562500
4879,-101.562500
4880,-101.562500
4881,-101.562500
4882,-101.562500
4883,-101.562500
4884,-101.562500
4885,-101.562500
4886,-97.656250
4887,-97.656250
4888,-97.656250
4889,-97.656250
4890,-97.656250
4891,-97.656250
4892,-97.656250
4893,-97.656250
4894,-93.750000
4895,-93.750000
4896,-93.750000
4897,-93.750000
4898,-93.750000
4899,-93.750000
4900,-93.750000
4901,-89.843750
4902,-89.843750
4903,-89.843750
4904,-89.843750
4905,-89.843750
4906,-89.843750
4907,-89.843750
4908,-85.937500
4909,-89.843750
4910,-85.937500
4911,-85.937500
4912,-85.937500
4913,-85.937500
4914,-85.937500
4915,-82.031250
4916,-82.031250
4917,-82.031250
4918,-82.031250
4919,-82.031250
4920,-82.031250
4921,-82.031250
4922,-82.031250
4923,-78.125000
4924,-78.125000
4925,-78.125000
4926,-78.125000
4927,-74.218750
4928,-74.218750
4929,-74.218750
4930,-74.218750
4931,-74.218750
4932,-74.218750
4933,-74.218750
4934,-74.218750
4935,-70.312500
4936,-70.312500
4937,-70.312500
4938,-70.312500
4939,-66.406250
4940,-66.406250
4941,-70.312500
4942,-66.406250
4943,-66.406250
4944,-66.406250
4945,-66.406250
4946,-62.500000
4947,-62.500000
4948,-62.500000
4949,-62.500000
4950,-62.500000
4951,-58.593750
4952,-58.593750
4953,-58.593750
4954,-58.593750
4955,-58.593750
4956,-58.593750
4957,-58.593750
4958,-54.687500
4959,-54.687500
4960,-54.687500
4961,-54.687500
4962,-54.687500
4963,-50.781250
4964,-50.781250
4965,-50.781250
4966,-50.781250
4967,-50.781250
4968,-50.781250
4969,-46.875000
4970,-46.875000
4971,-46.875000
4972,-46.875000
4973,-46.875000
4974,-42.968750
4975,-42.968750
4976,-42.968750
4977,-42.968750
4978,-39.062500
4979,-39.062500
4980,-39.062500
4981,-39.062500
4982,-42.968750
4983,-39.062500
4984,-35.156250
4985,-35.156250
4986,-35.156250
4987,-35.156250
4988,-35.156250
4989,-35.156250
4990,-31.250000
4991,-31.250000
4992,-31.250000
4993,-31.250000
4994,-31.250000
4995,-27.343750
4996,-27.343750
4997,-27.343750
4998,-27.343750
4999,-27.343750
5000,-23.437500
5001,-23.437500
5002,-23.437500
5003,-23.437500
5004,-23.437500
5005,-19.531250
5006,-19.531250
5007,-19.531250
5008,-19.531250
5009,-19.531250
5010,-19.531250
5011,-19.531250
5012,-15.625000
5013,-15.625000
5014,-15.625000
5015,-15.625000
5016,-15.625000
5017,-11.718750
5018,-11.718750
5019,-11.718750
5020,-11.718750
5021,-11.718750
5022,-11.718750
5023,-7.812500
5024,-7.812500
5025,-7.812500
5026,-7.812500
5027,-7.812500
5028,-3.906250
5029,-7.812500
5030,-3.906250
5031,-3.906250
5032,-3.906250
5033,0.000000
5034,0.000000
5035,0.000000
5036,0.000000
5037,0.000000
5038,3.906250
5039,0.000000
5040,3.906250
5041,3.906250
5042,3.906250
5043,3.906250
5044,7.812500
5045,7.812500
5046,7.812500
5047,7.812500
5048,7.812500
5049,7.812500
5050,11.718750
5051,11.718750
5052,11.718750
5053,11.718750
5054,11.718750
5055,11.718750
5056,11.718750
5057,15.625000
5058,15.625000
5059,15.625000
5060,15.625000
5061,15.625000
5062,15.625000
5063,15.625000
5064,19.531250
5065,23.437500
5066,19.531250
5067,23.437500
5068,23.437500
5069,19.531250
5070,23.437500
5071,27.343750
5072,23.437500
5073,27.343750
5074,27.343750
5075,27.343750
5076,27.343750
5077,27.343750
5078,27.343750
5079,31.250000
5080,31.250000
5081,31.250000
5082,31.250000
5083,31.250000
5084,31.250000
5085,35.156250
5086,35.156250
5087,35.156250
5088,35.156250
5089,35.156250
5090,35.156250
5091,39.062500
5092,39.062500
5093,39.062500
5094,39.062500
5095,39.062500
5096,39.062500
5097,42.968750
5098,42.968750
5099,42.968750
5100,42.968750
5101,42.968750
5102,42.968750
5103,42.968750
5104,42.968750
5105,46.875000
5106,46.875000
5107,46.875000
5108,46.875000
5109,46.875000
5110,46.875000
5111,50.781250
5112,50.781250
5113,50.781250
5114,50.781250
5115,50.781250
5116,50.781250
5117,54.687500
5118,54.687500
5119,54.687500
5120,54.687500
5121,54.687500
5122,54.687500
5123,54.687500
5124,54.687500
5125,58.593750
5126,58.593750
5127,58.593750
5128,58.593750
5129,58.593750
5130,58.593750
5131,62.500000
5132,62.500000
5133,62.500000
5134,62.500000
5135,62.500000
5136,62.500000
5137,62.500000
5138,66.406250
5139,66.406250
5140,62.500000
5141,66.406250
5142,66.406250
5143,66.406250
5144,66.406250
5145,66.406250
5146,66.406250
5147,70.312500
5148,70.312500
5149,70.312500
5150,70.312500
5151,70.312500
5152,70.312500
5153,70.312500
5154,70.312500
5155,74.218750
5156,70.312500
5157,74.218750
5158,74.218750
5159,74.218750
5160,74.218750
5161,74.218750
5162,74.218750
5163,74.218750
5164,74.218750
5165,74.218750
5166,78.125000
5167,78.125000
5168,78.125000
5169,78.125000
5170,78.125000
5171,78.125000
5172,78.125000
5173,78.125000
5174,78.125000
5175,78.125000
5176,78.125000
5177,82.031250
5178,82.031250
5179,82.031250
5180,82.031250
5181,82.031250
5182,82.031250
5183,82.031250
5184,82.031250
5185,82.031250
5186,82.031250
5187,85.937500
5188,85.937500
5189,85.937500
5190,85.937500
5191,85.937500
5192,85.937500
5193,85.937500
5194,85.937500
5195,85.937500
5196,85.937500
5197,89.843750
5198,85.937500
5199,89.843750
5200,89.843750
5201,85.937500
5202,85.937500
5203,89.843750
5204,89.843750
5205,89.843750
5206,89.843750
5207,89.843750
5208,89.843750
5209,89.843750
5210,89.843750
5211,89.843750
5212,89.843750
5213,89.843750
5214,89.843750
5215,93.750000
5216,93.750000
5217,93.750000
5218,93.750000
5219,93.750000
5220,93.750000
5221,93.750000
5222,93.750000
5223,93.750000
5224,93.750000
5225,93.750000
5226,93.750000
5227,93.750000
5228,93.750000
5229,93.750000
5230,93.750000
5231,93.750000
5232,93.750000
5233,93.750000
5234,93.750000
5235,93.750000
5236,93.750000
5237,97.656250
5238,93.750000
5239,97.656250
5240,97.656250
5241,97.656250
5242,97.656250
5243,97.656250
5244,97.656250
5245,97.656250
5246,97.656250
5247,97.656250
5248,97.656250
5249,97.656250
5250,97.656250
5251,97.656250
5252,97.656250
5253,97.656250
5254,97.656250
5255,97.656250
5256,97.656250
5257,97.656250
5258,97.656250
5259,97.656250
5260,97.656250
5261,97.656250
5262,97.656250
5263,97.656250
5264,97.656250
5265,97.656250
5266,97.656250
5267,97.656250
5268,97.656250
5269,101.562500
5270,97.656250
5271,97.656250
5272,101.562500
5273,97.656250
5274,97.656250
5275,101.562500
5276,97.656250
5277,97.656250
5278,101.562500
5279,97.656250
5280,97.656250
5281,97.656250
5282,101.562500
5283,97.656250
5284,97.656250
5285,97.656250
5286,97.656250
5287,97.656250
5288,97.656250
5289,97.656250
5290,97.656250
5291,97.656250
5292,97.656250
5293,97.656250
5294,97.656250
5295,97.656250
5296,97.656250
5297,97.656250
5298,97.656250
5299,97.656250
5300,97.656250
5301,97.656250
5302,97.656250
5303,97.656250
5304,97.656250
5305,97.656250
5306,97.656250
5307,97.656250
5308,97.656250
5309,97.656250
5310,97.656250
5311,97.656250
5312,93.750000
5313,93.750000
5314,93.750000
5315,97.656250
5316,97.656250
5317,93.750000
5318,93.750000
5319,93.750000
5320,93.750000
5321,93.750000
5322,93.750000
5323,93.750000
5324,93.750000
5325,93.750000
5326,93.750000
5327,93.750000
5328,93.750000
5329,93.750000
5330,93.750000
5331,93.750000
5332,89.843750
5333,89.843750
5334,93.750000
5335,89.843750
5336,89.843750
5337,89.843750
5338,89.843750
5339,89.843750
5340,89.843750
5341,89.843750
5342,89.843750
5343,89.843750
5344,89.843750
5345,89.843750
5346,89.843750
5347,89.843750
5348,89.843750
5349,89.843750
5350,85.937500
5351,85.937500
5352,85.937500
5353,85.937500
5354,85.937500
5355,85.937500
5356,85.937500
5357,85.937500
5358,85.937500
5359,85.937500
5360,85.937500
5361,85.937500
5362,85.937500
5363,85.937500
5364,82.031250
5365,82.031250
5366,82.031250
5367,82.031250
5368,82.031250
5369,82.031250
5370,82.031250
5371,82.031250
5372,82.031250
5373,82.031250
5374,78.125000
5375,82.031250
5376,78.125000
5377,82.031250
5378,78.125000
5379,78.125000
5380,78.125000
5381,78.125000
5382,78.125000
5383,78.125000
5384,78.125000
5385,74.218750
5386,74.218750
5387,74.218750
5388,74.218750
5389,74.218750
5390,74.218750
5391,74.218750
5392,74.218750
5393,74.218750
5394,74.218750
5395,70.312500
5396,70.312500
5397,70.312500
5398,70.312500
5399,70.312500
5400,70.312500
5401,70.312500
5402,70.312500
5403,66.406250
5404,66.406250
5405,70.312500
5406,66.406250
5407,66.406250
5408,66.406250
5409,66.406250
5410,66.406250
5411,66.406250
5412,62.500000
5413,62.500000
5414,66.406250
5415,62.500000
5416,62.500000
5417,62.500000
5418,62.500000
5419,62.500000
5420,58.593750
5421,58.593750
5422,58.593750
5423,58.593750
5424,58.593750
5425,58.593750
5426,58.593750
5427,54.687500
5428,54.687500
5429,54.687500
5430,54.687500
5431,54.687500
5432,50.781250
5433,50.781250
5434,50.781250
5435,50.781250
5436,50.781250
5437,50.781250
5438,50.781250
5439,50.781250
5440,46.875000
5441,46.875000
5442,46.875000
5443,46.875000
5444,46.875000
5445,46.875000
5446,46.875000
5447,42.968750
5448,42.968750
5449,42.968750
5450,42.968750
5451,42.968750
5452,42.968750
5453,42.968750
5454,39.062500
5455,39.062500
5456,39.062500
5457,39.062500
5458,39.062500
5459,39.062500
5460,35.156250
5461,35.156250
5462,35.156250
5463,35.156250
5464,35.156250
5465,31.250000
5466,31.250000
5467,31.250000
5468,31.250000
5469,31.250000
5470,31.250000
5471,31.250000
5472,27.343750
5473,27.343750
5474,27.343750
5475,27.343750
5476,27.343750
5477,27.343750
5478,23.437500
5479,23.437500
5480,23.437500
5481,23.437500
5482,23.437500
5483,23.437500
5484,19.531250
5485,19.531250
5486,19.531250
5487,19.531250
5488,19.531250
5489,19.531250
5490,15.625000
5491,15.625000
5492,15.625000
5493,15.625000
5494,15.625000
5495,15.625000
5496,11.718750
5497,11.718750
5498,11.718750
5499,11.718750
5500,11.718750
5501,11.718750
5502,7.812500
5503,7.812500
5504,7.812500
5505,7.812500
5506,3.906250
5507,3.906250
5508,3.906250
5509,3.906250
5510,3.906250
5511,0.000000
5512,0.000000
5513,0.000000
5514,0.000000
5515,0.000000
5516,0.000000
5517,0.000000
5518,-3.906250
5519,-3.906250
5520,-3.906250
5521,-3.906250
5522,-3.906250
5523,-7.812500
5524,-7.812500
5525,-7.812500
5526,-7.812500
5527,-7.812500
5528,-7.812500
5529,-11.718750
5530,-11.718750
5531,-11.718750
5532,-11.718750
5533,-11.718750
5534,-15.625000
5535,-11.718750
5536,-15.625000
5537,-15.625000
5538,-15.625000
5539,-19.531250
5540,-19.531250
5541,-19.531250
5542,-19.531250
5543,-23.437500
5544,-19.531250
5545,-19.531250
5546,-23.437500
5547,-23.437500
5548,-23.437500
5549,-23.437500
5550,-27.343750
5551,-27.343750
5552,-27.343750
5553,-27.343750
5554,-27.343750
5555,-27.343750
5556,-31.250000
5557,-31.250000
5558,-31.250000
5559,-31.250000
5560,-35.156250
5561,-35.156250
5562,-35.156250
5563,-35.156250
5564,-35.156250
5565,-35.156250
5566,-39.062500
5567,-39.062500
5568,-39.062500
5569,-39.062500
5570,-39.062500
5571,-42.968750
5572,-42.968750
5573,-42.968750
5574,-42.968750
5575,-42.968750
5576,-46.875000
5577,-46.875000
5578,-46.875000
5579,-46.875000
5580,-46.875000
5581,-46.875000
5582,-50.781250
5583,-50.781250
5584,-50.781250
5585,-50.781250
5586,-50.781250
5587,-50.781250
5588,-54.687500
5589,-54.687500
5590,-54.687500
5591,-54.687500
5592,-54.687500
5593,-58.593750
5594,-58.593750
5595,-58.593750
5596,-58.593750
5597,-58.593750
5598,-62.500000
5599,-62.500000
5600,-62.500000
5601,-62.500000
5602,-62.500000
5603,-62.500000
5604,-66.406250
5605,-66.406250
5606,-66.406250
5607,-66.406250
5608,-66.406250
5609,-66.406250
5610,-66.406250
5611,-70.312500
5612,-70.312500
5613,-70.312500
5614,-70.312500
5615,-70.312500
5616,-70.312500
5617,-74.218750
5618,-74.218750
5619,-74.218750
5620,-74.218750
5621,-74.218750
5622,-74.218750
5623,-78.125000
5624,-78.125000
5625,-78.125000
5626,-78.125000
5627,-78.125000
5628,-82.031250
5629,-82.031250
5630,-82.031250
5631,-82.031250
5632,-82.031250
5633,-82.031250
5634,-82.031250
5635,-82.031250
5636,-85.937500
5637,-85.937500
5638,-85.937500
5639,-85.937500
5640,-85.937500
5641,-85.937500
5642,-89.843750
5643,-89.843750
5644,-89.843750
5645,-89.843750
5646,-89.843750
5647,-89.843750
5648,-89.843750
5649,-93.750000
5650,-93.750000
5651,-93.750000
5652,-93.750000
5653,-93.750000
5654,-93.750000
5655,-93.750000
5656,-97.656250
5657,-97.656250
5658,-97.656250
5659,-97.656250
5660,-97.656250
5661,-97.656250
5662,-97.656250
5663,-97.656250
5664,-101.562500
5665,-101.562500
5666,-101.562500
5667,-101.562500
5668,-101.562500
5669,-101.562500
5670,-101.562500
5671,-101.562500
5672,-105.468750
5673,-105.468750
5674,-105.468750
5675,-105.468750
5676,-105.468750
5677,-105.468750
5678,-105.468750
5679,-105.468750
5680,-105.468750
5681,-109.375000
5682,-109.375000
5683,-109.375000
5684,-109.375000
5685,-109.375000
5686,-109.375000
5687,-109.375000
5688,-109.375000
5689,-109.375000
5690,-113.281250
5691,-113.281250
5692,-113.281250
5693,-113.281250
5694,-113.281250
5695,-113.281250
5696,-113.281250
5697,-113.281250
5698,-113.281250
5699,-113.281250
5700,-117.187500
5701,-117.187500
5702,-117.187500
5703,-117.187500
5704,-117.187500
5705,-117.187500
5706,-117.187500
5707,-117.187500
5708,-117.187500
5709,-117.187500
5710,-117.187500
5711,-117.187500
5712,-117.187500
5713,-121.093750
5714,-121.093750
5715,-121.093750
5716,-121.093750
5717,-121.093750
5718,-121.093750
5719,-121.093750
5720,-121.093750
5721,-121.093750
5722,-121.093750
5723,-121.093750
5724,-121.093750
5725,-125.000000
5726,-125.000000
5727,-125.000000
5728,-125.000000
5729,-125.000000
5730,-125.000000
5731,-125.000000
5732,-125.000000
5733,-125.000000
5734,-125.000000
5735,-125.000000
5736,-125.000000
5737,-125.000000
5738,-125.000000
5739,-125.000000
5740,-125.000000
5741,-125.000000
5742,-125.000000
5743,-125.000000
5744,-125.000000
5745,-125.000000
5746,-125.000000
5747,-125.000000
5748,-125.000000
5749,-125.000000
5750,-125.000000
5751,-125.000000
5752,-125.000000
5753,-125.000000
5754,-128.906250
5755,-128.906250
5756,-125.000000
5757,-128.906250
5758,-128.906250
5759,-128.906250
5760,-125.000000
5761,-125.000000
5762,-128.906250
5763,-125.000000
5764,-125.000000
5765,-125.000000
5766,-128.906250
5767,-128.906250
5768,-128.906250
5769,-128.906250
5770,-125.000000
5771,-128.906250
5772,-128.906250
5773,-128.906250
5774,-128.906250
5775,-128.906250
5776,-128.906250
5777,-125.000000
5778,-125.000000
5779,-125.000000
5780,-125.000000
5781,-128.906250
5782,-125.000000
5783,-125.000000
5784,-125.000000
5785,-125.000000
5786,-125.000000
5787,-125.000000
5788,-125.000000
5789,-125.000000
5790,-125.000000
5791,-125.000000
5792,-125.000000
5793,-125.000000
5794,-125.000000
5795,-125.000000
5796,-125.000000
5797,-125.000000
5798,-125.000000
5799,-125.000000
5800,-125.000000
5801,-125.000000
5802,-125.000000
5803,-125.000000
5804,-125.000000
5805,-125.000000
5806,-125.000000
5807,-125.000000
5808,-125.000000
5809,-125.000000
5810,-125.000000
5811,-125.000000
5812,-125.000000
5813,-121.093750
5814,-121.093750
5815,-121.093750
5816,-121.093750
5817,-121.093750
5818,-121.093750
5819,-121.093750
5820,-121.093750
5821,-121.093750
5822,-121.093750
5823,-121.093750
5824,-121.093750
5825,-121.093750
5826,-121.093750
5827,-121.093750
5828,-121.093750
5829,-117.187500
5830,-117.187500
5831,-117.187500
5832,-117.187500
5833,-117.187500
5834,-117.187500
5835,-117.187500
5836,-117.187500
5837,-117.187500
5838,-113.281250
5839,-117.187500
5840,-113.281250
5841,-117.187500
5842,-113.281250
5843,-113.281250
5844,-113.281250
5845,-113.281250
5846,-113.281250
5847,-113.281250
5848,-113.281250
5849,-113.281250
5850,-113.281250
5851,-113.281250
5852,-109.375000
5853,-109.375000
5854,-109.375000
5855,-109.375000
5856,-109.375000
5857,-109.375000
5858,-109.375000
5859,-105.468750
5860,-109.375000
5861,-105.468750
5862,-105.468750
5863,-105.468750
5864,-105.468750
5865,-105.468750
5866,-105.468750
5867,-105.468750
5868,-105.468750
5869,-101.562500
5870,-101.562500
5871,-101.562500
5872,-101.562500
5873,-101.562500
5874,-101.562500
5875,-101.562500
5876,-101.562500
5877,-101.562500
5878,-97.656250
5879,-97.656250
5880,-97.656250
5881,-97.656250
5882,-97.656250
5883,-97.656250
5884,-93.750000
5885,-93.750000
5886,-93.750000
5887,-93.750000
5888,-93.750000
5889,-93.750000
5890,-93.750000
5891,-93.750000
5892,-89.843750
5893,-89.843750
5894,-89.843750
5895,-89.843750
5896,-89.843750
5897,-89.843750
5898,-85.937500
5899,-85.937500
5900,-85.937500
5901,-85.937500
5902,-85.937500
5903,-85.937500
5904,-85.937500
5905,-85.937500
5906,-82.031250
5907,-82.031250
5908,-82.031250
5909,-82.031250
5910,-78.125000
5911,-78.125000
5912,-78.125000
5913,-78.125000
5914,-78.125000
5915,-78.125000
5916,-78.125000
5917,-74.218750
5918,-74.218750
5919,-74.218750
5920,-74.218750
5921,-74.218750
5922,-74.218750
5923,-70.312500
5924,-70.312500
5925,-70.312500
5926,-70.312500
5927,-70.312500
5928,-70.312500
5929,-70.312500
5930,-66.406250
5931,-66.406250
5932,-66.406250
5933,-66.406250
5934,-66.406250
5935,-66.406250
5936,-62.500000
5937,-62.500000
5938,-62.500000
5939,-62.500000
5940,-62.500000
5941,-58.593750
5942,-58.593750
5943,-58.593750
5944,-58.593750
5945,-58.593750
5946,-58.593750
5947,-54.687500
5948,-54.687500
5949,-54.687500
5950,-54.687500
5951,-54.687500
5952,-54.687500
5953,-50.781250
5954,-50.781250
5955,-50.781250
5956,-50.781250
5957,-50.781250
5958,-50.781250
5959,-46.875000
5960,-46.875000
5961,-46.875000
5962,-46.875000
5963,-46.875000
5964,-42.968750
5965,-42.968750
5966,-42.968750
5967,-42.968750
5968,-42.968750
5969,-42.968750
5970,-42.968750
5971,-39.062500
5972,-39.062500
5973,-39.062500
5974,-39.062500
5975,-35.156250
5976,-35.156250
5977,-35.156250
5978,-35.156250
5979,-35.156250
5980,-35.156250
5981,-31.250000
5982,-31.250000
5983,-31.250000
5984,-27.343750
5985,-31.250000
5986,-27.343750
5987,-27.343750
5988,-27.343750
5989,-27.343750
5990,-27.343750
5991,-27.343750
5992,-23.437500
5993,-23.437500
5994,-23.437500
5995,-23.437500
5996,-19.531250
5997,-19.531250
5998,-19.531250
5999,-19.531250
6000,-19.531250
6001,-19.531250
6002,-15.625000
6003,-15.625000
6004,-15.625000
6005,-15.625000
6006,-15.625000
6007,-11.718750
6008,-11.718750
6009,-11.718750
6010,-11.718750
6011,-11.718750
6012,-7.812500
6013,-7.812500
6014,-7.812500
6015,-7.812500
6016,-7.812500
6017,-3.906250
6018,-3.906250
6019,-3.906250
6020,-3.906250
6021,-3.906250
6022,0.000000
6023,0.000000
6024,0.000000
6025,0.000000
6026,0.000000
6027,0.000000
6028,0.000000
6029,3.906250
6030,3.906250
6031,3.906250
6032,3.906250
6033,3.906250
6034,7.812500
6035,7.812500
6036,7.812500
6037,7.812500
6038,7.812500
6039,11.718750
6040,11.718750
6041,11.718750
6042,11.718750
6043,11.718750
6044,11.718750
6045,15.625000
6046,15.625000
6047,15.625000
6048,15.625000
6049,15.625000
6050,15.625000
6051,19.531250
6052,19.531250
6053,19.531250
6054,19.531250
6055,19.531250
6056,19.531250
6057,23.437500
6058,23.437500
6059,23.437500
6060,23.437500
6061,23.437500
6062,23.437500
6063,27.343750
6064,27.343750
6065,27.343750
6066,27.343750
6067,27.343750
6068,27.343750
6069,31.250000
6070,31.250000
6071,31.250000
6072,31.250000
6073,31.250000
6074,31.250000
6075,35.156250
6076,35.156250
6077,35.156250
6078,35.156250
6079,35.156250
6080,39.062500
6081,39.062500
6082,39.062500
6083,39.062500
6084,39.062500
6085,39.062500
6086,39.062500
6087,39.062500
6088,42.968750
6089,42.968750
6090,42.968750
6091,42.968750
6092,42.968750
6093,42.968750
6094,46.875000
6095,46.875000
6096,46.875000
6097,46.875000
6098,46.875000
6099,46.875000
6100,46.875000
6101,50.781250
6102,50.781250
6103,50.781250
6104,50.781250
6105,50.781250
6106,50.781250
6107,50.781250
6108,54.687500
6109,54.687500
6110,54.687500
6111,54.687500
6112,54.687500
6113,54.687500
6114,54.687500
6115,58.593750
6116,58.593750
6117,58.593750
6118,58.593750
6119,58.593750
6120,58.593750
6121,58.593750
6122,62.500000
6123,62.500000
6124,62.500000
6125,62.500000
6126,62.500000
6127,62.500000
6128,62.500000
6129,62.500000
6130,66.406250
6131,66.406250
6132,66.406250
6133,66.406250
6134,66.406250
6135,66.406250
6136,66.406250
6137,66.406250
6138,66.406250
6139,66.406250
6140,70.312500
6141,70.312500
6142,70.312500
6143,70.312500
6144,70.312500
6145,70.312500
6146,70.312500
6147,74.218750
6148,74.218750
6149,74.218750
6150,74.218750
6151,74.218750
6152,74.218750
6153,74.218750
6154,74.218750
6155,74.218750
6156,78.125000
6157,78.125000
6158,78.125000
6159,78.125000
6160,78.125000
6161,78.125000
6162,78.125000
6163,78.125000
6164,78.125000
6165,78.125000
6166,82.031250
6167,82.031250
6168,82.031250
6169,82.031250
6170,82.031250
6171,82.031250
6172,82.031250
6173,82.031250
6174,82.031250
6175,82.031250
6176,85.937500
6177,85.937500
6178,85.937500
6179,85.937500
6180,85.937500
6181,85.937500
6182,85.937500
6183,85.937500
6184,85.937500
6185,85.937500
6186,85.937500
6187,85.937500
6188,85.937500
6189,89.843750
6190,85.937500
6191,85.937500
6192,89.843750
6193,89.843750
6194,89.843750
6195,89.843750
6196,89.843750
6197,89.843750
6198,89.843750
6199,89.843750
6200,89.843750
6201,89.843750
6202,89.843750
6203,89.843750
6204,89.843750
6205,89.843750
6206,89.843750
6207,93.750000
6208,93.750000
6209,93.750000
6210,93.750000
6211,93.750000
6212,93.750000
6213,93.750000
6214,93.750000
6215,93.750000
6216,93.750000
6217,93.750000
6218,93.750000
6219,93.750000
6220,93.750000
6221,93.750000
6222,93.750000
6223,97.656250
6224,93.750000
6225,93.750000
6226,93.750000
6227,97.656250
6228,93.750000
6229,93.750000
6230,93.750000
6231,97.656250
6232,97.656250
6233,97.656250
6234,97.656250
6235,97.656250
6236,97.656250
6237,97.656250
6238,97.656250
6239,97.656250
6240,97.656250
6241,97.656250
6242,97.656250
6243,97.656250
6244,97.656250
6245,97.656250
6246,97.656250
6247,97.656250
6248,97.656250
6249,97.656250
6250,97.656250
6251,97.656250
6252,97.656250
6253,97.656250
6254,97.656250
6255,97.656250
6256,97.656250
6257,97.656250
6258,97.656250
6259,97.656250
6260,97.656250
6261,97.656250
6262,97.656250
6263,97.656250
6264,97.656250
6265,97.656250
6266,97.656250
6267,97.656250
6268,97.656250
6269,97.656250
6270,97.656250
6271,97.656250
6272,97.656250
6273,97.656250
6274,97.656250
6275,97.656250
6276,97.656250
6277,97.656250
6278,97.656250
6279,97.656250
6280,97.656250
6281,97.656250
6282,97.656250
6283,97.656250
6284,97.656250
6285,97.656250
6286,97.656250
6287,97.656250
6288,97.656250
6289,97.656250
6290,97.656250
6291,97.656250
6292,97.656250
6293,97.656250
6294,97.656250
6295,97.656250
6296,97.656250
6297,97.656250
6298,97.656250
6299,97.656250
6300,97.656250
6301,97.656250
6302,97.656250
6303,97.656250
6304,93.750000
6305,93.750000
6306,93.750000
6307,97.656250
6308,93.750000
6309,93.750000
6310,93.750000
6311,93.750000
6312,93.750000
6313,93.750000
6314,93.750000
6315,93.750000
6316,93.750000
6317,93.750000
6318,93.750000
6319,93.750000
6320,93.750000
6321,93.750000
6322,93.750000
6323,93.750000
6324,93.750000
6325,93.750000
6326,93.750000
6327,89.843750
6328,89.843750
6329,89.843750
6330,89.843750
6331,89.843750
6332,89.843750
6333,89.843750
6334,89.843750
6335,89.843750
6336,89.843750
6337,89.843750
6338,89.843750
6339,85.937500
6340,89.843750
6341,85.937500
6342,85.937500
6343,85.937500
6344,85.937500
6345,85.937500
6346,85.937500
6347,85.937500
6348,85.937500
6349,85.937500
6350,85.937500
6351,85.937500
6352,85.937500
6353,85.937500
6354,82.031250
6355,82.031250
6356,82.031250
6357,82.031250
6358,82.031250
6359,82.031250
6360,82.031250
6361,82.031250
6362,82.031250
6363,82.031250
6364,78.125000
6365,78.125000
6366,78.125000
6367,78.125000
6368,78.125000
6369,78.125000
6370,78.125000
6371,78.125000
6372,78.125000
6373,74.218750
6374,74.218750
6375,74.218750
6376,78.125000
6377,74.218750
6378,74.218750
6379,74.218750
6380,74.218750
6381,74.218750
6382,74.218750
6383,70.312500
6384,70.312500
6385,70.312500
6386,70.312500
6387,70.312500
6388,70.312500
6389,70.312500
6390,70.312500
6391,70.312500
6392,66.406250
6393,66.406250
6394,66.406250
6395,66.406250
6396,66.406250
6397,66.406250
6398,66.406250
6399,66.406250
6400,62.500000
6401,62.500000
6402,62.500000
6403,62.500000
6404,62.500000
6405,62.500000
6406,62.500000
6407,62.500000
6408,58.593750
6409,58.593750
6410,58.593750
6411,58.593750
6412,58.593750
6413,58.593750
6414,58.593750
6415,58.593750
6416,54.687500
6417,54.687500
6418,54.687500
6419,54.687500
6420,54.687500
6421,54.687500
6422,54.687500
6423,54.687500
6424,54.687500
6425,50.781250
6426,50.781250
6427,50.781250
6428,50.781250
6429,50.781250
6430,50.781250
6431,46.875000
6432,46.875000
6433,46.875000
6434,46.875000
6435,46.875000
6436,46.875000
6437,46.875000
6438,42.968750
6439,42.968750
6440,42.968750
6441,42.968750
6442,42.968750
6443,42.968750
6444,39.062500
6445,39.062500
6446,39.062500
6447,39.062500
6448,39.062500
6449,39.062500
6450,39.062500
6451,39.062500
6452,35.156250
6453,35.156250
6454,35.156250
6455,35.156250
6456,31.250000
6457,31.250000
6458,31.250000
6459,31.250000
6460,31.250000
6461,31.250000
6462,31.250000
6463,27.343750
6464,27.343750
6465,27.343750
6466,27.343750
6467,27.343750
6468,23.437500
6469,23.437500
6470,23.437500
6471,23.437500
6472,23.437500
6473,23.437500
6474,23.437500
6475,19.531250
6476,19.531250
6477,19.531250
6478,19.531250
6479,15.625000
6480,15.625000
6481,15.625000
6482,15.625000
6483,15.625000
6484,11.718750
6485,11.718750
6486,11.718750
6487,11.718750
6488,11.718750
6489,7.812500
6490,7.812500
6491,7.812500
6492,7.812500
6493,7.812500
6494,7.812500
6495,7.812500
6496,3.906250
6497,3.906250
6498,3.906250
6499,3.906250
6500,0.000000
6501,0.000000
6502,0.000000
6503,0.000000
6504,0.000000
6505,0.000000
6506,0.000000
6507,-3.906250
6508,-3.906250
6509,-3.906250
6510,-3.906250
6511,-3.906250
6512,-7.812500
6513,-7.812500
6514,-7.812500
6515,-7.812500
6516,-11.718750
6517,-3.906250
6518,-11.718750
6519,-11.718750
6520,-11.718750
6521,-11.718750
6522,-11.718750
6523,-15.625000
6524,-15.625000
6525,-15.625000
6526,-19.531250
6527,-15.625000
6528,-19.531250
6529,-19.531250
6530,-19.531250
6531,-19.531250
6532,-19.531250
6533,-19.531250
6534,-23.437500
6535,-23.437500
6536,-23.437500
6537,-23.437500
6538,-23.437500
6539,-27.343750
6540,-27.343750
6541,-27.343750
6542,-27.343750
6543,-27.343750
6544,-27.343750
6545,-31.250000
6546,-31.250000
6547,-31.250000
6548,-31.250000
6549,-31.250000
6550,-35.156250
6551,-35.156250
6552,-35.156250
6553,-35.156250
6554,-35.156250
6555,-35.156250
6556,-39.062500
6557,-39.062500
6558,-39.062500
6559,-39.062500
6560,-39.062500
6561,-39.062500
6562,-42.968750
6563,-42.968750
6564,-42.968750
6565,-42.968750
6566,-46.875000
6567,-46.875000
6568,-46.875000
6569,-46.875000
6570,-46.875000
6571,-50.781250
6572,-50.781250
6573,-50.781250
6574,-50.781250
6575,-50.781250
6576,-54.687500
6577,-50.781250
6578,-50.781250
6579,-54.687500
6580,-54.687500
6581,-54.687500
6582,-58.593750
6583,-58.593750
6584,-58.593750
6585,-58.593750
6586,-58.593750
6587,-58.593750
6588,-62.500000
6589,-62.500000
6590,-58.593750
6591,-62.500000
6592,-62.500000
6593,-62.500000
6594,-62.500000
6595,-66.406250
6596,-66.406250
6597,-66.406250
6598,-66.406250
6599,-66.406250
6600,-70.312500
6601,-70.312500
6602,-70.312500
6603,-70.312500
6604,-70.312500
6605,-74.218750
6606,-74.218750
6607,-74.218750
6608,-74.218750
6609,-74.218750
6610,-74.218750
6611,-74.218750
6612,-78.125000
6613,-78.125000
6614,-78.125000
6615,-78.125000
6616,-78.125000
6617,-82.031250
6618,-78.125000
6619,-82.031250
6620,-82.031250
6621,-82.031250
6622,-82.031250
6623,-82.031250
6624,-82.031250
6625,-85.937500
6626,-85.937500
6627,-85.937500
6628,-85.937500
6629,-89.843750
6630,-85.937500
6631,-85.937500
6632,-85.937500
6633,-89.843750
6634,-89.843750
6635,-89.843750
6636,-89.843750
6637,-89.843750
6638,-93.750000
6639,-93.750000
6640,-93.750000
6641,-93.750000
6642,-93.750000
6643,-93.750000
6644,-93.750000
6645,-93.750000
6646,-97.656250
6647,-93.750000
6648,-97.656250
6649,-97.656250
6650,-97.656250
6651,-97.656250
6652,-97.656250
6653,-101.562500
6654,-101.562500
6655,-101.562500
6656,-101.562500
6657,-101.562500
6658,-101.562500
6659,-101.562500
6660,-101.562500
6661,-105.468750
6662,-105.468750
6663,-105.468750
6664,-105.468750
6665,-105.468750
6666,-105.468750
6667,-105.468750
6668,-105.468750
6669,-105.468750
6670,-109.375000
6671,-109.375000
6672,-109.375000
6673,-109.375000
6674,-109.375000
6675,-109.375000
6676,-109.375000
6677,-109.375000
6678,-109.375000
6679,-113.281250
6680,-113.281250
6681,-113.281250
6682,-113.281250
6683,-113.281250
6684,-113.281250
6685,-113.281250
6686,-113.281250
6687,-113.281250
6688,-113.281250
6689,-113.281250
6690,-113.281250
6691,-113.281250
6692,-117.187500
6693,-117.187500
6694,-117.187500
6695,-117.187500
6696,-117.187500
6697,-117.187500
6698,-117.187500
6699,-117.187500
6700,-117.187500
6701,-117.187500
6702,-121.093750
6703,-117.187500
6704,-121.093750
6705,-121.093750
6706,-121.093750
6707,-121.093750
6708,-121.093750
6709,-121.093750
6710,-121.093750
6711,-121.093750
6712,-121.093750
6713,-121.093750
6714,-121.093750
6715,-125.000000
6716,-121.093750
6717,-121.093750
6718,-125.000000
6719,-121.093750
6720,-125.000000
6721,-125.000000
6722,-125.000000
6723,-125.000000
6724,-125.000000
6725,-125.000000
6726,-125.000000
6727,-125.000000
6728,-125.000000
6729,-125.000000
6730,-125.000000
6731,-125.000000
6732,-125.000000
6733,-125.000000
6734,-125.000000
6735,-125.000000
6736,-125.000000
6737,-125.000000
6738,-125.000000
6739,-125.000000
6740,-125.000000
6741,-125.000000
6742,-125.000000
6743,-128.906250
6744,-128.906250
6745,-128.906250
6746,-128.906250
6747,-128.906250
6748,-128.906250
6749,-125.000000
6750,-128.906250
6751,-128.906250
6752,-128.906250
6753,-128.906250
6754,-128.906250
6755,-128.906250
6756,-128.906250
6757,-128.906250
6758,-128.906250
6759,-128.906250
6760,-128.906250
6761,-128.906250
6762,-128.906250
6763,-128.906250
6764,-128.906250
6765,-128.906250
6766,-128.906250
6767,-128.906250
6768,-128.906250
6769,-128.906250
6770,-128.906250
6771,-128.906250
6772,-125.000000
6773,-125.000000
6774,-128.906250
6775,-128.906250
6776,-128.906250
6777,-128.906250
6778,-125.000000
6779,-125.000000
6780,-125.000000
6781,-125.000000
6782,-125.000000
6783,-125.000000
6784,-125.000000
6785,-125.000000
6786,-125.000000
6787,-125.000000
6788,-125.000000
6789,-125.000000
6790,-125.000000
6791,-125.000000
6792,-125.000000
6793,-125.000000
6794,-125.000000
6795,-125.000000
6796,-125.000000
6797,-125.000000
6798,-125.000000
6799,-125.000000
6800,-121.093750
6801,-121.093750
6802,-125.000000
6803,-125.000000
6804,-121.093750
6805,-121.093750
6806,-121.093750
6807,-121.093750
6808,-121.093750
6809,-121.093750
6810,-121.093750
6811,-121.093750
6812,-121.093750
6813,-121.093750
6814,-121.093750
6815,-121.093750
6816,-117.187500
6817,-121.093750
6818,-117.187500
6819,-117.187500
6820,-117.187500
6821,-117.187500
6822,-117.187500
6823,-117.187500
6824,-117.187500
6825,-117.187500
6826,-117.187500
6827,-117.187500
6828,-117.187500
6829,-113.281250
6830,-113.281250
6831,-113.281250
6832,-113.281250
6833,-113.281250
6834,-113.281250
6835,-113.281250
6836,-113.281250
6837,-113.281250
6838,-113.281250
6839,-113.281250
6840,-109.375000
6841,-113.281250
6842,-109.375000
6843,-109.375000
6844,-109.375000
6845,-109.375000
6846,-109.375000
6847,-109.375000
6848,-109.375000
6849,-109.375000
6850,-109.375000
6851,-105.468750
6852,-105.468750
6853,-105.468750
6854,-105.468750
6855,-105.468750
6856,-105.468750
6857,-105.468750
6858,-105.468750
6859,-101.562500
6860,-101.562500
6861,-101.562500
6862,-101.562500
6863,-101.562500
6864,-101.562500
6865,-101.562500
6866,-101.562500
6867,-97.656250
6868,-97.656250
6869,-97.656250
6870,-97.656250
6871,-97.656250
6872,-97.656250
6873,-97.656250
6874,-97.656250
6875,-97.656250
6876,-93.750000
6877,-93.750000
6878,-93.750000
6879,-93.750000
6880,-93.750000
6881,-93.750000
6882,-89.843750
6883,-89.843750
6884,-89.843750
6885,-89.843750
6886,-89.843750
6887,-89.843750
6888,-89.843750
6889,-85.937500
6890,-85.937500
6891,-85.937500
6892,-85.937500
6893,-85.937500
6894,-85.937500
6895,-82.031250
6896,-82.031250
6897,-82.031250
6898,-82.031250
6899,-82.031250
6900,-82.031250
6901,-78.125000
6902,-78.125000
6903,-78.125000
6904,-78.125000
6905,-78.125000
6906,-78.125000
6907,-78.125000
6908,-74.218750
6909,-74.218750
6910,-74.218750
6911,-74.218750
6912,-74.218750
6913,-74.218750
6914,-70.312500
6915,-74.218750
6916,-70.312500
6917,-70.312500
6918,-70.312500
6919,-70.312500
6920,-66.406250
6921,-70.312500
6922,-66.406250
6923,-66.406250
6924,-66.406250
6925,-66.406250
6926,-62.500000
6927,-66.406250
6928,-62.500000
6929,-62.500000
6930,-62.500000
6931,-62.500000
6932,-58.593750
6933,-58.593750
6934,-58.593750
6935,-58.593750
6936,-58.593750
6937,-54.687500
6938,-54.687500
6939,-54.687500
6940,-54.687500
6941,-54.687500
6942,-50.781250
6943,-50.781250
6944,-50.781250
6945,-50.781250
6946,-50.781250
6947,-50.781250
6948,-46.875000
6949,-46.875000
6950,-46.875000
6951,-46.875000
6952,-42.968750
6953,-42.968750
6954,-42.968750
6955,-42.968750
6956,-42.968750
6957,-42.968750
6958,-39.062500
6959,-39.062500
6960,-39.062500
6961,-39.062500
6962,-39.062500
6963,-35.156250
6964,-39.062500
6965,-35.156250
6966,-35.156250
6967,-35.156250
6968,-35.156250
6969,-35.156250
6970,-31.250000
6971,-31.250000
6972,-31.250000
6973,-31.250000
6974,-31.250000
6975,-27.343750
6976,-27.343750
6977,-27.343750
6978,-27.343750
6979,-23.437500
6980,-27.343750
6981,-23.437500
6982,-23.437500
6983,-23.437500
6984,-23.437500
6985,-23.437500
6986,-23.437500
6987,-19.531250
6988,-19.531250
6989,-19.531250
6990,-19.531250
6991,-19.531250
6992,-15.625000
6993,-15.625000
6994,-15.625000
6995,-15.625000
6996,-15.625000
6997,-11.718750
6998,-11.718750
6999,-11.718750
7000,-11.718750
7001,-11.718750
7002,-11.718750
7003,-7.812500
7004,-7.812500
7005,-7.812500
7006,-7.812500
7007,-7.812500
7008,-3.906250
7009,-3.906250
7010,-3.906250
7011,-3.906250
7012,-3.906250
7013,-3.906250
7014,0.000000
7015,0.000000
7016,0.000000
7017,0.000000
7018,0.000000
7019,3.906250
7020,3.906250
7021,3.906250
7022,3.906250
7023,3.906250
7024,3.906250
7025,7.812500
7026,7.812500
7027,7.812500
7028,7.812500
7029,7.812500
7030,11.718750
7031,11.718750
7032,11.718750
7033,11.718750
7034,11.718750
7035,15.625000
7036,15.625000
7037,15.625000
7038,15.625000
7039,15.625000
7040,15.625000
7041,19.531250
7042,19.531250
7043,19.531250
7044,19.531250
7045,19.531250
7046,19.531250
7047,19.531250
7048,23.437500
7049,23.437500
7050,23.437500
7051,23.437500
7052,27.343750
7053,27.343750
7054,27.343750
7055,27.343750
7056,27.343750
7057,27.343750
7058,31.250000
7059,31.250000
7060,31.250000
7061,31.250000
7062,31.250000
7063,31.250000
7064,35.156250
7065,31.250000
7066,35.156250
7067,35.156250
7068,35.156250
7069,35.156250
7070,35.156250
7071,35.156250
7072,39.062500
7073,39.062500
7074,39.062500
7075,39.062500
7076,39.062500
7077,42.968750
7078,42.968750
7079,42.968750
7080,42.968750
7081,42.968750
7082,46.875000
7083,46.875000
7084,46.875000
7085,46.875000
7086,46.875000
7087,46.875000
7088,46.875000
7089,46.875000
7090,50.781250
7091,50.781250
7092,50.781250
7093,50.781250
7094,50.781250
7095,50.781250
7096,54.687500
7097,54.687500
7098,54.687500
7099,54.687500
7100,54.687500
7101,54.687500
7102,54.687500
7103,54.687500
7104,58.593750
7105,58.593750
7106,58.593750
7107,58.593750
7108,58.593750
7109,58.593750
7110,58.593750
7111,58.593750
7112,58.593750
7113,62.500000
7114,62.500000
7115,62.500000
7116,62.500000
7117,62.500000
7118,62.500000
7119,62.500000
7120,62.500000
7121,66.406250
7122,66.406250
7123,66.406250
7124,66.406250
7125,66.406250
7126,66.406250
7127,66.406250
7128,66.406250
7129,70.312500
7130,70.312500
7131,70.312500
7132,70.312500
7133,70.312500
7134,70.312500
7135,70.312500
7136,70.312500
7137,70.312500
7138,74.218750
7139,74.218750
7140,74.218750
7141,74.218750
7142,74.218750
7143,74.218750
7144,74.218750
7145,78.125000
7146,78.125000
7147,78.125000
7148,78.125000
7149,78.125000
7150,78.125000
7151,78.125000
7152,78.125000
7153,78.125000
7154,78.125000
7155,82.031250
7156,82.031250
7157,82.031250
7158,82.031250
7159,82.031250
7160,82.031250
7161,82.031250
7162,82.031250
7163,82.031250
7164,82.031250
7165,82.031250
7166,82.031250
7167,85.937500
7168,85.937500
7169,82.031250
7170,85.937500
7171,85.937500
7172,85.937500
7173,85.937500
7174,85.937500
7175,85.937500
7176,85.937500
7177,85.937500
7178,85.937500
7179,85.937500
7180,85.937500
7181,89.843750
7182,89.843750
7183,89.843750
7184,89.843750
7185,89.843750
7186,89.843750
7187,89.843750
7188,89.843750
7189,89.843750
7190,89.843750
7191,89.843750
7192,89.843750
7193,89.843750
7194,93.750000
7195,93.750000
7196,93.750000
7197,93.750000
7198,93.750000
7199,93.750000
7200,93.750000
7201,93.750000
7202,93.750000
7203,93.750000
7204,93.750000
7205,93.750000
7206,93.750000
7207,93.750000
7208,93.750000
7209,93.750000
7210,93.750000
7211,93.750000
7212,93.750000
7213,93.750000
7214,93.750000
7215,93.750000
7216,93.750000
7217,97.656250
7218,97.656250
7219,97.656250
7220,97.656250
7221,97.656250
7222,97.656250
7223,97.656250
7224,97.656250
7225,97.656250
7226,97.656250
7227,97.656250
7228,97.656250
7229,97.656250
7230,97.656250
7231,97.656250
7232,97.656250
7233,97.656250
7234,97.656250
7235,97.656250
7236,97.656250
7237,97.656250
7238,97.656250
7239,97.656250
7240,97.656250
7241,97.656250
7242,97.656250
7243,97.656250
7244,97.656250
7245,97.656250
7246,97.656250
7247,97.656250
7248,97.656250
7249,97.656250
7250,97.656250
7251,97.656250
7252,97.656250
7253,97.656250
7254,97.656250
7255,97.656250
7256,97.656250
7257,97.656250
7258,97.656250
7259,97.656250
7260,97.656250
7261,97.656250
7262,97.656250
7263,97.656250
7264,97.656250
7265,97.656250
7266,97.656250
7267,97.656250
7268,97.656250
7269,97.656250
7270,97.656250
7271,97.656250
7272,97.656250
7273,97.656250
7274,97.656250
7275,97.656250
7276,97.656250
7277,97.656250
7278,97.656250
7279,97.656250
7280,97.656250
7281,97.656250
7282,97.656250
7283,97.656250
7284,97.656250
7285,97.656250
7286,97.656250
7287,97.656250
7288,97.656250
7289,93.750000
7290,97.656250
7291,97.656250
7292,97.656250
7293,97.656250
7294,93.750000
7295,93.750000
7296,93.750000
7297,93.750000
7298,93.750000
7299,93.750000
7300,93.750000
7301,93.750000
7302,93.750000
7303,93.750000
7304,93.750000
7305,93.750000
7306,93.750000
7307,93.750000
7308,93.750000
7309,93.750000
7310,93.750000
7311,93.750000
7312,93.750000
7313,93.750000
7314,89.843750
7315,89.843750
7316,89.843750
7317,89.843750
7318,89.843750
7319,89.843750
7320,89.843750
7321,89.843750
7322,89.843750
7323,89.843750
7324,89.843750
7325,89.843750
7326,89.843750
7327,89.843750
7328,89.843750
7329,89.843750
7330,85.937500
7331,85.937500
7332,85.937500
7333,85.937500
7334,85.937500
7335,85.937500
7336,85.937500
7337,85.937500
7338,85.937500
7339,85.937500
7340,85.937500
7341,85.937500
7342,85.937500
7343,85.937500
7344,85.937500
7345,82.031250
7346,82.031250
7347,82.031250
7348,82.031250
7349,82.031250
7350,82.031250
7351,82.031250
7352,82.031250
7353,82.031250
7354,82.031250
7355,78.125000
7356,78.125000
7357,78.125000
7358,78.125000
7359,78.125000
7360,78.125000
7361,78.125000
7362,78.125000
7363,78.125000
7364,78.125000
7365,78.125000
7366,74.218750
7367,74.218750
7368,74.218750
7369,74.218750
7370,74.218750
7371,74.218750
7372,74.218750
7373,70.312500
7374,70.312500
7375,70.312500
7376,70.312500
7377,70.312500
7378,70.312500
7379,70.312500
7380,70.312500
7381,70.312500
7382,70.312500
7383,66.406250
7384,66.406250
7385,66.406250
7386,66.406250
7387,66.406250
7388,66.406250
7389,66.406250
7390,66.406250
7391,62.500000
7392,62.500000
7393,62.500000
7394,62.500000
7395,62.500000
7396,62.500000
7397,62.500000
7398,58.593750
7399,58.593750
7400,58.593750
7401,58.593750
7402,58.593750
7403,58.593750
7404,58.593750
7405,58.593750
7406,58.593750
7407,54.687500
7408,54.687500
7409,54.687500
7410,54.687500
7411,54.687500
7412,54.687500
7413,54.687500
7414,50.781250
7415,50.781250
7416,50.781250
7417,50.781250
7418,50.781250
7419,46.875000
7420,46.875000
7421,46.875000
7422,46.875000
7423,46.875000
7424,46.875000
7425,46.875000
7426,46.875000
7427,42.968750
7428,42.968750
7429,42.968750
7430,42.968750
7431,42.968750
7432,42.968750
7433,39.062500
7434,39.062500
7435,39.062500
7436,39.062500
7437,39.062500
7438,39.062500
7439,35.156250
7440,35.156250
7441,35.156250
7442,35.156250
7443,35.156250
7444,35.156250
7445,35.156250
7446,35.156250
7447,31.250000
7448,31.250000
7449,31.250000
7450,31.250000
7451,27.343750
7452,27.343750
7453,27.343750
7454,27.343750
7455,27.343750
7456,27.343750
7457,27.343750
7458,23.437500
7459,23.437500
7460,23.437500
7461,23.437500
7462,23.437500
7463,23.437500
7464,19.531250
7465,19.531250
7466,19.531250
7467,19.531250
7468,19.531250
7469,15.625000
7470,15.625000
7471,15.625000
7472,15.625000
7473,15.625000
7474,15.625000
7475,15.625000
7476,11.718750
7477,11.718750
7478,11.718750
7479,11.718750
7480,7.812500
7481,7.812500
7482,7.812500
7483,7.812500
7484,7.812500
7485,7.812500
7486,7.812500
7487,3.906250
7488,3.906250
7489,3.906250
7490,3.906250
7491,3.906250
7492,0.000000
7493,0.000000
7494,0.000000
7495,0.000000
7496,-3.906250
7497,0.000000
7498,-3.906250
7499,-3.906250
7500,-3.906250
7501,-3.906250
7502,-7.812500
7503,-7.812500
7504,-7.812500
7505,-7.812500
7506,-7.812500
7507,-7.812500
7508,-11.718750
7509,-11.718750
7510,-11.718750
7511,-11.718750
7512,-11.718750
7513,-15.625000
7514,-15.625000
7515,-15.625000
7516,-15.625000
7517,-15.625000
7518,-19.531250
7519,-19.531250
7520,-19.531250
7521,-19.531250
7522,-19.531250
7523,-19.531250
7524,-23.437500
7525,-23.437500
7526,-23.437500
7527,-23.437500
7528,-27.343750
7529,-27.343750
7530,-27.343750
7531,-27.343750
7532,-27.343750
7533,-31.250000
7534,-31.250000
7535,-31.250000
7536,-31.250000
7537,-31.250000
7538,-31.250000
7539,-31.250000
7540,-35.156250
7541,-35.156250
7542,-35.156250
7543,-35.156250
7544,-39.062500
7545,-39.062500
7546,-39.062500
7547,-39.062500
7548,-39.062500
7549,-42.968750
7550,-42.968750
7551,-42.968750
7552,-42.968750
7553,-42.968750
7554,-42.968750
7555,-42.968750
7556,-46.875000
7557,-46.875000
7558,-46.875000
7559,-46.875000
7560,-46.875000
7561,-46.875000
7562,-50.781250
7563,-50.781250
7564,-50.781250
7565,-50.781250
7566,-50.781250
7567,-54.687500
7568,-54.687500
7569,-54.687500
7570,-54.687500
7571,-54.687500
7572,-58.593750
7573,-58.593750
7574,-58.593750
7575,-58.593750
7576,-58.593750
7577,-58.593750
7578,-62.500000
7579,-62.500000
7580,-62.500000
7581,-62.500000
7582,-62.500000
7583,-62.500000
7584,-62.500000
7585,-66.406250
7586,-66.406250
7587,-66.406250
7588,-66.406250
7589,-66.406250
7590,-70.312500
7591,-70.312500
7592,-70.312500
7593,-70.312500
7594,-70.312500
7595,-74.218750
7596,-74.218750
7597,-74.218750
7598,-74.218750
7599,-74.218750
7600,-74.218750
7601,-74.218750
7602,-74.218750
7603,-78.125000
7604,-78.125000
7605,-78.125000
7606,-78.125000
7607,-82.031250
7608,-82.031250
7609,-82.031250
7610,-82.031250
7611,-82.031250
7612,-82.031250
7613,-82.031250
7614,-82.031250
7615,-85.937500
7616,-85.937500
7617,-85.937500
7618,-85.937500
7619,-85.937500
7620,-85.937500
7621,-89.843750
7622,-89.843750
7623,-89.843750
7624,-89.843750
7625,-89.843750
7626,-89.843750
7627,-89.843750
7628,-93.750000
7629,-93.750000
7630,-93.750000
7631,-93.750000
7632,-93.750000
7633,-93.750000
7634,-93.750000
7635,-97.656250
7636,-97.656250
7637,-97.656250
7638,-97.656250
7639,-97.656250
7640,-97.656250
7641,-97.656250
7642,-101.562500
7643,-101.562500
7644,-101.562500
7645,-101.562500
7646,-101.562500
7647,-101.562500
7648,-101.562500
7649,-101.562500
7650,-105.468750
7651,-105.468750
7652,-105.468750
7653,-105.468750
7654,-105.468750
7655,-105.468750
7656,-105.468750
7657,-105.468750
7658,-105.468750
7659,-105.468750
7660,-109.375000
7661,-109.375000
7662,-109.375000
7663,-109.375000
7664,-109.375000
7665,-109.375000
7666,-109.375000
7667,-109.375000
7668,-113.281250
7669,-113.281250
7670,-113.281250
7671,-113.281250
7672,-113.281250
7673,-113.281250
7674,-113.281250
7675,-113.281250
7676,-113.281250
7677,-113.281250
7678,-113.281250
7679,-117.187500
7680,-117.187500
7681,-117.187500
7682,-117.187500
7683,-117.187500
7684,-117.187500
7685,-117.187500
7686,-117.187500
7687,-117.187500
7688,-117.187500
7689,-117.187500
7690,-117.187500
7691,-117.187500
7692,-121.093750
7693,-121.093750
7694,-121.093750
7695,-121.093750
7696,-121.093750
7697,-121.093750
7698,-121.093750
7699,-121.093750
7700,-121.093750
7701,-121.093750
7702,-121.093750
7703,-121.093750
7704,-121.093750
7705,-121.093750
7706,-121.093750
7707,-121.093750
7708,-121.093750
7709,-125.000000
7710,-125.000000
7711,-125.000000
7712,-125.000000
7713,-125.000000
7714,-125.000000
7715,-125.000000
7716,-125.000000
7717,-125.000000
7718,-125.000000
7719,-125.000000
7720,-125.000000
7721,-125.000000
7722,-125.000000
7723,-125.000000
7724,-125.000000
7725,-125.000000
7726,-125.000000
7727,-125.000000
7728,-125.000000
7729,-125.000000
7730,-128.906250
7731,-125.000000
7732,-125.000000
7733,-125.000000
7734,-125.000000
7735,-125.000000
7736,-125.000000
7737,-128.906250
7738,-128.906250
7739,-125.000000
7740,-125.000000
7741,-125.000000
7742,-128.906250
7743,-128.906250
7744,-128.906250
7745,-128.906250
7746,-128.906250
7747,-128.906250
7748,-128.906250
7749,-128.906250
7750,-125.000000
7751,-128.906250
7752,-128.906250
7753,-128.906250
7754,-125.000000
7755,-128.906250
7756,-128.906250
7757,-125.000000
7758,-125.000000
7759,-128.906250
7760,-128.906250
7761,-125.000000
7762,-128.906250
7763,-125.000000
7764,-128.906250
7765,-125.000000
7766,-128.906250
7767,-125.000000
7768,-125.000000
7769,-125.000000
7770,-125.000000
7771,-125.000000
7772,-125.000000
7773,-125.000000
7774,-125.000000
7775,-125.000000
7776,-125.000000
7777,-125.000000
7778,-125.000000
7779,-125.000000
7780,-125.000000
7781,-125.000000
7782,-125.000000
7783,-125.000000
7784,-125.000000
7785,-125.000000
7786,-125.000000
7787,-125.000000
7788,-125.000000
7789,-125.000000
7790,-125.000000
7791,-125.000000
7792,-125.000000
7793,-121.093750
7794,-121.093750
7795,-121.093750
7796,-121.093750
7797,-121.093750
7798,-121.093750
7799,-121.093750
7800,-121.093750
7801,-121.093750
7802,-121.093750
7803,-121.093750
7804,-121.093750
7805,-121.093750
7806,-121.093750
7807,-121.093750
7808,-121.093750
7809,-117.187500
7810,-117.187500
7811,-117.187500
7812,-117.187500
7813,-117.187500
7814,-117.187500
7815,-117.187500
7816,-117.187500
7817,-117.187500
7818,-117.187500
7819,-117.187500
7820,-113.281250
7821,-113.281250
7822,-113.281250
7823,-113.281250
7824,-113.281250
7825,-113.281250
7826,-113.281250
7827,-113.281250
7828,-113.281250
7829,-113.281250
7830,-109.375000
7831,-109.375000
7832,-109.375000
7833,-109.375000
7834,-109.375000
7835,-109.375000
7836,-109.375000
7837,-109.375000
7838,-109.375000
7839,-105.468750
7840,-105.468750
7841,-105.468750
7842,-105.468750
7843,-105.468750
7844,-105.468750
7845,-105.468750
7846,-105.468750
7847,-101.562500
7848,-101.562500
7849,-101.562500
7850,-101.562500
7851,-101.562500
7852,-101.562500
7853,-101.562500
7854,-101.562500
7855,-97.656250
7856,-97.656250
7857,-97.656250
7858,-97.656250
7859,-97.656250
7860,-97.656250
7861,-97.656250
7862,-97.656250
7863,-93.750000
7864,-93.750000
7865,-93.750000
7866,-93.750000
7867,-93.750000
7868,-93.750000
7869,-93.750000
7870,-93.750000
7871,-89.843750
7872,-89.843750
7873,-89.843750
7874,-89.843750
7875,-89.843750
7876,-89.843750
7877,-89.843750
7878,-85.937500
7879,-85.937500
7880,-85.937500
7881,-85.937500
7882,-85.937500
7883,-85.937500
7884,-82.031250
7885,-82.031250
7886,-82.031250
7887,-82.031250
7888,-82.031250
7889,-82.031250
7890,-82.031250
7891,-78.125000
7892,-78.125000
7893,-78.125000
7894,-78.125000
7895,-78.125000
7896,-78.125000
7897,-74.218750
7898,-74.218750
7899,-74.218750
7900,-74.218750
7901,-74.218750
7902,-74.218750
7903,-70.312500
7904,-70.312500
7905,-70.312500
7906,-70.312500
7907,-70.312500
7908,-70.312500
7909,-66.406250
7910,-66.406250
7911,-66.406250
7912,-66.406250
7913,-66.406250
7914,-66.406250
7915,-66.406250
7916,-62.500000
7917,-62.500000
7918,-62.500000
7919,-62.500000
7920,-62.500000
7921,-58.593750
7922,-58.593750
7923,-58.593750
7924,-58.593750
7925,-58.593750
7926,-58.593750
7927,-54.687500
7928,-54.687500
7929,-54.687500
7930,-54.687500
7931,-54.687500
7932,-50.781250
7933,-50.781250
7934,-50.781250
7935,-50.781250
7936,-50.781250
7937,-50.781250
7938,-46.875000
7939,-46.875000
7940,-46.875000
7941,-46.875000
7942,-46.875000
7943,-46.875000
7944,-42.968750
7945,-42.968750
7946,-42.968750
7947,-42.968750
7948,-42.968750
7949,-39.062500
7950,-39.062500
7951,-39.062500
7952,-39.062500
7953,-39.062500
7954,-35.156250
7955,-35.156250
7956,-35.156250
7957,-35.156250
7958,-35.156250
7959,-35.156250
7960,-31.250000
7961,-31.250000
7962,-31.250000
7963,-31.250000
7964,-27.343750
7965,-27.343750
7966,-27.343750
7967,-27.343750
7968,-27.343750
7969,-23.437500
7970,-23.437500
7971,-23.437500
7972,-23.437500
7973,-23.437500
7974,-23.437500
7975,-19.531250
7976,-19.531250
7977,-19.531250
7978,-19.531250
7979,-19.531250
7980,-19.531250
7981,-15.625000
7982,-15.625000
7983,-15.625000
7984,-15.625000
7985,-15.625000
7986,-11.718750
7987,-11.718750
7988,-11.718750
7989,-11.718750
7990,-7.812500
7991,-11.718750
7992,-7.812500
7993,-7.812500
7994,-7.812500
7995,-3.906250
7996,-7.812500
7997,-3.906250
7998,-3.906250
7999,-3.906250
8000,-3.906250
8001,0.000000
8002,-3.906250
8003,0.000000
8004,0.000000
8005,0.000000
8006,0.000000
8007,3.906250
8008,3.906250
8009,3.906250
8010,3.906250
8011,3.906250
8012,3.906250
8013,7.812500
8014,7.812500
8015,7.812500
8016,7.812500
8017,7.812500
8018,7.812500
8019,11.718750
8020,11.718750
8021,11.718750
8022,11.718750
8023,11.718750
8024,11.718750
8025,15.625000
8026,15.625000
8027,15.625000
8028,15.625000
8029,15.625000
8030,19.531250
8031,19.531250
8032,19.531250
8033,19.531250
8034,19.531250
8035,19.531250
8036,23.437500
8037,23.437500
8038,23.437500
8039,23.437500
8040,23.437500
8041,23.437500
8042,27.343750
8043,27.343750
8044,27.343750
8045,27.343750
8046,27.343750
8047,27.343750
8048,31.250000
8049,31.250000
8050,31.250000
8051,31.250000
8052,31.250000
8053,31.250000
8054,35.156250
8055,35.156250
8056,35.156250
8057,35.156250
8058,35.156250
8059,35.156250
8060,35.156250
8061,39.062500
8062,39.062500
8063,39.062500
8064,39.062500
8065,39.062500
8066,42.968750
8067,42.968750
8068,42.968750
8069,42.968750
8070,42.968750
8071,42.968750
8072,42.968750
8073,46.875000
8074,46.875000
8075,46.875000
8076,46.875000
8077,46.875000
8078,46.875000
8079,50.781250
8080,50.781250
8081,50.781250
8082,50.781250
8083,50.781250
8084,50.781250
8085,50.781250
8086,54.687500
8087,54.687500
8088,54.687500
8089,54.687500
8090,54.687500
8091,54.687500
8092,58.593750
8093,58.593750
8094,58.593750
8095,58.593750
8096,58.593750
8097,58.593750
8098,58.593750
8099,58.593750
8100,58.593750
8101,62.500000
8102,62.500000
8103,62.500000
8104,62.500000
8105,62.500000
8106,62.500000
8107,62.500000
8108,62.500000
8109,66.406250
8110,66.406250
8111,66.406250
8112,66.406250
8113,66.406250
8114,66.406250
8115,66.406250
8116,70.312500
8117,70.312500
8118,70.312500
8119,70.312500
8120,70.312500
8121,70.312500
8122,70.312500
8123,70.312500
8124,74.218750
8125,70.312500
8126,70.312500
8127,74.218750
8128,74.218750
8129,74.218750
8130,74.218750
8131,74.218750
8132,74.218750
8133,74.218750
8134,74.218750
8135,78.125000
8136,78.125000
8137,78.125000
8138,78.125000
8139,78.125000
8140,78.125000
8141,78.125000
8142,78.125000
8143,78.125000
8144,78.125000
8145,82.031250
8146,82.031250
8147,82.031250
8148,82.031250
8149,82.031250
8150,82.031250
8151,82.031250
8152,82.031250
8153,82.031250
8154,82.031250
8155,85.937500
8156,82.031250
8157,82.031250
8158,85.937500
8159,85.937500
8160,82.031250
8161,85.937500
8162,89.843750
8163,85.937500
8164,85.937500
8165,89.843750
8166,85.937500
8167,85.937500
8168,85.937500
8169,85.937500
8170,85.937500
8171,89.843750
8172,85.937500
8173,89.843750
8174,89.843750
8175,89.843750
8176,89.843750
8177,89.843750
8178,89.843750
8179,89.843750
8180,89.843750
8181,89.843750
8182,89.843750
8183,93.750000
8184,89.843750
8185,93.750000
8186,89.843750
8187,93.750000
8188,89.843750
8189,93.750000
8190,93.750000
8191,93.750000
8192,93.750000
8193,93.750000
8194,93.750000
8195,93.750000
8196,93.750000
8197,93.750000
8198,93.750000
8199,93.750000
8200,93.750000
8201,93.750000
8202,93.750000
8203,93.750000
8204,93.750000
8205,97.656250
8206,93.750000
8207,93.750000
8208,97.656250
8209,97.656250
8210,97.656250
8211,97.656250
8212,97.656250
8213,97.656250
8214,97.656250
8215,97.656250
8216,97.656250
8217,97.656250
8218,97.656250
8219,97.656250
8220,97.656250
8221,97.656250
8222,97.656250
8223,97.656250
8224,97.656250
8225,97.656250
8226,97.656250
8227,97.656250
8228,97.656250
8229,97.656250
8230,97.656250
8231,97.656250
8232,97.656250
8233,97.656250
8234,97.656250
8235,97.656250
8236,97.656250
8237,97.656250
8238,97.656250
8239,97.656250
8240,97.656250
8241,97.656250
8242,97.656250
8243,97.656250
8244,97.656250
8245,97.656250
8246,97.656250
8247,97.656250
8248,97.656250
8249,97.656250
8250,97.656250
8251,97.656250
8252,97.656250
8253,97.656250
8254,97.656250
8255,97.656250
8256,97.656250
8257,97.656250
8258,97.656250
8259,97.656250
8260,97.656250
8261,97.656250
8262,97.656250
8263,97.656250
8264,97.656250
8265,97.656250
8266,97.656250
8267,97.656250
8268,97.656250
8269,97.656250
8270,97.656250
8271,97.656250
8272,97.656250
8273,97.656250
8274,97.656250
8275,97.656250
8276,97.656250
8277,97.656250
8278,97.656250
8279,97.656250
8280,97.656250
8281,97.656250
8282,93.750000
8283,97.656250
8284,97.656250
8285,97.656250
8286,93.750000
8287,97.656250
8288,93.750000
8289,93.750000
8290,93.750000
8291,93.750000
8292,93.750000
8293,93.750000
8294,93.750000
8295,93.750000
8296,93.750000
8297,93.750000
8298,93.750000
8299,93.750000
8300,93.750000
8301,89.843750
8302,93.750000
8303,89.843750
8304,89.843750
8305,93.750000
8306,89.843750
8307,93.750000
8308,89.843750
8309,89.843750
8310,89.843750
8311,89.843750
8312,89.843750
8313,89.843750
8314,89.843750
8315,89.843750
8316,89.843750
8317,89.843750
8318,89.843750
8319,89.843750
8320,89.843750
8321,85.937500
8322,85.937500
8323,85.937500
8324,85.937500
8325,85.937500
8326,85.937500
8327,85.937500
8328,85.937500
8329,85.937500
8330,85.937500
8331,85.937500
8332,85.937500
8333,85.937500
8334,82.031250
8335,82.031250
8336,82.031250
8337,82.031250
8338,82.031250
8339,82.031250
8340,82.031250
8341,82.031250
8342,82.031250
8343,82.031250
8344,82.031250
8345,78.125000
8346,78.125000
8347,78.125000
8348,78.125000
8349,78.125000
8350,78.125000
8351,78.125000
8352,78.125000
8353,78.125000
8354,78.125000
8355,78.125000
8356,78.125000
8357,74.218750
8358,74.218750
8359,74.218750
8360,74.218750
8361,74.218750
8362,74.218750
8363,74.218750
8364,70.312500
8365,74.218750
8366,70.312500
8367,70.312500
8368,70.312500
8369,70.312500
8370,70.312500
8371,70.312500
8372,70.312500
8373,66.406250
8374,66.406250
8375,66.406250
8376,66.406250
8377,66.406250
8378,66.406250
8379,66.406250
8380,66.406250
8381,66.406250
8382,62.500000
8383,62.500000
8384,62.500000
8385,62.500000
8386,62.500000
8387,62.500000
8388,62.500000
8389,62.500000
8390,58.593750
8391,58.593750
8392,58.593750
8393,58.593750
8394,58.593750
8395,58.593750
8396,54.687500
8397,54.687500
8398,54.687500
8399,54.687500
8400,54.687500
8401,54.687500
8402,54.687500
8403,50.781250
8404,50.781250
8405,50.781250
8406,50.781250
8407,50.781250
8408,50.781250
8409,50.781250
8410,46.875000
8411,46.875000
8412,46.875000
8413,46.875000
8414,46.875000
8415,46.875000
8416,42.968750
8417,42.968750
8418,42.968750
8419,42.968750
8420,42.968750
8421,42.968750
8422,42.968750
8423,39.062500
8424,39.062500
8425,39.062500
8426,39.062500
8427,39.062500
8428,39.062500
8429,35.156250
8430,35.156250
8431,35.156250
8432,35.156250
8433,35.156250
8434,35.156250
8435,31.250000
8436,31.250000
8437,31.250000
8438,31.250000
8439,31.250000
8440,31.250000
8441,27.343750
8442,27.343750
8443,27.343750
8444,27.343750
8445,27.343750
8446,27.343750
8447,27.343750
8448,23.437500
8449,23.437500
8450,23.437500
8451,23.437500
8452,23.437500
8453,19.531250
8454,19.531250
8455,19.531250
8456,19.531250
8457,19.531250
8458,19.531250
8459,15.625000
8460,15.625000
8461,15.625000
8462,15.625000
8463,15.625000
8464,15.625000
8465,15.625000
8466,11.718750
8467,11.718750
8468,11.718750
8469,11.718750
8470,11.718750
8471,7.812500
8472,7.812500
8473,7.812500
8474,7.812500
8475,7.812500
8476,3.906250
8477,3.906250
8478,3.906250
8479,3.906250
8480,3.906250
8481,0.000000
8482,0.000000
8483,0.000000
8484,0.000000
8485,0.000000
8486,0.000000
8487,-3.906250
8488,-3.906250
8489,-3.906250
8490,-3.906250
8491,-3.906250
8492,-7.812500
8493,-7.812500
8494,-7.812500
8495,-7.812500
8496,-7.812500
8497,-7.812500
8498,-11.718750
8499,-11.718750
8500,-11.718750
8501,-11.718750
8502,-15.625000
8503,-11.718750
8504,-15.625000
8505,-15.625000
8506,-15.625000
8507,-15.625000
8508,-19.531250
8509,-19.531250
8510,-19.531250
8511,-19.531250
8512,-19.531250
8513,-23.437500
8514,-23.437500
8515,-23.437500
8516,-23.437500
8517,-23.437500
8518,-27.343750
8519,-27.343750
8520,-27.343750
8521,-27.343750
8522,-27.343750
8523,-27.343750
8524,-31.250000
8525,-31.250000
8526,-31.250000
8527,-31.250000
8528,-31.250000
8529,-31.250000
8530,-35.156250
8531,-35.156250
8532,-35.156250
8533,-35.156250
8534,-35.156250
8535,-39.062500
8536,-39.062500
8537,-39.062500
8538,-39.062500
8539,-42.968750
8540,-42.968750
8541,-42.968750
8542,-42.968750
8543,-42.968750
8544,-42.968750
8545,-46.875000
8546,-46.875000
8547,-46.875000
8548,-46.875000
8549,-46.875000
8550,-46.875000
8551,-50.781250
8552,-50.781250
8553,-50.781250
8554,-50.781250
8555,-50.781250
8556,-54.687500
8557,-54.687500
8558,-54.687500
8559,-54.687500
8560,-54.687500
8561,-54.687500
8562,-58.593750
8563,-58.593750
8564,-58.593750
8565,-58.593750
8566,-58.593750
8567,-62.500000
8568,-62.500000
8569,-62.500000
8570,-62.500000
8571,-62.500000
8572,-62.500000
8573,-62.500000
8574,-66.406250
8575,-66.406250
8576,-66.406250
8577,-66.406250
8578,-66.406250
8579,-70.312500
8580,-70.312500
8581,-70.312500
8582,-70.312500
8583,-70.312500
8584,-70.312500
8585,-74.218750
8586,-74.218750
8587,-74.218750
8588,-74.218750
8589,-74.218750
8590,-78.125000
8591,-78.125000
8592,-78.125000
8593,-78.125000
8594,-78.125000
8595,-78.125000
8596,-78.125000
8597,-78.125000
8598,-82.031250
8599,-82.031250
8600,-82.031250
8601,-82.031250
8602,-82.031250
8603,-85.937500
8604,-85.937500
8605,-85.937500
8606,-85.937500
8607,-85.937500
8608,-85.937500
8609,-85.937500
8610,-85.937500
8611,-85.937500
8612,-89.843750
8613,-89.843750
8614,-89.843750
8615,-89.843750
8616,-89.843750
8617,-89.843750
8618,-89.843750
8619,-93.750000
8620,-93.750000
8621,-93.750000
8622,-93.750000
8623,-93.750000
8624,-93.750000
8625,-93.750000
8626,-97.656250
8627,-97.656250
8628,-97.656250
8629,-97.656250
8630,-97.656250
8631,-97.656250
8632,-101.562500
8633,-101.562500
8634,-101.562500
8635,-101.562500
8636,-101.562500
8637,-101.562500
8638,-101.562500
8639,-101.562500
8640,-105.468750
8641,-101.562500
8642,-105.468750
8643,-105.468750
8644,-105.468750
8645,-105.468750
8646,-105.468750
8647,-105.468750
8648,-105.468750
8649,-105.468750
8650,-109.375000
8651,-109.375000
8652,-109.375000
8653,-109.375000
8654,-109.375000
8655,-109.375000
8656,-109.375000
8657,-109.375000
8658,-113.281250
8659,-113.281250
8660,-113.281250
8661,-113.281250
8662,-113.281250
8663,-113.281250
8664,-113.281250
8665,-113.281250
8666,-113.281250
8667,-113.281250
8668,-117.187500
8669,-117.187500
8670,-117.187500
8671,-117.187500
8672,-117.187500
8673,-117.187500
8674,-117.187500
8675,-117.187500
8676,-117.187500
8677,-117.187500
8678,-117.187500
8679,-117.187500
8680,-117.187500
8681,-117.187500
8682,-121.093750
8683,-121.093750
8684,-121.093750
8685,-121.093750
8686,-121.093750
8687,-121.093750
8688,-121.093750
8689,-121.093750
8690,-121.093750
8691,-121.093750
8692,-121.093750
8693,-121.093750
8694,-121.093750
8695,-121.093750
8696,-125.000000
8697,-125.000000
8698,-125.000000
8699,-125.000000
8700,-125.000000
8701,-125.000000
8702,-125.000000
8703,-125.000000
8704,-125.000000
8705,-125.000000
8706,-125.000000
8707,-125.000000
8708,-125.000000
8709,-125.000000
8710,-125.000000
8711,-125.000000
8712,-125.000000
8713,-125.000000
8714,-125.000000
8715,-125.000000
8716,-125.000000
8717,-125.000000
8718,-125.000000
8719,-125.000000
8720,-125.000000
8721,-125.000000
8722,-128.906250
8723,-128.906250
8724,-125.000000
8725,-128.906250
8726,-128.906250
8727,-128.906250
8728,-128.906250
8729,-128.906250
8730,-128.906250
8731,-128.906250
8732,-128.906250
8733,-128.906250
8734,-128.906250
8735,-128.906250
8736,-128.906250
8737,-128.906250
8738,-125.000000
8739,-128.906250
8740,-128.906250
8741,-125.000000
8742,-128.906250
8743,-125.000000
8744,-128.906250
8745,-128.906250
8746,-128.906250
8747,-128.906250
8748,-125.000000
8749,-125.000000
8750,-128.906250
8751,-125.000000
8752,-125.000000
8753,-125.000000
8754,-125.000000
8755,-125.000000
8756,-125.000000
8757,-125.000000
8758,-125.000000
8759,-125.000000
8760,-125.000000
8761,-125.000000
8762,-125.000000
8763,-125.000000
8764,-125.000000
8765,-125.000000
8766,-125.000000
8767,-125.000000
8768,-125.000000
8769,-125.000000
8770,-125.000000
8771,-125.000000
8772,-125.000000
8773,-125.000000
8774,-125.000000
8775,-125.000000
8776,-121.093750
8777,-125.000000
8778,-125.000000
8779,-125.000000
8780,-121.093750
8781,-121.093750
8782,-121.093750
8783,-121.093750
8784,-121.093750
8785,-121.093750
8786,-121.093750
8787,-121.093750
8788,-121.093750
8789,-121.093750
8790,-121.093750
8791,-121.093750
8792,-121.093750
8793,-121.093750
8794,-121.093750
8795,-121.093750
8796,-117.187500
8797,-121.093750
8798,-117.187500
8799,-117.187500
8800,-117.187500
8801,-117.187500
8802,-117.187500
8803,-117.187500
8804,-117.187500
8805,-117.187500
8806,-117.187500
8807,-117.187500
8808,-117.187500
8809,-117.187500
8810,-113.281250
8811,-113.281250
8812,-113.281250
8813,-113.281250
8814,-113.281250
8815,-113.281250
8816,-113.281250
8817,-113.281250
8818,-113.281250
8819,-109.375000
8820,-109.375000
8821,-109.375000
8822,-109.375000
8823,-109.375000
8824,-109.375000
8825,-109.375000
8826,-109.375000
8827,-109.375000
8828,-109.375000
8829,-109.375000
8830,-105.468750
8831,-105.468750
8832,-105.468750
8833,-105.468750
8834,-105.468750
8835,-105.468750
8836,-105.468750
8837,-105.468750
8838,-101.562500
8839,-101.562500
8840,-101.562500
8841,-101.562500
8842,-101.562500
8843,-101.562500
8844,-101.562500
8845,-101.562500
8846,-97.656250
8847,-97.656250
8848,-97.656250
8849,-97.656250
8850,-97.656250
8851,-93.750000
8852,-97.656250
8853,-93.750000
8854,-93.750000
8855,-93.750000
8856,-93.750000
8857,-93.750000
8858,-93.750000
8859,-93.750000
8860,-89.843750
8861,-89.843750
8862,-89.843750
8863,-89.843750
8864,-89.843750
8865,-89.843750
8866,-85.937500
8867,-85.937500
8868,-85.937500
8869,-85.937500
8870,-85.937500
8871,-85.937500
8872,-85.937500
8873,-85.937500
8874,-82.031250
8875,-82.031250
8876,-82.031250
8877,-82.031250
8878,-82.031250
8879,-82.031250
8880,-78.125000
8881,-78.125000
8882,-78.125000
8883,-78.125000
8884,-78.125000
8885,-78.125000
8886,-74.218750
8887,-74.218750
8888,-74.218750
8889,-74.218750
8890,-74.218750
8891,-74.218750
8892,-74.218750
8893,-70.312500
8894,-70.312500
8895,-70.312500
8896,-70.312500
8897,-70.312500
8898,-66.406250
8899,-66.406250
8900,-66.406250
8901,-66.406250
8902,-66.406250
8903,-66.406250
8904,-66.406250
8905,-62.500000
8906,-62.500000
8907,-62.500000
8908,-62.500000
8909,-62.500000
8910,-58.593750
8911,-58.593750
8912,-58.593750
8913,-58.593750
8914,-58.593750
8915,-58.593750
8916,-54.687500
8917,-54.687500
8918,-54.687500
8919,-54.687500
8920,-54.687500
8921,-54.687500
8922,-50.781250
8923,-50.781250
8924,-50.781250
8925,-50.781250
8926,-50.781250
8927,-46.875000
8928,-46.875000
8929,-46.875000
8930,-46.875000
8931,-46.875000
8932,-46.875000
8933,-42.968750
8934,-42.968750
8935,-42.968750
8936,-42.968750
8937,-42.968750
8938,-42.968750
8939,-39.062500
8940,-39.062500
8941,-39.062500
8942,-39.062500
8943,-39.062500
8944,-35.156250
8945,-35.156250
8946,-35.156250
8947,-35.156250
8948,-35.156250
8949,-31.250000
8950,-31.250000
8951,-31.250000
8952,-31.250000
8953,-27.343750
8954,-31.250000
8955,-27.343750
8956,-27.343750
8957,-27.343750
8958,-27.343750
8959,-27.343750
8960,-23.437500
8961,-23.437500
8962,-23.437500
8963,-23.437500
8964,-23.437500
8965,-19.531250
8966,-19.531250
8967,-19.531250
8968,-19.531250
8969,-19.531250
8970,-15.625000
8971,-15.625000
8972,-15.625000
8973,-15.625000
8974,-15.625000
8975,-15.625000
8976,-15.625000
8977,-11.718750
8978,-11.718750
8979,-11.718750
8980,-7.812500
8981,-7.812500
8982,-7.812500
8983,-7.812500
8984,-7.812500
8985,-7.812500
8986,-7.812500
8987,-3.906250
8988,-3.906250
8989,-3.906250
8990,-3.906250
8991,-3.906250
8992,0.000000
8993,0.000000
8994,0.000000
8995,0.000000
8996,0.000000
8997,0.000000
8998,3.906250
8999,3.906250
9000,3.906250
9001,3.906250
9002,7.812500
9003,3.906250
9004,7.812500
9005,7.812500
9006,7.812500
9007,7.812500
9008,7.812500
9009,11.718750
9010,11.718750
9011,11.718750
9012,11.718750
9013,15.625000
9014,15.625000
9015,15.625000
9016,15.625000
9017,15.625000
9018,15.625000
9019,19.531250
9020,19.531250
9021,19.531250
9022,19.531250
9023,19.531250
9024,19.531250
9025,23.437500
9026,23.437500
9027,23.437500
9028,23.437500
9029,23.437500
9030,27.343750
9031,27.343750
9032,27.343750
9033,27.343750
9034,27.343750
9035,27.343750
9036,31.250000
9037,31.250000
9038,31.250000
9039,31.250000
9040,31.250000
9041,31.250000
9042,31.250000
9043,35.156250
9044,35.156250
9045,35.156250
9046,35.156250
9047,35.156250
9048,35.156250
9049,39.062500
9050,39.062500
9051,39.062500
9052,39.062500
9053,39.062500
9054,39.062500
9055,39.062500
9056,42.968750
9057,42.968750
9058,42.968750
9059,42.968750
9060,42.968750
9061,46.875000
9062,46.875000
9063,46.875000
9064,46.875000
9065,46.875000
9066,46.875000
9067,46.875000
9068,46.875000
9069,50.781250
9070,50.781250
9071,50.781250
9072,50.781250
9073,50.781250
9074,50.781250
9075,54.687500
9076,54.687500
9077,54.687500
9078,54.687500
9079,54.687500
9080,54.687500
9081,54.687500
9082,54.687500
9083,54.687500
9084,58.593750
9085,58.593750
9086,58.593750
9087,58.593750
9088,58.593750
9089,58.593750
9090,62.500000
9091,58.593750
9092,62.500000
9093,62.500000
9094,62.500000
9095,62.500000
9096,62.500000
9097,62.500000
9098,62.500000
9099,66.406250
9100,66.406250
9101,66.406250
9102,66.406250
9103,66.406250
9104,66.406250
9105,66.406250
9106,66.406250
9107,70.312500
9108,70.312500
9109,70.312500
9110,70.312500
9111,70.312500
9112,70.312500
9113,70.312500
9114,70.312500
9115,74.218750
9116,74.218750
9117,74.218750
9118,74.218750
9119,74.218750
9120,74.218750
9121,74.218750
9122,74.218750
9123,78.125000
9124,78.125000
9125,78.125000
9126,78.125000
9127,78.125000
9128,78.125000
9129,78.125000
9130,78.125000
9131,78.125000
9132,78.125000
9133,78.125000
9134,78.125000
9135,82.031250
9136,82.031250
9137,82.031250
9138,82.031250
9139,82.031250
9140,82.031250
9141,82.031250
9142,82.031250
9143,82.031250
9144,82.031250
9145,85.937500
9146,85.937500
9147,85.937500
9148,85.937500
9149,85.937500
9150,85.937500
9151,85.937500
9152,85.937500
9153,85.937500
9154,85.937500
9155,85.937500
9156,85.937500
9157,89.843750
9158,89.843750
9159,89.843750
9160,89.843750
9161,89.843750
9162,89.843750
9163,89.843750
9164,89.843750
9165,89.843750
9166,89.843750
9167,89.843750
9168,89.843750
9169,89.843750
9170,93.750000
9171,93.750000
9172,93.750000
9173,93.750000
9174,93.750000
9175,93.750000
9176,93.750000
9177,93.750000
9178,93.750000
9179,93.750000
9180,93.750000
9181,93.750000
9182,93.750000
9183,93.750000
9184,93.750000
9185,93.750000
9186,93.750000
9187,93.750000
9188,93.750000
9189,93.750000
9190,93.750000
9191,93.750000
9192,97.656250
9193,93.750000
9194,93.750000
9195,93.750000
9196,97.656250
9197,97.656250
9198,97.656250
9199,97.656250
9200,97.656250
9201,97.656250
9202,97.656250
9203,97.656250
9204,97.656250
9205,97.656250
9206,97.656250
9207,97.656250
9208,97.656250
9209,97.656250
9210,97.656250
9211,97.656250
9212,97.656250
9213,97.656250
9214,97.656250
9215,97.656250
9216,97.656250
9217,97.656250
9218,97.656250
9219,97.656250
9220,97.656250
9221,97.656250
9222,97.656250
9223,97.656250
9224,97.656250
9225,97.656250
9226,97.656250
9227,97.656250
9228,97.656250
9229,97.656250
9230,97.656250
9231,97.656250
9232,97.656250
9233,97.656250
9234,97.656250
9235,97.656250
9236,97.656250
9237,97.656250
9238,97.656250
9239,97.656250
9240,97.656250
9241,97.656250
9242,97.656250
9243,97.656250
9244,97.656250
9245,97.656250
9246,97.656250
9247,97.656250
9248,97.656250
9249,97.656250
9250,97.656250
9251,97.656250
9252,97.656250
9253,97.656250
9254,97.656250
9255,97.656250
9256,97.656250
9257,97.656250
9258,97.656250
9259,97.656250
9260,97.656250
9261,97.656250
9262,97.656250
9263,97.656250
9264,97.656250
9265,97.656250
9266,97.656250
9267,97.656250
9268,97.656250
9269,97.656250
9270,97.656250
9271,97.656250
9272,97.656250
9273,93.750000
9274,97.656250
9275,97.656250
9276,93.750000
9277,93.750000
9278,93.750000
9279,93.750000
9280,93.750000
9281,93.750000
9282,93.750000
9283,93.750000
9284,93.750000
9285,93.750000
9286,93.750000
9287,93.750000
9288,93.750000
9289,93.750000
9290,93.750000
9291,93.750000
9292,93.750000
9293,93.750000
9294,93.750000
9295,93.750000
9296,89.843750
9297,89.843750
9298,89.843750
9299,89.843750
9300,89.843750
9301,89.843750
9302,89.843750
9303,89.843750
9304,89.843750
9305,89.843750
9306,89.843750
9307,89.843750
9308,89.843750
9309,89.843750
9310,89.843750
9311,89.843750
9312,85.937500
9313,85.937500
9314,85.937500
9315,85.937500
9316,85.937500
9317,85.937500
9318,85.937500
9319,85.937500
9320,85.937500
9321,85.937500
9322,82.031250
9323,85.937500
9324,82.031250
9325,82.031250
9326,82.031250
9327,82.031250
9328,82.031250
9329,82.031250
9330,82.031250
9331,82.031250
9332,82.031250
9333,78.125000
9334,78.125000
9335,78.125000
9336,78.125000
9337,78.125000
9338,78.125000
9339,78.125000
9340,78.125000
9341,78.125000
9342,78.125000
9343,78.125000
9344,74.218750
9345,74.218750
9346,74.218750
9347,74.218750
9348,74.218750
9349,74.218750
9350,74.218750
9351,74.218750
9352,74.218750
9353,70.312500
9354,74.218750
9355,70.312500
9356,70.312500
9357,70.312500
9358,70.312500
9359,70.312500
9360,70.312500
9361,66.406250
9362,66.406250
9363,66.406250
9364,66.406250
9365,66.406250
9366,66.406250
9367,66.406250
9368,66.406250
9369,66.406250
9370,62.500000
9371,62.500000
9372,62.500000
9373,62.500000
9374,62.500000
9375,62.500000
9376,62.500000
9377,62.500000
9378,62.500000
9379,58.593750
9380,58.593750
9381,58.593750
9382,58.593750
9383,58.593750
9384,58.593750
9385,58.593750
9386,54.687500
9387,54.687500
9388,54.687500
9389,54.687500
9390,54.687500
9391,54.687500
9392,54.687500
9393,50.781250
9394,50.781250
9395,50.781250
9396,50.781250
9397,50.781250
9398,50.781250
9399,50.781250
9400,46.875000
9401,46.875000
9402,46.875000
9403,46.875000
9404,46.875000
9405,46.875000
9406,42.968750
9407,42.968750
9408,42.968750
9409,42.968750
9410,42.968750
9411,42.968750
9412,39.062500
9413,39.062500
9414,39.062500
9415,39.062500
9416,39.062500
9417,39.062500
9418,39.062500
9419,39.062500
9420,35.156250
9421,35.156250
9422,35.156250
9423,35.156250
9424,35.156250
9425,31.250000
9426,31.250000
9427,31.250000
9428,31.250000
9429,31.250000
9430,31.250000
9431,27.343750
9432,27.343750
9433,27.343750
9434,27.343750
9435,27.343750
9436,27.343750
9437,23.437500
9438,23.437500
9439,23.437500
9440,23.437500
9441,23.437500
9442,19.531250
9443,19.531250
9444,19.531250
9445,19.531250
9446,19.531250
9447,19.531250
9448,19.531250
9449,15.625000
9450,15.625000
9451,15.625000
9452,15.625000
9453,15.625000
9454,11.718750
9455,11.718750
9456,11.718750
9457,11.718750
9458,11.718750
9459,7.812500
9460,7.812500
9461,7.812500
9462,7.812500
9463,7.812500
9464,7.812500
9465,3.906250
9466,3.906250
9467,3.906250
9468,3.906250
9469,3.906250
9470,0.000000
9471,0.000000
9472,0.000000
9473,0.000000
9474,0.000000
9475,0.000000
9476,-3.906250
9477,-3.906250
9478,-3.906250
9479,-3.906250
9480,-3.906250
9481,-7.812500
9482,-7.812500
9483,-7.812500
9484,-7.812500
9485,-7.812500
9486,-7.812500
9487,-11.718750
9488,-11.718750
9489,-11.718750
9490,-11.718750
9491,-11.718750
9492,-15.625000
9493,-15.625000
9494,-15.625000
9495,-15.625000
9496,-15.625000
9497,-19.531250
9498,-19.531250
9499,-19.531250
9500,-19.531250
9501,-19.531250
9502,-19.531250
9503,-23.437500
9504,-23.437500
9505,-23.437500
9506,-23.437500
9507,-23.437500
9508,-23.437500
9509,-27.343750
9510,-27.343750
9511,-27.343750
9512,-27.343750
9513,-27.343750
9514,-31.250000
9515,-31.250000
9516,-31.250000
9517,-31.250000
9518,-35.156250
9519,-35.156250
9520,-35.156250
9521,-35.156250
9522,-35.156250
9523,-35.156250
9524,-35.156250
9525,-39.062500
9526,-39.062500
9527,-39.062500
9528,-39.062500
9529,-42.968750
9530,-39.062500
9531,-42.968750
9532,-42.968750
9533,-42.968750
9534,-46.875000
9535,-46.875000
9536,-46.875000
9537,-46.875000
9538,-46.875000
9539,-46.875000
9540,-50.781250
9541,-50.781250
9542,-50.781250
9543,-50.781250
9544,-50.781250
9545,-50.781250
9546,-50.781250
9547,-54.687500
9548,-54.687500
9549,-54.687500
9550,-54.687500
9551,-58.593750
9552,-54.687500
9553,-58.593750
9554,-58.593750
9555,-58.593750
9556,-58.593750
9557,-58.593750
9558,-62.500000
9559,-62.500000
9560,-62.500000
9561,-62.500000
9562,-62.500000
9563,-62.500000
9564,-66.406250
9565,-66.406250
9566,-66.406250
9567,-66.406250
9568,-66.406250
9569,-70.312500
9570,-70.312500
9571,-70.312500
9572,-70.312500
9573,-70.312500
9574,-70.312500
9575,-74.218750
9576,-74.218750
9577,-74.218750
9578,-74.218750
9579,-74.218750
9580,-74.218750
9581,-74.218750
9582,-78.125000
9583,-78.125000
9584,-78.125000
9585,-78.125000
9586,-78.125000
9587,-78.125000
9588,-78.125000
9589,-82.031250
9590,-82.031250
9591,-82.031250
9592,-82.031250
9593,-82.031250
9594,-85.937500
9595,-85.937500
9596,-85.937500
9597,-85.937500
9598,-85.937500
9599,-85.937500
9600,-85.937500
9601,-89.843750
9602,-89.843750
9603,-89.843750
9604,-89.843750
9605,-89.843750
9606,-89.843750
9607,-93.750000
9608,-89.843750
9609,-93.750000
9610,-93.750000
9611,-93.750000
9612,-93.750000
9613,-93.750000
9614,-93.750000
9615,-97.656250
9616,-97.656250
9617,-97.656250
9618,-97.656250
9619,-97.656250
9620,-97.656250
9621,-97.656250
9622,-101.562500
9623,-101.562500
9624,-101.562500
9625,-101.562500
9626,-101.562500
9627,-101.562500
9628,-101.562500
9629,-101.562500
9630,-105.468750
9631,-105.468750
9632,-105.468750
9633,-105.468750
9634,-105.468750
9635,-105.468750
9636,-105.468750
9637,-105.468750
9638,-105.468750
9639,-109.375000
9640,-109.375000
9641,-109.375000
9642,-109.375000
9643,-109.375000
9644,-109.375000
9645,-109.375000
9646,-109.375000
9647,-109.375000
9648,-113.281250
9649,-109.375000
9650,-113.281250
9651,-109.375000
9652,-113.281250
9653,-113.281250
9654,-113.281250
9655,-113.281250
9656,-113.281250
9657,-113.281250
9658,-117.187500
9659,-113.281250
9660,-117.187500
9661,-117.187500
9662,-117.187500
9663,-117.187500
9664,-117.187500
9665,-117.187500
9666,-117.187500
9667,-117.187500
9668,-117.187500
9669,-117.187500
9670,-121.093750
9671,-121.093750
9672,-117.187500
9673,-117.187500
9674,-121.093750
9675,-121.093750
9676,-121.093750
9677,-121.093750
9678,-121.093750
9679,-121.093750
9680,-121.093750
9681,-121.093750
9682,-121.093750
9683,-121.093750
9684,-121.093750
9685,-121.093750
9686,-121.093750
9687,-121.093750
9688,-125.000000
9689,-125.000000
9690,-125.000000
9691,-125.000000
9692,-125.000000
9693,-125.000000
9694,-125.000000
9695,-125.000000
9696,-125.000000
9697,-125.000000
9698,-125.000000
9699,-125.000000
9700,-125.000000
9701,-125.000000
9702,-125.000000
9703,-125.000000
9704,-125.000000
9705,-125.000000
9706,-125.000000
9707,-125.000000
9708,-125.000000
9709,-128.906250
9710,-125.000000
9711,-125.000000
9712,-128.906250
9713,-125.000000
9714,-128.906250
9715,-125.000000
9716,-128.906250
9717,-128.906250
9718,-128.906250
9719,-128.906250
9720,-128.906250
9721,-128.906250
9722,-125.000000
9723,-128.906250
9724,-128.906250
9725,-128.906250
9726,-128.906250
9727,-128.906250
9728,-125.000000
9729,-128.906250
9730,-128.906250
9731,-128.906250
9732,-128.906250
9733,-128.906250
9734,-128.906250
9735,-128.906250
9736,-128.906250
9737,-128.906250
9738,-128.906250
9739,-128.906250
9740,-125.000000
9741,-128.906250
9742,-125.000000
9743,-125.000000
9744,-128.906250
9745,-125.000000
9746,-125.000000
9747,-128.906250
9748,-128.906250
9749,-128.906250
9750,-128.906250
9751,-125.000000
9752,-125.000000
9753,-125.000000
9754,-125.000000
9755,-125.000000
9756,-125.000000
9757,-125.000000
9758,-125.000000
9759,-125.000000
9760,-125.000000
9761,-125.000000
9762,-125.000000
9763,-125.000000
9764,-125.000000
9765,-125.000000
9766,-125.000000
9767,-125.000000
9768,-125.000000
9769,-125.000000
9770,-125.000000
9771,-121.093750
9772,-121.093750
9773,-121.093750
9774,-121.093750
9775,-121.093750
9776,-121.093750
9777,-121.093750
9778,-121.093750
9779,-121.093750
9780,-121.093750
9781,-121.093750
9782,-121.093750
9783,-121.093750
9784,-121.093750
9785,-121.093750
9786,-121.093750
9787,-117.187500
9788,-117.187500
9789,-117.187500
9790,-117.187500
9791,-117.187500
9792,-117.187500
9793,-117.187500
9794,-117.187500
9795,-117.187500
9796,-117.187500
9797,-113.281250
9798,-113.281250
9799,-113.281250
9800,-113.281250
9801,-113.281250
9802,-113.281250
9803,-113.281250
9804,-113.281250
9805,-113.281250
9806,-113.281250
9807,-113.281250
9808,-109.375000
9809,-109.375000
9810,-109.375000
9811,-109.375000
9812,-109.375000
9813,-109.375000
9814,-109.375000
9815,-105.468750
9816,-109.375000
9817,-105.468750
9818,-105.468750
9819,-105.468750
9820,-105.468750
9821,-105.468750
9822,-105.468750
9823,-105.468750
9824,-101.562500
9825,-105.468750
9826,-105.468750
9827,-101.562500
9828,-101.562500
9829,-101.562500
9830,-101.562500
9831,-101.562500
9832,-101.562500
9833,-101.562500
9834,-101.562500
9835,-101.562500
9836,-101.562500
9837,-97.656250
9838,-97.656250
9839,-97.656250
9840,-97.656250
9841,-97.656250
9842,-97.656250
9843,-97.656250
9844,-93.750000
9845,-93.750000
9846,-93.750000
9847,-93.750000
9848,-93.750000
9849,-93.750000
9850,-93.750000
9851,-89.843750
9852,-89.843750
9853,-89.843750
9854,-89.843750
9855,-89.843750
9856,-89.843750
9857,-89.843750
9858,-85.937500
9859,-85.937500
9860,-85.937500
9861,-85.937500
9862,-85.937500
9863,-85.937500
9864,-82.031250
9865,-82.031250
9866,-82.031250
9867,-82.031250
9868,-82.031250
9869,-82.031250
9870,-78.125000
9871,-78.125000
9872,-78.125000
9873,-78.125000
9874,-78.125000
9875,-78.125000
9876,-78.125000
9877,-74.218750
9878,-74.218750
9879,-74.218750
9880,-74.218750
9881,-74.218750
9882,-74.218750
9883,-70.312500
9884,-70.312500
9885,-70.312500
9886,-70.312500
9887,-70.312500
9888,-70.312500
9889,-66.406250
9890,-66.406250
9891,-66.406250
9892,-66.406250
9893,-66.406250
9894,-66.406250
9895,-62.500000
9896,-62.500000
9897,-62.500000
9898,-62.500000
9899,-62.500000
9900,-58.593750
9901,-58.593750
9902,-58.593750
9903,-58.593750
9904,-58.593750
9905,-58.593750
9906,-54.687500
9907,-54.687500
9908,-54.687500
9909,-54.687500
9910,-54.687500
9911,-50.781250
9912,-50.781250
9913,-50.781250
9914,-50.781250
9915,-50.781250
9916,-46.875000
9917,-46.875000
9918,-46.875000
9919,-46.875000
9920,-46.875000
9921,-46.875000
9922,-42.968750
9923,-42.968750
9924,-42.968750
9925,-42.968750
9926,-42.968750
9927,-39.062500
9928,-39.062500
9929,-39.062500
9930,-39.062500
9931,-39.062500
9932,-35.156250
9933,-35.156250
9934,-35.156250
9935,-35.156250
9936,-35.156250
9937,-35.156250
9938,-35.156250
9939,-31.250000
9940,-31.250000
9941,-31.250000
9942,-31.250000
9943,-27.343750
9944,-27.343750
9945,-27.343750
9946,-27.343750
9947,-23.437500
9948,-27.343750
9949,-23.437500
9950,-23.437500
9951,-23.437500
9952,-23.437500
9953,-23.437500
9954,-19.531250
9955,-19.531250
9956,-19.531250
9957,-19.531250
9958,-19.531250
9959,-15.625000
9960,-15.625000
9961,-15.625000
9962,-15.625000
9963,-15.625000
9964,-15.625000
9965,-11.718750
9966,-11.718750
9967,-11.718750
9968,-11.718750
9969,-11.718750
9970,-7.812500
9971,-7.812500
9972,-7.812500
9973,-7.812500
9974,-7.812500
9975,-7.812500
9976,-7.812500
9977,-7.812500
9978,-3.906250
9979,-3.906250
9980,0.000000
9981,-3.906250
9982,-3.906250
9983,0.000000
9984,0.000000
9985,0.000000
9986,0.000000
9987,3.906250
9988,3.906250
9989,3.906250
9990,3.906250
9991,3.906250
9992,3.906250
9993,7.812500
9994,7.812500
9995,7.812500
9996,7.812500
9997,7.812500
9998,11.718750
9999,11.718750
10000,11.718750
