Channel              :,CH1
Frequency            :,863.3Hz
Period               :,1.158ms
PK-PK                :,160.2mV
Probe attenuation    :,1X
Voltage per ADC value:,0.122070mV
Time interval        :,1.00000us

index,CH1_Voltage(mV)
1,-150.390625
2,-150.390625
3,-150.390625
4,-150.390625
5,-150.390625
6,-150.390625
7,-152.343750
8,-152.343750
9,-152.343750
10,-152.343750
11,-152.343750
12,-152.343750
13,-152.343750
14,-152.343750
15,-152.343750
16,-152.343750
17,-152.343750
18,-152.343750
19,-154.296875
20,-154.296875
21,-154.296875
22,-154.296875
23,-154.296875
24,-152.343750
25,-154.296875
26,-154.296875
27,-154.296875
28,-154.296875
29,-154.296875
30,-154.296875
31,-154.296875
32,-154.296875
33,-154.296875
34,-154.296875
35,-156.250000
36,-154.296875
37,-154.296875
38,-156.250000
39,-154.296875
40,-156.250000
41,-156.250000
42,-154.296875
43,-156.250000
44,-156.250000
45,-156.250000
46,-156.250000
47,-156.250000
48,-156.250000
49,-156.250000
50,-156.250000
51,-156.250000
52,-156.250000
53,-156.250000
54,-156.250000
55,-156.250000
56,-156.250000
57,-156.250000
58,-156.250000
59,-156.250000
60,-156.250000
61,-156.250000
62,-156.250000
63,-156.250000
64,-156.250000
65,-156.250000
66,-156.250000
67,-156.250000
68,-156.250000
69,-156.250000
70,-156.250000
71,-156.250000
72,-156.250000
73,-156.250000
74,-156.250000
75,-156.250000
76,-156.250000
77,-158.203125
78,-156.250000
79,-156.250000
80,-156.250000
81,-156.250000
82,-156.250000
83,-156.250000
84,-156.250000
85,-156.250000
86,-156.250000
87,-156.250000
88,-156.250000
89,-156.250000
90,-156.250000
91,-156.250000
92,-156.250000
93,-156.250000
94,-156.250000
95,-156.250000
96,-156.250000
97,-156.250000
98,-156.250000
99,-156.250000
100,-156.250000
101,-156.250000
102,-156.250000
103,-156.250000
104,-156.250000
105,-156.250000
106,-156.250000
107,-156.250000
108,-156.250000
109,-156.250000
110,-154.296875
111,-154.296875
112,-154.296875
113,-154.296875
114,-154.296875
115,-156.250000
116,-154.296875
117,-154.296875
118,-154.296875
119,-154.296875
120,-154.296875
121,-154.296875
122,-154.296875
123,-154.296875
124,-154.296875
125,-154.296875
126,-154.296875
127,-154.296875
128,-154.296875
129,-154.296875
130,-154.296875
131,-154.296875
132,-152.343750
133,-152.343750
134,-152.343750
135,-154.296875
136,-152.343750
137,-152.343750
138,-152.343750
139,-152.343750
140,-152.343750
141,-152.343750
142,-152.343750
143,-152.343750
144,-152.343750
145,-152.343750
146,-152.343750
147,-152.343750
148,-152.343750
149,-150.390625
150,-150.390625
151,-152.343750
152,-150.390625
153,-150.390625
154,-150.390625
155,-150.390625
156,-150.390625
157,-150.390625
158,-150.390625
159,-150.390625
160,-148.437500
161,-150.390625
162,-150.390625
163,-150.390625
164,-148.437500
165,-148.437500
166,-148.437500
167,-148.437500
168,-148.437500
169,-148.437500
170,-148.437500
171,-148.437500
172,-148.437500
173,-148.437500
174,-148.437500
175,-146.484375
176,-146.484375
177,-146.484375
178,-146.484375
179,-146.484375
180,-146.484375
181,-146.484375
182,-146.484375
183,-146.484375
184,-146.484375
185,-146.484375
186,-144.531250
187,-144.531250
188,-144.531250
189,-144.531250
190,-144.531250
191,-144.531250
192,-144.531250
193,-144.531250
194,-144.531250
195,-142.578125
196,-142.578125
197,-142.578125
198,-142.578125
199,-142.578125
200,-142.578125
201,-142.578125
202,-142.578125
203,-140.625000
204,-140.625000
205,-140.625000
206,-140.625000
207,-140.625000
208,-140.625000
209,-140.625000
210,-140.625000
211,-140.625000
212,-138.671875
213,-140.625000
214,-140.625000
215,-138.671875
216,-138.671875
217,-138.671875
218,-138.671875
219,-138.671875
220,-138.671875
221,-138.671875
222,-136.718750
223,-136.718750
224,-136.718750
225,-136.718750
226,-136.718750
227,-136.718750
228,-136.718750
229,-136.718750
230,-134.765625
231,-134.765625
232,-134.765625
233,-134.765625
234,-134.765625
235,-132.812500
236,-134.765625
237,-132.812500
238,-132.812500
239,-132.812500
240,-132.812500
241,-132.812500
242,-132.812500
243,-132.812500
244,-130.859375
245,-130.859375
246,-130.859375
247,-130.859375
248,-130.859375
249,-130.859375
250,-130.859375
251,-128.906250
252,-126.953125
253,-128.906250
254,-128.906250
255,-128.906250
256,-128.906250
257,-128.906250
258,-126.953125
259,-126.953125
260,-126.953125
261,-126.953125
262,-126.953125
263,-126.953125
264,-126.953125
265,-125.000000
266,-125.000000
267,-125.000000
268,-125.000000
269,-123.046875
270,-123.046875
271,-123.046875
272,-123.046875
273,-123.046875
274,-123.046875
275,-123.046875
276,-121.093750
277,-121.093750
278,-121.093750
279,-121.093750
280,-121.093750
281,-121.093750
282,-119.140625
283,-121.093750
284,-119.140625
285,-119.140625
286,-119.140625
287,-119.140625
288,-119.140625
289,-117.187500
290,-117.187500
291,-117.187500
292,-117.187500
293,-115.234375
294,-115.234375
295,-115.234375
296,-115.234375
297,-115.234375
298,-115.234375
299,-115.234375
300,-113.281250
301,-113.281250
302,-113.281250
303,-113.281250
304,-111.328125
305,-111.328125
306,-111.328125
307,-111.328125
308,-111.328125
309,-111.328125
310,-111.328125
311,-109.375000
312,-109.375000
313,-109.375000
314,-109.375000
315,-109.375000
316,-107.421875
317,-107.421875
318,-107.421875
319,-107.421875
320,-107.421875
321,-107.421875
322,-105.468750
323,-105.468750
324,-105.468750
325,-105.468750
326,-105.468750
327,-103.515625
328,-103.515625
329,-103.515625
330,-103.515625
331,-103.515625
332,-101.562500
333,-101.562500
334,-101.562500
335,-101.562500
336,-101.562500
337,-99.609375
338,-99.609375
339,-99.609375
340,-99.609375
341,-99.609375
342,-99.609375
343,-99.609375
344,-97.656250
345,-97.656250
346,-97.656250
347,-97.656250
348,-95.703125
349,-95.703125
350,-95.703125
351,-95.703125
352,-93.750000
353,-93.750000
354,-93.750000
355,-93.750000
356,-93.750000
357,-93.750000
358,-91.796875
359,-91.796875
360,-91.796875
361,-91.796875
362,-89.843750
363,-89.843750
364,-89.843750
365,-89.843750
366,-89.843750
367,-89.843750
368,-87.890625
369,-87.890625
370,-87.890625
371,-87.890625
372,-85.937500
373,-85.937500
374,-85.937500
375,-85.937500
376,-83.984375
377,-83.984375
378,-83.984375
379,-83.984375
380,-83.984375
381,-83.984375
382,-82.031250
383,-82.031250
384,-82.031250
385,-82.031250
386,-80.078125
387,-80.078125
388,-80.078125
389,-80.078125
390,-78.125000
391,-78.125000
392,-78.125000
393,-78.125000
394,-78.125000
395,-76.171875
396,-76.171875
397,-76.171875
398,-76.171875
399,-76.171875
400,-74.218750
401,-74.218750
402,-74.218750
403,-74.218750
404,-72.265625
405,-72.265625
406,-72.265625
407,-72.265625
408,-72.265625
409,-70.312500
410,-70.312500
411,-70.312500
412,-70.312500
413,-68.359375
414,-68.359375
415,-68.359375
416,-68.359375
417,-68.359375
418,-68.359375
419,-66.406250
420,-66.406250
421,-66.406250
422,-64.453125
423,-64.453125
424,-64.453125
425,-64.453125
426,-64.453125
427,-64.453125
428,-64.453125
429,-62.500000
430,-62.500000
431,-62.500000
432,-60.546875
433,-60.546875
434,-60.546875
435,-60.546875
436,-58.593750
437,-58.593750
438,-58.593750
439,-58.593750
440,-56.640625
441,-58.593750
442,-56.640625
443,-58.593750
444,-56.640625
445,-54.687500
446,-56.640625
447,-54.687500
448,-54.687500
449,-54.687500
450,-54.687500
451,-54.687500
452,-52.734375
453,-52.734375
454,-52.734375
455,-52.734375
456,-50.781250
457,-50.781250
458,-50.781250
459,-50.781250
460,-48.828125
461,-48.828125
462,-48.828125
463,-48.828125
464,-48.828125
465,-48.828125
466,-48.828125
467,-46.875000
468,-46.875000
469,-46.875000
470,-44.921875
471,-44.921875
472,-44.921875
473,-44.921875
474,-44.921875
475,-44.921875
476,-42.968750
477,-42.968750
478,-42.968750
479,-42.968750
480,-41.015625
481,-41.015625
482,-41.015625
483,-41.015625
484,-41.015625
485,-41.015625
486,-39.062500
487,-39.062500
488,-39.062500
489,-39.062500
490,-39.062500
491,-37.109375
492,-37.109375
493,-37.109375
494,-37.109375
495,-37.109375
496,-35.156250
497,-35.156250
498,-35.156250
499,-35.156250
500,-33.203125
501,-33.203125
502,-33.203125
503,-33.203125
504,-33.203125
505,-33.203125
506,-31.250000
507,-31.250000
508,-31.250000
509,-31.250000
510,-31.250000
511,-31.250000
512,-29.296875
513,-29.296875
514,-29.296875
515,-29.296875
516,-29.296875
517,-27.343750
518,-27.343750
519,-27.343750
520,-27.343750
521,-27.343750
522,-27.343750
523,-25.390625
524,-25.390625
525,-25.390625
526,-25.390625
527,-25.390625
528,-23.437500
529,-23.437500
530,-23.437500
531,-23.437500
532,-23.437500
533,-23.437500
534,-23.437500
535,-23.437500
536,-21.484375
537,-21.484375
538,-21.484375
539,-21.484375
540,-21.484375
541,-19.531250
542,-19.531250
543,-19.531250
544,-19.531250
545,-19.531250
546,-19.531250
547,-19.531250
548,-17.578125
549,-17.578125
550,-17.578125
551,-17.578125
552,-17.578125
553,-17.578125
554,-15.625000
555,-17.578125
556,-15.625000
557,-15.625000
558,-15.625000
559,-15.625000
560,-13.671875
561,-15.625000
562,-15.625000
563,-13.671875
564,-13.671875
565,-13.671875
566,-13.671875
567,-13.671875
568,-13.671875
569,-11.718750
570,-11.718750
571,-11.718750
572,-11.718750
573,-11.718750
574,-11.718750
575,-11.718750
576,-11.718750
577,-11.718750
578,-9.765625
579,-9.765625
580,-9.765625
581,-9.765625
582,-9.765625
583,-9.765625
584,-9.765625
585,-9.765625
586,-7.812500
587,-7.812500
588,-7.812500
589,-7.812500
590,-7.812500
591,-7.812500
592,-7.812500
593,-7.812500
594,-7.812500
595,-7.812500
596,-7.812500
597,-5.859375
598,-5.859375
599,-5.859375
600,-5.859375
601,-5.859375
602,-5.859375
603,-5.859375
604,-5.859375
605,-5.859375
606,-5.859375
607,-3.906250
608,-3.906250
609,-3.906250
610,-3.906250
611,-3.906250
612,-3.906250
613,-3.906250
614,-3.906250
615,-3.906250
616,-3.906250
617,-3.906250
618,-3.906250
619,-3.906250
620,-3.906250
621,-3.906250
622,-1.953125
623,-1.953125
624,-3.906250
625,-1.953125
626,-1.953125
627,-1.953125
628,-1.953125
629,-1.953125
630,-1.953125
631,-1.953125
632,-1.953125
633,-1.953125
634,-1.953125
635,-1.953125
636,0.000000
637,-1.953125
638,-1.953125
639,-1.953125
640,-1.953125
641,-1.953125
642,-1.953125
643,-1.953125
644,-1.953125
645,0.000000
646,0.000000
647,0.000000
648,0.000000
649,0.000000
650,0.000000
651,0.000000
652,0.000000
653,0.000000
654,0.000000
655,0.000000
656,0.000000
657,0.000000
658,0.000000
659,0.000000
660,0.000000
661,0.000000
662,0.000000
663,0.000000
664,0.000000
665,0.000000
666,0.000000
667,0.000000
668,0.000000
669,-1.953125
670,0.000000
671,0.000000
672,0.000000
673,0.000000
674,0.000000
675,0.000000
676,0.000000
677,0.000000
678,0.000000
679,0.000000
680,0.000000
681,0.000000
682,0.000000
683,0.000000
684,0.000000
685,0.000000
686,0.000000
687,0.000000
688,0.000000
689,-1.953125
690,0.000000
691,0.000000
692,-1.953125
693,-1.953125
694,-1.953125
695,-1.953125
696,-1.953125
697,-1.953125
698,-1.953125
699,-1.953125
700,-1.953125
701,-1.953125
702,-1.953125
703,-1.953125
704,-1.953125
705,-1.953125
706,-1.953125
707,-1.953125
708,-1.953125
709,-1.953125
710,-3.906250
711,-3.906250
712,-1.953125
713,-3.906250
714,-3.906250
715,-3.906250
716,-3.906250
717,-3.906250
718,-3.906250
719,-3.906250
720,-3.906250
721,-3.906250
722,-3.906250
723,-3.906250
724,-3.906250
725,-5.859375
726,-3.906250
727,-5.859375
728,-5.859375
729,-5.859375
730,-3.906250
731,-5.859375
732,-5.859375
733,-5.859375
734,-5.859375
735,-7.812500
736,-7.812500
737,-5.859375
738,-5.859375
739,-7.812500
740,-7.812500
741,-7.812500
742,-7.812500
743,-7.812500
744,-7.812500
745,-7.812500
746,-7.812500
747,-9.765625
748,-9.765625
749,-9.765625
750,-9.765625
751,-9.765625
752,-9.765625
753,-11.718750
754,-11.718750
755,-11.718750
756,-11.718750
757,-11.718750
758,-11.718750
759,-11.718750
760,-11.718750
761,-11.718750
762,-11.718750
763,-11.718750
764,-13.671875
765,-13.671875
766,-13.671875
767,-13.671875
768,-13.671875
769,-13.671875
770,-13.671875
771,-15.625000
772,-15.625000
773,-15.625000
774,-15.625000
775,-15.625000
776,-15.625000
777,-15.625000
778,-15.625000
779,-17.578125
780,-17.578125
781,-17.578125
782,-17.578125
783,-17.578125
784,-17.578125
785,-19.531250
786,-19.531250
787,-19.531250
788,-19.531250
789,-19.531250
790,-19.531250
791,-21.484375
792,-19.531250
793,-21.484375
794,-21.484375
795,-21.484375
796,-21.484375
797,-21.484375
798,-23.437500
799,-23.437500
800,-23.437500
801,-23.437500
802,-23.437500
803,-23.437500
804,-23.437500
805,-25.390625
806,-25.390625
807,-25.390625
808,-25.390625
809,-25.390625
810,-25.390625
811,-27.343750
812,-27.343750
813,-27.343750
814,-27.343750
815,-27.343750
816,-27.343750
817,-29.296875
818,-29.296875
819,-29.296875
820,-29.296875
821,-29.296875
822,-31.250000
823,-31.250000
824,-31.250000
825,-31.250000
826,-31.250000
827,-31.250000
828,-33.203125
829,-33.203125
830,-33.203125
831,-33.203125
832,-33.203125
833,-35.156250
834,-35.156250
835,-35.156250
836,-35.156250
837,-37.109375
838,-37.109375
839,-37.109375
840,-37.109375
841,-37.109375
842,-37.109375
843,-39.062500
844,-39.062500
845,-39.062500
846,-39.062500
847,-41.015625
848,-41.015625
849,-41.015625
850,-41.015625
851,-41.015625
852,-41.015625
853,-42.968750
854,-42.968750
855,-42.968750
856,-42.968750
857,-42.968750
858,-44.921875
859,-44.921875
860,-44.921875
861,-44.921875
862,-44.921875
863,-46.875000
864,-46.875000
865,-46.875000
866,-46.875000
867,-48.828125
868,-48.828125
869,-48.828125
870,-48.828125
871,-48.828125
872,-50.781250
873,-50.781250
874,-50.781250
875,-50.781250
876,-50.781250
877,-52.734375
878,-52.734375
879,-52.734375
880,-54.687500
881,-54.687500
882,-54.687500
883,-54.687500
884,-54.687500
885,-54.687500
886,-54.687500
887,-54.687500
888,-56.640625
889,-56.640625
890,-56.640625
891,-58.593750
892,-58.593750
893,-58.593750
894,-58.593750
895,-60.546875
896,-60.546875
897,-60.546875
898,-60.546875
899,-60.546875
900,-62.500000
901,-62.500000
902,-62.500000
903,-62.500000
904,-62.500000
905,-64.453125
906,-64.453125
907,-64.453125
908,-64.453125
909,-66.406250
910,-66.406250
911,-66.406250
912,-66.406250
913,-66.406250
914,-68.359375
915,-68.359375
916,-68.359375
917,-68.359375
918,-70.312500
919,-70.312500
920,-70.312500
921,-70.312500
922,-70.312500
923,-70.312500
924,-70.312500
925,-72.265625
926,-72.265625
927,-72.265625
928,-74.218750
929,-74.218750
930,-74.218750
931,-74.218750
932,-74.218750
933,-74.218750
934,-74.218750
935,-76.171875
936,-76.171875
937,-76.171875
938,-76.171875
939,-78.125000
940,-78.125000
941,-78.125000
942,-80.078125
943,-80.078125
944,-80.078125
945,-80.078125
946,-80.078125
947,-82.031250
948,-82.031250
949,-82.031250
950,-82.031250
951,-83.984375
952,-83.984375
953,-83.984375
954,-83.984375
955,-83.984375
956,-85.937500
957,-85.937500
958,-85.937500
959,-85.937500
960,-87.890625
961,-87.890625
962,-87.890625
963,-87.890625
964,-87.890625
965,-89.843750
966,-89.843750
967,-89.843750
968,-89.843750
969,-89.843750
970,-89.843750
971,-91.796875
972,-91.796875
973,-91.796875
974,-93.750000
975,-91.796875
976,-93.750000
977,-93.750000
978,-93.750000
979,-93.750000
980,-93.750000
981,-95.703125
982,-95.703125
983,-95.703125
984,-97.656250
985,-97.656250
986,-97.656250
987,-97.656250
988,-97.656250
989,-99.609375
990,-99.609375
991,-99.609375
992,-99.609375
993,-99.609375
994,-99.609375
995,-101.562500
996,-101.562500
997,-101.562500
998,-101.562500
999,-101.562500
1000,-103.515625
1001,-103.515625
1002,-103.515625
1003,-103.515625
1004,-103.515625
1005,-105.468750
1006,-105.468750
1007,-105.468750
1008,-105.468750
1009,-105.468750
1010,-107.421875
1011,-107.421875
1012,-107.421875
1013,-107.421875
1014,-107.421875
1015,-109.375000
1016,-109.375000
1017,-109.375000
1018,-109.375000
1019,-109.375000
1020,-111.328125
1021,-111.328125
1022,-111.328125
1023,-111.328125
1024,-111.328125
1025,-113.281250
1026,-113.281250
1027,-113.281250
1028,-113.281250
1029,-113.281250
1030,-113.281250
1031,-113.281250
1032,-115.234375
1033,-115.234375
1034,-115.234375
1035,-117.187500
1036,-115.234375
1037,-117.187500
1038,-117.187500
1039,-117.187500
1040,-117.187500
1041,-117.187500
1042,-119.140625
1043,-119.140625
1044,-119.140625
1045,-119.140625
1046,-119.140625
1047,-121.093750
1048,-121.093750
1049,-121.093750
1050,-121.093750
1051,-121.093750
1052,-121.093750
1053,-121.093750
1054,-123.046875
1055,-123.046875
1056,-123.046875
1057,-123.046875
1058,-123.046875
1059,-126.953125
1060,-123.046875
1061,-125.000000
1062,-125.000000
1063,-125.000000
1064,-125.000000
1065,-125.000000
1066,-125.000000
1067,-126.953125
1068,-126.953125
1069,-126.953125
1070,-126.953125
1071,-128.906250
1072,-128.906250
1073,-128.906250
1074,-128.906250
1075,-128.906250
1076,-130.859375
1077,-130.859375
1078,-130.859375
1079,-130.859375
1080,-130.859375
1081,-130.859375
1082,-130.859375
1083,-132.812500
1084,-132.812500
1085,-132.812500
1086,-132.812500
1087,-132.812500
1088,-132.812500
1089,-132.812500
1090,-134.765625
1091,-134.765625
1092,-134.765625
1093,-134.765625
1094,-134.765625
1095,-134.765625
1096,-134.765625
1097,-136.718750
1098,-136.718750
1099,-136.718750
1100,-136.718750
1101,-136.718750
1102,-138.671875
1103,-138.671875
1104,-138.671875
1105,-138.671875
1106,-138.671875
1107,-138.671875
1108,-138.671875
1109,-138.671875
1110,-140.625000
1111,-140.625000
1112,-140.625000
1113,-140.625000
1114,-140.625000
1115,-142.578125
1116,-142.578125
1117,-142.578125
1118,-142.578125
1119,-142.578125
1120,-142.578125
1121,-142.578125
1122,-142.578125
1123,-144.531250
1124,-142.578125
1125,-144.531250
1126,-144.531250
1127,-144.531250
1128,-144.531250
1129,-144.531250
1130,-144.531250
1131,-144.531250
1132,-144.531250
1133,-144.531250
1134,-144.531250
1135,-146.484375
1136,-146.484375
1137,-146.484375
1138,-146.484375
1139,-146.484375
1140,-146.484375
1141,-148.437500
1142,-148.437500
1143,-146.484375
1144,-146.484375
1145,-148.437500
1146,-148.437500
1147,-148.437500
1148,-148.437500
1149,-148.437500
1150,-150.390625
1151,-150.390625
1152,-150.390625
1153,-150.390625
1154,-148.437500
1155,-150.390625
1156,-150.390625
1157,-150.390625
1158,-150.390625
1159,-150.390625
1160,-150.390625
1161,-150.390625
1162,-150.390625
1163,-152.343750
1164,-152.343750
1165,-152.343750
1166,-152.343750
1167,-152.343750
1168,-152.343750
1169,-152.343750
1170,-152.343750
1171,-152.343750
1172,-152.343750
1173,-152.343750
1174,-152.343750
1175,-154.296875
1176,-152.343750
1177,-152.343750
1178,-152.343750
1179,-152.343750
1180,-152.343750
1181,-154.296875
1182,-154.296875
1183,-154.296875
1184,-154.296875
1185,-154.296875
1186,-154.296875
1187,-154.296875
1188,-154.296875
1189,-154.296875
1190,-154.296875
1191,-154.296875
1192,-154.296875
1193,-154.296875
1194,-154.296875
1195,-156.250000
1196,-154.296875
1197,-156.250000
1198,-154.296875
1199,-156.250000
1200,-154.296875
1201,-156.250000
1202,-156.250000
1203,-156.250000
1204,-156.250000
1205,-156.250000
1206,-156.250000
1207,-156.250000
1208,-156.250000
1209,-156.250000
1210,-156.250000
1211,-156.250000
1212,-156.250000
1213,-156.250000
1214,-156.250000
1215,-156.250000
1216,-156.250000
1217,-156.250000
1218,-156.250000
1219,-156.250000
1220,-156.250000
1221,-156.250000
1222,-156.250000
1223,-156.250000
1224,-156.250000
1225,-158.203125
1226,-156.250000
1227,-156.250000
1228,-156.250000
1229,-156.250000
1230,-156.250000
1231,-156.250000
1232,-156.250000
1233,-156.250000
1234,-156.250000
1235,-158.203125
1236,-156.250000
1237,-156.250000
1238,-156.250000
1239,-156.250000
1240,-156.250000
1241,-156.250000
1242,-156.250000
1243,-156.250000
1244,-156.250000
1245,-156.250000
1246,-156.250000
1247,-156.250000
1248,-156.250000
1249,-156.250000
1250,-156.250000
1251,-156.250000
1252,-156.250000
1253,-156.250000
1254,-156.250000
1255,-156.250000
1256,-156.250000
1257,-156.250000
1258,-156.250000
1259,-156.250000
1260,-156.250000
1261,-156.250000
1262,-156.250000
1263,-156.250000
1264,-156.250000
1265,-156.250000
1266,-156.250000
1267,-156.250000
1268,-156.250000
1269,-156.250000
1270,-154.296875
1271,-156.250000
1272,-156.250000
1273,-156.250000
1274,-156.250000
1275,-156.250000
1276,-154.296875
1277,-156.250000
1278,-154.296875
1279,-154.296875
1280,-154.296875
1281,-154.296875
1282,-154.296875
1283,-154.296875
1284,-154.296875
1285,-154.296875
1286,-154.296875
1287,-154.296875
1288,-154.296875
1289,-154.296875
1290,-154.296875
1291,-152.343750
1292,-152.343750
1293,-154.296875
1294,-152.343750
1295,-152.343750
1296,-152.343750
1297,-152.343750
1298,-152.343750
1299,-152.343750
1300,-152.343750
1301,-152.343750
1302,-152.343750
1303,-152.343750
1304,-152.343750
1305,-152.343750
1306,-152.343750
1307,-150.390625
1308,-150.390625
1309,-150.390625
1310,-150.390625
1311,-150.390625
1312,-150.390625
1313,-150.390625
1314,-150.390625
1315,-150.390625
1316,-150.390625
1317,-150.390625
1318,-150.390625
1319,-150.390625
1320,-148.437500
1321,-148.437500
1322,-148.437500
1323,-148.437500
1324,-148.437500
1325,-148.437500
1326,-148.437500
1327,-148.437500
1328,-148.437500
1329,-148.437500
1330,-148.437500
1331,-146.484375
1332,-148.437500
1333,-146.484375
1334,-146.484375
1335,-148.437500
1336,-146.484375
1337,-146.484375
1338,-146.484375
1339,-146.484375
1340,-146.484375
1341,-144.531250
1342,-144.531250
1343,-144.531250
1344,-144.531250
1345,-146.484375
1346,-144.531250
1347,-144.531250
1348,-144.531250
1349,-144.531250
1350,-144.531250
1351,-144.531250
1352,-144.531250
1353,-144.531250
1354,-142.578125
1355,-142.578125
1356,-142.578125
1357,-142.578125
1358,-142.578125
1359,-142.578125
1360,-142.578125
1361,-142.578125
1362,-142.578125
1363,-142.578125
1364,-140.625000
1365,-140.625000
1366,-140.625000
1367,-140.625000
1368,-140.625000
1369,-140.625000
1370,-140.625000
1371,-140.625000
1372,-138.671875
1373,-140.625000
1374,-138.671875
1375,-138.671875
1376,-138.671875
1377,-138.671875
1378,-138.671875
1379,-136.718750
1380,-138.671875
1381,-136.718750
1382,-136.718750
1383,-136.718750
1384,-136.718750
1385,-136.718750
1386,-136.718750
1387,-134.765625
1388,-134.765625
1389,-134.765625
1390,-134.765625
1391,-134.765625
1392,-134.765625
1393,-134.765625
1394,-134.765625
1395,-132.812500
1396,-132.812500
1397,-132.812500
1398,-132.812500
1399,-132.812500
1400,-132.812500
1401,-132.812500
1402,-130.859375
1403,-130.859375
1404,-132.812500
1405,-130.859375
1406,-130.859375
1407,-130.859375
1408,-130.859375
1409,-130.859375
1410,-128.906250
1411,-128.906250
1412,-128.906250
1413,-128.906250
1414,-128.906250
1415,-128.906250
1416,-128.906250
1417,-126.953125
1418,-126.953125
1419,-126.953125
1420,-126.953125
1421,-126.953125
1422,-125.000000
1423,-125.000000
1424,-125.000000
1425,-125.000000
1426,-125.000000
1427,-125.000000
1428,-125.000000
1429,-123.046875
1430,-123.046875
1431,-123.046875
1432,-123.046875
1433,-123.046875
1434,-121.093750
1435,-121.093750
1436,-121.093750
1437,-121.093750
1438,-121.093750
1439,-121.093750
1440,-119.140625
1441,-121.093750
1442,-119.140625
1443,-119.140625
1444,-119.140625
1445,-119.140625
1446,-117.187500
1447,-119.140625
1448,-117.187500
1449,-117.187500
1450,-117.187500
1451,-117.187500
1452,-115.234375
1453,-115.234375
1454,-115.234375
1455,-115.234375
1456,-113.281250
1457,-113.281250
1458,-113.281250
1459,-113.281250
1460,-113.281250
1461,-113.281250
1462,-111.328125
1463,-111.328125
1464,-111.328125
1465,-111.328125
1466,-111.328125
1467,-111.328125
1468,-111.328125
1469,-109.375000
1470,-109.375000
1471,-109.375000
1472,-109.375000
1473,-109.375000
1474,-109.375000
1475,-109.375000
1476,-107.421875
1477,-107.421875
1478,-107.421875
1479,-107.421875
1480,-107.421875
1481,-105.468750
1482,-105.468750
1483,-105.468750
1484,-105.468750
1485,-105.468750
1486,-103.515625
1487,-103.515625
1488,-103.515625
1489,-103.515625
1490,-101.562500
1491,-101.562500
1492,-101.562500
1493,-101.562500
1494,-99.609375
1495,-101.562500
1496,-99.609375
1497,-99.609375
1498,-99.609375
1499,-99.609375
1500,-97.656250
1501,-97.656250
1502,-97.656250
1503,-97.656250
1504,-97.656250
1505,-97.656250
1506,-97.656250
1507,-95.703125
1508,-95.703125
1509,-95.703125
1510,-93.750000
1511,-95.703125
1512,-93.750000
1513,-93.750000
1514,-93.750000
1515,-91.796875
1516,-91.796875
1517,-91.796875
1518,-91.796875
1519,-91.796875
1520,-91.796875
1521,-89.843750
1522,-89.843750
1523,-89.843750
1524,-89.843750
1525,-89.843750
1526,-87.890625
1527,-87.890625
1528,-87.890625
1529,-87.890625
1530,-85.937500
1531,-85.937500
1532,-85.937500
1533,-85.937500
1534,-85.937500
1535,-85.937500
1536,-83.984375
1537,-83.984375
1538,-83.984375
1539,-83.984375
1540,-82.031250
1541,-82.031250
1542,-82.031250
1543,-82.031250
1544,-80.078125
1545,-80.078125
1546,-80.078125
1547,-78.125000
1548,-80.078125
1549,-80.078125
1550,-78.125000
1551,-78.125000
1552,-76.171875
1553,-76.171875
1554,-76.171875
1555,-76.171875
1556,-76.171875
1557,-76.171875
1558,-74.218750
1559,-74.218750
1560,-74.218750
1561,-74.218750
1562,-74.218750
1563,-74.218750
1564,-72.265625
1565,-72.265625
1566,-72.265625
1567,-72.265625
1568,-70.312500
1569,-72.265625
1570,-70.312500
1571,-68.359375
1572,-68.359375
1573,-68.359375
1574,-68.359375
1575,-68.359375
1576,-68.359375
1577,-68.359375
1578,-66.406250
1579,-66.406250
1580,-64.453125
1581,-64.453125
1582,-64.453125
1583,-64.453125
1584,-64.453125
1585,-64.453125
1586,-62.500000
1587,-62.500000
1588,-62.500000
1589,-62.500000
1590,-60.546875
1591,-60.546875
1592,-60.546875
1593,-60.546875
1594,-58.593750
1595,-58.593750
1596,-58.593750
1597,-58.593750
1598,-58.593750
1599,-58.593750
1600,-58.593750
1601,-56.640625
1602,-56.640625
1603,-56.640625
1604,-54.687500
1605,-54.687500
1606,-54.687500
1607,-54.687500
1608,-54.687500
1609,-52.734375
1610,-52.734375
1611,-52.734375
1612,-52.734375
1613,-52.734375
1614,-50.781250
1615,-50.781250
1616,-50.781250
1617,-50.781250
1618,-48.828125
1619,-48.828125
1620,-48.828125
1621,-48.828125
1622,-48.828125
1623,-48.828125
1624,-46.875000
1625,-46.875000
1626,-46.875000
1627,-46.875000
1628,-46.875000
1629,-46.875000
1630,-44.921875
1631,-44.921875
1632,-44.921875
1633,-42.968750
1634,-42.968750
1635,-42.968750
1636,-42.968750
1637,-42.968750
1638,-42.968750
1639,-41.015625
1640,-41.015625
1641,-41.015625
1642,-41.015625
1643,-41.015625
1644,-39.062500
1645,-39.062500
1646,-39.062500
1647,-39.062500
1648,-39.062500
1649,-37.109375
1650,-37.109375
1651,-37.109375
1652,-37.109375
1653,-37.109375
1654,-37.109375
1655,-35.156250
1656,-35.156250
1657,-35.156250
1658,-35.156250
1659,-35.156250
1660,-33.203125
1661,-33.203125
1662,-33.203125
1663,-33.203125
1664,-33.203125
1665,-33.203125
1666,-31.250000
1667,-31.250000
1668,-31.250000
1669,-31.250000
1670,-29.296875
1671,-29.296875
1672,-29.296875
1673,-29.296875
1674,-29.296875
1675,-29.296875
1676,-27.343750
1677,-27.343750
1678,-27.343750
1679,-27.343750
1680,-27.343750
1681,-27.343750
1682,-25.390625
1683,-25.390625
1684,-25.390625
1685,-25.390625
1686,-25.390625
1687,-25.390625
1688,-23.437500
1689,-23.437500
1690,-23.437500
1691,-23.437500
1692,-23.437500
1693,-21.484375
1694,-21.484375
1695,-21.484375
1696,-21.484375
1697,-21.484375
1698,-21.484375
1699,-21.484375
1700,-19.531250
1701,-19.531250
1702,-19.531250
1703,-19.531250
1704,-19.531250
1705,-19.531250
1706,-17.578125
1707,-17.578125
1708,-17.578125
1709,-17.578125
1710,-17.578125
1711,-17.578125
1712,-17.578125
1713,-15.625000
1714,-15.625000
1715,-15.625000
1716,-13.671875
1717,-15.625000
1718,-15.625000
1719,-15.625000
1720,-13.671875
1721,-13.671875
1722,-13.671875
1723,-13.671875
1724,-13.671875
1725,-13.671875
1726,-11.718750
1727,-13.671875
1728,-11.718750
1729,-11.718750
1730,-11.718750
1731,-11.718750
1732,-11.718750
1733,-11.718750
1734,-9.765625
1735,-11.718750
1736,-11.718750
1737,-9.765625
1738,-9.765625
1739,-9.765625
1740,-9.765625
1741,-9.765625
1742,-9.765625
1743,-9.765625
1744,-9.765625
1745,-7.812500
1746,-7.812500
1747,-7.812500
1748,-7.812500
1749,-7.812500
1750,-7.812500
1751,-7.812500
1752,-7.812500
1753,-5.859375
1754,-5.859375
1755,-5.859375
1756,-5.859375
1757,-7.812500
1758,-5.859375
1759,-5.859375
1760,-5.859375
1761,-5.859375
1762,-5.859375
1763,-5.859375
1764,-5.859375
1765,-5.859375
1766,-5.859375
1767,-5.859375
1768,-3.906250
1769,-3.906250
1770,-3.906250
1771,-3.906250
1772,-3.906250
1773,-3.906250
1774,-3.906250
1775,-3.906250
1776,-3.906250
1777,-3.906250
1778,-3.906250
1779,-3.906250
1780,-3.906250
1781,-1.953125
1782,-1.953125
1783,-1.953125
1784,-1.953125
1785,-1.953125
1786,-1.953125
1787,-1.953125
1788,-1.953125
1789,-1.953125
1790,-1.953125
1791,-1.953125
1792,-1.953125
1793,-1.953125
1794,-1.953125
1795,-1.953125
1796,-1.953125
1797,-1.953125
1798,-1.953125
1799,-1.953125
1800,-1.953125
1801,0.000000
1802,0.000000
1803,0.000000
1804,-1.953125
1805,0.000000
1806,0.000000
1807,0.000000
1808,0.000000
1809,0.000000
1810,0.000000
1811,0.000000
1812,0.000000
1813,0.000000
1814,0.000000
1815,0.000000
1816,0.000000
1817,0.000000
1818,0.000000
1819,0.000000
1820,0.000000
1821,0.000000
1822,0.000000
1823,0.000000
1824,0.000000
1825,0.000000
1826,0.000000
1827,0.000000
1828,0.000000
1829,0.000000
1830,0.000000
1831,0.000000
1832,0.000000
1833,0.000000
1834,0.000000
1835,0.000000
1836,0.000000
1837,0.000000
1838,0.000000
1839,0.000000
1840,0.000000
1841,0.000000
1842,0.000000
1843,0.000000
1844,-1.953125
1845,-1.953125
1846,0.000000
1847,0.000000
1848,0.000000
1849,-1.953125
1850,0.000000
1851,-1.953125
1852,-1.953125
1853,-1.953125
1854,-1.953125
1855,-1.953125
1856,-1.953125
1857,-1.953125
1858,-1.953125
1859,-1.953125
1860,-1.953125
1861,-1.953125
1862,-1.953125
1863,-1.953125
1864,-1.953125
1865,-1.953125
1866,-1.953125
1867,-3.906250
1868,-3.906250
1869,-3.906250
1870,-3.906250
1871,-3.906250
1872,-3.906250
1873,-3.906250
1874,-3.906250
1875,-3.906250
1876,-3.906250
1877,-3.906250
1878,-3.906250
1879,-3.906250
1880,-3.906250
1881,-3.906250
1882,-3.906250
1883,-5.859375
1884,-3.906250
1885,-5.859375
1886,-5.859375
1887,-5.859375
1888,-5.859375
1889,-5.859375
1890,-5.859375
1891,-5.859375
1892,-5.859375
1893,-5.859375
1894,-5.859375
1895,-5.859375
1896,-7.812500
1897,-7.812500
1898,-7.812500
1899,-9.765625
1900,-7.812500
1901,-7.812500
1902,-9.765625
1903,-9.765625
1904,-7.812500
1905,-9.765625
1906,-9.765625
1907,-9.765625
1908,-9.765625
1909,-9.765625
1910,-9.765625
1911,-11.718750
1912,-11.718750
1913,-11.718750
1914,-11.718750
1915,-11.718750
1916,-11.718750
1917,-11.718750
1918,-11.718750
1919,-11.718750
1920,-11.718750
1921,-13.671875
1922,-13.671875
1923,-13.671875
1924,-13.671875
1925,-13.671875
1926,-13.671875
1927,-13.671875
1928,-13.671875
1929,-13.671875
1930,-15.625000
1931,-15.625000
1932,-15.625000
1933,-15.625000
1934,-15.625000
1935,-17.578125
1936,-17.578125
1937,-17.578125
1938,-17.578125
1939,-17.578125
1940,-17.578125
1941,-17.578125
1942,-17.578125
1943,-17.578125
1944,-19.531250
1945,-19.531250
1946,-19.531250
1947,-19.531250
1948,-19.531250
1949,-19.531250
1950,-19.531250
1951,-21.484375
1952,-21.484375
1953,-21.484375
1954,-21.484375
1955,-21.484375
1956,-21.484375
1957,-23.437500
1958,-23.437500
1959,-23.437500
1960,-23.437500
1961,-23.437500
1962,-25.390625
1963,-25.390625
1964,-25.390625
1965,-25.390625
1966,-25.390625
1967,-25.390625
1968,-25.390625
1969,-27.343750
1970,-27.343750
1971,-27.343750
1972,-27.343750
1973,-27.343750
1974,-29.296875
1975,-29.296875
1976,-29.296875
1977,-29.296875
1978,-29.296875
1979,-29.296875
1980,-31.250000
1981,-31.250000
1982,-31.250000
1983,-31.250000
1984,-31.250000
1985,-31.250000
1986,-33.203125
1987,-33.203125
1988,-33.203125
1989,-33.203125
1990,-35.156250
1991,-35.156250
1992,-35.156250
1993,-35.156250
1994,-35.156250
1995,-35.156250
1996,-37.109375
1997,-37.109375
1998,-37.109375
1999,-39.062500
2000,-39.062500
2001,-39.062500
2002,-39.062500
2003,-39.062500
2004,-39.062500
2005,-41.015625
2006,-41.015625
2007,-41.015625
2008,-41.015625
2009,-41.015625
2010,-41.015625
2011,-42.968750
2012,-42.968750
2013,-42.968750
2014,-42.968750
2015,-42.968750
2016,-42.968750
2017,-44.921875
2018,-44.921875
2019,-46.875000
2020,-46.875000
2021,-46.875000
2022,-46.875000
2023,-46.875000
2024,-46.875000
2025,-46.875000
2026,-48.828125
2027,-48.828125
2028,-48.828125
2029,-50.781250
2030,-50.781250
2031,-50.781250
2032,-50.781250
2033,-50.781250
2034,-50.781250
2035,-52.734375
2036,-52.734375
2037,-52.734375
2038,-52.734375
2039,-54.687500
2040,-54.687500
2041,-54.687500
2042,-54.687500
2043,-56.640625
2044,-56.640625
2045,-56.640625
2046,-56.640625
2047,-56.640625
2048,-56.640625
2049,-58.593750
2050,-58.593750
2051,-58.593750
2052,-58.593750
2053,-60.546875
2054,-60.546875
2055,-60.546875
2056,-60.546875
2057,-62.500000
2058,-62.500000
2059,-62.500000
2060,-62.500000
2061,-62.500000
2062,-62.500000
2063,-64.453125
2064,-64.453125
2065,-64.453125
2066,-64.453125
2067,-66.406250
2068,-66.406250
2069,-66.406250
2070,-66.406250
2071,-66.406250
2072,-68.359375
2073,-68.359375
2074,-68.359375
2075,-68.359375
2076,-68.359375
2077,-70.312500
2078,-70.312500
2079,-70.312500
2080,-70.312500
2081,-70.312500
2082,-72.265625
2083,-72.265625
2084,-72.265625
2085,-74.218750
2086,-74.218750
2087,-74.218750
2088,-74.218750
2089,-74.218750
2090,-74.218750
2091,-76.171875
2092,-76.171875
2093,-76.171875
2094,-76.171875
2095,-78.125000
2096,-78.125000
2097,-78.125000
2098,-78.125000
2099,-78.125000
2100,-80.078125
2101,-80.078125
2102,-80.078125
2103,-80.078125
2104,-80.078125
2105,-82.031250
2106,-82.031250
2107,-82.031250
2108,-82.031250
2109,-83.984375
2110,-83.984375
2111,-83.984375
2112,-83.984375
2113,-83.984375
2114,-85.937500
2115,-85.937500
2116,-85.937500
2117,-85.937500
2118,-87.890625
2119,-87.890625
2120,-87.890625
2121,-87.890625
2122,-87.890625
2123,-87.890625
2124,-89.843750
2125,-89.843750
2126,-89.843750
2127,-89.843750
2128,-91.796875
2129,-91.796875
2130,-91.796875
2131,-91.796875
2132,-91.796875
2133,-93.750000
2134,-93.750000
2135,-93.750000
2136,-93.750000
2137,-93.750000
2138,-95.703125
2139,-95.703125
2140,-95.703125
2141,-95.703125
2142,-95.703125
2143,-97.656250
2144,-97.656250
2145,-97.656250
2146,-97.656250
2147,-99.609375
2148,-99.609375
2149,-99.609375
2150,-99.609375
2151,-99.609375
2152,-101.562500
2153,-101.562500
2154,-101.562500
2155,-101.562500
2156,-101.562500
2157,-103.515625
2158,-103.515625
2159,-103.515625
2160,-103.515625
2161,-105.468750
2162,-105.468750
2163,-105.468750
2164,-105.468750
2165,-105.468750
2166,-105.468750
2167,-105.468750
2168,-107.421875
2169,-107.421875
2170,-107.421875
2171,-107.421875
2172,-107.421875
2173,-109.375000
2174,-109.375000
2175,-109.375000
2176,-109.375000
2177,-109.375000
2178,-111.328125
2179,-111.328125
2180,-111.328125
2181,-111.328125
2182,-111.328125
2183,-113.281250
2184,-113.281250
2185,-113.281250
2186,-113.281250
2187,-115.234375
2188,-115.234375
2189,-115.234375
2190,-115.234375
2191,-115.234375
2192,-115.234375
2193,-117.187500
2194,-115.234375
2195,-117.187500
2196,-117.187500
2197,-117.187500
2198,-119.140625
2199,-119.140625
2200,-119.140625
2201,-119.140625
2202,-119.140625
2203,-119.140625
2204,-119.140625
2205,-119.140625
2206,-119.140625
2207,-121.093750
2208,-121.093750
2209,-121.093750
2210,-121.093750
2211,-123.046875
2212,-123.046875
2213,-123.046875
2214,-123.046875
2215,-123.046875
2216,-123.046875
2217,-125.000000
2218,-123.046875
2219,-125.000000
2220,-125.000000
2221,-125.000000
2222,-126.953125
2223,-126.953125
2224,-126.953125
2225,-126.953125
2226,-126.953125
2227,-126.953125
2228,-126.953125
2229,-128.906250
2230,-128.906250
2231,-128.906250
2232,-128.906250
2233,-128.906250
2234,-128.906250
2235,-128.906250
2236,-130.859375
2237,-130.859375
2238,-130.859375
2239,-130.859375
2240,-130.859375
2241,-132.812500
2242,-132.812500
2243,-132.812500
2244,-132.812500
2245,-132.812500
2246,-132.812500
2247,-132.812500
2248,-134.765625
2249,-134.765625
2250,-134.765625
2251,-134.765625
2252,-134.765625
2253,-134.765625
2254,-134.765625
2255,-134.765625
2256,-136.718750
2257,-136.718750
2258,-136.718750
2259,-136.718750
2260,-136.718750
2261,-138.671875
2262,-138.671875
2263,-138.671875
2264,-138.671875
2265,-138.671875
2266,-138.671875
2267,-138.671875
2268,-138.671875
2269,-138.671875
2270,-140.625000
2271,-140.625000
2272,-140.625000
2273,-140.625000
2274,-142.578125
2275,-140.625000
2276,-142.578125
2277,-142.578125
2278,-142.578125
2279,-142.578125
2280,-142.578125
2281,-142.578125
2282,-142.578125
2283,-144.531250
2284,-144.531250
2285,-144.531250
2286,-144.531250
2287,-144.531250
2288,-144.531250
2289,-144.531250
2290,-144.531250
2291,-146.484375
2292,-146.484375
2293,-146.484375
2294,-146.484375
2295,-146.484375
2296,-146.484375
2297,-146.484375
2298,-146.484375
2299,-146.484375
2300,-146.484375
2301,-148.437500
2302,-148.437500
2303,-148.437500
2304,-148.437500
2305,-148.437500
2306,-148.437500
2307,-148.437500
2308,-148.437500
2309,-150.390625
2310,-150.390625
2311,-150.390625
2312,-150.390625
2313,-150.390625
2314,-150.390625
2315,-150.390625
2316,-150.390625
2317,-150.390625
2318,-152.343750
2319,-150.390625
2320,-150.390625
2321,-152.343750
2322,-152.343750
2323,-152.343750
2324,-152.343750
2325,-152.343750
2326,-152.343750
2327,-152.343750
2328,-152.343750
2329,-152.343750
2330,-152.343750
2331,-152.343750
2332,-152.343750
2333,-152.343750
2334,-152.343750
2335,-154.296875
2336,-154.296875
2337,-154.296875
2338,-154.296875
2339,-154.296875
2340,-154.296875
2341,-154.296875
2342,-154.296875
2343,-154.296875
2344,-154.296875
2345,-154.296875
2346,-154.296875
2347,-156.250000
2348,-154.296875
2349,-154.296875
2350,-154.296875
2351,-154.296875
2352,-154.296875
2353,-154.296875
2354,-156.250000
2355,-156.250000
2356,-156.250000
2357,-156.250000
2358,-154.296875
2359,-154.296875
2360,-156.250000
2361,-156.250000
2362,-156.250000
2363,-156.250000
2364,-154.296875
2365,-156.250000
2366,-156.250000
2367,-156.250000
2368,-156.250000
2369,-156.250000
2370,-156.250000
2371,-156.250000
2372,-156.250000
2373,-156.250000
2374,-156.250000
2375,-156.250000
2376,-156.250000
2377,-156.250000
2378,-156.250000
2379,-156.250000
2380,-156.250000
2381,-156.250000
2382,-156.250000
2383,-156.250000
2384,-156.250000
2385,-158.203125
2386,-156.250000
2387,-158.203125
2388,-156.250000
2389,-156.250000
2390,-156.250000
2391,-156.250000
2392,-156.250000
2393,-156.250000
2394,-156.250000
2395,-156.250000
2396,-156.250000
2397,-156.250000
2398,-156.250000
2399,-156.250000
2400,-158.203125
2401,-156.250000
2402,-156.250000
2403,-156.250000
2404,-156.250000
2405,-156.250000
2406,-156.250000
2407,-156.250000
2408,-156.250000
2409,-156.250000
2410,-156.250000
2411,-156.250000
2412,-156.250000
2413,-156.250000
2414,-156.250000
2415,-156.250000
2416,-156.250000
2417,-156.250000
2418,-156.250000
2419,-156.250000
2420,-156.250000
2421,-156.250000
2422,-156.250000
2423,-156.250000
2424,-156.250000
2425,-156.250000
2426,-156.250000
2427,-156.250000
2428,-156.250000
2429,-156.250000
2430,-156.250000
2431,-154.296875
2432,-154.296875
2433,-154.296875
2434,-154.296875
2435,-154.296875
2436,-156.250000
2437,-154.296875
2438,-154.296875
2439,-154.296875
2440,-154.296875
2441,-154.296875
2442,-154.296875
2443,-154.296875
2444,-154.296875
2445,-154.296875
2446,-154.296875
2447,-154.296875
2448,-152.343750
2449,-154.296875
2450,-152.343750
2451,-152.343750
2452,-154.296875
2453,-154.296875
2454,-152.343750
2455,-152.343750
2456,-152.343750
2457,-152.343750
2458,-152.343750
2459,-152.343750
2460,-152.343750
2461,-152.343750
2462,-152.343750
2463,-152.343750
2464,-150.390625
2465,-152.343750
2466,-150.390625
2467,-150.390625
2468,-150.390625
2469,-150.390625
2470,-150.390625
2471,-150.390625
2472,-150.390625
2473,-150.390625
2474,-150.390625
2475,-150.390625
2476,-148.437500
2477,-148.437500
2478,-148.437500
2479,-148.437500
2480,-148.437500
2481,-148.437500
2482,-148.437500
2483,-148.437500
2484,-148.437500
2485,-148.437500
2486,-148.437500
2487,-148.437500
2488,-148.437500
2489,-148.437500
2490,-146.484375
2491,-146.484375
2492,-146.484375
2493,-146.484375
2494,-146.484375
2495,-146.484375
2496,-146.484375
2497,-146.484375
2498,-146.484375
2499,-144.531250
2500,-144.531250
2501,-144.531250
2502,-144.531250
2503,-144.531250
2504,-144.531250
2505,-144.531250
2506,-144.531250
2507,-144.531250
2508,-144.531250
2509,-144.531250
2510,-142.578125
2511,-142.578125
2512,-142.578125
2513,-142.578125
2514,-142.578125
2515,-142.578125
2516,-142.578125
2517,-142.578125
2518,-140.625000
2519,-140.625000
2520,-140.625000
2521,-140.625000
2522,-140.625000
2523,-140.625000
2524,-140.625000
2525,-140.625000
2526,-140.625000
2527,-140.625000
2528,-138.671875
2529,-138.671875
2530,-138.671875
2531,-138.671875
2532,-138.671875
2533,-138.671875
2534,-138.671875
2535,-138.671875
2536,-138.671875
2537,-136.718750
2538,-136.718750
2539,-136.718750
2540,-136.718750
2541,-136.718750
2542,-136.718750
2543,-136.718750
2544,-136.718750
2545,-134.765625
2546,-134.765625
2547,-134.765625
2548,-134.765625
2549,-134.765625
2550,-134.765625
2551,-134.765625
2552,-132.812500
2553,-132.812500
2554,-132.812500
2555,-132.812500
2556,-132.812500
2557,-132.812500
2558,-132.812500
2559,-132.812500
2560,-130.859375
2561,-130.859375
2562,-128.906250
2563,-130.859375
2564,-130.859375
2565,-130.859375
2566,-128.906250
2567,-128.906250
2568,-128.906250
2569,-128.906250
2570,-128.906250
2571,-128.906250
2572,-128.906250
2573,-126.953125
2574,-126.953125
2575,-126.953125
2576,-126.953125
2577,-126.953125
2578,-126.953125
2579,-125.000000
2580,-125.000000
2581,-125.000000
2582,-125.000000
2583,-125.000000
2584,-125.000000
2585,-125.000000
2586,-123.046875
2587,-123.046875
2588,-123.046875
2589,-123.046875
2590,-123.046875
2591,-123.046875
2592,-123.046875
2593,-121.093750
2594,-121.093750
2595,-121.093750
2596,-121.093750
2597,-119.140625
2598,-119.140625
2599,-119.140625
2600,-119.140625
2601,-119.140625
2602,-117.187500
2603,-119.140625
2604,-117.187500
2605,-117.187500
2606,-117.187500
2607,-117.187500
2608,-117.187500
2609,-115.234375
2610,-115.234375
2611,-115.234375
2612,-115.234375
2613,-115.234375
2614,-115.234375
2615,-113.281250
2616,-113.281250
2617,-113.281250
2618,-113.281250
2619,-111.328125
2620,-111.328125
2621,-111.328125
2622,-111.328125
2623,-111.328125
2624,-111.328125
2625,-111.328125
2626,-109.375000
2627,-109.375000
2628,-109.375000
2629,-107.421875
2630,-107.421875
2631,-107.421875
2632,-107.421875
2633,-107.421875
2634,-107.421875
2635,-107.421875
2636,-107.421875
2637,-105.468750
2638,-105.468750
2639,-105.468750
2640,-105.468750
2641,-103.515625
2642,-103.515625
2643,-103.515625
2644,-103.515625
2645,-103.515625
2646,-103.515625
2647,-101.562500
2648,-101.562500
2649,-101.562500
2650,-101.562500
2651,-101.562500
2652,-99.609375
2653,-99.609375
2654,-99.609375
2655,-99.609375
2656,-99.609375
2657,-99.609375
2658,-97.656250
2659,-97.656250
2660,-97.656250
2661,-97.656250
2662,-97.656250
2663,-97.656250
2664,-95.703125
2665,-95.703125
2666,-95.703125
2667,-95.703125
2668,-93.750000
2669,-93.750000
2670,-93.750000
2671,-93.750000
2672,-93.750000
2673,-93.750000
2674,-91.796875
2675,-91.796875
2676,-91.796875
2677,-91.796875
2678,-89.843750
2679,-89.843750
2680,-89.843750
2681,-89.843750
2682,-87.890625
2683,-87.890625
2684,-87.890625
2685,-87.890625
2686,-87.890625
2687,-87.890625
2688,-85.937500
2689,-85.937500
2690,-85.937500
2691,-85.937500
2692,-83.984375
2693,-85.937500
2694,-83.984375
2695,-83.984375
2696,-83.984375
2697,-82.031250
2698,-82.031250
2699,-82.031250
2700,-82.031250
2701,-82.031250
2702,-80.078125
2703,-80.078125
2704,-80.078125
2705,-80.078125
2706,-80.078125
2707,-78.125000
2708,-78.125000
2709,-78.125000
2710,-78.125000
2711,-78.125000
2712,-76.171875
2713,-76.171875
2714,-76.171875
2715,-76.171875
2716,-76.171875
2717,-74.218750
2718,-74.218750
2719,-74.218750
2720,-74.218750
2721,-74.218750
2722,-72.265625
2723,-72.265625
2724,-72.265625
2725,-70.312500
2726,-70.312500
2727,-70.312500
2728,-70.312500
2729,-70.312500
2730,-68.359375
2731,-68.359375
2732,-68.359375
2733,-68.359375
2734,-68.359375
2735,-66.406250
2736,-66.406250
2737,-66.406250
2738,-66.406250
2739,-64.453125
2740,-64.453125
2741,-64.453125
2742,-64.453125
2743,-64.453125
2744,-62.500000
2745,-62.500000
2746,-62.500000
2747,-62.500000
2748,-62.500000
2749,-60.546875
2750,-60.546875
2751,-60.546875
2752,-60.546875
2753,-60.546875
2754,-58.593750
2755,-58.593750
2756,-58.593750
2757,-58.593750
2758,-58.593750
2759,-56.640625
2760,-56.640625
2761,-56.640625
2762,-54.687500
2763,-54.687500
2764,-54.687500
2765,-54.687500
2766,-54.687500
2767,-54.687500
2768,-52.734375
2769,-52.734375
2770,-52.734375
2771,-52.734375
2772,-52.734375
2773,-50.781250
2774,-50.781250
2775,-50.781250
2776,-50.781250
2777,-50.781250
2778,-48.828125
2779,-48.828125
2780,-48.828125
2781,-48.828125
2782,-46.875000
2783,-46.875000
2784,-46.875000
2785,-46.875000
2786,-46.875000
2787,-46.875000
2788,-44.921875
2789,-44.921875
2790,-44.921875
2791,-44.921875
2792,-42.968750
2793,-42.968750
2794,-42.968750
2795,-42.968750
2796,-42.968750
2797,-42.968750
2798,-41.015625
2799,-41.015625
2800,-41.015625
2801,-41.015625
2802,-41.015625
2803,-41.015625
2804,-39.062500
2805,-39.062500
2806,-39.062500
2807,-39.062500
2808,-37.109375
2809,-37.109375
2810,-37.109375
2811,-37.109375
2812,-37.109375
2813,-35.156250
2814,-35.156250
2815,-35.156250
2816,-35.156250
2817,-35.156250
2818,-35.156250
2819,-33.203125
2820,-33.203125
2821,-33.203125
2822,-33.203125
2823,-33.203125
2824,-33.203125
2825,-31.250000
2826,-31.250000
2827,-31.250000
2828,-31.250000
2829,-31.250000
2830,-29.296875
2831,-29.296875
2832,-29.296875
2833,-29.296875
2834,-27.343750
2835,-29.296875
2836,-27.343750
2837,-27.343750
2838,-27.343750
2839,-27.343750
2840,-25.390625
2841,-27.343750
2842,-25.390625
2843,-25.390625
2844,-25.390625
2845,-25.390625
2846,-25.390625
2847,-25.390625
2848,-23.437500
2849,-23.437500
2850,-23.437500
2851,-23.437500
2852,-23.437500
2853,-23.437500
2854,-21.484375
2855,-21.484375
2856,-21.484375
2857,-21.484375
2858,-21.484375
2859,-19.531250
2860,-19.531250
2861,-19.531250
2862,-19.531250
2863,-19.531250
2864,-19.531250
2865,-17.578125
2866,-17.578125
2867,-17.578125
2868,-17.578125
2869,-17.578125
2870,-17.578125
2871,-17.578125
2872,-15.625000
2873,-15.625000
2874,-15.625000
2875,-15.625000
2876,-15.625000
2877,-15.625000
2878,-13.671875
2879,-13.671875
2880,-13.671875
2881,-13.671875
2882,-13.671875
2883,-13.671875
2884,-13.671875
2885,-13.671875
2886,-13.671875
2887,-13.671875
2888,-11.718750
2889,-11.718750
2890,-11.718750
2891,-11.718750
2892,-11.718750
2893,-11.718750
2894,-11.718750
2895,-9.765625
2896,-9.765625
2897,-9.765625
2898,-9.765625
2899,-9.765625
2900,-9.765625
2901,-9.765625
2902,-9.765625
2903,-9.765625
2904,-9.765625
2905,-7.812500
2906,-9.765625
2907,-9.765625
2908,-7.812500
2909,-7.812500
2910,-7.812500
2911,-7.812500
2912,-7.812500
2913,-5.859375
2914,-7.812500
2915,-7.812500
2916,-5.859375
2917,-5.859375
2918,-5.859375
2919,-5.859375
2920,-5.859375
2921,-5.859375
2922,-5.859375
2923,-5.859375
2924,-5.859375
2925,-5.859375
2926,-5.859375
2927,-5.859375
2928,-5.859375
2929,-3.906250
2930,-3.906250
2931,-3.906250
2932,-3.906250
2933,-3.906250
2934,-3.906250
2935,-3.906250
2936,-3.906250
2937,-3.906250
2938,-3.906250
2939,-3.906250
2940,-3.906250
2941,-1.953125
2942,-1.953125
2943,-1.953125
2944,-1.953125
2945,-1.953125
2946,-1.953125
2947,-3.906250
2948,-1.953125
2949,-1.953125
2950,-1.953125
2951,-1.953125
2952,-1.953125
2953,-1.953125
2954,-1.953125
2955,-1.953125
2956,-1.953125
2957,-1.953125
2958,-1.953125
2959,-1.953125
2960,-1.953125
2961,-1.953125
2962,-1.953125
2963,-1.953125
2964,0.000000
2965,-1.953125
2966,-1.953125
2967,-1.953125
2968,-1.953125
2969,-1.953125
2970,-1.953125
2971,-1.953125
2972,0.000000
2973,0.000000
2974,0.000000
2975,0.000000
2976,0.000000
2977,-1.953125
2978,-1.953125
2979,-1.953125
2980,0.000000
2981,0.000000
2982,0.000000
2983,0.000000
2984,0.000000
2985,0.000000
2986,0.000000
2987,0.000000
2988,0.000000
2989,0.000000
2990,0.000000
2991,0.000000
2992,0.000000
2993,0.000000
2994,0.000000
2995,-1.953125
2996,0.000000
2997,0.000000
2998,0.000000
2999,0.000000
3000,0.000000
3001,-1.953125
3002,0.000000
3003,-1.953125
3004,0.000000
3005,-1.953125
3006,-1.953125
3007,-1.953125
3008,-1.953125
3009,-1.953125
3010,-1.953125
3011,-1.953125
3012,-1.953125
3013,-1.953125
3014,-1.953125
3015,-1.953125
3016,-1.953125
3017,-1.953125
3018,-1.953125
3019,-1.953125
3020,-1.953125
3021,-1.953125
3022,-1.953125
3023,-1.953125
3024,-1.953125
3025,-3.906250
3026,-3.906250
3027,-1.953125
3028,-3.906250
3029,-3.906250
3030,-3.906250
3031,-3.906250
3032,-3.906250
3033,-3.906250
3034,-3.906250
3035,-3.906250
3036,-3.906250
3037,-3.906250
3038,-5.859375
3039,-3.906250
3040,-5.859375
3041,-5.859375
3042,-5.859375
3043,-5.859375
3044,-5.859375
3045,-5.859375
3046,-5.859375
3047,-5.859375
3048,-5.859375
3049,-5.859375
3050,-7.812500
3051,-7.812500
3052,-7.812500
3053,-7.812500
3054,-7.812500
3055,-7.812500
3056,-7.812500
3057,-7.812500
3058,-7.812500
3059,-7.812500
3060,-9.765625
3061,-9.765625
3062,-9.765625
3063,-9.765625
3064,-7.812500
3065,-9.765625
3066,-9.765625
3067,-9.765625
3068,-9.765625
3069,-9.765625
3070,-9.765625
3071,-11.718750
3072,-11.718750
3073,-11.718750
3074,-11.718750
3075,-11.718750
3076,-11.718750
3077,-11.718750
3078,-11.718750
3079,-11.718750
3080,-13.671875
3081,-13.671875
3082,-13.671875
3083,-13.671875
3084,-15.625000
3085,-15.625000
3086,-15.625000
3087,-13.671875
3088,-15.625000
3089,-15.625000
3090,-15.625000
3091,-15.625000
3092,-15.625000
3093,-15.625000
3094,-17.578125
3095,-17.578125
3096,-17.578125
3097,-17.578125
3098,-17.578125
3099,-19.531250
3100,-17.578125
3101,-17.578125
3102,-19.531250
3103,-19.531250
3104,-19.531250
3105,-19.531250
3106,-19.531250
3107,-21.484375
3108,-21.484375
3109,-21.484375
3110,-21.484375
3111,-21.484375
3112,-21.484375
3113,-23.437500
3114,-23.437500
3115,-23.437500
3116,-23.437500
3117,-23.437500
3118,-23.437500
3119,-25.390625
3120,-25.390625
3121,-25.390625
3122,-25.390625
3123,-25.390625
3124,-25.390625
3125,-25.390625
3126,-27.343750
3127,-27.343750
3128,-27.343750
3129,-27.343750
3130,-27.343750
3131,-27.343750
3132,-27.343750
3133,-29.296875
3134,-29.296875
3135,-29.296875
3136,-29.296875
3137,-31.250000
3138,-31.250000
3139,-31.250000
3140,-31.250000
3141,-31.250000
3142,-31.250000
3143,-31.250000
3144,-33.203125
3145,-33.203125
3146,-33.203125
3147,-33.203125
3148,-35.156250
3149,-35.156250
3150,-35.156250
3151,-35.156250
3152,-35.156250
3153,-35.156250
3154,-37.109375
3155,-37.109375
3156,-37.109375
3157,-37.109375
3158,-37.109375
3159,-39.062500
3160,-39.062500
3161,-39.062500
3162,-39.062500
3163,-41.015625
3164,-41.015625
3165,-41.015625
3166,-41.015625
3167,-41.015625
3168,-41.015625
3169,-42.968750
3170,-42.968750
3171,-42.968750
3172,-42.968750
3173,-42.968750
3174,-44.921875
3175,-44.921875
3176,-44.921875
3177,-44.921875
3178,-44.921875
3179,-46.875000
3180,-46.875000
3181,-46.875000
3182,-46.875000
3183,-46.875000
3184,-48.828125
3185,-48.828125
3186,-48.828125
3187,-48.828125
3188,-50.781250
3189,-50.781250
3190,-50.781250
3191,-52.734375
3192,-52.734375
3193,-52.734375
3194,-52.734375
3195,-52.734375
3196,-52.734375
3197,-54.687500
3198,-54.687500
3199,-54.687500
3200,-54.687500
3201,-56.640625
3202,-56.640625
3203,-56.640625
3204,-56.640625
3205,-56.640625
3206,-56.640625
3207,-58.593750
3208,-58.593750
3209,-58.593750
3210,-58.593750
3211,-58.593750
3212,-60.546875
3213,-60.546875
3214,-60.546875
3215,-60.546875
3216,-60.546875
3217,-62.500000
3218,-62.500000
3219,-62.500000
3220,-62.500000
3221,-62.500000
3222,-62.500000
3223,-64.453125
3224,-64.453125
3225,-66.406250
3226,-66.406250
3227,-66.406250
3228,-66.406250
3229,-66.406250
3230,-68.359375
3231,-68.359375
3232,-68.359375
3233,-68.359375
3234,-68.359375
3235,-70.312500
3236,-70.312500
3237,-70.312500
3238,-70.312500
3239,-72.265625
3240,-72.265625
3241,-72.265625
3242,-72.265625
3243,-72.265625
3244,-72.265625
3245,-74.218750
3246,-74.218750
3247,-74.218750
3248,-74.218750
3249,-76.171875
3250,-76.171875
3251,-76.171875
3252,-76.171875
3253,-76.171875
3254,-78.125000
3255,-78.125000
3256,-78.125000
3257,-78.125000
3258,-78.125000
3259,-80.078125
3260,-80.078125
3261,-80.078125
3262,-80.078125
3263,-80.078125
3264,-82.031250
3265,-82.031250
3266,-82.031250
3267,-82.031250
3268,-82.031250
3269,-83.984375
3270,-83.984375
3271,-83.984375
3272,-83.984375
3273,-85.937500
3274,-85.937500
3275,-85.937500
3276,-85.937500
3277,-87.890625
3278,-87.890625
3279,-87.890625
3280,-87.890625
3281,-87.890625
3282,-87.890625
3283,-89.843750
3284,-89.843750
3285,-89.843750
3286,-89.843750
3287,-91.796875
3288,-91.796875
3289,-91.796875
3290,-91.796875
3291,-91.796875
3292,-91.796875
3293,-93.750000
3294,-93.750000
3295,-93.750000
3296,-93.750000
3297,-95.703125
3298,-95.703125
3299,-95.703125
3300,-95.703125
3301,-95.703125
3302,-97.656250
3303,-97.656250
3304,-97.656250
3305,-97.656250
3306,-97.656250
3307,-99.609375
3308,-99.609375
3309,-99.609375
3310,-99.609375
3311,-99.609375
3312,-101.562500
3313,-101.562500
3314,-99.609375
3315,-103.515625
3316,-103.515625
3317,-103.515625
3318,-103.515625
3319,-103.515625
3320,-103.515625
3321,-103.515625
3322,-105.468750
3323,-105.468750
3324,-105.468750
3325,-105.468750
3326,-107.421875
3327,-107.421875
3328,-107.421875
3329,-107.421875
3330,-107.421875
3331,-107.421875
3332,-109.375000
3333,-109.375000
3334,-109.375000
3335,-109.375000
3336,-111.328125
3337,-111.328125
3338,-111.328125
3339,-111.328125
3340,-111.328125
3341,-111.328125
3342,-113.281250
3343,-113.281250
3344,-113.281250
3345,-113.281250
3346,-113.281250
3347,-113.281250
3348,-115.234375
3349,-115.234375
3350,-115.234375
3351,-115.234375
3352,-115.234375
3353,-117.187500
3354,-115.234375
3355,-117.187500
3356,-117.187500
3357,-117.187500
3358,-117.187500
3359,-117.187500
3360,-119.140625
3361,-119.140625
3362,-119.140625
3363,-119.140625
3364,-123.046875
3365,-119.140625
3366,-121.093750
3367,-121.093750
3368,-121.093750
3369,-121.093750
3370,-121.093750
3371,-123.046875
3372,-123.046875
3373,-123.046875
3374,-123.046875
3375,-123.046875
3376,-125.000000
3377,-125.000000
3378,-125.000000
3379,-125.000000
3380,-125.000000
3381,-125.000000
3382,-125.000000
3383,-126.953125
3384,-126.953125
3385,-126.953125
3386,-128.906250
3387,-126.953125
3388,-128.906250
3389,-128.906250
3390,-128.906250
3391,-128.906250
3392,-128.906250
3393,-128.906250
3394,-130.859375
3395,-130.859375
3396,-130.859375
3397,-130.859375
3398,-130.859375
3399,-130.859375
3400,-130.859375
3401,-132.812500
3402,-132.812500
3403,-132.812500
3404,-132.812500
3405,-132.812500
3406,-132.812500
3407,-132.812500
3408,-134.765625
3409,-134.765625
3410,-134.765625
3411,-134.765625
3412,-134.765625
3413,-134.765625
3414,-134.765625
3415,-136.718750
3416,-136.718750
3417,-136.718750
3418,-136.718750
3419,-136.718750
3420,-136.718750
3421,-138.671875
3422,-138.671875
3423,-138.671875
3424,-138.671875
3425,-138.671875
3426,-138.671875
3427,-140.625000
3428,-138.671875
3429,-140.625000
3430,-140.625000
3431,-140.625000
3432,-140.625000
3433,-140.625000
3434,-140.625000
3435,-142.578125
3436,-142.578125
3437,-142.578125
3438,-142.578125
3439,-142.578125
3440,-142.578125
3441,-142.578125
3442,-144.531250
3443,-144.531250
3444,-144.531250
3445,-144.531250
3446,-144.531250
3447,-144.531250
3448,-144.531250
3449,-144.531250
3450,-144.531250
3451,-146.484375
3452,-146.484375
3453,-146.484375
3454,-146.484375
3455,-146.484375
3456,-146.484375
3457,-146.484375
3458,-146.484375
3459,-148.437500
3460,-148.437500
3461,-148.437500
3462,-148.437500
3463,-148.437500
3464,-148.437500
3465,-148.437500
3466,-148.437500
3467,-148.437500
3468,-148.437500
3469,-150.390625
3470,-148.437500
3471,-150.390625
3472,-148.437500
3473,-150.390625
3474,-150.390625
3475,-150.390625
3476,-150.390625
3477,-150.390625
3478,-150.390625
3479,-150.390625
3480,-150.390625
3481,-152.343750
3482,-150.390625
3483,-152.343750
3484,-152.343750
3485,-152.343750
3486,-152.343750
3487,-152.343750
3488,-152.343750
3489,-152.343750
3490,-152.343750
3491,-152.343750
3492,-152.343750
3493,-152.343750
3494,-152.343750
3495,-152.343750
3496,-154.296875
3497,-154.296875
3498,-154.296875
3499,-154.296875
3500,-154.296875
3501,-154.296875
3502,-154.296875
3503,-154.296875
3504,-154.296875
3505,-154.296875
3506,-154.296875
3507,-154.296875
3508,-154.296875
3509,-154.296875
3510,-154.296875
3511,-154.296875
3512,-154.296875
3513,-156.250000
3514,-154.296875
3515,-154.296875
3516,-154.296875
3517,-156.250000
3518,-156.250000
3519,-156.250000
3520,-156.250000
3521,-156.250000
3522,-156.250000
3523,-156.250000
3524,-156.250000
3525,-156.250000
3526,-156.250000
3527,-156.250000
3528,-156.250000
3529,-156.250000
3530,-156.250000
3531,-156.250000
3532,-156.250000
3533,-156.250000
3534,-156.250000
3535,-156.250000
3536,-156.250000
3537,-156.250000
3538,-156.250000
3539,-156.250000
3540,-156.250000
3541,-156.250000
3542,-156.250000
3543,-156.250000
3544,-156.250000
3545,-156.250000
3546,-156.250000
3547,-156.250000
3548,-156.250000
3549,-156.250000
3550,-156.250000
3551,-156.250000
3552,-156.250000
3553,-156.250000
3554,-156.250000
3555,-156.250000
3556,-156.250000
3557,-156.250000
3558,-156.250000
3559,-156.250000
3560,-156.250000
3561,-156.250000
3562,-156.250000
3563,-156.250000
3564,-156.250000
3565,-156.250000
3566,-156.250000
3567,-156.250000
3568,-156.250000
3569,-156.250000
3570,-156.250000
3571,-156.250000
3572,-156.250000
3573,-156.250000
3574,-156.250000
3575,-156.250000
3576,-156.250000
3577,-156.250000
3578,-156.250000
3579,-156.250000
3580,-156.250000
3581,-156.250000
3582,-156.250000
3583,-156.250000
3584,-156.250000
3585,-154.296875
3586,-154.296875
3587,-154.296875
3588,-156.250000
3589,-156.250000
3590,-154.296875
3591,-154.296875
3592,-154.296875
3593,-154.296875
3594,-154.296875
3595,-154.296875
3596,-154.296875
3597,-154.296875
3598,-154.296875
3599,-154.296875
3600,-154.296875
3601,-154.296875
3602,-154.296875
3603,-154.296875
3604,-154.296875
3605,-154.296875
3606,-152.343750
3607,-154.296875
3608,-152.343750
3609,-152.343750
3610,-152.343750
3611,-152.343750
3612,-152.343750
3613,-152.343750
3614,-152.343750
3615,-152.343750
3616,-152.343750
3617,-152.343750
3618,-152.343750
3619,-152.343750
3620,-152.343750
3621,-152.343750
3622,-150.390625
3623,-150.390625
3624,-150.390625
3625,-150.390625
3626,-150.390625
3627,-150.390625
3628,-150.390625
3629,-150.390625
3630,-150.390625
3631,-150.390625
3632,-150.390625
3633,-150.390625
3634,-148.437500
3635,-148.437500
3636,-148.437500
3637,-148.437500
3638,-148.437500
3639,-148.437500
3640,-148.437500
3641,-148.437500
3642,-148.437500
3643,-148.437500
3644,-148.437500
3645,-146.484375
3646,-146.484375
3647,-146.484375
3648,-146.484375
3649,-146.484375
3650,-146.484375
3651,-146.484375
3652,-146.484375
3653,-146.484375
3654,-146.484375
3655,-146.484375
3656,-144.531250
3657,-144.531250
3658,-144.531250
3659,-144.531250
3660,-144.531250
3661,-144.531250
3662,-144.531250
3663,-144.531250
3664,-144.531250
3665,-144.531250
3666,-142.578125
3667,-142.578125
3668,-142.578125
3669,-142.578125
3670,-142.578125
3671,-142.578125
3672,-142.578125
3673,-142.578125
3674,-140.625000
3675,-142.578125
3676,-140.625000
3677,-140.625000
3678,-140.625000
3679,-140.625000
3680,-140.625000
3681,-140.625000
3682,-140.625000
3683,-140.625000
3684,-140.625000
3685,-138.671875
3686,-138.671875
3687,-138.671875
3688,-138.671875
3689,-138.671875
3690,-138.671875
3691,-138.671875
3692,-136.718750
3693,-136.718750
3694,-136.718750
3695,-136.718750
3696,-136.718750
3697,-136.718750
3698,-136.718750
3699,-136.718750
3700,-136.718750
3701,-136.718750
3702,-134.765625
3703,-134.765625
3704,-134.765625
3705,-134.765625
3706,-134.765625
3707,-134.765625
3708,-134.765625
3709,-134.765625
3710,-134.765625
3711,-132.812500
3712,-132.812500
3713,-132.812500
3714,-132.812500
3715,-132.812500
3716,-132.812500
3717,-132.812500
3718,-130.859375
3719,-130.859375
3720,-130.859375
3721,-130.859375
3722,-130.859375
3723,-130.859375
3724,-128.906250
3725,-128.906250
3726,-128.906250
3727,-128.906250
3728,-128.906250
3729,-128.906250
3730,-128.906250
3731,-128.906250
3732,-126.953125
3733,-126.953125
3734,-126.953125
3735,-126.953125
3736,-126.953125
3737,-126.953125
3738,-126.953125
3739,-126.953125
3740,-125.000000
3741,-125.000000
3742,-125.000000
3743,-125.000000
3744,-123.046875
3745,-123.046875
3746,-123.046875
3747,-123.046875
3748,-123.046875
3749,-123.046875
3750,-121.093750
3751,-121.093750
3752,-121.093750
3753,-121.093750
3754,-121.093750
3755,-121.093750
3756,-121.093750
3757,-119.140625
3758,-119.140625
3759,-119.140625
3760,-119.140625
3761,-119.140625
3762,-117.187500
3763,-117.187500
3764,-117.187500
3765,-117.187500
3766,-117.187500
3767,-117.187500
3768,-115.234375
3769,-115.234375
3770,-115.234375
3771,-115.234375
3772,-115.234375
3773,-113.281250
3774,-113.281250
3775,-113.281250
3776,-113.281250
3777,-113.281250
3778,-111.328125
3779,-111.328125
3780,-111.328125
3781,-111.328125
3782,-109.375000
3783,-109.375000
3784,-109.375000
3785,-109.375000
3786,-109.375000
3787,-109.375000
3788,-109.375000
3789,-109.375000
3790,-107.421875
3791,-107.421875
3792,-107.421875
3793,-107.421875
3794,-107.421875
3795,-105.468750
3796,-105.468750
3797,-105.468750
3798,-105.468750
3799,-105.468750
3800,-105.468750
3801,-103.515625
3802,-103.515625
3803,-103.515625
3804,-103.515625
3805,-101.562500
3806,-101.562500
3807,-101.562500
3808,-101.562500
3809,-101.562500
3810,-101.562500
3811,-101.562500
3812,-99.609375
3813,-99.609375
3814,-99.609375
3815,-99.609375
3816,-97.656250
3817,-95.703125
3818,-97.656250
3819,-97.656250
3820,-95.703125
3821,-95.703125
3822,-95.703125
3823,-95.703125
3824,-95.703125
3825,-95.703125
3826,-93.750000
3827,-93.750000
3828,-93.750000
3829,-93.750000
3830,-93.750000
3831,-93.750000
3832,-91.796875
3833,-93.750000
3834,-91.796875
3835,-91.796875
3836,-89.843750
3837,-89.843750
3838,-89.843750
3839,-89.843750
3840,-89.843750
3841,-89.843750
3842,-89.843750
3843,-87.890625
3844,-87.890625
3845,-87.890625
3846,-87.890625
3847,-87.890625
3848,-85.937500
3849,-85.937500
3850,-85.937500
3851,-85.937500
3852,-83.984375
3853,-83.984375
3854,-83.984375
3855,-83.984375
3856,-82.031250
3857,-82.031250
3858,-82.031250
3859,-82.031250
3860,-82.031250
3861,-82.031250
3862,-82.031250
3863,-80.078125
3864,-80.078125
3865,-80.078125
3866,-78.125000
3867,-78.125000
3868,-78.125000
3869,-78.125000
3870,-78.125000
3871,-78.125000
3872,-78.125000
3873,-76.171875
3874,-76.171875
3875,-76.171875
3876,-74.218750
3877,-74.218750
3878,-74.218750
3879,-74.218750
3880,-74.218750
3881,-72.265625
3882,-72.265625
3883,-72.265625
3884,-72.265625
3885,-72.265625
3886,-70.312500
3887,-70.312500
3888,-70.312500
3889,-70.312500
3890,-70.312500
3891,-68.359375
3892,-68.359375
3893,-68.359375
3894,-68.359375
3895,-66.406250
3896,-66.406250
3897,-66.406250
3898,-66.406250
3899,-66.406250
3900,-64.453125
3901,-64.453125
3902,-64.453125
3903,-64.453125
3904,-62.500000
3905,-62.500000
3906,-62.500000
3907,-62.500000
3908,-62.500000
3909,-60.546875
3910,-60.546875
3911,-60.546875
3912,-60.546875
3913,-60.546875
3914,-58.593750
3915,-58.593750
3916,-58.593750
3917,-58.593750
3918,-56.640625
3919,-56.640625
3920,-56.640625
3921,-56.640625
3922,-56.640625
3923,-54.687500
3924,-54.687500
3925,-54.687500
3926,-54.687500
3927,-54.687500
3928,-52.734375
3929,-52.734375
3930,-52.734375
3931,-52.734375
3932,-50.781250
3933,-50.781250
3934,-50.781250
3935,-50.781250
3936,-50.781250
3937,-50.781250
3938,-48.828125
3939,-48.828125
3940,-48.828125
3941,-48.828125
3942,-48.828125
3943,-46.875000
3944,-46.875000
3945,-46.875000
3946,-46.875000
3947,-44.921875
3948,-44.921875
3949,-44.921875
3950,-44.921875
3951,-44.921875
3952,-44.921875
3953,-42.968750
3954,-42.968750
3955,-42.968750
3956,-42.968750
3957,-42.968750
3958,-42.968750
3959,-41.015625
3960,-41.015625
3961,-41.015625
3962,-39.062500
3963,-39.062500
3964,-39.062500
3965,-39.062500
3966,-39.062500
3967,-39.062500
3968,-37.109375
3969,-39.062500
3970,-37.109375
3971,-37.109375
3972,-35.156250
3973,-35.156250
3974,-35.156250
3975,-35.156250
3976,-35.156250
3977,-35.156250
3978,-35.156250
3979,-33.203125
3980,-33.203125
3981,-33.203125
3982,-33.203125
3983,-33.203125
3984,-31.250000
3985,-31.250000
3986,-31.250000
3987,-31.250000
3988,-31.250000
3989,-31.250000
3990,-29.296875
3991,-29.296875
3992,-29.296875
3993,-29.296875
3994,-29.296875
3995,-27.343750
3996,-27.343750
3997,-27.343750
3998,-27.343750
3999,-27.343750
4000,-27.343750
4001,-25.390625
4002,-25.390625
4003,-25.390625
4004,-25.390625
4005,-25.390625
4006,-23.437500
4007,-25.390625
4008,-23.437500
4009,-23.437500
4010,-23.437500
4011,-23.437500
4012,-23.437500
4013,-23.437500
4014,-21.484375
4015,-21.484375
4016,-21.484375
4017,-21.484375
4018,-21.484375
4019,-19.531250
4020,-19.531250
4021,-19.531250
4022,-19.531250
4023,-19.531250
4024,-19.531250
4025,-19.531250
4026,-19.531250
4027,-17.578125
4028,-17.578125
4029,-15.625000
4030,-17.578125
4031,-17.578125
4032,-17.578125
4033,-15.625000
4034,-15.625000
4035,-15.625000
4036,-15.625000
4037,-15.625000
4038,-13.671875
4039,-15.625000
4040,-13.671875
4041,-13.671875
4042,-13.671875
4043,-13.671875
4044,-13.671875
4045,-13.671875
4046,-13.671875
4047,-13.671875
4048,-11.718750
4049,-11.718750
4050,-11.718750
4051,-11.718750
4052,-11.718750
4053,-11.718750
4054,-9.765625
4055,-9.765625
4056,-9.765625
4057,-9.765625
4058,-9.765625
4059,-9.765625
4060,-9.765625
4061,-9.765625
4062,-7.812500
4063,-9.765625
4064,-7.812500
4065,-7.812500
4066,-7.812500
4067,-7.812500
4068,-7.812500
4069,-7.812500
4070,-7.812500
4071,-7.812500
4072,-7.812500
4073,-5.859375
4074,-5.859375
4075,-5.859375
4076,-5.859375
4077,-5.859375
4078,-5.859375
4079,-5.859375
4080,-5.859375
4081,-5.859375
4082,-5.859375
4083,-5.859375
4084,-5.859375
4085,-3.906250
4086,-3.906250
4087,-5.859375
4088,-3.906250
4089,-3.906250
4090,-3.906250
4091,-3.906250
4092,-3.906250
4093,-3.906250
4094,-3.906250
4095,-3.906250
4096,-3.906250
4097,-3.906250
4098,-3.906250
4099,-3.906250
4100,-1.953125
4101,-1.953125
4102,-1.953125
4103,-1.953125
4104,-1.953125
4105,-1.953125
4106,-1.953125
4107,-1.953125
4108,-1.953125
4109,-1.953125
4110,-1.953125
4111,-1.953125
4112,-1.953125
4113,-1.953125
4114,-1.953125
4115,-1.953125
4116,-1.953125
4117,-1.953125
4118,-1.953125
4119,-1.953125
4120,-1.953125
4121,-1.953125
4122,-1.953125
4123,-1.953125
4124,-1.953125
4125,-1.953125
4126,-1.953125
4127,-1.953125
4128,0.000000
4129,0.000000
4130,0.000000
4131,0.000000
4132,-1.953125
4133,-1.953125
4134,0.000000
4135,-1.953125
4136,0.000000
4137,0.000000
4138,0.000000
4139,0.000000
4140,0.000000
4141,0.000000
4142,0.000000
4143,0.000000
4144,0.000000
4145,0.000000
4146,0.000000
4147,0.000000
4148,0.000000
4149,0.000000
4150,0.000000
4151,0.000000
4152,0.000000
4153,-1.953125
4154,0.000000
4155,-1.953125
4156,0.000000
4157,0.000000
4158,-1.953125
4159,0.000000
4160,0.000000
4161,-1.953125
4162,-1.953125
4163,0.000000
4164,-1.953125
4165,-1.953125
4166,-1.953125
4167,-1.953125
4168,-1.953125
4169,-1.953125
4170,-1.953125
4171,-1.953125
4172,-1.953125
4173,-1.953125
4174,-1.953125
4175,-1.953125
4176,-1.953125
4177,-1.953125
4178,-1.953125
4179,-1.953125
4180,-1.953125
4181,-1.953125
4182,-1.953125
4183,-1.953125
4184,-1.953125
4185,-1.953125
4186,-1.953125
4187,-3.906250
4188,-3.906250
4189,-3.906250
4190,-3.906250
4191,-3.906250
4192,-3.906250
4193,-3.906250
4194,-3.906250
4195,-3.906250
4196,-3.906250
4197,-3.906250
4198,-3.906250
4199,-5.859375
4200,-5.859375
4201,-5.859375
4202,-5.859375
4203,-5.859375
4204,-5.859375
4205,-5.859375
4206,-5.859375
4207,-5.859375
4208,-7.812500
4209,-5.859375
4210,-7.812500
4211,-7.812500
4212,-7.812500
4213,-7.812500
4214,-7.812500
4215,-7.812500
4216,-7.812500
4217,-7.812500
4218,-7.812500
4219,-7.812500
4220,-9.765625
4221,-9.765625
4222,-9.765625
4223,-9.765625
4224,-9.765625
4225,-9.765625
4226,-9.765625
4227,-9.765625
4228,-9.765625
4229,-9.765625
4230,-11.718750
4231,-11.718750
4232,-11.718750
4233,-11.718750
4234,-11.718750
4235,-11.718750
4236,-11.718750
4237,-13.671875
4238,-11.718750
4239,-13.671875
4240,-13.671875
4241,-13.671875
4242,-13.671875
4243,-13.671875
4244,-15.625000
4245,-15.625000
4246,-15.625000
4247,-15.625000
4248,-15.625000
4249,-15.625000
4250,-15.625000
4251,-15.625000
4252,-15.625000
4253,-17.578125
4254,-17.578125
4255,-17.578125
4256,-17.578125
4257,-17.578125
4258,-17.578125
4259,-17.578125
4260,-19.531250
4261,-19.531250
4262,-19.531250
4263,-19.531250
4264,-21.484375
4265,-19.531250
4266,-19.531250
4267,-21.484375
4268,-21.484375
4269,-21.484375
4270,-21.484375
4271,-21.484375
4272,-21.484375
4273,-23.437500
4274,-23.437500
4275,-23.437500
4276,-23.437500
4277,-23.437500
4278,-23.437500
4279,-25.390625
4280,-25.390625
4281,-25.390625
4282,-25.390625
4283,-25.390625
4284,-27.343750
4285,-25.390625
4286,-25.390625
4287,-27.343750
4288,-27.343750
4289,-27.343750
4290,-27.343750
4291,-29.296875
4292,-29.296875
4293,-29.296875
4294,-29.296875
4295,-29.296875
4296,-29.296875
4297,-29.296875
4298,-31.250000
4299,-31.250000
4300,-31.250000
4301,-31.250000
4302,-31.250000
4303,-33.203125
4304,-33.203125
4305,-33.203125
4306,-33.203125
4307,-33.203125
4308,-33.203125
4309,-35.156250
4310,-35.156250
4311,-35.156250
4312,-35.156250
4313,-37.109375
4314,-37.109375
4315,-37.109375
4316,-37.109375
4317,-37.109375
4318,-39.062500
4319,-39.062500
4320,-39.062500
4321,-39.062500
4322,-39.062500
4323,-39.062500
4324,-41.015625
4325,-41.015625
4326,-41.015625
4327,-42.968750
4328,-41.015625
4329,-42.968750
4330,-42.968750
4331,-42.968750
4332,-42.968750
4333,-42.968750
4334,-44.921875
4335,-44.921875
4336,-44.921875
4337,-44.921875
4338,-44.921875
4339,-46.875000
4340,-46.875000
4341,-46.875000
4342,-46.875000
4343,-48.828125
4344,-48.828125
4345,-48.828125
4346,-48.828125
4347,-50.781250
4348,-50.781250
4349,-50.781250
4350,-50.781250
4351,-50.781250
4352,-52.734375
4353,-52.734375
4354,-52.734375
4355,-52.734375
4356,-52.734375
4357,-52.734375
4358,-52.734375
4359,-54.687500
4360,-54.687500
4361,-54.687500
4362,-56.640625
4363,-56.640625
4364,-56.640625
4365,-56.640625
4366,-56.640625
4367,-58.593750
4368,-58.593750
4369,-58.593750
4370,-58.593750
4371,-60.546875
4372,-60.546875
4373,-60.546875
4374,-60.546875
4375,-60.546875
4376,-60.546875
4377,-62.500000
4378,-62.500000
4379,-62.500000
4380,-64.453125
4381,-64.453125
4382,-64.453125
4383,-64.453125
4384,-64.453125
4385,-64.453125
4386,-66.406250
4387,-66.406250
4388,-66.406250
4389,-68.359375
4390,-68.359375
4391,-68.359375
4392,-68.359375
4393,-68.359375
4394,-70.312500
4395,-68.359375
4396,-70.312500
4397,-70.312500
4398,-70.312500
4399,-70.312500
4400,-72.265625
4401,-72.265625
4402,-72.265625
4403,-72.265625
4404,-72.265625
4405,-74.218750
4406,-74.218750
4407,-74.218750
4408,-74.218750
4409,-76.171875
4410,-76.171875
4411,-76.171875
4412,-76.171875
4413,-76.171875
4414,-78.125000
4415,-78.125000
4416,-78.125000
4417,-78.125000
4418,-78.125000
4419,-80.078125
4420,-80.078125
4421,-80.078125
4422,-80.078125
4423,-82.031250
4424,-82.031250
4425,-82.031250
4426,-82.031250
4427,-82.031250
4428,-83.984375
4429,-83.984375
4430,-83.984375
4431,-83.984375
4432,-85.937500
4433,-85.937500
4434,-85.937500
4435,-85.937500
4436,-85.937500
4437,-87.890625
4438,-87.890625
4439,-87.890625
4440,-87.890625
4441,-89.843750
4442,-89.843750
4443,-89.843750
4444,-89.843750
4445,-91.796875
4446,-89.843750
4447,-91.796875
4448,-91.796875
4449,-91.796875
4450,-91.796875
4451,-91.796875
4452,-93.750000
4453,-93.750000
4454,-93.750000
4455,-93.750000
4456,-93.750000
4457,-95.703125
4458,-95.703125
4459,-95.703125
4460,-97.656250
4461,-97.656250
4462,-97.656250
4463,-97.656250
4464,-97.656250
4465,-97.656250
4466,-97.656250
4467,-99.609375
4468,-99.609375
4469,-101.562500
4470,-99.609375
4471,-101.562500
4472,-101.562500
4473,-101.562500
4474,-101.562500
4475,-101.562500
4476,-101.562500
4477,-103.515625
4478,-103.515625
4479,-103.515625
4480,-105.468750
4481,-105.468750
4482,-105.468750
4483,-105.468750
4484,-105.468750
4485,-105.468750
4486,-107.421875
4487,-107.421875
4488,-107.421875
4489,-107.421875
4490,-109.375000
4491,-109.375000
4492,-107.421875
4493,-109.375000
4494,-109.375000
4495,-109.375000
4496,-111.328125
4497,-111.328125
4498,-111.328125
4499,-111.328125
4500,-111.328125
4501,-113.281250
4502,-113.281250
4503,-113.281250
4504,-113.281250
4505,-113.281250
4506,-115.234375
4507,-115.234375
4508,-115.234375
4509,-115.234375
4510,-115.234375
4511,-117.187500
4512,-117.187500
4513,-117.187500
4514,-117.187500
4515,-117.187500
4516,-117.187500
4517,-119.140625
4518,-119.140625
4519,-119.140625
4520,-119.140625
4521,-119.140625
4522,-119.140625
4523,-121.093750
4524,-121.093750
4525,-121.093750
4526,-121.093750
4527,-126.953125
4528,-121.093750
4529,-121.093750
4530,-123.046875
4531,-123.046875
4532,-123.046875
4533,-126.953125
4534,-123.046875
4535,-125.000000
4536,-128.906250
4537,-125.000000
4538,-125.000000
4539,-125.000000
4540,-128.906250
4541,-126.953125
4542,-126.953125
4543,-126.953125
4544,-126.953125
4545,-126.953125
4546,-126.953125
4547,-128.906250
4548,-128.906250
4549,-128.906250
4550,-128.906250
4551,-128.906250
4552,-128.906250
4553,-130.859375
4554,-128.906250
4555,-130.859375
4556,-130.859375
4557,-130.859375
4558,-130.859375
4559,-130.859375
4560,-130.859375
4561,-132.812500
4562,-132.812500
4563,-132.812500
4564,-132.812500
4565,-132.812500
4566,-132.812500
4567,-134.765625
4568,-134.765625
4569,-134.765625
4570,-134.765625
4571,-134.765625
4572,-134.765625
4573,-134.765625
4574,-136.718750
4575,-136.718750
4576,-136.718750
4577,-136.718750
4578,-136.718750
4579,-138.671875
4580,-136.718750
4581,-138.671875
4582,-138.671875
4583,-138.671875
4584,-138.671875
4585,-140.625000
4586,-138.671875
4587,-138.671875
4588,-140.625000
4589,-140.625000
4590,-140.625000
4591,-140.625000
4592,-140.625000
4593,-140.625000
4594,-142.578125
4595,-142.578125
4596,-144.531250
4597,-142.578125
4598,-142.578125
4599,-142.578125
4600,-142.578125
4601,-144.531250
4602,-140.625000
4603,-144.531250
4604,-144.531250
4605,-140.625000
4606,-144.531250
4607,-148.437500
4608,-144.531250
4609,-146.484375
4610,-146.484375
4611,-146.484375
4612,-146.484375
4613,-146.484375
4614,-146.484375
4615,-146.484375
4616,-146.484375
4617,-146.484375
4618,-146.484375
4619,-148.437500
4620,-148.437500
4621,-148.437500
4622,-148.437500
4623,-148.437500
4624,-148.437500
4625,-146.484375
4626,-148.437500
4627,-148.437500
4628,-150.390625
4629,-150.390625
4630,-150.390625
4631,-150.390625
4632,-150.390625
4633,-150.390625
4634,-150.390625
4635,-150.390625
4636,-150.390625
4637,-152.343750
4638,-150.390625
4639,-152.343750
4640,-152.343750
4641,-152.343750
4642,-152.343750
4643,-152.343750
4644,-152.343750
4645,-152.343750
4646,-152.343750
4647,-152.343750
4648,-152.343750
4649,-152.343750
4650,-152.343750
4651,-152.343750
4652,-154.296875
4653,-154.296875
4654,-154.296875
4655,-154.296875
4656,-154.296875
4657,-154.296875
4658,-154.296875
4659,-154.296875
4660,-154.296875
4661,-154.296875
4662,-154.296875
4663,-154.296875
4664,-154.296875
4665,-154.296875
4666,-154.296875
4667,-154.296875
4668,-154.296875
4669,-156.250000
4670,-156.250000
4671,-156.250000
4672,-156.250000
4673,-156.250000
4674,-156.250000
4675,-156.250000
4676,-154.296875
4677,-156.250000
4678,-156.250000
4679,-156.250000
4680,-156.250000
4681,-156.250000
4682,-156.250000
4683,-156.250000
4684,-156.250000
4685,-156.250000
4686,-156.250000
4687,-156.250000
4688,-156.250000
4689,-156.250000
4690,-156.250000
4691,-156.250000
4692,-156.250000
4693,-156.250000
4694,-156.250000
4695,-156.250000
4696,-156.250000
4697,-156.250000
4698,-156.250000
4699,-158.203125
4700,-156.250000
4701,-158.203125
4702,-156.250000
4703,-156.250000
4704,-156.250000
4705,-158.203125
4706,-156.250000
4707,-156.250000
4708,-156.250000
4709,-158.203125
4710,-158.203125
4711,-156.250000
4712,-156.250000
4713,-156.250000
4714,-156.250000
4715,-156.250000
4716,-156.250000
4717,-158.203125
4718,-156.250000
4719,-158.203125
4720,-156.250000
4721,-156.250000
4722,-156.250000
4723,-158.203125
4724,-156.250000
4725,-156.250000
4726,-156.250000
4727,-156.250000
4728,-156.250000
4729,-156.250000
4730,-156.250000
4731,-156.250000
4732,-156.250000
4733,-156.250000
4734,-156.250000
4735,-156.250000
4736,-156.250000
4737,-156.250000
4738,-156.250000
4739,-156.250000
4740,-156.250000
4741,-156.250000
4742,-156.250000
4743,-156.250000
4744,-156.250000
4745,-156.250000
4746,-156.250000
4747,-156.250000
4748,-154.296875
4749,-154.296875
4750,-154.296875
4751,-154.296875
4752,-154.296875
4753,-154.296875
4754,-154.296875
4755,-154.296875
4756,-154.296875
4757,-154.296875
4758,-154.296875
4759,-154.296875
4760,-154.296875
4761,-154.296875
4762,-154.296875
4763,-154.296875
4764,-154.296875
4765,-154.296875
4766,-154.296875
4767,-152.343750
4768,-154.296875
4769,-152.343750
4770,-152.343750
4771,-152.343750
4772,-152.343750
4773,-152.343750
4774,-152.343750
4775,-152.343750
4776,-152.343750
4777,-152.343750
4778,-152.343750
4779,-152.343750
4780,-152.343750
4781,-152.343750
4782,-150.390625
4783,-152.343750
4784,-152.343750
4785,-152.343750
4786,-150.390625
4787,-150.390625
4788,-150.390625
4789,-150.390625
4790,-150.390625
4791,-150.390625
4792,-150.390625
4793,-150.390625
4794,-148.437500
4795,-148.437500
4796,-148.437500
4797,-148.437500
4798,-148.437500
4799,-150.390625
4800,-148.437500
4801,-148.437500
4802,-148.437500
4803,-148.437500
4804,-148.437500
4805,-148.437500
4806,-148.437500
4807,-148.437500
4808,-146.484375
4809,-146.484375
4810,-146.484375
4811,-146.484375
4812,-146.484375
4813,-146.484375
4814,-146.484375
4815,-146.484375
4816,-144.531250
4817,-144.531250
4818,-144.531250
4819,-144.531250
4820,-144.531250
4821,-144.531250
4822,-144.531250
4823,-144.531250
4824,-144.531250
4825,-144.531250
4826,-144.531250
4827,-142.578125
4828,-142.578125
4829,-142.578125
4830,-142.578125
4831,-142.578125
4832,-142.578125
4833,-142.578125
4834,-142.578125
4835,-142.578125
4836,-142.578125
4837,-140.625000
4838,-140.625000
4839,-140.625000
4840,-140.625000
4841,-140.625000
4842,-140.625000
4843,-140.625000
4844,-140.625000
4845,-140.625000
4846,-138.671875
4847,-138.671875
4848,-138.671875
4849,-138.671875
4850,-138.671875
4851,-138.671875
4852,-138.671875
4853,-138.671875
4854,-138.671875
4855,-138.671875
4856,-136.718750
4857,-136.718750
4858,-136.718750
4859,-134.765625
4860,-136.718750
4861,-136.718750
4862,-134.765625
4863,-134.765625
4864,-134.765625
4865,-136.718750
4866,-134.765625
4867,-134.765625
4868,-132.812500
4869,-134.765625
4870,-134.765625
4871,-132.812500
4872,-132.812500
4873,-132.812500
4874,-134.765625
4875,-132.812500
4876,-132.812500
4877,-130.859375
4878,-132.812500
4879,-130.859375
4880,-130.859375
4881,-130.859375
4882,-130.859375
4883,-130.859375
4884,-130.859375
4885,-128.906250
4886,-128.906250
4887,-128.906250
4888,-128.906250
4889,-128.906250
4890,-128.906250
4891,-128.906250
4892,-126.953125
4893,-126.953125
4894,-126.953125
4895,-126.953125
4896,-126.953125
4897,-126.953125
4898,-126.953125
4899,-125.000000
4900,-125.000000
4901,-125.000000
4902,-125.000000
4903,-121.093750
4904,-123.046875
4905,-123.046875
4906,-123.046875
4907,-123.046875
4908,-123.046875
4909,-123.046875
4910,-123.046875
4911,-119.140625
4912,-121.093750
4913,-121.093750
4914,-121.093750
4915,-121.093750
4916,-119.140625
4917,-119.140625
4918,-119.140625
4919,-119.140625
4920,-119.140625
4921,-119.140625
4922,-117.187500
4923,-117.187500
4924,-117.187500
4925,-117.187500
4926,-117.187500
4927,-115.234375
4928,-115.234375
4929,-115.234375
4930,-113.281250
4931,-115.234375
4932,-113.281250
4933,-113.281250
4934,-113.281250
4935,-113.281250
4936,-111.328125
4937,-113.281250
4938,-113.281250
4939,-111.328125
4940,-111.328125
4941,-111.328125
4942,-111.328125
4943,-111.328125
4944,-111.328125
4945,-111.328125
4946,-109.375000
4947,-109.375000
4948,-109.375000
4949,-107.421875
4950,-107.421875
4951,-107.421875
4952,-107.421875
4953,-107.421875
4954,-107.421875
4955,-105.468750
4956,-105.468750
4957,-105.468750
4958,-105.468750
4959,-105.468750
4960,-103.515625
4961,-103.515625
4962,-103.515625
4963,-103.515625
4964,-103.515625
4965,-103.515625
4966,-101.562500
4967,-101.562500
4968,-101.562500
4969,-101.562500
4970,-101.562500
4971,-101.562500
4972,-99.609375
4973,-99.609375
4974,-99.609375
4975,-99.609375
4976,-99.609375
4977,-97.656250
4978,-97.656250
4979,-97.656250
4980,-97.656250
4981,-95.703125
4982,-97.656250
4983,-93.750000
4984,-95.703125
4985,-95.703125
4986,-95.703125
4987,-93.750000
4988,-93.750000
4989,-93.750000
4990,-93.750000
4991,-93.750000
4992,-91.796875
4993,-91.796875
4994,-93.750000
4995,-91.796875
4996,-91.796875
4997,-89.843750
4998,-89.843750
4999,-89.843750
5000,-89.843750
5001,-89.843750
5002,-87.890625
5003,-87.890625
5004,-87.890625
5005,-87.890625
5006,-87.890625
5007,-85.937500
5008,-85.937500
5009,-85.937500
5010,-85.937500
5011,-85.937500
5012,-83.984375
5013,-87.890625
5014,-83.984375
5015,-82.031250
5016,-83.984375
5017,-83.984375
5018,-82.031250
5019,-82.031250
5020,-82.031250
5021,-80.078125
5022,-80.078125
5023,-80.078125
5024,-80.078125
5025,-80.078125
5026,-80.078125
5027,-78.125000
5028,-78.125000
5029,-78.125000
5030,-78.125000
5031,-76.171875
5032,-76.171875
5033,-76.171875
5034,-76.171875
5035,-74.218750
5036,-74.218750
5037,-74.218750
5038,-74.218750
5039,-74.218750
5040,-72.265625
5041,-72.265625
5042,-72.265625
5043,-72.265625
5044,-72.265625
5045,-70.312500
5046,-70.312500
5047,-70.312500
5048,-70.312500
5049,-70.312500
5050,-68.359375
5051,-68.359375
5052,-68.359375
5053,-68.359375
5054,-66.406250
5055,-68.359375
5056,-66.406250
5057,-66.406250
5058,-64.453125
5059,-64.453125
5060,-64.453125
5061,-64.453125
5062,-64.453125
5063,-62.500000
5064,-62.500000
5065,-62.500000
5066,-62.500000
5067,-62.500000
5068,-60.546875
5069,-60.546875
5070,-60.546875
5071,-60.546875
5072,-60.546875
5073,-58.593750
5074,-58.593750
5075,-58.593750
5076,-58.593750
5077,-56.640625
5078,-56.640625
5079,-56.640625
5080,-56.640625
5081,-56.640625
5082,-56.640625
5083,-54.687500
5084,-54.687500
5085,-54.687500
5086,-52.734375
5087,-54.687500
5088,-52.734375
5089,-52.734375
5090,-52.734375
5091,-52.734375
5092,-50.781250
5093,-50.781250
5094,-50.781250
5095,-50.781250
5096,-50.781250
5097,-48.828125
5098,-48.828125
5099,-48.828125
5100,-48.828125
5101,-48.828125
5102,-46.875000
5103,-46.875000
5104,-46.875000
5105,-46.875000
5106,-46.875000
5107,-44.921875
5108,-44.921875
5109,-44.921875
5110,-44.921875
5111,-42.968750
5112,-42.968750
5113,-42.968750
5114,-41.015625
5115,-41.015625
5116,-42.968750
5117,-41.015625
5118,-41.015625
5119,-41.015625
5120,-41.015625
5121,-41.015625
5122,-41.015625
5123,-39.062500
5124,-39.062500
5125,-39.062500
5126,-39.062500
5127,-37.109375
5128,-37.109375
5129,-37.109375
5130,-37.109375
5131,-37.109375
5132,-35.156250
5133,-35.156250
5134,-35.156250
5135,-35.156250
5136,-33.203125
5137,-33.203125
5138,-33.203125
5139,-33.203125
5140,-33.203125
5141,-33.203125
5142,-33.203125
5143,-33.203125
5144,-31.250000
5145,-31.250000
5146,-31.250000
5147,-29.296875
5148,-29.296875
5149,-29.296875
5150,-29.296875
5151,-29.296875
5152,-29.296875
5153,-27.343750
5154,-27.343750
5155,-27.343750
5156,-27.343750
5157,-27.343750
5158,-25.390625
5159,-25.390625
5160,-25.390625
5161,-25.390625
5162,-25.390625
5163,-25.390625
5164,-23.437500
5165,-23.437500
5166,-23.437500
5167,-23.437500
5168,-23.437500
5169,-23.437500
5170,-23.437500
5171,-21.484375
5172,-21.484375
5173,-21.484375
5174,-21.484375
5175,-21.484375
5176,-19.531250
5177,-19.531250
5178,-19.531250
5179,-19.531250
5180,-19.531250
5181,-19.531250
5182,-17.578125
5183,-17.578125
5184,-17.578125
5185,-17.578125
5186,-17.578125
5187,-15.625000
5188,-15.625000
5189,-15.625000
5190,-15.625000
5191,-15.625000
5192,-15.625000
5193,-15.625000
5194,-15.625000
5195,-15.625000
5196,-13.671875
5197,-13.671875
5198,-13.671875
5199,-13.671875
5200,-13.671875
5201,-13.671875
5202,-13.671875
5203,-11.718750
5204,-11.718750
5205,-11.718750
5206,-11.718750
5207,-11.718750
5208,-11.718750
5209,-11.718750
5210,-11.718750
5211,-9.765625
5212,-9.765625
5213,-9.765625
5214,-9.765625
5215,-9.765625
5216,-9.765625
5217,-9.765625
5218,-9.765625
5219,-9.765625
5220,-7.812500
5221,-7.812500
5222,-7.812500
5223,-7.812500
5224,-7.812500
5225,-7.812500
5226,-7.812500
5227,-7.812500
5228,-7.812500
5229,-7.812500
5230,-5.859375
5231,-5.859375
5232,-5.859375
5233,-5.859375
5234,-5.859375
5235,-5.859375
5236,-5.859375
5237,-5.859375
5238,-5.859375
5239,-5.859375
5240,-3.906250
5241,-3.906250
5242,-3.906250
5243,-3.906250
5244,-3.906250
5245,-3.906250
5246,-3.906250
5247,-3.906250
5248,-1.953125
5249,-3.906250
5250,-3.906250
5251,-1.953125
5252,-1.953125
5253,-3.906250
5254,-1.953125
5255,-3.906250
5256,-3.906250
5257,-3.906250
5258,-1.953125
5259,-1.953125
5260,-1.953125
5261,-1.953125
5262,-1.953125
5263,-3.906250
5264,-1.953125
5265,-1.953125
5266,-1.953125
5267,-1.953125
5268,-1.953125
5269,-1.953125
5270,-1.953125
5271,-1.953125
5272,0.000000
5273,-1.953125
5274,0.000000
5275,-1.953125
5276,0.000000
5277,0.000000
5278,-1.953125
5279,0.000000
5280,0.000000
5281,-1.953125
5282,0.000000
5283,0.000000
5284,0.000000
5285,0.000000
5286,0.000000
5287,0.000000
5288,0.000000
5289,0.000000
5290,0.000000
5291,0.000000
5292,0.000000
5293,0.000000
5294,0.000000
5295,0.000000
5296,0.000000
5297,0.000000
5298,0.000000
5299,0.000000
5300,0.000000
5301,0.000000
5302,0.000000
5303,0.000000
5304,0.000000
5305,0.000000
5306,0.000000
5307,0.000000
5308,0.000000
5309,0.000000
5310,0.000000
5311,0.000000
5312,0.000000
5313,0.000000
5314,0.000000
5315,0.000000
5316,0.000000
5317,0.000000
5318,0.000000
5319,0.000000
5320,0.000000
5321,0.000000
5322,0.000000
5323,0.000000
5324,0.000000
5325,0.000000
5326,0.000000
5327,0.000000
5328,-1.953125
5329,0.000000
5330,-1.953125
5331,-1.953125
5332,0.000000
5333,-1.953125
5334,-1.953125
5335,0.000000
5336,-1.953125
5337,-1.953125
5338,0.000000
5339,-1.953125
5340,-1.953125
5341,0.000000
5342,-1.953125
5343,-1.953125
5344,-1.953125
5345,-1.953125
5346,-3.906250
5347,-3.906250
5348,-1.953125
5349,-3.906250
5350,-3.906250
5351,-3.906250
5352,-3.906250
5353,-3.906250
5354,-3.906250
5355,-3.906250
5356,-3.906250
5357,-3.906250
5358,-3.906250
5359,-3.906250
5360,-5.859375
5361,-5.859375
5362,-5.859375
5363,-5.859375
5364,-5.859375
5365,-5.859375
5366,-5.859375
5367,-5.859375
5368,-5.859375
5369,-5.859375
5370,-5.859375
5371,-5.859375
5372,-7.812500
5373,-7.812500
5374,-7.812500
5375,-7.812500
5376,-7.812500
5377,-7.812500
5378,-7.812500
5379,-7.812500
5380,-7.812500
5381,-7.812500
5382,-7.812500
5383,-11.718750
5384,-9.765625
5385,-9.765625
5386,-9.765625
5387,-9.765625
5388,-9.765625
5389,-9.765625
5390,-9.765625
5391,-11.718750
5392,-11.718750
5393,-11.718750
5394,-11.718750
5395,-11.718750
5396,-11.718750
5397,-11.718750
5398,-11.718750
5399,-11.718750
5400,-13.671875
5401,-13.671875
5402,-13.671875
5403,-15.625000
5404,-13.671875
5405,-13.671875
5406,-13.671875
5407,-15.625000
5408,-15.625000
5409,-15.625000
5410,-15.625000
5411,-15.625000
5412,-15.625000
5413,-17.578125
5414,-17.578125
5415,-17.578125
5416,-17.578125
5417,-17.578125
5418,-17.578125
5419,-17.578125
5420,-19.531250
5421,-19.531250
5422,-19.531250
5423,-19.531250
5424,-19.531250
5425,-19.531250
5426,-19.531250
5427,-21.484375
5428,-21.484375
5429,-21.484375
5430,-21.484375
5431,-23.437500
5432,-23.437500
5433,-23.437500
5434,-23.437500
5435,-23.437500
5436,-23.437500
5437,-25.390625
5438,-25.390625
5439,-25.390625
5440,-25.390625
5441,-25.390625
5442,-25.390625
5443,-25.390625
5444,-27.343750
5445,-27.343750
5446,-27.343750
5447,-27.343750
5448,-27.343750
5449,-27.343750
5450,-29.296875
5451,-29.296875
5452,-29.296875
5453,-29.296875
5454,-29.296875
5455,-31.250000
5456,-31.250000
5457,-31.250000
5458,-31.250000
5459,-31.250000
5460,-31.250000
5461,-31.250000
5462,-33.203125
5463,-33.203125
5464,-33.203125
5465,-33.203125
5466,-33.203125
5467,-35.156250
5468,-35.156250
5469,-35.156250
5470,-35.156250
5471,-35.156250
5472,-37.109375
5473,-37.109375
5474,-37.109375
5475,-37.109375
5476,-37.109375
5477,-39.062500
5478,-39.062500
5479,-39.062500
5480,-39.062500
5481,-39.062500
5482,-39.062500
5483,-41.015625
5484,-39.062500
5485,-41.015625
5486,-42.968750
5487,-42.968750
5488,-42.968750
5489,-42.968750
5490,-42.968750
5491,-42.968750
5492,-42.968750
5493,-44.921875
5494,-44.921875
5495,-44.921875
5496,-44.921875
5497,-44.921875
5498,-46.875000
5499,-46.875000
5500,-46.875000
5501,-46.875000
5502,-48.828125
5503,-48.828125
5504,-48.828125
5505,-48.828125
5506,-48.828125
5507,-50.781250
5508,-50.781250
5509,-50.781250
5510,-50.781250
5511,-50.781250
5512,-52.734375
5513,-52.734375
5514,-52.734375
5515,-54.687500
5516,-54.687500
5517,-54.687500
5518,-54.687500
5519,-54.687500
5520,-54.687500
5521,-54.687500
5522,-56.640625
5523,-56.640625
5524,-56.640625
5525,-58.593750
5526,-58.593750
5527,-58.593750
5528,-58.593750
5529,-58.593750
5530,-58.593750
5531,-60.546875
5532,-60.546875
5533,-60.546875
5534,-60.546875
5535,-62.500000
5536,-62.500000
5537,-62.500000
5538,-62.500000
5539,-64.453125
5540,-64.453125
5541,-64.453125
5542,-64.453125
5543,-66.406250
5544,-66.406250
5545,-66.406250
5546,-66.406250
5547,-66.406250
5548,-68.359375
5549,-68.359375
5550,-68.359375
5551,-68.359375
5552,-68.359375
5553,-70.312500
5554,-70.312500
5555,-70.312500
5556,-70.312500
5557,-72.265625
5558,-72.265625
5559,-72.265625
5560,-72.265625
5561,-72.265625
5562,-72.265625
5563,-74.218750
5564,-74.218750
5565,-74.218750
5566,-74.218750
5567,-76.171875
5568,-76.171875
5569,-76.171875
5570,-76.171875
5571,-76.171875
5572,-76.171875
5573,-78.125000
5574,-78.125000
5575,-78.125000
5576,-80.078125
5577,-78.125000
5578,-80.078125
5579,-80.078125
5580,-80.078125
5581,-82.031250
5582,-82.031250
5583,-82.031250
5584,-83.984375
5585,-82.031250
5586,-83.984375
5587,-83.984375
5588,-83.984375
5589,-83.984375
5590,-85.937500
5591,-85.937500
5592,-85.937500
5593,-85.937500
5594,-85.937500
5595,-87.890625
5596,-87.890625
5597,-87.890625
5598,-87.890625
5599,-87.890625
5600,-87.890625
5601,-89.843750
5602,-89.843750
5603,-89.843750
5604,-89.843750
5605,-91.796875
5606,-91.796875
5607,-91.796875
5608,-91.796875
5609,-93.750000
5610,-93.750000
5611,-93.750000
5612,-93.750000
5613,-93.750000
5614,-93.750000
5615,-95.703125
5616,-95.703125
5617,-95.703125
5618,-95.703125
5619,-97.656250
5620,-97.656250
5621,-97.656250
5622,-97.656250
5623,-97.656250
5624,-99.609375
5625,-99.609375
5626,-99.609375
5627,-99.609375
5628,-99.609375
5629,-99.609375
5630,-101.562500
5631,-101.562500
5632,-101.562500
5633,-101.562500
5634,-103.515625
5635,-103.515625
5636,-103.515625
5637,-103.515625
5638,-103.515625
5639,-103.515625
5640,-105.468750
5641,-105.468750
5642,-105.468750
5643,-107.421875
5644,-107.421875
5645,-107.421875
5646,-107.421875
5647,-107.421875
5648,-107.421875
5649,-109.375000
5650,-109.375000
5651,-109.375000
5652,-109.375000
5653,-109.375000
5654,-111.328125
5655,-111.328125
5656,-111.328125
5657,-111.328125
5658,-111.328125
5659,-111.328125
5660,-113.281250
5661,-113.281250
5662,-113.281250
5663,-113.281250
5664,-113.281250
5665,-115.234375
5666,-115.234375
5667,-115.234375
5668,-115.234375
5669,-115.234375
5670,-117.187500
5671,-117.187500
5672,-117.187500
5673,-117.187500
5674,-117.187500
5675,-119.140625
5676,-119.140625
5677,-119.140625
5678,-119.140625
5679,-119.140625
5680,-121.093750
5681,-121.093750
5682,-121.093750
5683,-121.093750
5684,-121.093750
5685,-121.093750
5686,-121.093750
5687,-123.046875
5688,-123.046875
5689,-121.093750
5690,-123.046875
5691,-125.000000
5692,-125.000000
5693,-125.000000
5694,-125.000000
5695,-125.000000
5696,-125.000000
5697,-125.000000
5698,-126.953125
5699,-126.953125
5700,-126.953125
5701,-126.953125
5702,-126.953125
5703,-128.906250
5704,-128.906250
5705,-128.906250
5706,-128.906250
5707,-128.906250
5708,-128.906250
5709,-128.906250
5710,-128.906250
5711,-130.859375
5712,-130.859375
5713,-130.859375
5714,-130.859375
5715,-130.859375
5716,-130.859375
5717,-132.812500
5718,-132.812500
5719,-134.765625
5720,-132.812500
5721,-132.812500
5722,-132.812500
5723,-134.765625
5724,-134.765625
5725,-134.765625
5726,-134.765625
5727,-136.718750
5728,-134.765625
5729,-134.765625
5730,-136.718750
5731,-136.718750
5732,-136.718750
5733,-136.718750
5734,-136.718750
5735,-136.718750
5736,-138.671875
5737,-138.671875
5738,-138.671875
5739,-138.671875
5740,-138.671875
5741,-138.671875
5742,-138.671875
5743,-140.625000
5744,-140.625000
5745,-140.625000
5746,-140.625000
5747,-140.625000
5748,-140.625000
5749,-140.625000
5750,-142.578125
5751,-142.578125
5752,-142.578125
5753,-142.578125
5754,-142.578125
5755,-142.578125
5756,-142.578125
5757,-142.578125
5758,-142.578125
5759,-142.578125
5760,-144.531250
5761,-144.531250
5762,-144.531250
5763,-144.531250
5764,-144.531250
5765,-146.484375
5766,-144.531250
5767,-146.484375
5768,-146.484375
5769,-146.484375
5770,-146.484375
5771,-146.484375
5772,-146.484375
5773,-146.484375
5774,-146.484375
5775,-148.437500
5776,-148.437500
5777,-148.437500
5778,-148.437500
5779,-148.437500
5780,-148.437500
5781,-148.437500
5782,-148.437500
5783,-150.390625
5784,-150.390625
5785,-150.390625
5786,-148.437500
5787,-150.390625
5788,-150.390625
5789,-150.390625
5790,-150.390625
5791,-150.390625
5792,-150.390625
5793,-150.390625
5794,-150.390625
5795,-150.390625
5796,-152.343750
5797,-152.343750
5798,-152.343750
5799,-152.343750
5800,-152.343750
5801,-152.343750
5802,-152.343750
5803,-152.343750
5804,-152.343750
5805,-152.343750
5806,-154.296875
5807,-154.296875
5808,-154.296875
5809,-154.296875
5810,-152.343750
5811,-154.296875
5812,-154.296875
5813,-154.296875
5814,-154.296875
5815,-154.296875
5816,-154.296875
5817,-154.296875
5818,-154.296875
5819,-154.296875
5820,-154.296875
5821,-154.296875
5822,-154.296875
5823,-156.250000
5824,-154.296875
5825,-154.296875
5826,-154.296875
5827,-156.250000
5828,-156.250000
5829,-156.250000
5830,-156.250000
5831,-156.250000
5832,-156.250000
5833,-156.250000
5834,-156.250000
5835,-156.250000
5836,-156.250000
5837,-156.250000
5838,-156.250000
5839,-156.250000
5840,-156.250000
5841,-156.250000
5842,-156.250000
5843,-156.250000
5844,-156.250000
5845,-156.250000
5846,-156.250000
5847,-158.203125
5848,-156.250000
5849,-156.250000
5850,-156.250000
5851,-156.250000
5852,-156.250000
5853,-158.203125
5854,-158.203125
5855,-156.250000
5856,-156.250000
5857,-156.250000
5858,-156.250000
5859,-156.250000
5860,-158.203125
5861,-158.203125
5862,-156.250000
5863,-156.250000
5864,-158.203125
5865,-158.203125
5866,-158.203125
5867,-156.250000
5868,-156.250000
5869,-156.250000
5870,-156.250000
5871,-158.203125
5872,-156.250000
5873,-156.250000
5874,-158.203125
5875,-158.203125
5876,-156.250000
5877,-158.203125
5878,-156.250000
5879,-156.250000
5880,-156.250000
5881,-156.250000
5882,-156.250000
5883,-156.250000
5884,-156.250000
5885,-156.250000
5886,-156.250000
5887,-156.250000
5888,-156.250000
5889,-156.250000
5890,-156.250000
5891,-156.250000
5892,-156.250000
5893,-156.250000
5894,-156.250000
5895,-156.250000
5896,-156.250000
5897,-156.250000
5898,-156.250000
5899,-156.250000
5900,-156.250000
5901,-156.250000
5902,-156.250000
5903,-156.250000
5904,-156.250000
5905,-154.296875
5906,-154.296875
5907,-156.250000
5908,-154.296875
5909,-154.296875
5910,-154.296875
5911,-154.296875
5912,-154.296875
5913,-154.296875
5914,-154.296875
5915,-154.296875
5916,-154.296875
5917,-154.296875
5918,-154.296875
5919,-154.296875
5920,-154.296875
5921,-154.296875
5922,-152.343750
5923,-154.296875
5924,-154.296875
5925,-154.296875
5926,-154.296875
5927,-154.296875
5928,-152.343750
5929,-152.343750
5930,-152.343750
5931,-152.343750
5932,-152.343750
5933,-152.343750
5934,-152.343750
5935,-152.343750
5936,-152.343750
5937,-152.343750
5938,-152.343750
5939,-152.343750
5940,-152.343750
5941,-150.390625
5942,-150.390625
5943,-152.343750
5944,-150.390625
5945,-150.390625
5946,-150.390625
5947,-150.390625
5948,-150.390625
5949,-150.390625
5950,-150.390625
5951,-150.390625
5952,-150.390625
5953,-150.390625
5954,-148.437500
5955,-150.390625
5956,-148.437500
5957,-148.437500
5958,-146.484375
5959,-148.437500
5960,-148.437500
5961,-148.437500
5962,-148.437500
5963,-146.484375
5964,-146.484375
5965,-146.484375
5966,-146.484375
5967,-146.484375
5968,-146.484375
5969,-146.484375
5970,-146.484375
5971,-146.484375
5972,-146.484375
5973,-146.484375
5974,-144.531250
5975,-144.531250
5976,-144.531250
5977,-144.531250
5978,-144.531250
5979,-144.531250
5980,-144.531250
5981,-144.531250
5982,-144.531250
5983,-144.531250
5984,-144.531250
5985,-142.578125
5986,-142.578125
5987,-142.578125
5988,-142.578125
5989,-142.578125
5990,-142.578125
5991,-144.531250
5992,-142.578125
5993,-142.578125
5994,-140.625000
5995,-140.625000
5996,-140.625000
5997,-142.578125
5998,-140.625000
5999,-140.625000
6000,-140.625000
6001,-140.625000
6002,-140.625000
6003,-140.625000
6004,-138.671875
6005,-138.671875
6006,-138.671875
6007,-138.671875
6008,-138.671875
6009,-138.671875
6010,-138.671875
6011,-138.671875
6012,-138.671875
6013,-136.718750
6014,-136.718750
6015,-136.718750
6016,-136.718750
6017,-136.718750
6018,-136.718750
6019,-136.718750
6020,-136.718750
6021,-136.718750
6022,-136.718750
6023,-134.765625
6024,-134.765625
6025,-134.765625
6026,-134.765625
6027,-134.765625
6028,-132.812500
6029,-134.765625
6030,-132.812500
6031,-132.812500
6032,-132.812500
6033,-132.812500
6034,-130.859375
6035,-132.812500
6036,-132.812500
6037,-130.859375
6038,-130.859375
6039,-130.859375
6040,-130.859375
6041,-130.859375
6042,-130.859375
6043,-130.859375
6044,-128.906250
6045,-128.906250
6046,-128.906250
6047,-128.906250
6048,-128.906250
6049,-128.906250
6050,-126.953125
6051,-128.906250
6052,-126.953125
6053,-126.953125
6054,-126.953125
6055,-126.953125
6056,-125.000000
6057,-126.953125
6058,-125.000000
6059,-125.000000
6060,-125.000000
6061,-125.000000
6062,-125.000000
6063,-123.046875
6064,-123.046875
6065,-123.046875
6066,-123.046875
6067,-123.046875
6068,-123.046875
6069,-121.093750
6070,-121.093750
6071,-121.093750
6072,-121.093750
6073,-121.093750
6074,-121.093750
6075,-121.093750
6076,-119.140625
6077,-119.140625
6078,-119.140625
6079,-119.140625
6080,-119.140625
6081,-119.140625
6082,-117.187500
6083,-119.140625
6084,-117.187500
6085,-117.187500
6086,-117.187500
6087,-115.234375
6088,-115.234375
6089,-115.234375
6090,-117.187500
6091,-115.234375
6092,-115.234375
6093,-115.234375
6094,-113.281250
6095,-113.281250
6096,-113.281250
6097,-113.281250
6098,-111.328125
6099,-111.328125
6100,-111.328125
6101,-111.328125
6102,-111.328125
6103,-111.328125
6104,-109.375000
6105,-109.375000
6106,-109.375000
6107,-109.375000
6108,-109.375000
6109,-107.421875
6110,-107.421875
6111,-107.421875
6112,-107.421875
6113,-107.421875
6114,-105.468750
6115,-107.421875
6116,-105.468750
6117,-105.468750
6118,-105.468750
6119,-105.468750
6120,-105.468750
6121,-103.515625
6122,-103.515625
6123,-101.562500
6124,-101.562500
6125,-101.562500
6126,-101.562500
6127,-101.562500
6128,-101.562500
6129,-101.562500
6130,-99.609375
6131,-99.609375
6132,-99.609375
6133,-99.609375
6134,-97.656250
6135,-97.656250
6136,-97.656250
6137,-97.656250
6138,-97.656250
6139,-97.656250
6140,-95.703125
6141,-95.703125
6142,-95.703125
6143,-95.703125
6144,-95.703125
6145,-95.703125
6146,-93.750000
6147,-93.750000
6148,-93.750000
6149,-93.750000
6150,-91.796875
6151,-91.796875
6152,-91.796875
6153,-91.796875
6154,-89.843750
6155,-89.843750
6156,-89.843750
6157,-89.843750
6158,-89.843750
6159,-89.843750
6160,-89.843750
6161,-87.890625
6162,-87.890625
6163,-87.890625
6164,-85.937500
6165,-85.937500
6166,-85.937500
6167,-85.937500
6168,-85.937500
6169,-85.937500
6170,-83.984375
6171,-83.984375
6172,-83.984375
6173,-83.984375
6174,-82.031250
6175,-82.031250
6176,-82.031250
6177,-82.031250
6178,-82.031250
6179,-80.078125
6180,-80.078125
6181,-80.078125
6182,-80.078125
6183,-80.078125
6184,-80.078125
6185,-78.125000
6186,-78.125000
6187,-78.125000
6188,-78.125000
6189,-76.171875
6190,-76.171875
6191,-76.171875
6192,-76.171875
6193,-76.171875
6194,-76.171875
6195,-74.218750
6196,-74.218750
6197,-74.218750
6198,-72.265625
6199,-72.265625
6200,-72.265625
6201,-72.265625
6202,-72.265625
6203,-70.312500
6204,-70.312500
6205,-70.312500
6206,-70.312500
6207,-70.312500
6208,-68.359375
6209,-68.359375
6210,-68.359375
6211,-68.359375
6212,-66.406250
6213,-68.359375
6214,-66.406250
6215,-66.406250
6216,-66.406250
6217,-64.453125
6218,-64.453125
6219,-64.453125
6220,-64.453125
6221,-62.500000
6222,-62.500000
6223,-62.500000
6224,-62.500000
6225,-62.500000
6226,-60.546875
6227,-60.546875
6228,-60.546875
6229,-60.546875
6230,-58.593750
6231,-60.546875
6232,-58.593750
6233,-58.593750
6234,-58.593750
6235,-56.640625
6236,-56.640625
6237,-56.640625
6238,-56.640625
6239,-56.640625
6240,-56.640625
6241,-54.687500
6242,-54.687500
6243,-54.687500
6244,-52.734375
6245,-52.734375
6246,-52.734375
6247,-52.734375
6248,-52.734375
6249,-52.734375
6250,-50.781250
6251,-50.781250
6252,-50.781250
6253,-50.781250
6254,-50.781250
6255,-48.828125
6256,-48.828125
6257,-48.828125
6258,-48.828125
6259,-48.828125
6260,-46.875000
6261,-46.875000
6262,-46.875000
6263,-46.875000
6264,-44.921875
6265,-44.921875
6266,-44.921875
6267,-44.921875
6268,-44.921875
6269,-42.968750
6270,-42.968750
6271,-42.968750
6272,-42.968750
6273,-42.968750
6274,-41.015625
6275,-41.015625
6276,-41.015625
6277,-41.015625
6278,-41.015625
6279,-41.015625
6280,-39.062500
6281,-39.062500
6282,-39.062500
6283,-39.062500
6284,-37.109375
6285,-37.109375
6286,-37.109375
6287,-37.109375
6288,-37.109375
6289,-37.109375
6290,-35.156250
6291,-35.156250
6292,-35.156250
6293,-35.156250
6294,-33.203125
6295,-33.203125
6296,-33.203125
6297,-33.203125
6298,-33.203125
6299,-33.203125
6300,-33.203125
6301,-31.250000
6302,-31.250000
6303,-31.250000
6304,-31.250000
6305,-31.250000
6306,-29.296875
6307,-29.296875
6308,-29.296875
6309,-29.296875
6310,-29.296875
6311,-27.343750
6312,-27.343750
6313,-27.343750
6314,-27.343750
6315,-27.343750
6316,-27.343750
6317,-25.390625
6318,-25.390625
6319,-25.390625
6320,-25.390625
6321,-25.390625
6322,-25.390625
6323,-23.437500
6324,-23.437500
6325,-23.437500
6326,-23.437500
6327,-23.437500
6328,-21.484375
6329,-21.484375
6330,-21.484375
6331,-21.484375
6332,-21.484375
6333,-21.484375
6334,-19.531250
6335,-19.531250
6336,-19.531250
6337,-19.531250
6338,-19.531250
6339,-19.531250
6340,-17.578125
6341,-17.578125
6342,-17.578125
6343,-17.578125
6344,-17.578125
6345,-17.578125
6346,-15.625000
6347,-15.625000
6348,-15.625000
6349,-15.625000
6350,-15.625000
6351,-15.625000
6352,-13.671875
6353,-13.671875
6354,-13.671875
6355,-15.625000
6356,-13.671875
6357,-13.671875
6358,-13.671875
6359,-13.671875
6360,-13.671875
6361,-13.671875
6362,-11.718750
6363,-11.718750
6364,-11.718750
6365,-11.718750
6366,-11.718750
6367,-11.718750
6368,-11.718750
6369,-9.765625
6370,-9.765625
6371,-9.765625
6372,-9.765625
6373,-9.765625
6374,-9.765625
6375,-9.765625
6376,-7.812500
6377,-7.812500
6378,-9.765625
6379,-7.812500
6380,-7.812500
6381,-7.812500
6382,-7.812500
6383,-7.812500
6384,-7.812500
6385,-7.812500
6386,-5.859375
6387,-5.859375
6388,-5.859375
6389,-5.859375
6390,-3.906250
6391,-5.859375
6392,-3.906250
6393,-5.859375
6394,-5.859375
6395,-5.859375
6396,-5.859375
6397,-5.859375
6398,-3.906250
6399,-3.906250
6400,-3.906250
6401,-3.906250
6402,-3.906250
6403,-3.906250
6404,-3.906250
6405,-3.906250
6406,-3.906250
6407,-1.953125
6408,-1.953125
6409,-1.953125
6410,-1.953125
6411,-3.906250
6412,-1.953125
6413,-3.906250
6414,-1.953125
6415,-1.953125
6416,-1.953125
6417,-1.953125
6418,-1.953125
6419,-1.953125
6420,-1.953125
6421,-1.953125
6422,-1.953125
6423,-1.953125
6424,-1.953125
6425,0.000000
6426,-1.953125
6427,-1.953125
6428,-1.953125
6429,0.000000
6430,0.000000
6431,0.000000
6432,-1.953125
6433,-1.953125
6434,-1.953125
6435,0.000000
6436,0.000000
6437,0.000000
6438,0.000000
6439,0.000000
6440,0.000000
6441,0.000000
6442,0.000000
6443,0.000000
6444,0.000000
6445,0.000000
6446,0.000000
6447,0.000000
6448,0.000000
6449,0.000000
6450,0.000000
6451,0.000000
6452,0.000000
6453,0.000000
6454,-1.953125
6455,0.000000
6456,0.000000
6457,0.000000
6458,0.000000
6459,0.000000
6460,0.000000
6461,0.000000
6462,0.000000
6463,0.000000
6464,0.000000
6465,0.000000
6466,0.000000
6467,0.000000
6468,0.000000
6469,0.000000
6470,0.000000
6471,0.000000
6472,0.000000
6473,0.000000
6474,0.000000
6475,0.000000
6476,0.000000
6477,0.000000
6478,0.000000
6479,0.000000
6480,0.000000
6481,0.000000
6482,0.000000
6483,0.000000
6484,0.000000
6485,0.000000
6486,0.000000
6487,0.000000
6488,-1.953125
6489,-1.953125
6490,-1.953125
6491,-1.953125
6492,-1.953125
6493,0.000000
6494,-1.953125
6495,0.000000
6496,-3.906250
6497,-1.953125
6498,-1.953125
6499,-1.953125
6500,-1.953125
6501,-1.953125
6502,-1.953125
6503,-1.953125
6504,-1.953125
6505,-1.953125
6506,-3.906250
6507,0.000000
6508,-1.953125
6509,-3.906250
6510,-3.906250
6511,0.000000
6512,-3.906250
6513,-3.906250
6514,-1.953125
6515,-3.906250
6516,-3.906250
6517,-3.906250
6518,-3.906250
6519,-3.906250
6520,-1.953125
6521,-5.859375
6522,-5.859375
6523,-5.859375
6524,-5.859375
6525,-5.859375
6526,-5.859375
6527,-5.859375
6528,-5.859375
6529,-5.859375
6530,-5.859375
6531,-5.859375
6532,-7.812500
6533,-5.859375
6534,-7.812500
6535,-7.812500
6536,-7.812500
6537,-7.812500
6538,-7.812500
6539,-7.812500
6540,-7.812500
6541,-9.765625
6542,-7.812500
6543,-7.812500
6544,-9.765625
6545,-9.765625
6546,-9.765625
6547,-9.765625
6548,-9.765625
6549,-11.718750
6550,-9.765625
6551,-11.718750
6552,-11.718750
6553,-11.718750
6554,-11.718750
6555,-11.718750
6556,-11.718750
6557,-15.625000
6558,-13.671875
6559,-13.671875
6560,-13.671875
6561,-13.671875
6562,-13.671875
6563,-13.671875
6564,-15.625000
6565,-15.625000
6566,-15.625000
6567,-15.625000
6568,-15.625000
6569,-15.625000
6570,-15.625000
6571,-15.625000
6572,-17.578125
6573,-19.531250
6574,-17.578125
6575,-17.578125
6576,-19.531250
6577,-19.531250
6578,-17.578125
6579,-19.531250
6580,-19.531250
6581,-19.531250
6582,-21.484375
6583,-19.531250
6584,-21.484375
6585,-21.484375
6586,-21.484375
6587,-21.484375
6588,-23.437500
6589,-21.484375
6590,-21.484375
6591,-21.484375
6592,-23.437500
6593,-23.437500
6594,-23.437500
6595,-23.437500
6596,-23.437500
6597,-23.437500
6598,-23.437500
6599,-25.390625
6600,-25.390625
6601,-25.390625
6602,-25.390625
6603,-27.343750
6604,-27.343750
6605,-27.343750
6606,-27.343750
6607,-27.343750
6608,-27.343750
6609,-27.343750
6610,-29.296875
6611,-29.296875
6612,-29.296875
6613,-29.296875
6614,-29.296875
6615,-31.250000
6616,-31.250000
6617,-31.250000
6618,-31.250000
6619,-31.250000
6620,-33.203125
6621,-33.203125
6622,-33.203125
6623,-33.203125
6624,-33.203125
6625,-35.156250
6626,-35.156250
6627,-35.156250
6628,-35.156250
6629,-35.156250
6630,-37.109375
6631,-37.109375
6632,-37.109375
6633,-37.109375
6634,-37.109375
6635,-39.062500
6636,-39.062500
6637,-39.062500
6638,-39.062500
6639,-39.062500
6640,-39.062500
6641,-41.015625
6642,-41.015625
6643,-41.015625
6644,-41.015625
6645,-41.015625
6646,-42.968750
6647,-42.968750
6648,-42.968750
6649,-42.968750
6650,-42.968750
6651,-44.921875
6652,-44.921875
6653,-44.921875
6654,-44.921875
6655,-44.921875
6656,-46.875000
6657,-46.875000
6658,-46.875000
6659,-46.875000
6660,-46.875000
6661,-48.828125
6662,-48.828125
6663,-50.781250
6664,-50.781250
6665,-50.781250
6666,-50.781250
6667,-50.781250
6668,-50.781250
6669,-50.781250
6670,-52.734375
6671,-52.734375
6672,-52.734375
6673,-54.687500
6674,-54.687500
6675,-54.687500
6676,-54.687500
6677,-54.687500
6678,-54.687500
6679,-56.640625
6680,-56.640625
6681,-56.640625
6682,-56.640625
6683,-58.593750
6684,-58.593750
6685,-58.593750
6686,-58.593750
6687,-58.593750
6688,-58.593750
6689,-60.546875
6690,-60.546875
6691,-60.546875
6692,-62.500000
6693,-62.500000
6694,-62.500000
6695,-62.500000
6696,-64.453125
6697,-64.453125
6698,-64.453125
6699,-64.453125
6700,-64.453125
6701,-64.453125
6702,-66.406250
6703,-66.406250
6704,-66.406250
6705,-66.406250
6706,-68.359375
6707,-68.359375
6708,-68.359375
6709,-68.359375
6710,-68.359375
6711,-70.312500
6712,-70.312500
6713,-70.312500
6714,-70.312500
6715,-72.265625
6716,-72.265625
6717,-72.265625
6718,-72.265625
6719,-72.265625
6720,-74.218750
6721,-74.218750
6722,-74.218750
6723,-74.218750
6724,-76.171875
6725,-76.171875
6726,-76.171875
6727,-76.171875
6728,-76.171875
6729,-76.171875
6730,-78.125000
6731,-78.125000
6732,-78.125000
6733,-80.078125
6734,-80.078125
6735,-80.078125
6736,-80.078125
6737,-80.078125
6738,-80.078125
6739,-82.031250
6740,-82.031250
6741,-82.031250
6742,-82.031250
6743,-82.031250
6744,-83.984375
6745,-83.984375
6746,-83.984375
6747,-83.984375
6748,-83.984375
6749,-85.937500
6750,-85.937500
6751,-85.937500
6752,-87.890625
6753,-85.937500
6754,-87.890625
6755,-87.890625
6756,-87.890625
6757,-89.843750
6758,-89.843750
6759,-89.843750
6760,-89.843750
6761,-89.843750
6762,-89.843750
6763,-91.796875
6764,-91.796875
6765,-91.796875
6766,-91.796875
6767,-93.750000
6768,-93.750000
6769,-93.750000
6770,-93.750000
6771,-93.750000
6772,-95.703125
6773,-95.703125
6774,-95.703125
6775,-95.703125
6776,-97.656250
6777,-97.656250
6778,-97.656250
6779,-97.656250
6780,-97.656250
6781,-99.609375
6782,-97.656250
6783,-99.609375
6784,-99.609375
6785,-99.609375
6786,-99.609375
6787,-101.562500
6788,-99.609375
6789,-101.562500
6790,-103.515625
6791,-101.562500
6792,-103.515625
6793,-103.515625
6794,-103.515625
6795,-103.515625
6796,-103.515625
6797,-103.515625
6798,-105.468750
6799,-105.468750
6800,-105.468750
6801,-107.421875
6802,-107.421875
6803,-107.421875
6804,-107.421875
6805,-107.421875
6806,-109.375000
6807,-109.375000
6808,-109.375000
6809,-109.375000
6810,-109.375000
6811,-111.328125
6812,-111.328125
6813,-111.328125
6814,-111.328125
6815,-111.328125
6816,-113.281250
6817,-113.281250
6818,-113.281250
6819,-113.281250
6820,-113.281250
6821,-115.234375
6822,-115.234375
6823,-115.234375
6824,-115.234375
6825,-115.234375
6826,-115.234375
6827,-115.234375
6828,-117.187500
6829,-117.187500
6830,-117.187500
6831,-119.140625
6832,-117.187500
6833,-119.140625
6834,-119.140625
6835,-119.140625
6836,-119.140625
6837,-119.140625
6838,-121.093750
6839,-121.093750
6840,-121.093750
6841,-121.093750
6842,-121.093750
6843,-123.046875
6844,-123.046875
6845,-123.046875
6846,-123.046875
6847,-123.046875
6848,-123.046875
6849,-125.000000
6850,-125.000000
6851,-125.000000
6852,-125.000000
6853,-125.000000
6854,-126.953125
6855,-125.000000
6856,-126.953125
6857,-126.953125
6858,-126.953125
6859,-126.953125
6860,-126.953125
6861,-128.906250
6862,-128.906250
6863,-128.906250
6864,-128.906250
6865,-128.906250
6866,-128.906250
6867,-130.859375
6868,-130.859375
6869,-130.859375
6870,-130.859375
6871,-130.859375
6872,-132.812500
6873,-130.859375
6874,-132.812500
6875,-132.812500
6876,-132.812500
6877,-132.812500
6878,-132.812500
6879,-134.765625
6880,-134.765625
6881,-134.765625
6882,-134.765625
6883,-134.765625
6884,-134.765625
6885,-134.765625
6886,-136.718750
6887,-134.765625
6888,-136.718750
6889,-136.718750
6890,-136.718750
6891,-136.718750
6892,-136.718750
6893,-138.671875
6894,-138.671875
6895,-138.671875
6896,-138.671875
6897,-138.671875
6898,-138.671875
6899,-138.671875
6900,-138.671875
6901,-140.625000
6902,-140.625000
6903,-140.625000
6904,-140.625000
6905,-140.625000
6906,-140.625000
6907,-140.625000
6908,-142.578125
6909,-142.578125
6910,-142.578125
6911,-142.578125
6912,-142.578125
6913,-142.578125
6914,-142.578125
6915,-142.578125
6916,-144.531250
6917,-144.531250
6918,-142.578125
6919,-144.531250
6920,-144.531250
6921,-144.531250
6922,-144.531250
6923,-144.531250
6924,-144.531250
6925,-146.484375
6926,-146.484375
6927,-146.484375
6928,-146.484375
6929,-146.484375
6930,-146.484375
6931,-146.484375
6932,-148.437500
6933,-146.484375
6934,-146.484375
6935,-148.437500
6936,-148.437500
6937,-148.437500
6938,-148.437500
6939,-148.437500
6940,-148.437500
6941,-150.390625
6942,-150.390625
6943,-148.437500
6944,-148.437500
6945,-150.390625
6946,-150.390625
6947,-150.390625
6948,-150.390625
6949,-150.390625
6950,-150.390625
6951,-150.390625
6952,-150.390625
6953,-152.343750
6954,-152.343750
6955,-152.343750
6956,-152.343750
6957,-152.343750
6958,-152.343750
6959,-152.343750
6960,-152.343750
6961,-152.343750
6962,-152.343750
6963,-152.343750
6964,-152.343750
6965,-152.343750
6966,-154.296875
6967,-154.296875
6968,-154.296875
6969,-152.343750
6970,-154.296875
6971,-154.296875
6972,-154.296875
6973,-154.296875
6974,-154.296875
6975,-154.296875
6976,-154.296875
6977,-154.296875
6978,-154.296875
6979,-154.296875
6980,-156.250000
6981,-156.250000
6982,-156.250000
6983,-156.250000
6984,-156.250000
6985,-156.250000
6986,-156.250000
6987,-156.250000
6988,-156.250000
6989,-156.250000
6990,-156.250000
6991,-156.250000
6992,-156.250000
6993,-156.250000
6994,-156.250000
6995,-156.250000
6996,-156.250000
6997,-156.250000
6998,-156.250000
6999,-156.250000
7000,-156.250000
7001,-156.250000
7002,-156.250000
7003,-156.250000
7004,-156.250000
7005,-156.250000
7006,-156.250000
7007,-156.250000
7008,-156.250000
7009,-156.250000
7010,-156.250000
7011,-156.250000
7012,-158.203125
7013,-156.250000
7014,-156.250000
7015,-156.250000
7016,-156.250000
7017,-158.203125
7018,-156.250000
7019,-156.250000
7020,-156.250000
7021,-158.203125
7022,-156.250000
7023,-158.203125
7024,-156.250000
7025,-156.250000
7026,-156.250000
7027,-158.203125
7028,-158.203125
7029,-156.250000
7030,-156.250000
7031,-154.296875
7032,-156.250000
7033,-158.203125
7034,-156.250000
7035,-156.250000
7036,-156.250000
7037,-156.250000
7038,-156.250000
7039,-158.203125
7040,-156.250000
7041,-156.250000
7042,-156.250000
7043,-156.250000
7044,-156.250000
7045,-156.250000
7046,-156.250000
7047,-156.250000
7048,-156.250000
7049,-156.250000
7050,-156.250000
7051,-156.250000
7052,-156.250000
7053,-156.250000
7054,-156.250000
7055,-156.250000
7056,-156.250000
7057,-156.250000
7058,-156.250000
7059,-156.250000
7060,-156.250000
7061,-156.250000
7062,-156.250000
7063,-156.250000
7064,-154.296875
7065,-154.296875
7066,-154.296875
7067,-154.296875
7068,-154.296875
7069,-154.296875
7070,-154.296875
7071,-154.296875
7072,-154.296875
7073,-154.296875
7074,-154.296875
7075,-154.296875
7076,-154.296875
7077,-154.296875
7078,-154.296875
7079,-154.296875
7080,-154.296875
7081,-154.296875
7082,-154.296875
7083,-154.296875
7084,-152.343750
7085,-154.296875
7086,-152.343750
7087,-152.343750
7088,-152.343750
7089,-152.343750
7090,-152.343750
7091,-152.343750
7092,-152.343750
7093,-152.343750
7094,-152.343750
7095,-152.343750
7096,-150.390625
7097,-152.343750
7098,-152.343750
7099,-152.343750
7100,-150.390625
7101,-150.390625
7102,-150.390625
7103,-150.390625
7104,-150.390625
7105,-150.390625
7106,-150.390625
7107,-150.390625
7108,-150.390625
7109,-150.390625
7110,-150.390625
7111,-150.390625
7112,-150.390625
7113,-148.437500
7114,-148.437500
7115,-148.437500
7116,-148.437500
7117,-148.437500
7118,-148.437500
7119,-148.437500
7120,-148.437500
7121,-148.437500
7122,-148.437500
7123,-148.437500
7124,-146.484375
7125,-146.484375
7126,-146.484375
7127,-146.484375
7128,-146.484375
7129,-146.484375
7130,-144.531250
7131,-144.531250
7132,-144.531250
7133,-144.531250
7134,-144.531250
7135,-144.531250
7136,-144.531250
7137,-144.531250
7138,-144.531250
7139,-144.531250
7140,-144.531250
7141,-144.531250
7142,-144.531250
7143,-144.531250
7144,-142.578125
7145,-142.578125
7146,-142.578125
7147,-142.578125
7148,-142.578125
7149,-142.578125
7150,-142.578125
7151,-142.578125
7152,-142.578125
7153,-140.625000
7154,-140.625000
7155,-140.625000
7156,-140.625000
7157,-140.625000
7158,-140.625000
7159,-140.625000
7160,-140.625000
7161,-140.625000
7162,-138.671875
7163,-138.671875
7164,-138.671875
7165,-138.671875
7166,-138.671875
7167,-138.671875
7168,-138.671875
7169,-138.671875
7170,-138.671875
7171,-138.671875
7172,-136.718750
7173,-136.718750
7174,-136.718750
7175,-136.718750
7176,-136.718750
7177,-136.718750
7178,-134.765625
7179,-134.765625
7180,-136.718750
7181,-134.765625
7182,-134.765625
7183,-134.765625
7184,-134.765625
7185,-134.765625
7186,-132.812500
7187,-132.812500
7188,-132.812500
7189,-132.812500
7190,-132.812500
7191,-132.812500
7192,-132.812500
7193,-130.859375
7194,-132.812500
7195,-130.859375
7196,-130.859375
7197,-130.859375
7198,-128.906250
7199,-130.859375
7200,-130.859375
7201,-130.859375
7202,-130.859375
7203,-128.906250
7204,-128.906250
7205,-128.906250
7206,-128.906250
7207,-126.953125
7208,-126.953125
7209,-126.953125
7210,-126.953125
7211,-126.953125
7212,-126.953125
7213,-126.953125
7214,-126.953125
7215,-125.000000
7216,-125.000000
7217,-125.000000
7218,-125.000000
7219,-125.000000
7220,-125.000000
7221,-123.046875
7222,-123.046875
7223,-123.046875
7224,-123.046875
7225,-123.046875
7226,-123.046875
7227,-123.046875
7228,-121.093750
7229,-121.093750
7230,-121.093750
7231,-121.093750
7232,-121.093750
7233,-119.140625
7234,-119.140625
7235,-119.140625
7236,-119.140625
7237,-119.140625
7238,-119.140625
7239,-119.140625
7240,-117.187500
7241,-117.187500
7242,-117.187500
7243,-117.187500
7244,-115.234375
7245,-115.234375
7246,-115.234375
7247,-115.234375
7248,-115.234375
7249,-115.234375
7250,-115.234375
7251,-113.281250
7252,-113.281250
7253,-113.281250
7254,-113.281250
7255,-111.328125
7256,-113.281250
7257,-111.328125
7258,-111.328125
7259,-111.328125
7260,-111.328125
7261,-111.328125
7262,-111.328125
7263,-109.375000
7264,-109.375000
7265,-109.375000
7266,-109.375000
7267,-109.375000
7268,-107.421875
7269,-107.421875
7270,-107.421875
7271,-107.421875
7272,-107.421875
7273,-105.468750
7274,-105.468750
7275,-105.468750
7276,-105.468750
7277,-105.468750
7278,-105.468750
7279,-103.515625
7280,-103.515625
7281,-101.562500
7282,-103.515625
7283,-101.562500
7284,-101.562500
7285,-101.562500
7286,-101.562500
7287,-101.562500
7288,-101.562500
7289,-99.609375
7290,-99.609375
7291,-99.609375
7292,-97.656250
7293,-97.656250
7294,-97.656250
7295,-97.656250
7296,-97.656250
7297,-97.656250
7298,-97.656250
7299,-95.703125
7300,-97.656250
7301,-95.703125
7302,-95.703125
7303,-93.750000
7304,-93.750000
7305,-93.750000
7306,-93.750000
7307,-91.796875
7308,-91.796875
7309,-91.796875
7310,-91.796875
7311,-91.796875
7312,-91.796875
7313,-89.843750
7314,-89.843750
7315,-89.843750
7316,-89.843750
7317,-89.843750
7318,-87.890625
7319,-87.890625
7320,-87.890625
7321,-87.890625
7322,-85.937500
7323,-85.937500
7324,-85.937500
7325,-85.937500
7326,-85.937500
7327,-85.937500
7328,-83.984375
7329,-83.984375
7330,-83.984375
7331,-83.984375
7332,-82.031250
7333,-82.031250
7334,-83.984375
7335,-82.031250
7336,-82.031250
7337,-82.031250
7338,-80.078125
7339,-80.078125
7340,-80.078125
7341,-78.125000
7342,-78.125000
7343,-78.125000
7344,-78.125000
7345,-78.125000
7346,-78.125000
7347,-78.125000
7348,-76.171875
7349,-76.171875
7350,-76.171875
7351,-76.171875
7352,-74.218750
7353,-74.218750
7354,-74.218750
7355,-72.265625
7356,-72.265625
7357,-72.265625
7358,-72.265625
7359,-72.265625
7360,-72.265625
7361,-70.312500
7362,-70.312500
7363,-70.312500
7364,-70.312500
7365,-70.312500
7366,-68.359375
7367,-68.359375
7368,-68.359375
7369,-68.359375
7370,-66.406250
7371,-68.359375
7372,-66.406250
7373,-66.406250
7374,-66.406250
7375,-66.406250
7376,-64.453125
7377,-64.453125
7378,-64.453125
7379,-64.453125
7380,-62.500000
7381,-62.500000
7382,-62.500000
7383,-62.500000
7384,-60.546875
7385,-60.546875
7386,-60.546875
7387,-60.546875
7388,-60.546875
7389,-58.593750
7390,-58.593750
7391,-58.593750
7392,-58.593750
7393,-58.593750
7394,-56.640625
7395,-56.640625
7396,-56.640625
7397,-56.640625
7398,-54.687500
7399,-54.687500
7400,-54.687500
7401,-54.687500
7402,-54.687500
7403,-54.687500
7404,-52.734375
7405,-52.734375
7406,-50.781250
7407,-50.781250
7408,-50.781250
7409,-50.781250
7410,-50.781250
7411,-48.828125
7412,-50.781250
7413,-48.828125
7414,-48.828125
7415,-48.828125
7416,-48.828125
7417,-46.875000
7418,-46.875000
7419,-46.875000
7420,-46.875000
7421,-46.875000
7422,-44.921875
7423,-46.875000
7424,-44.921875
7425,-44.921875
7426,-44.921875
7427,-44.921875
7428,-42.968750
7429,-42.968750
7430,-42.968750
7431,-42.968750
7432,-41.015625
7433,-41.015625
7434,-41.015625
7435,-41.015625
7436,-41.015625
7437,-39.062500
7438,-39.062500
7439,-39.062500
7440,-39.062500
7441,-39.062500
7442,-37.109375
7443,-37.109375
7444,-37.109375
7445,-37.109375
7446,-35.156250
7447,-35.156250
7448,-35.156250
7449,-35.156250
7450,-35.156250
7451,-33.203125
7452,-33.203125
7453,-33.203125
7454,-33.203125
7455,-33.203125
7456,-33.203125
7457,-33.203125
7458,-31.250000
7459,-31.250000
7460,-31.250000
7461,-31.250000
7462,-29.296875
7463,-29.296875
7464,-29.296875
7465,-29.296875
7466,-29.296875
7467,-29.296875
7468,-27.343750
7469,-27.343750
7470,-27.343750
7471,-27.343750
7472,-27.343750
7473,-25.390625
7474,-25.390625
7475,-25.390625
7476,-25.390625
7477,-25.390625
7478,-25.390625
7479,-25.390625
7480,-23.437500
7481,-23.437500
7482,-23.437500
7483,-23.437500
7484,-23.437500
7485,-23.437500
7486,-23.437500
7487,-21.484375
7488,-21.484375
7489,-21.484375
7490,-21.484375
7491,-19.531250
7492,-21.484375
7493,-19.531250
7494,-19.531250
7495,-19.531250
7496,-19.531250
7497,-19.531250
7498,-19.531250
7499,-17.578125
7500,-17.578125
7501,-17.578125
7502,-17.578125
7503,-17.578125
7504,-15.625000
7505,-15.625000
7506,-15.625000
7507,-15.625000
7508,-15.625000
7509,-15.625000
7510,-15.625000
7511,-15.625000
7512,-13.671875
7513,-13.671875
7514,-13.671875
7515,-13.671875
7516,-13.671875
7517,-13.671875
7518,-13.671875
7519,-11.718750
7520,-11.718750
7521,-11.718750
7522,-11.718750
7523,-11.718750
7524,-11.718750
7525,-11.718750
7526,-11.718750
7527,-11.718750
7528,-9.765625
7529,-9.765625
7530,-9.765625
7531,-9.765625
7532,-9.765625
7533,-9.765625
7534,-7.812500
7535,-9.765625
7536,-7.812500
7537,-7.812500
7538,-7.812500
7539,-7.812500
7540,-7.812500
7541,-7.812500
7542,-7.812500
7543,-7.812500
7544,-5.859375
7545,-5.859375
7546,-5.859375
7547,-5.859375
7548,-5.859375
7549,-5.859375
7550,-5.859375
7551,-5.859375
7552,-5.859375
7553,-5.859375
7554,-5.859375
7555,-3.906250
7556,-3.906250
7557,-3.906250
7558,-3.906250
7559,-3.906250
7560,-3.906250
7561,-3.906250
7562,-3.906250
7563,-3.906250
7564,-3.906250
7565,-3.906250
7566,-3.906250
7567,-3.906250
7568,-3.906250
7569,-1.953125
7570,-1.953125
7571,-1.953125
7572,-1.953125
7573,-1.953125
7574,-1.953125
7575,-1.953125
7576,-1.953125
7577,-1.953125
7578,-1.953125
7579,-1.953125
7580,-1.953125
7581,-1.953125
7582,0.000000
7583,-1.953125
7584,-1.953125
7585,-1.953125
7586,-1.953125
7587,-1.953125
7588,0.000000
7589,0.000000
7590,0.000000
7591,0.000000
7592,0.000000
7593,0.000000
7594,-1.953125
7595,0.000000
7596,0.000000
7597,0.000000
7598,0.000000
7599,0.000000
7600,0.000000
7601,0.000000
7602,0.000000
7603,0.000000
7604,0.000000
7605,0.000000
7606,0.000000
7607,0.000000
7608,0.000000
7609,0.000000
7610,0.000000
7611,0.000000
7612,0.000000
7613,0.000000
7614,0.000000
7615,0.000000
7616,0.000000
7617,0.000000
7618,0.000000
7619,0.000000
7620,0.000000
7621,0.000000
7622,0.000000
7623,0.000000
7624,0.000000
7625,0.000000
7626,0.000000
7627,0.000000
7628,0.000000
7629,0.000000
7630,0.000000
7631,0.000000
7632,0.000000
7633,0.000000
7634,0.000000
7635,0.000000
7636,-1.953125
7637,0.000000
7638,0.000000
7639,-1.953125
7640,0.000000
7641,0.000000
7642,0.000000
7643,0.000000
7644,-1.953125
7645,-1.953125
7646,-1.953125
7647,-1.953125
7648,-1.953125
7649,-1.953125
7650,1.953125
7651,-1.953125
7652,-1.953125
7653,-1.953125
7654,-1.953125
7655,-1.953125
7656,-1.953125
7657,-1.953125
7658,-1.953125
7659,-1.953125
7660,-1.953125
7661,-1.953125
7662,-1.953125
7663,-1.953125
7664,-3.906250
7665,-3.906250
7666,-3.906250
7667,-3.906250
7668,-3.906250
7669,-3.906250
7670,-3.906250
7671,-3.906250
7672,-3.906250
7673,-3.906250
7674,-3.906250
7675,-5.859375
7676,-3.906250
7677,-5.859375
7678,-3.906250
7679,-3.906250
7680,-5.859375
7681,-5.859375
7682,-5.859375
7683,-5.859375
7684,-5.859375
7685,-5.859375
7686,-7.812500
7687,-5.859375
7688,-5.859375
7689,-7.812500
7690,-7.812500
7691,-7.812500
7692,-7.812500
7693,-7.812500
7694,-7.812500
7695,-7.812500
7696,-7.812500
7697,-7.812500
7698,-7.812500
7699,-9.765625
7700,-9.765625
7701,-9.765625
7702,-9.765625
7703,-9.765625
7704,-9.765625
7705,-9.765625
7706,-9.765625
7707,-9.765625
7708,-11.718750
7709,-11.718750
7710,-11.718750
7711,-11.718750
7712,-11.718750
7713,-11.718750
7714,-11.718750
7715,-13.671875
7716,-13.671875
7717,-13.671875
7718,-13.671875
7719,-13.671875
7720,-15.625000
7721,-15.625000
7722,-15.625000
7723,-15.625000
7724,-15.625000
7725,-13.671875
7726,-15.625000
7727,-15.625000
7728,-15.625000
7729,-17.578125
7730,-17.578125
7731,-17.578125
7732,-17.578125
7733,-17.578125
7734,-17.578125
7735,-19.531250
7736,-19.531250
7737,-19.531250
7738,-19.531250
7739,-19.531250
7740,-19.531250
7741,-21.484375
7742,-19.531250
7743,-21.484375
7744,-21.484375
7745,-21.484375
7746,-21.484375
7747,-21.484375
7748,-23.437500
7749,-23.437500
7750,-23.437500
7751,-23.437500
7752,-23.437500
7753,-23.437500
7754,-25.390625
7755,-25.390625
7756,-23.437500
7757,-25.390625
7758,-25.390625
7759,-27.343750
7760,-25.390625
7761,-27.343750
7762,-27.343750
7763,-27.343750
7764,-27.343750
7765,-27.343750
7766,-27.343750
7767,-29.296875
7768,-29.296875
7769,-29.296875
7770,-29.296875
7771,-31.250000
7772,-31.250000
7773,-31.250000
7774,-31.250000
7775,-31.250000
7776,-31.250000
7777,-33.203125
7778,-31.250000
7779,-33.203125
7780,-33.203125
7781,-33.203125
7782,-35.156250
7783,-35.156250
7784,-35.156250
7785,-35.156250
7786,-35.156250
7787,-37.109375
7788,-37.109375
7789,-37.109375
7790,-37.109375
7791,-37.109375
7792,-39.062500
7793,-39.062500
7794,-39.062500
7795,-39.062500
7796,-39.062500
7797,-39.062500
7798,-41.015625
7799,-41.015625
7800,-41.015625
7801,-41.015625
7802,-41.015625
7803,-41.015625
7804,-42.968750
7805,-42.968750
7806,-42.968750
7807,-42.968750
7808,-42.968750
7809,-44.921875
7810,-44.921875
7811,-44.921875
7812,-44.921875
7813,-46.875000
7814,-46.875000
7815,-46.875000
7816,-46.875000
7817,-46.875000
7818,-48.828125
7819,-48.828125
7820,-48.828125
7821,-48.828125
7822,-50.781250
7823,-50.781250
7824,-50.781250
7825,-50.781250
7826,-50.781250
7827,-50.781250
7828,-52.734375
7829,-52.734375
7830,-52.734375
7831,-54.687500
7832,-54.687500
7833,-54.687500
7834,-54.687500
7835,-54.687500
7836,-56.640625
7837,-56.640625
7838,-56.640625
7839,-56.640625
7840,-58.593750
7841,-58.593750
7842,-58.593750
7843,-58.593750
7844,-58.593750
7845,-58.593750
7846,-60.546875
7847,-60.546875
7848,-60.546875
7849,-62.500000
7850,-60.546875
7851,-62.500000
7852,-62.500000
7853,-62.500000
7854,-62.500000
7855,-64.453125
7856,-64.453125
7857,-64.453125
7858,-64.453125
7859,-66.406250
7860,-66.406250
7861,-66.406250
7862,-66.406250
7863,-68.359375
7864,-68.359375
7865,-68.359375
7866,-68.359375
7867,-68.359375
7868,-70.312500
7869,-70.312500
7870,-70.312500
7871,-70.312500
7872,-70.312500
7873,-72.265625
7874,-72.265625
7875,-72.265625
7876,-72.265625
7877,-74.218750
7878,-74.218750
7879,-74.218750
7880,-74.218750
7881,-74.218750
7882,-74.218750
7883,-76.171875
7884,-76.171875
7885,-76.171875
7886,-78.125000
7887,-78.125000
7888,-78.125000
7889,-78.125000
7890,-80.078125
7891,-80.078125
7892,-80.078125
7893,-80.078125
7894,-80.078125
7895,-80.078125
7896,-82.031250
7897,-82.031250
7898,-82.031250
7899,-82.031250
7900,-83.984375
7901,-83.984375
7902,-83.984375
7903,-83.984375
7904,-83.984375
7905,-83.984375
7906,-85.937500
7907,-85.937500
7908,-85.937500
7909,-85.937500
7910,-87.890625
7911,-87.890625
7912,-87.890625
7913,-87.890625
7914,-89.843750
7915,-89.843750
7916,-89.843750
7917,-89.843750
7918,-89.843750
7919,-91.796875
7920,-89.843750
7921,-91.796875
7922,-91.796875
7923,-91.796875
7924,-93.750000
7925,-93.750000
7926,-93.750000
7927,-93.750000
7928,-93.750000
7929,-93.750000
7930,-93.750000
7931,-95.703125
7932,-95.703125
7933,-95.703125
7934,-95.703125
7935,-97.656250
7936,-97.656250
7937,-97.656250
7938,-99.609375
7939,-99.609375
7940,-99.609375
7941,-99.609375
7942,-99.609375
7943,-99.609375
7944,-99.609375
7945,-99.609375
7946,-101.562500
7947,-101.562500
7948,-101.562500
7949,-101.562500
7950,-103.515625
7951,-103.515625
7952,-103.515625
7953,-103.515625
7954,-101.562500
7955,-105.468750
7956,-107.421875
7957,-105.468750
7958,-105.468750
7959,-105.468750
7960,-107.421875
7961,-107.421875
7962,-109.375000
7963,-107.421875
7964,-107.421875
7965,-111.328125
7966,-109.375000
7967,-109.375000
7968,-109.375000
7969,-111.328125
7970,-109.375000
7971,-111.328125
7972,-111.328125
7973,-111.328125
7974,-111.328125
7975,-113.281250
7976,-113.281250
7977,-113.281250
7978,-113.281250
7979,-115.234375
7980,-113.281250
7981,-115.234375
7982,-115.234375
7983,-115.234375
7984,-115.234375
7985,-117.187500
7986,-117.187500
7987,-117.187500
7988,-115.234375
7989,-117.187500
7990,-117.187500
7991,-119.140625
7992,-119.140625
7993,-119.140625
7994,-121.093750
7995,-121.093750
7996,-121.093750
7997,-121.093750
7998,-121.093750
7999,-121.093750
8000,-121.093750
8001,-121.093750
8002,-121.093750
8003,-123.046875
8004,-123.046875
8005,-123.046875
8006,-125.000000
8007,-125.000000
8008,-125.000000
8009,-125.000000
8010,-125.000000
8011,-125.000000
8012,-125.000000
8013,-125.000000
8014,-126.953125
8015,-126.953125
8016,-126.953125
8017,-126.953125
8018,-126.953125
8019,-128.906250
8020,-126.953125
8021,-128.906250
8022,-128.906250
8023,-132.812500
8024,-128.906250
8025,-130.859375
8026,-132.812500
8027,-128.906250
8028,-130.859375
8029,-130.859375
8030,-130.859375
8031,-132.812500
8032,-132.812500
8033,-130.859375
8034,-132.812500
8035,-132.812500
8036,-130.859375
8037,-132.812500
8038,-132.812500
8039,-134.765625
8040,-134.765625
8041,-134.765625
8042,-134.765625
8043,-134.765625
8044,-134.765625
8045,-134.765625
8046,-134.765625
8047,-136.718750
8048,-136.718750
8049,-136.718750
8050,-136.718750
8051,-136.718750
8052,-136.718750
8053,-136.718750
8054,-138.671875
8055,-138.671875
8056,-138.671875
8057,-138.671875
8058,-138.671875
8059,-138.671875
8060,-140.625000
8061,-140.625000
8062,-140.625000
8063,-140.625000
8064,-140.625000
8065,-140.625000
8066,-140.625000
8067,-140.625000
8068,-142.578125
8069,-142.578125
8070,-142.578125
8071,-142.578125
8072,-142.578125
8073,-142.578125
8074,-142.578125
8075,-142.578125
8076,-142.578125
8077,-142.578125
8078,-144.531250
8079,-144.531250
8080,-144.531250
8081,-144.531250
8082,-144.531250
8083,-144.531250
8084,-144.531250
8085,-146.484375
8086,-146.484375
8087,-146.484375
8088,-146.484375
8089,-146.484375
8090,-146.484375
8091,-146.484375
8092,-148.437500
8093,-148.437500
8094,-146.484375
8095,-148.437500
8096,-148.437500
8097,-148.437500
8098,-148.437500
8099,-148.437500
8100,-148.437500
8101,-152.343750
8102,-148.437500
8103,-148.437500
8104,-150.390625
8105,-150.390625
8106,-150.390625
8107,-150.390625
8108,-150.390625
8109,-150.390625
8110,-150.390625
8111,-150.390625
8112,-150.390625
8113,-150.390625
8114,-152.343750
8115,-152.343750
8116,-152.343750
8117,-152.343750
8118,-152.343750
8119,-152.343750
8120,-152.343750
8121,-152.343750
8122,-152.343750
8123,-154.296875
8124,-152.343750
8125,-152.343750
8126,-154.296875
8127,-152.343750
8128,-154.296875
8129,-154.296875
8130,-150.390625
8131,-154.296875
8132,-154.296875
8133,-154.296875
8134,-154.296875
8135,-154.296875
8136,-156.250000
8137,-154.296875
8138,-154.296875
8139,-154.296875
8140,-154.296875
8141,-156.250000
8142,-154.296875
8143,-154.296875
8144,-154.296875
8145,-156.250000
8146,-154.296875
8147,-156.250000
8148,-156.250000
8149,-156.250000
8150,-156.250000
8151,-156.250000
8152,-156.250000
8153,-156.250000
8154,-156.250000
8155,-156.250000
8156,-156.250000
8157,-156.250000
8158,-156.250000
8159,-156.250000
8160,-156.250000
8161,-156.250000
8162,-156.250000
8163,-156.250000
8164,-156.250000
8165,-156.250000
8166,-158.203125
8167,-156.250000
8168,-156.250000
8169,-156.250000
8170,-156.250000
8171,-156.250000
8172,-158.203125
8173,-156.250000
8174,-156.250000
8175,-156.250000
8176,-156.250000
8177,-156.250000
8178,-156.250000
8179,-156.250000
8180,-156.250000
8181,-156.250000
8182,-156.250000
8183,-156.250000
8184,-156.250000
8185,-156.250000
8186,-156.250000
8187,-158.203125
8188,-156.250000
8189,-156.250000
8190,-156.250000
8191,-156.250000
8192,-156.250000
8193,-156.250000
8194,-156.250000
8195,-156.250000
8196,-156.250000
8197,-156.250000
8198,-156.250000
8199,-156.250000
8200,-156.250000
8201,-156.250000
8202,-156.250000
8203,-156.250000
8204,-156.250000
8205,-156.250000
8206,-154.296875
8207,-156.250000
8208,-156.250000
8209,-156.250000
8210,-156.250000
8211,-156.250000
8212,-156.250000
8213,-156.250000
8214,-154.296875
8215,-154.296875
8216,-156.250000
8217,-154.296875
8218,-156.250000
8219,-154.296875
8220,-154.296875
8221,-154.296875
8222,-154.296875
8223,-154.296875
8224,-154.296875
8225,-154.296875
8226,-154.296875
8227,-154.296875
8228,-154.296875
8229,-154.296875
8230,-154.296875
8231,-156.250000
8232,-154.296875
8233,-154.296875
8234,-154.296875
8235,-154.296875
8236,-154.296875
8237,-152.343750
8238,-154.296875
8239,-154.296875
8240,-152.343750
8241,-154.296875
8242,-152.343750
8243,-152.343750
8244,-152.343750
8245,-152.343750
8246,-152.343750
8247,-152.343750
8248,-152.343750
8249,-152.343750
8250,-152.343750
8251,-152.343750
8252,-150.390625
8253,-152.343750
8254,-150.390625
8255,-152.343750
8256,-150.390625
8257,-150.390625
8258,-150.390625
8259,-150.390625
8260,-150.390625
8261,-150.390625
8262,-150.390625
8263,-150.390625
8264,-150.390625
8265,-150.390625
8266,-150.390625
8267,-150.390625
8268,-148.437500
8269,-150.390625
8270,-150.390625
8271,-150.390625
8272,-148.437500
8273,-148.437500
8274,-148.437500
8275,-148.437500
8276,-148.437500
8277,-148.437500
8278,-148.437500
8279,-148.437500
8280,-148.437500
8281,-148.437500
8282,-148.437500
8283,-146.484375
8284,-146.484375
8285,-146.484375
8286,-146.484375
8287,-146.484375
8288,-146.484375
8289,-144.531250
8290,-146.484375
8291,-146.484375
8292,-146.484375
8293,-144.531250
8294,-144.531250
8295,-144.531250
8296,-144.531250
8297,-144.531250
8298,-144.531250
8299,-144.531250
8300,-144.531250
8301,-144.531250
8302,-142.578125
8303,-142.578125
8304,-142.578125
8305,-142.578125
8306,-142.578125
8307,-142.578125
8308,-142.578125
8309,-142.578125
8310,-142.578125
8311,-140.625000
8312,-140.625000
8313,-140.625000
8314,-140.625000
8315,-140.625000
8316,-140.625000
8317,-140.625000
8318,-140.625000
8319,-140.625000
8320,-138.671875
8321,-138.671875
8322,-138.671875
8323,-138.671875
8324,-138.671875
8325,-138.671875
8326,-138.671875
8327,-138.671875
8328,-138.671875
8329,-136.718750
8330,-136.718750
8331,-136.718750
8332,-136.718750
8333,-136.718750
8334,-134.765625
8335,-134.765625
8336,-134.765625
8337,-134.765625
8338,-134.765625
8339,-134.765625
8340,-134.765625
8341,-134.765625
8342,-134.765625
8343,-134.765625
8344,-134.765625
8345,-132.812500
8346,-132.812500
8347,-132.812500
8348,-132.812500
8349,-132.812500
8350,-132.812500
8351,-132.812500
8352,-132.812500
8353,-130.859375
8354,-130.859375
8355,-130.859375
8356,-128.906250
8357,-130.859375
8358,-128.906250
8359,-128.906250
8360,-128.906250
8361,-128.906250
8362,-128.906250
8363,-128.906250
8364,-128.906250
8365,-128.906250
8366,-126.953125
8367,-126.953125
8368,-126.953125
8369,-126.953125
8370,-126.953125
8371,-126.953125
8372,-125.000000
8373,-126.953125
8374,-126.953125
8375,-125.000000
8376,-125.000000
8377,-125.000000
8378,-125.000000
8379,-123.046875
8380,-123.046875
8381,-123.046875
8382,-123.046875
8383,-123.046875
8384,-123.046875
8385,-123.046875
8386,-121.093750
8387,-121.093750
8388,-121.093750
8389,-121.093750
8390,-121.093750
8391,-121.093750
8392,-119.140625
8393,-119.140625
8394,-119.140625
8395,-119.140625
8396,-119.140625
8397,-119.140625
8398,-119.140625
8399,-117.187500
8400,-117.187500
8401,-117.187500
8402,-117.187500
8403,-117.187500
8404,-117.187500
8405,-117.187500
8406,-115.234375
8407,-115.234375
8408,-115.234375
8409,-113.281250
8410,-113.281250
8411,-113.281250
8412,-113.281250
8413,-113.281250
8414,-113.281250
8415,-111.328125
8416,-111.328125
8417,-111.328125
8418,-111.328125
8419,-109.375000
8420,-109.375000
8421,-109.375000
8422,-109.375000
8423,-109.375000
8424,-109.375000
8425,-109.375000
8426,-107.421875
8427,-107.421875
8428,-107.421875
8429,-107.421875
8430,-107.421875
8431,-105.468750
8432,-105.468750
8433,-105.468750
8434,-105.468750
8435,-105.468750
8436,-103.515625
8437,-105.468750
8438,-103.515625
8439,-103.515625
8440,-103.515625
8441,-101.562500
8442,-103.515625
8443,-101.562500
8444,-101.562500
8445,-101.562500
8446,-101.562500
8447,-99.609375
8448,-99.609375
8449,-99.609375
8450,-99.609375
8451,-97.656250
8452,-97.656250
8453,-97.656250
8454,-97.656250
8455,-97.656250
8456,-95.703125
8457,-95.703125
8458,-95.703125
8459,-95.703125
8460,-95.703125
8461,-95.703125
8462,-93.750000
8463,-93.750000
8464,-93.750000
8465,-93.750000
8466,-91.796875
8467,-91.796875
8468,-91.796875
8469,-91.796875
8470,-91.796875
8471,-89.843750
8472,-89.843750
8473,-89.843750
8474,-89.843750
8475,-87.890625
8476,-87.890625
8477,-85.937500
8478,-87.890625
8479,-87.890625
8480,-87.890625
8481,-85.937500
8482,-85.937500
8483,-85.937500
8484,-85.937500
8485,-85.937500
8486,-83.984375
8487,-83.984375
8488,-83.984375
8489,-83.984375
8490,-83.984375
8491,-82.031250
8492,-82.031250
8493,-82.031250
8494,-82.031250
8495,-82.031250
8496,-80.078125
8497,-80.078125
8498,-80.078125
8499,-78.125000
8500,-78.125000
8501,-78.125000
8502,-76.171875
8503,-78.125000
8504,-76.171875
8505,-76.171875
8506,-76.171875
8507,-76.171875
8508,-76.171875
8509,-76.171875
8510,-74.218750
8511,-74.218750
8512,-74.218750
8513,-74.218750
8514,-72.265625
8515,-72.265625
8516,-72.265625
8517,-72.265625
8518,-72.265625
8519,-72.265625
8520,-70.312500
8521,-70.312500
8522,-70.312500
8523,-70.312500
8524,-72.265625
8525,-68.359375
8526,-68.359375
8527,-68.359375
8528,-66.406250
8529,-66.406250
8530,-66.406250
8531,-66.406250
8532,-66.406250
8533,-66.406250
8534,-64.453125
8535,-64.453125
8536,-64.453125
8537,-64.453125
8538,-62.500000
8539,-62.500000
8540,-62.500000
8541,-62.500000
8542,-60.546875
8543,-60.546875
8544,-60.546875
8545,-60.546875
8546,-60.546875
8547,-60.546875
8548,-58.593750
8549,-58.593750
8550,-58.593750
8551,-58.593750
8552,-56.640625
8553,-56.640625
8554,-56.640625
8555,-56.640625
8556,-54.687500
8557,-54.687500
8558,-54.687500
8559,-54.687500
8560,-54.687500
8561,-54.687500
8562,-52.734375
8563,-52.734375
8564,-52.734375
8565,-52.734375
8566,-50.781250
8567,-50.781250
8568,-50.781250
8569,-50.781250
8570,-48.828125
8571,-48.828125
8572,-48.828125
8573,-48.828125
8574,-48.828125
8575,-46.875000
8576,-46.875000
8577,-46.875000
8578,-46.875000
8579,-46.875000
8580,-44.921875
8581,-44.921875
8582,-44.921875
8583,-44.921875
8584,-44.921875
8585,-42.968750
8586,-42.968750
8587,-42.968750
8588,-42.968750
8589,-42.968750
8590,-42.968750
8591,-41.015625
8592,-41.015625
8593,-41.015625
8594,-39.062500
8595,-39.062500
8596,-39.062500
8597,-39.062500
8598,-39.062500
8599,-39.062500
8600,-39.062500
8601,-37.109375
8602,-37.109375
8603,-37.109375
8604,-37.109375
8605,-35.156250
8606,-35.156250
8607,-35.156250
8608,-35.156250
8609,-35.156250
8610,-35.156250
8611,-33.203125
8612,-33.203125
8613,-31.250000
8614,-33.203125
8615,-33.203125
8616,-31.250000
8617,-31.250000
8618,-31.250000
8619,-31.250000
8620,-31.250000
8621,-29.296875
8622,-29.296875
8623,-29.296875
8624,-29.296875
8625,-29.296875
8626,-29.296875
8627,-27.343750
8628,-27.343750
8629,-27.343750
8630,-27.343750
8631,-27.343750
8632,-27.343750
8633,-25.390625
8634,-25.390625
8635,-25.390625
8636,-25.390625
8637,-25.390625
8638,-23.437500
8639,-23.437500
8640,-23.437500
8641,-23.437500
8642,-23.437500
8643,-23.437500
8644,-23.437500
8645,-21.484375
8646,-21.484375
8647,-21.484375
8648,-21.484375
8649,-21.484375
8650,-21.484375
8651,-19.531250
8652,-19.531250
8653,-19.531250
8654,-19.531250
8655,-19.531250
8656,-19.531250
8657,-17.578125
8658,-17.578125
8659,-17.578125
8660,-17.578125
8661,-17.578125
8662,-17.578125
8663,-17.578125
8664,-17.578125
8665,-15.625000
8666,-15.625000
8667,-15.625000
8668,-15.625000
8669,-15.625000
8670,-13.671875
8671,-15.625000
8672,-13.671875
8673,-13.671875
8674,-13.671875
8675,-13.671875
8676,-13.671875
8677,-13.671875
8678,-11.718750
8679,-11.718750
8680,-11.718750
8681,-11.718750
8682,-11.718750
8683,-9.765625
8684,-11.718750
8685,-11.718750
8686,-9.765625
8687,-9.765625
8688,-9.765625
8689,-9.765625
8690,-9.765625
8691,-9.765625
8692,-9.765625
8693,-9.765625
8694,-7.812500
8695,-7.812500
8696,-7.812500
8697,-7.812500
8698,-7.812500
8699,-7.812500
8700,-7.812500
8701,-7.812500
8702,-5.859375
8703,-5.859375
8704,-5.859375
8705,-5.859375
8706,-5.859375
8707,-5.859375
8708,-5.859375
8709,-5.859375
8710,-5.859375
8711,-5.859375
8712,-3.906250
8713,-3.906250
8714,-3.906250
8715,-5.859375
8716,-5.859375
8717,-3.906250
8718,-3.906250
8719,-3.906250
8720,-3.906250
8721,-3.906250
8722,-3.906250
8723,-3.906250
8724,-3.906250
8725,-3.906250
8726,-3.906250
8727,-3.906250
8728,-3.906250
8729,-1.953125
8730,-1.953125
8731,-1.953125
8732,-1.953125
8733,-1.953125
8734,-1.953125
8735,-1.953125
8736,-1.953125
8737,-1.953125
8738,-1.953125
8739,-1.953125
8740,0.000000
8741,-1.953125
8742,0.000000
8743,-1.953125
8744,0.000000
8745,0.000000
8746,0.000000
8747,-1.953125
8748,-1.953125
8749,-1.953125
8750,-1.953125
8751,0.000000
8752,0.000000
8753,0.000000
8754,0.000000
8755,0.000000
8756,0.000000
8757,0.000000
8758,0.000000
8759,0.000000
8760,0.000000
8761,0.000000
8762,0.000000
8763,0.000000
8764,0.000000
8765,0.000000
8766,0.000000
8767,0.000000
8768,0.000000
8769,0.000000
8770,0.000000
8771,0.000000
8772,0.000000
8773,0.000000
8774,0.000000
8775,0.000000
8776,0.000000
8777,0.000000
8778,0.000000
8779,0.000000
8780,0.000000
8781,0.000000
8782,0.000000
8783,0.000000
8784,0.000000
8785,0.000000
8786,0.000000
8787,0.000000
8788,0.000000
8789,0.000000
8790,0.000000
8791,-1.953125
8792,0.000000
8793,0.000000
8794,0.000000
8795,0.000000
8796,0.000000
8797,0.000000
8798,-1.953125
8799,0.000000
8800,0.000000
8801,-1.953125
8802,-1.953125
8803,-1.953125
8804,-1.953125
8805,-1.953125
8806,-1.953125
8807,-1.953125
8808,-1.953125
8809,-1.953125
8810,-1.953125
8811,1.953125
8812,-1.953125
8813,-1.953125
8814,-1.953125
8815,-1.953125
8816,-1.953125
8817,-1.953125
8818,-1.953125
8819,-3.906250
8820,-3.906250
8821,-3.906250
8822,-1.953125
8823,-3.906250
8824,-3.906250
8825,-3.906250
8826,-3.906250
8827,-3.906250
8828,-3.906250
8829,-3.906250
8830,-3.906250
8831,-3.906250
8832,-3.906250
8833,-5.859375
8834,-3.906250
8835,-5.859375
8836,-5.859375
8837,-5.859375
8838,-5.859375
8839,-5.859375
8840,-5.859375
8841,-5.859375
8842,-5.859375
8843,-5.859375
8844,-5.859375
8845,-5.859375
8846,-7.812500
8847,-7.812500
8848,-7.812500
8849,-7.812500
8850,-7.812500
8851,-7.812500
8852,-7.812500
8853,-7.812500
8854,-7.812500
8855,-9.765625
8856,-9.765625
8857,-9.765625
8858,-9.765625
8859,-9.765625
8860,-9.765625
8861,-9.765625
8862,-9.765625
8863,-9.765625
8864,-9.765625
8865,-11.718750
8866,-11.718750
8867,-11.718750
8868,-11.718750
8869,-11.718750
8870,-11.718750
8871,-11.718750
8872,-11.718750
8873,-13.671875
8874,-11.718750
8875,-13.671875
8876,-13.671875
8877,-13.671875
8878,-15.625000
8879,-15.625000
8880,-15.625000
8881,-15.625000
8882,-15.625000
8883,-15.625000
8884,-15.625000
8885,-15.625000
8886,-17.578125
8887,-17.578125
8888,-17.578125
8889,-17.578125
8890,-17.578125
8891,-17.578125
8892,-17.578125
8893,-17.578125
8894,-19.531250
8895,-19.531250
8896,-19.531250
8897,-19.531250
8898,-19.531250
8899,-21.484375
8900,-21.484375
8901,-21.484375
8902,-21.484375
8903,-21.484375
8904,-21.484375
8905,-21.484375
8906,-21.484375
8907,-23.437500
8908,-23.437500
8909,-23.437500
8910,-23.437500
8911,-23.437500
8912,-23.437500
8913,-25.390625
8914,-25.390625
8915,-25.390625
8916,-25.390625
8917,-25.390625
8918,-27.343750
8919,-27.343750
8920,-27.343750
8921,-27.343750
8922,-27.343750
8923,-29.296875
8924,-29.296875
8925,-29.296875
8926,-29.296875
8927,-29.296875
8928,-29.296875
8929,-29.296875
8930,-31.250000
8931,-31.250000
8932,-31.250000
8933,-31.250000
8934,-31.250000
8935,-33.203125
8936,-31.250000
8937,-33.203125
8938,-33.203125
8939,-33.203125
8940,-33.203125
8941,-35.156250
8942,-35.156250
8943,-35.156250
8944,-35.156250
8945,-35.156250
8946,-37.109375
8947,-37.109375
8948,-37.109375
8949,-37.109375
8950,-37.109375
8951,-39.062500
8952,-39.062500
8953,-39.062500
8954,-39.062500
8955,-39.062500
8956,-39.062500
8957,-41.015625
8958,-41.015625
8959,-41.015625
8960,-41.015625
8961,-42.968750
8962,-42.968750
8963,-42.968750
8964,-42.968750
8965,-42.968750
8966,-42.968750
8967,-44.921875
8968,-44.921875
8969,-44.921875
8970,-44.921875
8971,-44.921875
8972,-46.875000
8973,-46.875000
8974,-46.875000
8975,-48.828125
8976,-48.828125
8977,-48.828125
8978,-48.828125
8979,-48.828125
8980,-48.828125
8981,-50.781250
8982,-50.781250
8983,-50.781250
8984,-50.781250
8985,-52.734375
8986,-52.734375
8987,-52.734375
8988,-52.734375
8989,-52.734375
8990,-52.734375
8991,-54.687500
8992,-54.687500
8993,-54.687500
8994,-54.687500
8995,-56.640625
8996,-54.687500
8997,-56.640625
8998,-56.640625
8999,-58.593750
9000,-58.593750
9001,-58.593750
9002,-58.593750
9003,-58.593750
9004,-58.593750
9005,-60.546875
9006,-60.546875
9007,-60.546875
9008,-60.546875
9009,-60.546875
9010,-62.500000
9011,-62.500000
9012,-62.500000
9013,-64.453125
9014,-64.453125
9015,-64.453125
9016,-64.453125
9017,-66.406250
9018,-66.406250
9019,-66.406250
9020,-66.406250
9021,-66.406250
9022,-68.359375
9023,-68.359375
9024,-68.359375
9025,-68.359375
9026,-68.359375
9027,-70.312500
9028,-70.312500
9029,-70.312500
9030,-70.312500
9031,-70.312500
9032,-72.265625
9033,-72.265625
9034,-72.265625
9035,-72.265625
9036,-74.218750
9037,-74.218750
9038,-74.218750
9039,-74.218750
9040,-76.171875
9041,-76.171875
9042,-76.171875
9043,-76.171875
9044,-76.171875
9045,-76.171875
9046,-78.125000
9047,-78.125000
9048,-78.125000
9049,-80.078125
9050,-80.078125
9051,-80.078125
9052,-80.078125
9053,-80.078125
9054,-80.078125
9055,-82.031250
9056,-82.031250
9057,-82.031250
9058,-82.031250
9059,-83.984375
9060,-83.984375
9061,-83.984375
9062,-83.984375
9063,-85.937500
9064,-83.984375
9065,-83.984375
9066,-85.937500
9067,-85.937500
9068,-85.937500
9069,-87.890625
9070,-87.890625
9071,-87.890625
9072,-87.890625
9073,-87.890625
9074,-89.843750
9075,-89.843750
9076,-89.843750
9077,-89.843750
9078,-91.796875
9079,-91.796875
9080,-91.796875
9081,-91.796875
9082,-91.796875
9083,-91.796875
9084,-93.750000
9085,-93.750000
9086,-93.750000
9087,-93.750000
9088,-93.750000
9089,-95.703125
9090,-95.703125
9091,-95.703125
9092,-95.703125
9093,-97.656250
9094,-97.656250
9095,-97.656250
9096,-97.656250
9097,-97.656250
9098,-97.656250
9099,-99.609375
9100,-99.609375
9101,-99.609375
9102,-99.609375
9103,-101.562500
9104,-101.562500
9105,-101.562500
9106,-101.562500
9107,-101.562500
9108,-103.515625
9109,-103.515625
9110,-103.515625
9111,-103.515625
9112,-103.515625
9113,-103.515625
9114,-105.468750
9115,-105.468750
9116,-105.468750
9117,-105.468750
9118,-107.421875
9119,-107.421875
9120,-107.421875
9121,-107.421875
9122,-107.421875
9123,-107.421875
9124,-109.375000
9125,-109.375000
9126,-109.375000
9127,-109.375000
9128,-109.375000
9129,-111.328125
9130,-111.328125
9131,-111.328125
9132,-111.328125
9133,-111.328125
9134,-113.281250
9135,-113.281250
9136,-113.281250
9137,-113.281250
9138,-113.281250
9139,-115.234375
9140,-115.234375
9141,-115.234375
9142,-115.234375
9143,-117.187500
9144,-115.234375
9145,-117.187500
9146,-117.187500
9147,-117.187500
9148,-117.187500
9149,-119.140625
9150,-117.187500
9151,-119.140625
9152,-119.140625
9153,-119.140625
9154,-119.140625
9155,-121.093750
9156,-121.093750
9157,-121.093750
9158,-121.093750
9159,-121.093750
9160,-121.093750
9161,-123.046875
9162,-123.046875
9163,-123.046875
9164,-123.046875
9165,-123.046875
9166,-125.000000
9167,-125.000000
9168,-125.000000
9169,-125.000000
9170,-125.000000
9171,-126.953125
9172,-125.000000
9173,-126.953125
9174,-126.953125
9175,-126.953125
9176,-126.953125
9177,-126.953125
9178,-128.906250
9179,-128.906250
9180,-128.906250
9181,-128.906250
9182,-128.906250
9183,-128.906250
9184,-128.906250
9185,-130.859375
9186,-130.859375
9187,-130.859375
9188,-130.859375
9189,-130.859375
9190,-130.859375
9191,-132.812500
9192,-132.812500
9193,-132.812500
9194,-132.812500
9195,-132.812500
9196,-132.812500
9197,-132.812500
9198,-132.812500
9199,-134.765625
9200,-134.765625
9201,-134.765625
9202,-134.765625
9203,-134.765625
9204,-134.765625
9205,-136.718750
9206,-136.718750
9207,-136.718750
9208,-136.718750
9209,-136.718750
9210,-136.718750
9211,-136.718750
9212,-138.671875
9213,-138.671875
9214,-138.671875
9215,-138.671875
9216,-138.671875
9217,-138.671875
9218,-144.531250
9219,-138.671875
9220,-140.625000
9221,-140.625000
9222,-140.625000
9223,-140.625000
9224,-140.625000
9225,-140.625000
9226,-140.625000
9227,-140.625000
9228,-142.578125
9229,-142.578125
9230,-142.578125
9231,-142.578125
9232,-142.578125
9233,-142.578125
9234,-144.531250
9235,-142.578125
9236,-142.578125
9237,-142.578125
9238,-144.531250
9239,-144.531250
9240,-144.531250
9241,-144.531250
9242,-146.484375
9243,-144.531250
9244,-144.531250
9245,-146.484375
9246,-146.484375
9247,-146.484375
9248,-148.437500
9249,-146.484375
9250,-146.484375
9251,-146.484375
9252,-148.437500
9253,-148.437500
9254,-146.484375
9255,-148.437500
9256,-148.437500
9257,-148.437500
9258,-148.437500
9259,-148.437500
9260,-148.437500
9261,-148.437500
9262,-148.437500
9263,-148.437500
9264,-150.390625
9265,-150.390625
9266,-150.390625
9267,-150.390625
9268,-150.390625
9269,-150.390625
9270,-150.390625
9271,-150.390625
9272,-152.343750
9273,-150.390625
9274,-150.390625
9275,-150.390625
9276,-152.343750
9277,-152.343750
9278,-152.343750
9279,-152.343750
9280,-152.343750
9281,-152.343750
9282,-152.343750
9283,-152.343750
9284,-152.343750
9285,-152.343750
9286,-152.343750
9287,-154.296875
9288,-154.296875
9289,-154.296875
9290,-154.296875
9291,-154.296875
9292,-154.296875
9293,-154.296875
9294,-154.296875
9295,-154.296875
9296,-154.296875
9297,-154.296875
9298,-154.296875
9299,-154.296875
9300,-154.296875
9301,-154.296875
9302,-154.296875
9303,-156.250000
9304,-156.250000
9305,-156.250000
9306,-154.296875
9307,-156.250000
9308,-156.250000
9309,-156.250000
9310,-154.296875
9311,-156.250000
9312,-156.250000
9313,-156.250000
9314,-156.250000
9315,-156.250000
9316,-156.250000
9317,-156.250000
9318,-156.250000
9319,-156.250000
9320,-156.250000
9321,-156.250000
9322,-156.250000
9323,-156.250000
9324,-156.250000
9325,-156.250000
9326,-156.250000
9327,-156.250000
9328,-156.250000
9329,-156.250000
9330,-156.250000
9331,-156.250000
9332,-156.250000
9333,-156.250000
9334,-156.250000
9335,-156.250000
9336,-158.203125
9337,-156.250000
9338,-156.250000
9339,-156.250000
9340,-156.250000
9341,-156.250000
9342,-156.250000
9343,-156.250000
9344,-156.250000
9345,-156.250000
9346,-156.250000
9347,-156.250000
9348,-156.250000
9349,-156.250000
9350,-156.250000
9351,-156.250000
9352,-156.250000
9353,-156.250000
9354,-156.250000
9355,-156.250000
9356,-156.250000
9357,-156.250000
9358,-156.250000
9359,-156.250000
9360,-156.250000
9361,-156.250000
9362,-156.250000
9363,-156.250000
9364,-154.296875
9365,-156.250000
9366,-156.250000
9367,-156.250000
9368,-156.250000
9369,-154.296875
9370,-156.250000
9371,-156.250000
9372,-156.250000
9373,-154.296875
9374,-154.296875
9375,-154.296875
9376,-156.250000
9377,-156.250000
9378,-156.250000
9379,-154.296875
9380,-154.296875
9381,-154.296875
9382,-154.296875
9383,-154.296875
9384,-154.296875
9385,-154.296875
9386,-154.296875
9387,-154.296875
9388,-154.296875
9389,-154.296875
9390,-154.296875
9391,-154.296875
9392,-154.296875
9393,-154.296875
9394,-154.296875
9395,-154.296875
9396,-154.296875
9397,-152.343750
9398,-152.343750
9399,-152.343750
9400,-152.343750
9401,-152.343750
9402,-152.343750
9403,-152.343750
9404,-152.343750
9405,-152.343750
9406,-152.343750
9407,-152.343750
9408,-152.343750
9409,-152.343750
9410,-152.343750
9411,-152.343750
9412,-150.390625
9413,-152.343750
9414,-152.343750
9415,-152.343750
9416,-152.343750
9417,-150.390625
9418,-150.390625
9419,-150.390625
9420,-150.390625
9421,-150.390625
9422,-150.390625
9423,-150.390625
9424,-150.390625
9425,-150.390625
9426,-150.390625
9427,-150.390625
9428,-150.390625
9429,-148.437500
9430,-148.437500
9431,-148.437500
9432,-148.437500
9433,-148.437500
9434,-148.437500
9435,-148.437500
9436,-148.437500
9437,-148.437500
9438,-148.437500
9439,-148.437500
9440,-146.484375
9441,-146.484375
9442,-146.484375
9443,-146.484375
9444,-146.484375
9445,-146.484375
9446,-146.484375
9447,-146.484375
9448,-146.484375
9449,-146.484375
9450,-144.531250
9451,-144.531250
9452,-144.531250
9453,-144.531250
9454,-144.531250
9455,-144.531250
9456,-144.531250
9457,-144.531250
9458,-144.531250
9459,-144.531250
9460,-144.531250
9461,-142.578125
9462,-142.578125
9463,-142.578125
9464,-142.578125
9465,-142.578125
9466,-142.578125
9467,-142.578125
9468,-142.578125
9469,-142.578125
9470,-140.625000
9471,-140.625000
9472,-140.625000
9473,-140.625000
9474,-140.625000
9475,-140.625000
9476,-140.625000
9477,-140.625000
9478,-140.625000
9479,-138.671875
9480,-138.671875
9481,-138.671875
9482,-138.671875
9483,-136.718750
9484,-138.671875
9485,-138.671875
9486,-136.718750
9487,-136.718750
9488,-136.718750
9489,-136.718750
9490,-136.718750
9491,-136.718750
9492,-136.718750
9493,-136.718750
9494,-136.718750
9495,-134.765625
9496,-134.765625
9497,-134.765625
9498,-134.765625
9499,-134.765625
9500,-134.765625
9501,-134.765625
9502,-132.812500
9503,-132.812500
9504,-132.812500
9505,-132.812500
9506,-132.812500
9507,-132.812500
9508,-132.812500
9509,-132.812500
9510,-130.859375
9511,-132.812500
9512,-130.859375
9513,-130.859375
9514,-130.859375
9515,-130.859375
9516,-128.906250
9517,-130.859375
9518,-128.906250
9519,-128.906250
9520,-128.906250
9521,-130.859375
9522,-126.953125
9523,-128.906250
9524,-128.906250
9525,-128.906250
9526,-126.953125
9527,-126.953125
9528,-126.953125
9529,-126.953125
9530,-126.953125
9531,-126.953125
9532,-126.953125
9533,-126.953125
9534,-125.000000
9535,-125.000000
9536,-125.000000
9537,-125.000000
9538,-123.046875
9539,-125.000000
9540,-125.000000
9541,-123.046875
9542,-123.046875
9543,-121.093750
9544,-123.046875
9545,-123.046875
9546,-121.093750
9547,-121.093750
9548,-121.093750
9549,-121.093750
9550,-121.093750
9551,-119.140625
9552,-119.140625
9553,-119.140625
9554,-119.140625
9555,-119.140625
9556,-119.140625
9557,-119.140625
9558,-117.187500
9559,-117.187500
9560,-117.187500
9561,-117.187500
9562,-115.234375
9563,-117.187500
9564,-117.187500
9565,-115.234375
9566,-115.234375
9567,-115.234375
9568,-113.281250
9569,-115.234375
9570,-113.281250
9571,-113.281250
9572,-113.281250
9573,-113.281250
9574,-113.281250
9575,-111.328125
9576,-111.328125
9577,-111.328125
9578,-111.328125
9579,-111.328125
9580,-109.375000
9581,-109.375000
9582,-109.375000
9583,-109.375000
9584,-109.375000
9585,-107.421875
9586,-107.421875
9587,-107.421875
9588,-107.421875
9589,-107.421875
9590,-107.421875
9591,-105.468750
9592,-105.468750
9593,-105.468750
9594,-105.468750
9595,-103.515625
9596,-103.515625
9597,-103.515625
9598,-103.515625
9599,-101.562500
9600,-101.562500
9601,-101.562500
9602,-101.562500
9603,-101.562500
9604,-101.562500
9605,-99.609375
9606,-99.609375
9607,-99.609375
9608,-97.656250
9609,-99.609375
9610,-101.562500
9611,-95.703125
9612,-97.656250
9613,-97.656250
9614,-95.703125
9615,-95.703125
9616,-97.656250
9617,-95.703125
9618,-95.703125
9619,-95.703125
9620,-93.750000
9621,-93.750000
9622,-93.750000
9623,-93.750000
9624,-91.796875
9625,-93.750000
9626,-91.796875
9627,-91.796875
9628,-91.796875
9629,-91.796875
9630,-89.843750
9631,-89.843750
9632,-89.843750
9633,-89.843750
9634,-89.843750
9635,-87.890625
9636,-87.890625
9637,-87.890625
9638,-87.890625
9639,-85.937500
9640,-85.937500
9641,-85.937500
9642,-85.937500
9643,-83.984375
9644,-85.937500
9645,-83.984375
9646,-83.984375
9647,-83.984375
9648,-83.984375
9649,-82.031250
9650,-82.031250
9651,-82.031250
9652,-82.031250
9653,-82.031250
9654,-80.078125
9655,-80.078125
9656,-80.078125
9657,-80.078125
9658,-80.078125
9659,-78.125000
9660,-78.125000
9661,-78.125000
9662,-76.171875
9663,-76.171875
9664,-76.171875
9665,-76.171875
9666,-76.171875
9667,-76.171875
9668,-74.218750
9669,-74.218750
9670,-74.218750
9671,-74.218750
9672,-74.218750
9673,-72.265625
9674,-72.265625
9675,-72.265625
9676,-72.265625
9677,-70.312500
9678,-70.312500
9679,-70.312500
9680,-70.312500
9681,-70.312500
9682,-68.359375
9683,-68.359375
9684,-68.359375
9685,-66.406250
9686,-68.359375
9687,-66.406250
9688,-66.406250
9689,-66.406250
9690,-66.406250
9691,-66.406250
9692,-64.453125
9693,-64.453125
9694,-64.453125
9695,-62.500000
9696,-64.453125
9697,-62.500000
9698,-62.500000
9699,-62.500000
9700,-60.546875
9701,-60.546875
9702,-60.546875
9703,-60.546875
9704,-60.546875
9705,-58.593750
9706,-58.593750
9707,-58.593750
9708,-56.640625
9709,-58.593750
9710,-56.640625
9711,-58.593750
9712,-56.640625
9713,-56.640625
9714,-54.687500
9715,-56.640625
9716,-54.687500
9717,-54.687500
9718,-54.687500
9719,-54.687500
9720,-52.734375
9721,-52.734375
9722,-52.734375
9723,-52.734375
9724,-50.781250
9725,-50.781250
9726,-50.781250
9727,-50.781250
9728,-48.828125
9729,-48.828125
9730,-48.828125
9731,-48.828125
9732,-48.828125
9733,-48.828125
9734,-46.875000
9735,-46.875000
9736,-46.875000
9737,-46.875000
9738,-46.875000
9739,-44.921875
9740,-44.921875
9741,-44.921875
9742,-44.921875
9743,-44.921875
9744,-42.968750
9745,-42.968750
9746,-42.968750
9747,-42.968750
9748,-41.015625
9749,-41.015625
9750,-41.015625
9751,-41.015625
9752,-41.015625
9753,-41.015625
9754,-39.062500
9755,-39.062500
9756,-39.062500
9757,-39.062500
9758,-39.062500
9759,-37.109375
9760,-37.109375
9761,-37.109375
9762,-35.156250
9763,-37.109375
9764,-35.156250
9765,-35.156250
9766,-35.156250
9767,-35.156250
9768,-35.156250
9769,-33.203125
9770,-33.203125
9771,-33.203125
9772,-31.250000
9773,-33.203125
9774,-31.250000
9775,-31.250000
9776,-31.250000
9777,-31.250000
9778,-31.250000
9779,-31.250000
9780,-29.296875
9781,-29.296875
9782,-29.296875
9783,-29.296875
9784,-27.343750
9785,-27.343750
9786,-27.343750
9787,-27.343750
9788,-27.343750
9789,-27.343750
9790,-27.343750
9791,-25.390625
9792,-25.390625
9793,-25.390625
9794,-25.390625
9795,-25.390625
9796,-23.437500
9797,-23.437500
9798,-23.437500
9799,-23.437500
9800,-23.437500
9801,-23.437500
9802,-23.437500
9803,-21.484375
9804,-21.484375
9805,-21.484375
9806,-21.484375
9807,-21.484375
9808,-21.484375
9809,-21.484375
9810,-19.531250
9811,-19.531250
9812,-19.531250
9813,-19.531250
9814,-19.531250
9815,-17.578125
9816,-17.578125
9817,-17.578125
9818,-17.578125
9819,-17.578125
9820,-17.578125
9821,-17.578125
9822,-15.625000
9823,-17.578125
9824,-15.625000
9825,-15.625000
9826,-15.625000
9827,-15.625000
9828,-13.671875
9829,-15.625000
9830,-13.671875
9831,-13.671875
9832,-13.671875
9833,-13.671875
9834,-13.671875
9835,-11.718750
9836,-11.718750
9837,-11.718750
9838,-11.718750
9839,-11.718750
9840,-11.718750
9841,-9.765625
9842,-11.718750
9843,-11.718750
9844,-11.718750
9845,-9.765625
9846,-9.765625
9847,-9.765625
9848,-9.765625
9849,-9.765625
9850,-9.765625
9851,-7.812500
9852,-7.812500
9853,-7.812500
9854,-7.812500
9855,-7.812500
9856,-7.812500
9857,-7.812500
9858,-7.812500
9859,-7.812500
9860,-7.812500
9861,-5.859375
9862,-5.859375
9863,-5.859375
9864,-5.859375
9865,-5.859375
9866,-5.859375
9867,-5.859375
9868,-5.859375
9869,-3.906250
9870,-5.859375
9871,-3.906250
9872,-3.906250
9873,-3.906250
9874,-3.906250
9875,-3.906250
9876,-3.906250
9877,-3.906250
9878,-3.906250
9879,-3.906250
9880,-3.906250
9881,-3.906250
9882,-3.906250
9883,-3.906250
9884,-3.906250
9885,-1.953125
9886,-1.953125
9887,-3.906250
9888,-1.953125
9889,-1.953125
9890,-1.953125
9891,-1.953125
9892,-1.953125
9893,-1.953125
9894,-1.953125
9895,-1.953125
9896,-1.953125
9897,-1.953125
9898,-1.953125
9899,-1.953125
9900,-1.953125
9901,-1.953125
9902,-1.953125
9903,-1.953125
9904,0.000000
9905,0.000000
9906,-1.953125
9907,0.000000
9908,-1.953125
9909,-1.953125
9910,0.000000
9911,0.000000
9912,0.000000
9913,0.000000
9914,0.000000
9915,0.000000
9916,0.000000
9917,0.000000
9918,0.000000
9919,0.000000
9920,0.000000
9921,0.000000
9922,0.000000
9923,0.000000
9924,0.000000
9925,0.000000
9926,0.000000
9927,0.000000
9928,0.000000
9929,0.000000
9930,0.000000
9931,0.000000
9932,0.000000
9933,0.000000
9934,0.000000
9935,0.000000
9936,0.000000
9937,0.000000
9938,0.000000
9939,0.000000
9940,0.000000
9941,-1.953125
9942,0.000000
9943,0.000000
9944,-1.953125
9945,0.000000
9946,0.000000
9947,-1.953125
9948,0.000000
9949,-1.953125
9950,-1.953125
9951,0.000000
9952,0.000000
9953,0.000000
9954,0.000000
9955,-1.953125
9956,0.000000
9957,0.000000
9958,0.000000
9959,-1.953125
9960,-1.953125
9961,-1.953125
9962,-1.953125
9963,-1.953125
9964,-1.953125
9965,-1.953125
9966,-1.953125
9967,-1.953125
9968,-1.953125
9969,-1.953125
9970,-1.953125
9971,-1.953125
9972,-1.953125
9973,-1.953125
9974,-1.953125
9975,-1.953125
9976,-1.953125
9977,-3.906250
9978,-1.953125
9979,-3.906250
9980,-3.906250
9981,-3.906250
9982,-3.906250
9983,-3.906250
9984,-3.906250
9985,-3.906250
9986,-3.906250
9987,-3.906250
9988,-3.906250
9989,-3.906250
9990,-3.906250
9991,-7.812500
9992,-5.859375
9993,-5.859375
9994,-5.859375
9995,-5.859375
9996,-5.859375
9997,-5.859375
9998,-5.859375
9999,-5.859375
10000,-5.859375
