Channel              :,CH1
Frequency            :,1.200kHz
Period               :,0.833ms
PK-PK                :,507.8mV
Probe attenuation    :,1X
Voltage per ADC value:,0.244141mV
Time interval        :,2.00000us

index,CH1_Voltage(mV)
1,-58.593750
2,-58.593750
3,-54.687500
4,-50.781250
5,-46.875000
6,-42.968750
7,-39.062500
8,-35.156250
9,-31.250000
10,-27.343750
11,-23.437500
12,-19.531250
13,-15.625000
14,-11.718750
15,-7.812500
16,-3.906250
17,0.000000
18,3.906250
19,7.812500
20,11.718750
21,15.625000
22,19.531250
23,23.437500
24,27.343750
25,31.250000
26,35.156250
27,39.062500
28,42.968750
29,46.875000
30,46.875000
31,50.781250
32,54.687500
33,58.593750
34,62.500000
35,66.406250
36,66.406250
37,70.312500
38,74.218750
39,78.125000
40,82.031250
41,85.937500
42,85.937500
43,89.843750
44,93.750000
45,97.656250
46,97.656250
47,101.562500
48,101.562500
49,105.468750
50,109.375000
51,113.281250
52,113.281250
53,117.187500
54,121.093750
55,121.093750
56,125.000000
57,125.000000
58,128.906250
59,132.812500
60,132.812500
61,136.718750
62,136.718750
63,140.625000
64,140.625000
65,144.531250
66,144.531250
67,148.437500
68,148.437500
69,152.343750
70,152.343750
71,152.343750
72,156.250000
73,156.250000
74,160.156250
75,160.156250
76,160.156250
77,160.156250
78,164.062500
79,164.062500
80,167.968750
81,167.968750
82,167.968750
83,171.875000
84,171.875000
85,171.875000
86,171.875000
87,171.875000
88,175.781250
89,175.781250
90,175.781250
91,175.781250
92,179.687500
93,179.687500
94,179.687500
95,179.687500
96,179.687500
97,183.593750
98,183.593750
99,183.593750
100,183.593750
101,183.593750
102,183.593750
103,183.593750
104,183.593750
105,183.593750
106,187.500000
107,187.500000
108,187.500000
109,183.593750
110,187.500000
111,187.500000
112,187.500000
113,187.500000
114,187.500000
115,187.500000
116,187.500000
117,187.500000
118,187.500000
119,183.593750
120,183.593750
121,183.593750
122,183.593750
123,183.593750
124,183.593750
125,183.593750
126,183.593750
127,183.593750
128,183.593750
129,179.687500
130,179.687500
131,179.687500
132,179.687500
133,179.687500
134,179.687500
135,175.781250
136,179.687500
137,175.781250
138,175.781250
139,175.781250
140,175.781250
141,171.875000
142,171.875000
143,171.875000
144,171.875000
145,167.968750
146,167.968750
147,164.062500
148,164.062500
149,164.062500
150,160.156250
151,160.156250
152,160.156250
153,160.156250
154,156.250000
155,156.250000
156,152.343750
157,152.343750
158,148.437500
159,148.437500
160,144.531250
161,144.531250
162,144.531250
163,140.625000
164,140.625000
165,136.718750
166,132.812500
167,132.812500
168,128.906250
169,128.906250
170,125.000000
171,125.000000
172,121.093750
173,117.187500
174,117.187500
175,113.281250
176,109.375000
177,109.375000
178,105.468750
179,101.562500
180,101.562500
181,97.656250
182,93.750000
183,93.750000
184,89.843750
185,85.937500
186,85.937500
187,82.031250
188,78.125000
189,74.218750
190,70.312500
191,70.312500
192,62.500000
193,62.500000
194,54.687500
195,54.687500
196,50.781250
197,46.875000
198,42.968750
199,42.968750
200,39.062500
201,35.156250
202,31.250000
203,35.156250
204,23.437500
205,19.531250
206,15.625000
207,11.718750
208,7.812500
209,3.906250
210,0.000000
211,-3.906250
212,-7.812500
213,-11.718750
214,-15.625000
215,-19.531250
216,-23.437500
217,-27.343750
218,-31.250000
219,-35.156250
220,-39.062500
221,-42.968750
222,-46.875000
223,-50.781250
224,-54.687500
225,-58.593750
226,-62.500000
227,-66.406250
228,-70.312500
229,-78.125000
230,-82.031250
231,-85.937500
232,-89.843750
233,-93.750000
234,-97.656250
235,-101.562500
236,-105.468750
237,-109.375000
238,-113.281250
239,-117.187500
240,-121.093750
241,-128.906250
242,-128.906250
243,-132.812500
244,-136.718750
245,-140.625000
246,-144.531250
247,-148.437500
248,-152.343750
249,-156.250000
250,-160.156250
251,-164.062500
252,-167.968750
253,-171.875000
254,-175.781250
255,-179.687500
256,-183.593750
257,-187.500000
258,-191.406250
259,-195.312500
260,-199.218750
261,-199.218750
262,-203.125000
263,-207.031250
264,-210.937500
265,-214.843750
266,-218.750000
267,-222.656250
268,-226.562500
269,-226.562500
270,-230.468750
271,-234.375000
272,-238.281250
273,-238.281250
274,-242.187500
275,-246.093750
276,-250.000000
277,-253.906250
278,-253.906250
279,-257.812500
280,-261.718750
281,-261.718750
282,-265.625000
283,-269.531250
284,-269.531250
285,-273.437500
286,-277.343750
287,-277.343750
288,-277.343750
289,-281.250000
290,-285.156250
291,-285.156250
292,-289.062500
293,-289.062500
294,-289.062500
295,-292.968750
296,-292.968750
297,-296.875000
298,-296.875000
299,-300.781250
300,-300.781250
301,-300.781250
302,-304.687500
303,-304.687500
304,-308.593750
305,-308.593750
306,-308.593750
307,-308.593750
308,-312.500000
309,-312.500000
310,-312.500000
311,-312.500000
312,-312.500000
313,-312.500000
314,-316.406250
315,-316.406250
316,-316.406250
317,-316.406250
318,-316.406250
319,-316.406250
320,-316.406250
321,-316.406250
322,-316.406250
323,-316.406250
324,-316.406250
325,-316.406250
326,-316.406250
327,-316.406250
328,-316.406250
329,-316.406250
330,-312.500000
331,-316.406250
332,-312.500000
333,-312.500000
334,-312.500000
335,-312.500000
336,-312.500000
337,-308.593750
338,-308.593750
339,-308.593750
340,-304.687500
341,-304.687500
342,-304.687500
343,-304.687500
344,-300.781250
345,-300.781250
346,-300.781250
347,-296.875000
348,-296.875000
349,-292.968750
350,-292.968750
351,-289.062500
352,-289.062500
353,-285.156250
354,-285.156250
355,-281.250000
356,-281.250000
357,-277.343750
358,-277.343750
359,-273.437500
360,-269.531250
361,-265.625000
362,-265.625000
363,-261.718750
364,-261.718750
365,-257.812500
366,-253.906250
367,-253.906250
368,-250.000000
369,-246.093750
370,-246.093750
371,-242.187500
372,-238.281250
373,-234.375000
374,-230.468750
375,-226.562500
376,-226.562500
377,-222.656250
378,-218.750000
379,-214.843750
380,-210.937500
381,-207.031250
382,-203.125000
383,-203.125000
384,-199.218750
385,-195.312500
386,-191.406250
387,-187.500000
388,-183.593750
389,-179.687500
390,-175.781250
391,-171.875000
392,-167.968750
393,-164.062500
394,-160.156250
395,-156.250000
396,-152.343750
397,-148.437500
398,-144.531250
399,-140.625000
400,-136.718750
401,-132.812500
402,-128.906250
403,-125.000000
404,-121.093750
405,-113.281250
406,-109.375000
407,-105.468750
408,-101.562500
409,-97.656250
410,-93.750000
411,-89.843750
412,-85.937500
413,-82.031250
414,-78.125000
415,-74.218750
416,-70.312500
417,-66.406250
418,-62.500000
419,-58.593750
420,-54.687500
421,-50.781250
422,-46.875000
423,-42.968750
424,-39.062500
425,-35.156250
426,-31.250000
427,-23.437500
428,-19.531250
429,-19.531250
430,-11.718750
431,-7.812500
432,-7.812500
433,0.000000
434,3.906250
435,7.812500
436,7.812500
437,11.718750
438,19.531250
439,23.437500
440,23.437500
441,27.343750
442,31.250000
443,35.156250
444,39.062500
445,42.968750
446,46.875000
447,50.781250
448,54.687500
449,54.687500
450,58.593750
451,62.500000
452,66.406250
453,70.312500
454,74.218750
455,74.218750
456,78.125000
457,82.031250
458,85.937500
459,85.937500
460,89.843750
461,93.750000
462,97.656250
463,101.562500
464,101.562500
465,105.468750
466,105.468750
467,109.375000
468,113.281250
469,113.281250
470,117.187500
471,121.093750
472,121.093750
473,125.000000
474,128.906250
475,128.906250
476,132.812500
477,132.812500
478,136.718750
479,136.718750
480,136.718750
481,140.625000
482,144.531250
483,144.531250
484,144.531250
485,148.437500
486,152.343750
487,152.343750
488,152.343750
489,156.250000
490,156.250000
491,156.250000
492,160.156250
493,160.156250
494,160.156250
495,164.062500
496,164.062500
497,167.968750
498,167.968750
499,167.968750
500,171.875000
501,171.875000
502,171.875000
503,171.875000
504,175.781250
505,171.875000
506,175.781250
507,175.781250
508,175.781250
509,179.687500
510,179.687500
511,179.687500
512,179.687500
513,179.687500
514,183.593750
515,183.593750
516,183.593750
517,183.593750
518,183.593750
519,183.593750
520,183.593750
521,183.593750
522,187.500000
523,187.500000
524,187.500000
525,187.500000
526,187.500000
527,187.500000
528,187.500000
529,183.593750
530,187.500000
531,187.500000
532,187.500000
533,183.593750
534,187.500000
535,183.593750
536,187.500000
537,187.500000
538,183.593750
539,183.593750
540,183.593750
541,183.593750
542,183.593750
543,183.593750
544,183.593750
545,183.593750
546,179.687500
547,179.687500
548,179.687500
549,179.687500
550,179.687500
551,179.687500
552,175.781250
553,175.781250
554,175.781250
555,175.781250
556,175.781250
557,171.875000
558,171.875000
559,171.875000
560,167.968750
561,167.968750
562,167.968750
563,167.968750
564,164.062500
565,164.062500
566,164.062500
567,160.156250
568,160.156250
569,160.156250
570,156.250000
571,156.250000
572,156.250000
573,152.343750
574,152.343750
575,148.437500
576,148.437500
577,144.531250
578,144.531250
579,140.625000
580,140.625000
581,136.718750
582,136.718750
583,132.812500
584,132.812500
585,128.906250
586,128.906250
587,125.000000
588,121.093750
589,121.093750
590,117.187500
591,117.187500
592,113.281250
593,113.281250
594,109.375000
595,105.468750
596,101.562500
597,101.562500
598,97.656250
599,93.750000
600,89.843750
601,89.843750
602,85.937500
603,82.031250
604,78.125000
605,78.125000
606,74.218750
607,70.312500
608,66.406250
609,62.500000
610,58.593750
611,58.593750
612,54.687500
613,50.781250
614,46.875000
615,42.968750
616,39.062500
617,35.156250
618,31.250000
619,27.343750
620,27.343750
621,19.531250
622,19.531250
623,15.625000
624,11.718750
625,7.812500
626,3.906250
627,0.000000
628,-3.906250
629,-7.812500
630,-11.718750
631,-15.625000
632,-19.531250
633,-27.343750
634,-27.343750
635,-31.250000
636,-35.156250
637,-39.062500
638,-42.968750
639,-46.875000
640,-50.781250
641,-54.687500
642,-58.593750
643,-66.406250
644,-70.312500
645,-74.218750
646,-78.125000
647,-82.031250
648,-85.937500
649,-89.843750
650,-93.750000
651,-97.656250
652,-101.562500
653,-105.468750
654,-109.375000
655,-113.281250
656,-117.187500
657,-121.093750
658,-125.000000
659,-128.906250
660,-132.812500
661,-140.625000
662,-140.625000
663,-144.531250
664,-148.437500
665,-152.343750
666,-156.250000
667,-160.156250
668,-164.062500
669,-167.968750
670,-175.781250
671,-175.781250
672,-179.687500
673,-183.593750
674,-187.500000
675,-191.406250
676,-195.312500
677,-199.218750
678,-203.125000
679,-207.031250
680,-210.937500
681,-210.937500
682,-214.843750
683,-218.750000
684,-222.656250
685,-226.562500
686,-230.468750
687,-234.375000
688,-234.375000
689,-238.281250
690,-242.187500
691,-242.187500
692,-246.093750
693,-250.000000
694,-253.906250
695,-253.906250
696,-257.812500
697,-261.718750
698,-261.718750
699,-265.625000
700,-269.531250
701,-269.531250
702,-273.437500
703,-273.437500
704,-277.343750
705,-281.250000
706,-281.250000
707,-285.156250
708,-285.156250
709,-289.062500
710,-289.062500
711,-292.968750
712,-292.968750
713,-296.875000
714,-296.875000
715,-296.875000
716,-300.781250
717,-300.781250
718,-300.781250
719,-304.687500
720,-304.687500
721,-308.593750
722,-308.593750
723,-308.593750
724,-308.593750
725,-312.500000
726,-312.500000
727,-312.500000
728,-312.500000
729,-312.500000
730,-312.500000
731,-316.406250
732,-316.406250
733,-316.406250
734,-316.406250
735,-316.406250
736,-316.406250
737,-316.406250
738,-316.406250
739,-316.406250
740,-316.406250
741,-316.406250
742,-316.406250
743,-316.406250
744,-316.406250
745,-316.406250
746,-316.406250
747,-316.406250
748,-312.500000
749,-312.500000
750,-312.500000
751,-312.500000
752,-312.500000
753,-308.593750
754,-308.593750
755,-308.593750
756,-308.593750
757,-304.687500
758,-304.687500
759,-304.687500
760,-300.781250
761,-300.781250
762,-300.781250
763,-300.781250
764,-296.875000
765,-292.968750
766,-292.968750
767,-289.062500
768,-289.062500
769,-285.156250
770,-285.156250
771,-281.250000
772,-281.250000
773,-277.343750
774,-277.343750
775,-273.437500
776,-273.437500
777,-269.531250
778,-269.531250
779,-265.625000
780,-261.718750
781,-257.812500
782,-257.812500
783,-253.906250
784,-250.000000
785,-250.000000
786,-246.093750
787,-242.187500
788,-238.281250
789,-238.281250
790,-234.375000
791,-230.468750
792,-226.562500
793,-222.656250
794,-222.656250
795,-214.843750
796,-214.843750
797,-210.937500
798,-207.031250
799,-203.125000
800,-199.218750
801,-195.312500
802,-191.406250
803,-191.406250
804,-187.500000
805,-183.593750
806,-179.687500
807,-175.781250
808,-171.875000
809,-167.968750
810,-164.062500
811,-160.156250
812,-156.250000
813,-152.343750
814,-148.437500
815,-144.531250
816,-140.625000
817,-136.718750
818,-128.906250
819,-125.000000
820,-125.000000
821,-117.187500
822,-113.281250
823,-109.375000
824,-105.468750
825,-101.562500
826,-97.656250
827,-93.750000
828,-89.843750
829,-85.937500
830,-82.031250
831,-78.125000
832,-74.218750
833,-70.312500
834,-66.406250
835,-62.500000
836,-58.593750
837,-50.781250
838,-46.875000
839,-42.968750
840,-39.062500
841,-35.156250
842,-31.250000
843,-27.343750
844,-23.437500
845,-19.531250
846,-15.625000
847,-11.718750
848,-7.812500
849,-3.906250
850,0.000000
851,3.906250
852,7.812500
853,11.718750
854,15.625000
855,19.531250
856,23.437500
857,27.343750
858,27.343750
859,31.250000
860,35.156250
861,39.062500
862,42.968750
863,46.875000
864,50.781250
865,54.687500
866,58.593750
867,62.500000
868,62.500000
869,66.406250
870,70.312500
871,74.218750
872,74.218750
873,78.125000
874,82.031250
875,85.937500
876,85.937500
877,89.843750
878,93.750000
879,97.656250
880,101.562500
881,101.562500
882,105.468750
883,109.375000
884,109.375000
885,113.281250
886,113.281250
887,117.187500
888,121.093750
889,121.093750
890,125.000000
891,128.906250
892,128.906250
893,132.812500
894,132.812500
895,136.718750
896,136.718750
897,140.625000
898,140.625000
899,140.625000
900,144.531250
901,148.437500
902,148.437500
903,152.343750
904,152.343750
905,152.343750
906,156.250000
907,156.250000
908,160.156250
909,160.156250
910,164.062500
911,164.062500
912,164.062500
913,164.062500
914,167.968750
915,167.968750
916,167.968750
917,171.875000
918,171.875000
919,171.875000
920,171.875000
921,175.781250
922,175.781250
923,175.781250
924,175.781250
925,175.781250
926,175.781250
927,179.687500
928,179.687500
929,183.593750
930,179.687500
931,179.687500
932,183.593750
933,183.593750
934,183.593750
935,183.593750
936,183.593750
937,183.593750
938,183.593750
939,183.593750
940,187.500000
941,183.593750
942,187.500000
943,187.500000
944,187.500000
945,187.500000
946,187.500000
947,187.500000
948,187.500000
949,187.500000
950,183.593750
951,187.500000
952,187.500000
953,187.500000
954,187.500000
955,183.593750
956,187.500000
957,183.593750
958,183.593750
959,183.593750
960,183.593750
961,183.593750
962,183.593750
963,179.687500
964,183.593750
965,179.687500
966,179.687500
967,179.687500
968,179.687500
969,175.781250
970,175.781250
971,175.781250
972,171.875000
973,175.781250
974,171.875000
975,171.875000
976,171.875000
977,171.875000
978,167.968750
979,167.968750
980,167.968750
981,164.062500
982,164.062500
983,164.062500
984,160.156250
985,160.156250
986,160.156250
987,156.250000
988,156.250000
989,152.343750
990,152.343750
991,152.343750
992,148.437500
993,148.437500
994,144.531250
995,144.531250
996,140.625000
997,140.625000
998,136.718750
999,136.718750
1000,132.812500
1001,132.812500
1002,128.906250
1003,125.000000
1004,125.000000
1005,125.000000
1006,121.093750
1007,117.187500
1008,117.187500
1009,113.281250
1010,109.375000
1011,109.375000
1012,105.468750
1013,101.562500
1014,97.656250
1015,97.656250
1016,93.750000
1017,93.750000
1018,85.937500
1019,85.937500
1020,82.031250
1021,78.125000
1022,78.125000
1023,74.218750
1024,70.312500
1025,66.406250
1026,62.500000
1027,62.500000
1028,58.593750
1029,54.687500
1030,50.781250
1031,46.875000
1032,42.968750
1033,39.062500
1034,35.156250
1035,31.250000
1036,31.250000
1037,23.437500
1038,23.437500
1039,19.531250
1040,15.625000
1041,11.718750
1042,7.812500
1043,3.906250
1044,0.000000
1045,-3.906250
1046,-7.812500
1047,-11.718750
1048,-15.625000
1049,-19.531250
1050,-23.437500
1051,-27.343750
1052,-35.156250
1053,-35.156250
1054,-39.062500
1055,-46.875000
1056,-50.781250
1057,-54.687500
1058,-54.687500
1059,-62.500000
1060,-66.406250
1061,-70.312500
1062,-74.218750
1063,-78.125000
1064,-82.031250
1065,-85.937500
1066,-89.843750
1067,-93.750000
1068,-97.656250
1069,-101.562500
1070,-105.468750
1071,-109.375000
1072,-113.281250
1073,-117.187500
1074,-121.093750
1075,-125.000000
1076,-132.812500
1077,-136.718750
1078,-140.625000
1079,-140.625000
1080,-148.437500
1081,-152.343750
1082,-156.250000
1083,-156.250000
1084,-160.156250
1085,-167.968750
1086,-171.875000
1087,-175.781250
1088,-175.781250
1089,-179.687500
1090,-183.593750
1091,-187.500000
1092,-191.406250
1093,-195.312500
1094,-199.218750
1095,-203.125000
1096,-207.031250
1097,-210.937500
1098,-214.843750
1099,-218.750000
1100,-218.750000
1101,-222.656250
1102,-226.562500
1103,-230.468750
1104,-234.375000
1105,-234.375000
1106,-238.281250
1107,-242.187500
1108,-246.093750
1109,-246.093750
1110,-250.000000
1111,-253.906250
1112,-253.906250
1113,-257.812500
1114,-261.718750
1115,-265.625000
1116,-265.625000
1117,-269.531250
1118,-273.437500
1119,-273.437500
1120,-277.343750
1121,-277.343750
1122,-281.250000
1123,-281.250000
1124,-285.156250
1125,-285.156250
1126,-289.062500
1127,-289.062500
1128,-292.968750
1129,-292.968750
1130,-296.875000
1131,-296.875000
1132,-300.781250
1133,-300.781250
1134,-300.781250
1135,-304.687500
1136,-304.687500
1137,-308.593750
1138,-304.687500
1139,-308.593750
1140,-308.593750
1141,-312.500000
1142,-312.500000
1143,-312.500000
1144,-312.500000
1145,-312.500000
1146,-312.500000
1147,-316.406250
1148,-316.406250
1149,-316.406250
1150,-316.406250
1151,-316.406250
1152,-316.406250
1153,-316.406250
1154,-316.406250
1155,-316.406250
1156,-316.406250
1157,-316.406250
1158,-316.406250
1159,-316.406250
1160,-316.406250
1161,-316.406250
1162,-316.406250
1163,-316.406250
1164,-316.406250
1165,-312.500000
1166,-312.500000
1167,-312.500000
1168,-312.500000
1169,-312.500000
1170,-312.500000
1171,-308.593750
1172,-308.593750
1173,-308.593750
1174,-304.687500
1175,-304.687500
1176,-304.687500
1177,-300.781250
1178,-300.781250
1179,-300.781250
1180,-296.875000
1181,-296.875000
1182,-296.875000
1183,-292.968750
1184,-289.062500
1185,-289.062500
1186,-289.062500
1187,-285.156250
1188,-281.250000
1189,-281.250000
1190,-277.343750
1191,-277.343750
1192,-273.437500
1193,-269.531250
1194,-269.531250
1195,-265.625000
1196,-265.625000
1197,-261.718750
1198,-257.812500
1199,-253.906250
1200,-253.906250
1201,-250.000000
1202,-250.000000
1203,-246.093750
1204,-242.187500
1205,-238.281250
1206,-238.281250
1207,-234.375000
1208,-230.468750
1209,-226.562500
1210,-222.656250
1211,-218.750000
1212,-214.843750
1213,-214.843750
1214,-210.937500
1215,-207.031250
1216,-203.125000
1217,-199.218750
1218,-195.312500
1219,-191.406250
1220,-187.500000
1221,-183.593750
1222,-179.687500
1223,-179.687500
1224,-171.875000
1225,-167.968750
1226,-164.062500
1227,-164.062500
1228,-156.250000
1229,-152.343750
1230,-148.437500
1231,-148.437500
1232,-144.531250
1233,-136.718750
1234,-132.812500
1235,-128.906250
1236,-125.000000
1237,-121.093750
1238,-121.093750
1239,-113.281250
1240,-109.375000
1241,-105.468750
1242,-101.562500
1243,-93.750000
1244,-93.750000
1245,-89.843750
1246,-85.937500
1247,-82.031250
1248,-78.125000
1249,-74.218750
1250,-70.312500
1251,-62.500000
1252,-58.593750
1253,-54.687500
1254,-50.781250
1255,-46.875000
1256,-42.968750
1257,-39.062500
1258,-35.156250
1259,-35.156250
1260,-27.343750
1261,-23.437500
1262,-19.531250
1263,-15.625000
1264,-11.718750
1265,-7.812500
1266,-3.906250
1267,0.000000
1268,3.906250
1269,7.812500
1270,11.718750
1271,15.625000
1272,19.531250
1273,23.437500
1274,27.343750
1275,31.250000
1276,35.156250
1277,35.156250
1278,39.062500
1279,42.968750
1280,46.875000
1281,50.781250
1282,54.687500
1283,58.593750
1284,62.500000
1285,62.500000
1286,66.406250
1287,70.312500
1288,74.218750
1289,78.125000
1290,78.125000
1291,82.031250
1292,85.937500
1293,89.843750
1294,89.843750
1295,93.750000
1296,97.656250
1297,101.562500
1298,101.562500
1299,105.468750
1300,109.375000
1301,109.375000
1302,113.281250
1303,113.281250
1304,117.187500
1305,121.093750
1306,121.093750
1307,125.000000
1308,128.906250
1309,128.906250
1310,132.812500
1311,132.812500
1312,136.718750
1313,136.718750
1314,140.625000
1315,140.625000
1316,144.531250
1317,144.531250
1318,148.437500
1319,148.437500
1320,152.343750
1321,152.343750
1322,152.343750
1323,156.250000
1324,156.250000
1325,160.156250
1326,160.156250
1327,160.156250
1328,164.062500
1329,164.062500
1330,167.968750
1331,167.968750
1332,167.968750
1333,167.968750
1334,171.875000
1335,171.875000
1336,171.875000
1337,171.875000
1338,175.781250
1339,175.781250
1340,175.781250
1341,175.781250
1342,179.687500
1343,179.687500
1344,179.687500
1345,179.687500
1346,179.687500
1347,179.687500
1348,183.593750
1349,183.593750
1350,183.593750
1351,183.593750
1352,183.593750
1353,183.593750
1354,183.593750
1355,183.593750
1356,183.593750
1357,187.500000
1358,187.500000
1359,187.500000
1360,187.500000
1361,187.500000
1362,187.500000
1363,187.500000
1364,187.500000
1365,187.500000
1366,187.500000
1367,187.500000
1368,187.500000
1369,187.500000
1370,183.593750
1371,187.500000
1372,183.593750
1373,187.500000
1374,183.593750
1375,183.593750
1376,183.593750
1377,183.593750
1378,183.593750
1379,183.593750
1380,179.687500
1381,179.687500
1382,179.687500
1383,179.687500
1384,179.687500
1385,175.781250
1386,175.781250
1387,175.781250
1388,175.781250
1389,175.781250
1390,175.781250
1391,171.875000
1392,171.875000
1393,167.968750
1394,167.968750
1395,167.968750
1396,167.968750
1397,164.062500
1398,164.062500
1399,164.062500
1400,160.156250
1401,160.156250
1402,160.156250
1403,160.156250
1404,156.250000
1405,156.250000
1406,152.343750
1407,152.343750
1408,148.437500
1409,148.437500
1410,148.437500
1411,144.531250
1412,144.531250
1413,140.625000
1414,140.625000
1415,136.718750
1416,136.718750
1417,132.812500
1418,132.812500
1419,128.906250
1420,125.000000
1421,125.000000
1422,121.093750
1423,121.093750
1424,117.187500
1425,113.281250
1426,113.281250
1427,109.375000
1428,105.468750
1429,105.468750
1430,101.562500
1431,97.656250
1432,97.656250
1433,93.750000
1434,89.843750
1435,85.937500
1436,85.937500
1437,82.031250
1438,78.125000
1439,74.218750
1440,74.218750
1441,70.312500
1442,66.406250
1443,62.500000
1444,58.593750
1445,54.687500
1446,50.781250
1447,46.875000
1448,46.875000
1449,42.968750
1450,39.062500
1451,35.156250
1452,31.250000
1453,27.343750
1454,23.437500
1455,19.531250
1456,15.625000
1457,11.718750
1458,7.812500
1459,3.906250
1460,0.000000
1461,-3.906250
1462,-7.812500
1463,-11.718750
1464,-15.625000
1465,-19.531250
1466,-23.437500
1467,-27.343750
1468,-27.343750
1469,-35.156250
1470,-39.062500
1471,-42.968750
1472,-46.875000
1473,-50.781250
1474,-54.687500
1475,-58.593750
1476,-62.500000
1477,-66.406250
1478,-70.312500
1479,-74.218750
1480,-78.125000
1481,-82.031250
1482,-85.937500
1483,-89.843750
1484,-97.656250
1485,-97.656250
1486,-105.468750
1487,-109.375000
1488,-113.281250
1489,-117.187500
1490,-121.093750
1491,-125.000000
1492,-128.906250
1493,-132.812500
1494,-136.718750
1495,-140.625000
1496,-144.531250
1497,-148.437500
1498,-152.343750
1499,-156.250000
1500,-160.156250
1501,-164.062500
1502,-167.968750
1503,-171.875000
1504,-175.781250
1505,-175.781250
1506,-183.593750
1507,-187.500000
1508,-191.406250
1509,-191.406250
1510,-199.218750
1511,-203.125000
1512,-203.125000
1513,-207.031250
1514,-210.937500
1515,-214.843750
1516,-218.750000
1517,-222.656250
1518,-222.656250
1519,-226.562500
1520,-230.468750
1521,-234.375000
1522,-238.281250
1523,-238.281250
1524,-242.187500
1525,-246.093750
1526,-246.093750
1527,-250.000000
1528,-253.906250
1529,-257.812500
1530,-261.718750
1531,-261.718750
1532,-265.625000
1533,-265.625000
1534,-269.531250
1535,-273.437500
1536,-273.437500
1537,-277.343750
1538,-277.343750
1539,-281.250000
1540,-285.156250
1541,-285.156250
1542,-285.156250
1543,-289.062500
1544,-289.062500
1545,-292.968750
1546,-292.968750
1547,-296.875000
1548,-296.875000
1549,-300.781250
1550,-300.781250
1551,-300.781250
1552,-304.687500
1553,-304.687500
1554,-308.593750
1555,-304.687500
1556,-308.593750
1557,-308.593750
1558,-308.593750
1559,-308.593750
1560,-312.500000
1561,-316.406250
1562,-312.500000
1563,-312.500000
1564,-312.500000
1565,-316.406250
1566,-316.406250
1567,-316.406250
1568,-316.406250
1569,-316.406250
1570,-316.406250
1571,-316.406250
1572,-316.406250
1573,-316.406250
1574,-316.406250
1575,-316.406250
1576,-316.406250
1577,-316.406250
1578,-316.406250
1579,-316.406250
1580,-316.406250
1581,-312.500000
1582,-312.500000
1583,-312.500000
1584,-312.500000
1585,-312.500000
1586,-308.593750
1587,-308.593750
1588,-308.593750
1589,-308.593750
1590,-308.593750
1591,-304.687500
1592,-304.687500
1593,-304.687500
1594,-300.781250
1595,-300.781250
1596,-300.781250
1597,-296.875000
1598,-296.875000
1599,-292.968750
1600,-292.968750
1601,-289.062500
1602,-289.062500
1603,-285.156250
1604,-285.156250
1605,-281.250000
1606,-281.250000
1607,-277.343750
1608,-273.437500
1609,-269.531250
1610,-273.437500
1611,-269.531250
1612,-261.718750
1613,-265.625000
1614,-257.812500
1615,-257.812500
1616,-257.812500
1617,-253.906250
1618,-250.000000
1619,-246.093750
1620,-242.187500
1621,-242.187500
1622,-238.281250
1623,-234.375000
1624,-234.375000
1625,-230.468750
1626,-226.562500
1627,-222.656250
1628,-218.750000
1629,-214.843750
1630,-214.843750
1631,-210.937500
1632,-207.031250
1633,-203.125000
1634,-199.218750
1635,-195.312500
1636,-191.406250
1637,-191.406250
1638,-183.593750
1639,-179.687500
1640,-175.781250
1641,-171.875000
1642,-167.968750
1643,-167.968750
1644,-160.156250
1645,-156.250000
1646,-152.343750
1647,-148.437500
1648,-144.531250
1649,-140.625000
1650,-136.718750
1651,-132.812500
1652,-128.906250
1653,-125.000000
1654,-121.093750
1655,-117.187500
1656,-113.281250
1657,-109.375000
1658,-105.468750
1659,-101.562500
1660,-97.656250
1661,-93.750000
1662,-85.937500
1663,-82.031250
1664,-78.125000
1665,-74.218750
1666,-70.312500
1667,-66.406250
1668,-62.500000
1669,-58.593750
1670,-54.687500
1671,-50.781250
1672,-46.875000
1673,-42.968750
1674,-39.062500
1675,-35.156250
1676,-31.250000
1677,-27.343750
1678,-23.437500
1679,-19.531250
1680,-15.625000
1681,-11.718750
1682,-7.812500
1683,-3.906250
1684,0.000000
1685,3.906250
1686,7.812500
1687,11.718750
1688,15.625000
1689,19.531250
1690,23.437500
1691,27.343750
1692,31.250000
1693,35.156250
1694,39.062500
1695,42.968750
1696,46.875000
1697,46.875000
1698,50.781250
1699,54.687500
1700,58.593750
1701,62.500000
1702,66.406250
1703,66.406250
1704,74.218750
1705,74.218750
1706,78.125000
1707,82.031250
1708,82.031250
1709,85.937500
1710,89.843750
1711,93.750000
1712,93.750000
1713,97.656250
1714,101.562500
1715,105.468750
1716,105.468750
1717,109.375000
1718,109.375000
1719,113.281250
1720,117.187500
1721,117.187500
1722,121.093750
1723,125.000000
1724,125.000000
1725,128.906250
1726,128.906250
1727,132.812500
1728,136.718750
1729,136.718750
1730,140.625000
1731,140.625000
1732,140.625000
1733,144.531250
1734,148.437500
1735,148.437500
1736,152.343750
1737,152.343750
1738,152.343750
1739,156.250000
1740,156.250000
1741,160.156250
1742,160.156250
1743,160.156250
1744,164.062500
1745,164.062500
1746,164.062500
1747,164.062500
1748,167.968750
1749,167.968750
1750,171.875000
1751,171.875000
1752,171.875000
1753,171.875000
1754,175.781250
1755,175.781250
1756,175.781250
1757,175.781250
1758,175.781250
1759,179.687500
1760,179.687500
1761,179.687500
1762,179.687500
1763,183.593750
1764,179.687500
1765,183.593750
1766,183.593750
1767,183.593750
1768,183.593750
1769,183.593750
1770,183.593750
1771,183.593750
1772,187.500000
1773,183.593750
1774,187.500000
1775,187.500000
1776,187.500000
1777,187.500000
1778,187.500000
1779,187.500000
1780,187.500000
1781,187.500000
1782,187.500000
1783,183.593750
1784,187.500000
1785,187.500000
1786,187.500000
1787,183.593750
1788,183.593750
1789,183.593750
1790,183.593750
1791,183.593750
1792,183.593750
1793,183.593750
1794,183.593750
1795,183.593750
1796,183.593750
1797,179.687500
1798,179.687500
1799,179.687500
1800,179.687500
1801,179.687500
1802,179.687500
1803,175.781250
1804,175.781250
1805,175.781250
1806,175.781250
1807,175.781250
1808,175.781250
1809,171.875000
1810,171.875000
1811,171.875000
1812,167.968750
1813,167.968750
1814,167.968750
1815,164.062500
1816,164.062500
1817,164.062500
1818,160.156250
1819,160.156250
1820,160.156250
1821,156.250000
1822,156.250000
1823,152.343750
1824,152.343750
1825,148.437500
1826,148.437500
1827,148.437500
1828,144.531250
1829,144.531250
1830,140.625000
1831,140.625000
1832,136.718750
1833,136.718750
1834,132.812500
1835,128.906250
1836,128.906250
1837,125.000000
1838,125.000000
1839,121.093750
1840,117.187500
1841,117.187500
1842,113.281250
1843,109.375000
1844,109.375000
1845,105.468750
1846,105.468750
1847,101.562500
1848,97.656250
1849,97.656250
1850,93.750000
1851,89.843750
1852,85.937500
1853,82.031250
1854,82.031250
1855,78.125000
1856,74.218750
1857,70.312500
1858,70.312500
1859,66.406250
1860,62.500000
1861,58.593750
1862,54.687500
1863,50.781250
1864,46.875000
1865,42.968750
1866,42.968750
1867,39.062500
1868,35.156250
1869,31.250000
1870,27.343750
1871,23.437500
1872,19.531250
1873,15.625000
1874,11.718750
1875,7.812500
1876,3.906250
1877,0.000000
1878,-3.906250
1879,-7.812500
1880,-11.718750
1881,-11.718750
1882,-19.531250
1883,-23.437500
1884,-27.343750
1885,-31.250000
1886,-35.156250
1887,-39.062500
1888,-42.968750
1889,-46.875000
1890,-50.781250
1891,-54.687500
1892,-58.593750
1893,-62.500000
1894,-66.406250
1895,-70.312500
1896,-74.218750
1897,-78.125000
1898,-85.937500
1899,-89.843750
1900,-93.750000
1901,-97.656250
1902,-101.562500
1903,-105.468750
1904,-109.375000
1905,-113.281250
1906,-117.187500
1907,-121.093750
1908,-125.000000
1909,-128.906250
1910,-132.812500
1911,-136.718750
1912,-140.625000
1913,-144.531250
1914,-148.437500
1915,-152.343750
1916,-156.250000
1917,-160.156250
1918,-164.062500
1919,-167.968750
1920,-171.875000
1921,-175.781250
1922,-179.687500
1923,-183.593750
1924,-187.500000
1925,-191.406250
1926,-195.312500
1927,-199.218750
1928,-203.125000
1929,-207.031250
1930,-207.031250
1931,-210.937500
1932,-214.843750
1933,-218.750000
1934,-222.656250
1935,-226.562500
1936,-226.562500
1937,-230.468750
1938,-234.375000
1939,-238.281250
1940,-242.187500
1941,-242.187500
1942,-246.093750
1943,-250.000000
1944,-253.906250
1945,-253.906250
1946,-257.812500
1947,-257.812500
1948,-261.718750
1949,-265.625000
1950,-269.531250
1951,-269.531250
1952,-273.437500
1953,-277.343750
1954,-277.343750
1955,-281.250000
1956,-281.250000
1957,-285.156250
1958,-285.156250
1959,-289.062500
1960,-289.062500
1961,-292.968750
1962,-292.968750
1963,-296.875000
1964,-296.875000
1965,-296.875000
1966,-300.781250
1967,-300.781250
1968,-300.781250
1969,-304.687500
1970,-304.687500
1971,-304.687500
1972,-308.593750
1973,-308.593750
1974,-308.593750
1975,-312.500000
1976,-312.500000
1977,-312.500000
1978,-312.500000
1979,-312.500000
1980,-316.406250
1981,-316.406250
1982,-316.406250
1983,-316.406250
1984,-316.406250
1985,-316.406250
1986,-316.406250
1987,-316.406250
1988,-320.312500
1989,-316.406250
1990,-316.406250
1991,-316.406250
1992,-316.406250
1993,-316.406250
1994,-316.406250
1995,-316.406250
1996,-316.406250
1997,-316.406250
1998,-316.406250
1999,-312.500000
2000,-316.406250
2001,-312.500000
2002,-312.500000
2003,-312.500000
2004,-308.593750
2005,-308.593750
2006,-308.593750
2007,-308.593750
2008,-304.687500
2009,-304.687500
2010,-304.687500
2011,-300.781250
2012,-300.781250
2013,-296.875000
2014,-296.875000
2015,-296.875000
2016,-292.968750
2017,-292.968750
2018,-289.062500
2019,-289.062500
2020,-289.062500
2021,-285.156250
2022,-281.250000
2023,-281.250000
2024,-277.343750
2025,-277.343750
2026,-273.437500
2027,-269.531250
2028,-269.531250
2029,-265.625000
2030,-265.625000
2031,-261.718750
2032,-257.812500
2033,-253.906250
2034,-253.906250
2035,-250.000000
2036,-250.000000
2037,-242.187500
2038,-242.187500
2039,-238.281250
2040,-234.375000
2041,-234.375000
2042,-234.375000
2043,-226.562500
2044,-222.656250
2045,-218.750000
2046,-214.843750
2047,-210.937500
2048,-207.031250
2049,-207.031250
2050,-203.125000
2051,-199.218750
2052,-195.312500
2053,-191.406250
2054,-187.500000
2055,-183.593750
2056,-179.687500
2057,-175.781250
2058,-171.875000
2059,-167.968750
2060,-164.062500
2061,-160.156250
2062,-156.250000
2063,-152.343750
2064,-148.437500
2065,-144.531250
2066,-140.625000
2067,-136.718750
2068,-132.812500
2069,-128.906250
2070,-125.000000
2071,-121.093750
2072,-117.187500
2073,-113.281250
2074,-109.375000
2075,-105.468750
2076,-97.656250
2077,-97.656250
2078,-89.843750
2079,-85.937500
2080,-82.031250
2081,-78.125000
2082,-74.218750
2083,-70.312500
2084,-66.406250
2085,-62.500000
2086,-58.593750
2087,-54.687500
2088,-50.781250
2089,-46.875000
2090,-42.968750
2091,-39.062500
2092,-35.156250
2093,-31.250000
2094,-27.343750
2095,-23.437500
2096,-15.625000
2097,-15.625000
2098,-11.718750
2099,-3.906250
2100,0.000000
2101,0.000000
2102,3.906250
2103,7.812500
2104,11.718750
2105,15.625000
2106,19.531250
2107,23.437500
2108,27.343750
2109,31.250000
2110,35.156250
2111,39.062500
2112,42.968750
2113,46.875000
2114,50.781250
2115,50.781250
2116,54.687500
2117,58.593750
2118,62.500000
2119,66.406250
2120,70.312500
2121,74.218750
2122,74.218750
2123,78.125000
2124,82.031250
2125,85.937500
2126,85.937500
2127,89.843750
2128,93.750000
2129,93.750000
2130,97.656250
2131,101.562500
2132,105.468750
2133,105.468750
2134,109.375000
2135,113.281250
2136,113.281250
2137,117.187500
2138,121.093750
2139,121.093750
2140,125.000000
2141,125.000000
2142,128.906250
2143,132.812500
2144,132.812500
2145,136.718750
2146,140.625000
2147,140.625000
2148,140.625000
2149,144.531250
2150,144.531250
2151,148.437500
2152,148.437500
2153,152.343750
2154,152.343750
2155,152.343750
2156,156.250000
2157,156.250000
2158,156.250000
2159,160.156250
2160,160.156250
2161,160.156250
2162,164.062500
2163,164.062500
2164,167.968750
2165,167.968750
2166,167.968750
2167,171.875000
2168,171.875000
2169,171.875000
2170,171.875000
2171,175.781250
2172,175.781250
2173,175.781250
2174,175.781250
2175,175.781250
2176,179.687500
2177,179.687500
2178,179.687500
2179,179.687500
2180,179.687500
2181,179.687500
2182,183.593750
2183,183.593750
2184,183.593750
2185,183.593750
2186,183.593750
2187,183.593750
2188,183.593750
2189,183.593750
2190,187.500000
2191,187.500000
2192,187.500000
2193,187.500000
2194,187.500000
2195,187.500000
2196,187.500000
2197,187.500000
2198,187.500000
2199,187.500000
2200,187.500000
2201,183.593750
2202,183.593750
2203,187.500000
2204,187.500000
2205,183.593750
2206,183.593750
2207,183.593750
2208,187.500000
2209,183.593750
2210,183.593750
2211,183.593750
2212,183.593750
2213,179.687500
2214,179.687500
2215,179.687500
2216,179.687500
2217,179.687500
2218,179.687500
2219,179.687500
2220,175.781250
2221,175.781250
2222,175.781250
2223,175.781250
2224,171.875000
2225,171.875000
2226,171.875000
2227,171.875000
2228,171.875000
2229,167.968750
2230,167.968750
2231,164.062500
2232,164.062500
2233,164.062500
2234,164.062500
2235,160.156250
2236,160.156250
2237,156.250000
2238,156.250000
2239,152.343750
2240,152.343750
2241,152.343750
2242,148.437500
2243,148.437500
2244,144.531250
2245,144.531250
2246,140.625000
2247,140.625000
2248,136.718750
2249,136.718750
2250,132.812500
2251,132.812500
2252,128.906250
2253,128.906250
2254,125.000000
2255,125.000000
2256,121.093750
2257,117.187500
2258,117.187500
2259,113.281250
2260,109.375000
2261,109.375000
2262,105.468750
2263,105.468750
2264,101.562500
2265,97.656250
2266,93.750000
2267,93.750000
2268,89.843750
2269,85.937500
2270,82.031250
2271,82.031250
2272,78.125000
2273,74.218750
2274,70.312500
2275,66.406250
2276,66.406250
2277,58.593750
2278,58.593750
2279,54.687500
2280,50.781250
2281,46.875000
2282,42.968750
2283,39.062500
2284,35.156250
2285,31.250000
2286,31.250000
2287,27.343750
2288,23.437500
2289,19.531250
2290,15.625000
2291,11.718750
2292,7.812500
2293,3.906250
2294,0.000000
2295,-3.906250
2296,-7.812500
2297,-11.718750
2298,-15.625000
2299,-19.531250
2300,-23.437500
2301,-27.343750
2302,-31.250000
2303,-35.156250
2304,-39.062500
2305,-42.968750
2306,-46.875000
2307,-50.781250
2308,-54.687500
2309,-58.593750
2310,-62.500000
2311,-66.406250
2312,-70.312500
2313,-74.218750
2314,-82.031250
2315,-85.937500
2316,-89.843750
2317,-93.750000
2318,-97.656250
2319,-101.562500
2320,-105.468750
2321,-109.375000
2322,-113.281250
2323,-117.187500
2324,-121.093750
2325,-125.000000
2326,-128.906250
2327,-132.812500
2328,-136.718750
2329,-140.625000
2330,-144.531250
2331,-148.437500
2332,-152.343750
2333,-156.250000
2334,-160.156250
2335,-164.062500
2336,-167.968750
2337,-171.875000
2338,-175.781250
2339,-179.687500
2340,-183.593750
2341,-187.500000
2342,-191.406250
2343,-195.312500
2344,-199.218750
2345,-203.125000
2346,-207.031250
2347,-207.031250
2348,-210.937500
2349,-218.750000
2350,-218.750000
2351,-222.656250
2352,-226.562500
2353,-230.468750
2354,-230.468750
2355,-234.375000
2356,-238.281250
2357,-242.187500
2358,-246.093750
2359,-246.093750
2360,-250.000000
2361,-253.906250
2362,-253.906250
2363,-257.812500
2364,-261.718750
2365,-261.718750
2366,-265.625000
2367,-269.531250
2368,-269.531250
2369,-273.437500
2370,-277.343750
2371,-277.343750
2372,-281.250000
2373,-281.250000
2374,-285.156250
2375,-285.156250
2376,-289.062500
2377,-289.062500
2378,-289.062500
2379,-292.968750
2380,-296.875000
2381,-296.875000
2382,-296.875000
2383,-300.781250
2384,-300.781250
2385,-300.781250
2386,-304.687500
2387,-304.687500
2388,-304.687500
2389,-308.593750
2390,-308.593750
2391,-308.593750
2392,-312.500000
2393,-312.500000
2394,-312.500000
2395,-312.500000
2396,-312.500000
2397,-312.500000
2398,-312.500000
2399,-316.406250
2400,-316.406250
2401,-316.406250
2402,-316.406250
2403,-316.406250
2404,-316.406250
2405,-316.406250
2406,-316.406250
2407,-316.406250
2408,-316.406250
2409,-316.406250
2410,-316.406250
2411,-316.406250
2412,-316.406250
2413,-316.406250
2414,-316.406250
2415,-316.406250
2416,-312.500000
2417,-312.500000
2418,-312.500000
2419,-312.500000
2420,-312.500000
2421,-308.593750
2422,-308.593750
2423,-308.593750
2424,-308.593750
2425,-304.687500
2426,-304.687500
2427,-300.781250
2428,-300.781250
2429,-300.781250
2430,-300.781250
2431,-296.875000
2432,-292.968750
2433,-292.968750
2434,-292.968750
2435,-289.062500
2436,-289.062500
2437,-285.156250
2438,-285.156250
2439,-281.250000
2440,-281.250000
2441,-277.343750
2442,-273.437500
2443,-273.437500
2444,-269.531250
2445,-269.531250
2446,-265.625000
2447,-261.718750
2448,-261.718750
2449,-257.812500
2450,-253.906250
2451,-253.906250
2452,-250.000000
2453,-246.093750
2454,-242.187500
2455,-242.187500
2456,-238.281250
2457,-234.375000
2458,-230.468750
2459,-226.562500
2460,-226.562500
2461,-222.656250
2462,-218.750000
2463,-214.843750
2464,-210.937500
2465,-207.031250
2466,-203.125000
2467,-199.218750
2468,-199.218750
2469,-195.312500
2470,-187.500000
2471,-187.500000
2472,-183.593750
2473,-179.687500
2474,-175.781250
2475,-171.875000
2476,-167.968750
2477,-164.062500
2478,-160.156250
2479,-156.250000
2480,-152.343750
2481,-148.437500
2482,-144.531250
2483,-140.625000
2484,-136.718750
2485,-132.812500
2486,-128.906250
2487,-125.000000
2488,-121.093750
2489,-113.281250
2490,-113.281250
2491,-109.375000
2492,-101.562500
2493,-97.656250
2494,-93.750000
2495,-89.843750
2496,-85.937500
2497,-82.031250
2498,-78.125000
2499,-74.218750
2500,-70.312500
2501,-66.406250
2502,-62.500000
2503,-58.593750
2504,-54.687500
2505,-46.875000
2506,-42.968750
2507,-39.062500
2508,-39.062500
2509,-31.250000
2510,-27.343750
2511,-23.437500
2512,-19.531250
2513,-15.625000
2514,-11.718750
2515,-7.812500
2516,-3.906250
2517,0.000000
2518,3.906250
2519,7.812500
2520,11.718750
2521,15.625000
2522,19.531250
2523,23.437500
2524,23.437500
2525,27.343750
2526,35.156250
2527,35.156250
2528,39.062500
2529,42.968750
2530,46.875000
2531,50.781250
2532,54.687500
2533,58.593750
2534,58.593750
2535,62.500000
2536,66.406250
2537,70.312500
2538,74.218750
2539,78.125000
2540,78.125000
2541,82.031250
2542,85.937500
2543,89.843750
2544,89.843750
2545,93.750000
2546,97.656250
2547,97.656250
2548,101.562500
2549,105.468750
2550,105.468750
2551,109.375000
2552,113.281250
2553,113.281250
2554,117.187500
2555,121.093750
2556,121.093750
2557,125.000000
2558,125.000000
2559,128.906250
2560,128.906250
2561,132.812500
2562,136.718750
2563,136.718750
2564,140.625000
2565,140.625000
2566,144.531250
2567,144.531250
2568,148.437500
2569,148.437500
2570,152.343750
2571,152.343750
2572,152.343750
2573,156.250000
2574,156.250000
2575,160.156250
2576,160.156250
2577,160.156250
2578,164.062500
2579,164.062500
2580,164.062500
2581,167.968750
2582,167.968750
2583,167.968750
2584,171.875000
2585,171.875000
2586,171.875000
2587,175.781250
2588,175.781250
2589,175.781250
2590,175.781250
2591,179.687500
2592,175.781250
2593,179.687500
2594,179.687500
2595,179.687500
2596,179.687500
2597,179.687500
2598,183.593750
2599,183.593750
2600,183.593750
2601,183.593750
2602,183.593750
2603,183.593750
2604,183.593750
2605,183.593750
2606,183.593750
2607,183.593750
2608,187.500000
2609,187.500000
2610,187.500000
2611,187.500000
2612,187.500000
2613,187.500000
2614,187.500000
2615,187.500000
2616,187.500000
2617,187.500000
2618,187.500000
2619,183.593750
2620,187.500000
2621,183.593750
2622,183.593750
2623,183.593750
2624,183.593750
2625,183.593750
2626,183.593750
2627,183.593750
2628,183.593750
2629,179.687500
2630,183.593750
2631,179.687500
2632,179.687500
2633,179.687500
2634,179.687500
2635,179.687500
2636,175.781250
2637,175.781250
2638,175.781250
2639,175.781250
2640,175.781250
2641,171.875000
2642,171.875000
2643,171.875000
2644,171.875000
2645,167.968750
2646,167.968750
2647,167.968750
2648,164.062500
2649,164.062500
2650,164.062500
2651,160.156250
2652,160.156250
2653,160.156250
2654,156.250000
2655,156.250000
2656,156.250000
2657,152.343750
2658,152.343750
2659,148.437500
2660,148.437500
2661,144.531250
2662,144.531250
2663,140.625000
2664,140.625000
2665,136.718750
2666,136.718750
2667,132.812500
2668,132.812500
2669,128.906250
2670,128.906250
2671,125.000000
2672,121.093750
2673,121.093750
2674,117.187500
2675,117.187500
2676,113.281250
2677,109.375000
2678,109.375000
2679,105.468750
2680,101.562500
2681,97.656250
2682,97.656250
2683,93.750000
2684,93.750000
2685,89.843750
2686,85.937500
2687,82.031250
2688,78.125000
2689,78.125000
2690,74.218750
2691,70.312500
2692,66.406250
2693,62.500000
2694,58.593750
2695,58.593750
2696,54.687500
2697,50.781250
2698,46.875000
2699,42.968750
2700,39.062500
2701,35.156250
2702,35.156250
2703,31.250000
2704,23.437500
2705,23.437500
2706,15.625000
2707,15.625000
2708,11.718750
2709,7.812500
2710,3.906250
2711,0.000000
2712,-3.906250
2713,-7.812500
2714,-11.718750
2715,-15.625000
2716,-19.531250
2717,-23.437500
2718,-27.343750
2719,-31.250000
2720,-35.156250
2721,-39.062500
2722,-46.875000
2723,-46.875000
2724,-50.781250
2725,-54.687500
2726,-58.593750
2727,-62.500000
2728,-70.312500
2729,-74.218750
2730,-78.125000
2731,-82.031250
2732,-85.937500
2733,-89.843750
2734,-93.750000
2735,-97.656250
2736,-101.562500
2737,-105.468750
2738,-109.375000
2739,-113.281250
2740,-117.187500
2741,-125.000000
2742,-125.000000
2743,-128.906250
2744,-132.812500
2745,-136.718750
2746,-140.625000
2747,-148.437500
2748,-152.343750
2749,-156.250000
2750,-160.156250
2751,-164.062500
2752,-164.062500
2753,-171.875000
2754,-175.781250
2755,-179.687500
2756,-179.687500
2757,-183.593750
2758,-187.500000
2759,-191.406250
2760,-195.312500
2761,-199.218750
2762,-199.218750
2763,-207.031250
2764,-210.937500
2765,-214.843750
2766,-218.750000
2767,-218.750000
2768,-222.656250
2769,-226.562500
2770,-230.468750
2771,-234.375000
2772,-234.375000
2773,-238.281250
2774,-242.187500
2775,-246.093750
2776,-246.093750
2777,-250.000000
2778,-253.906250
2779,-257.812500
2780,-257.812500
2781,-261.718750
2782,-265.625000
2783,-265.625000
2784,-269.531250
2785,-273.437500
2786,-273.437500
2787,-277.343750
2788,-281.250000
2789,-281.250000
2790,-281.250000
2791,-285.156250
2792,-285.156250
2793,-289.062500
2794,-289.062500
2795,-292.968750
2796,-292.968750
2797,-296.875000
2798,-296.875000
2799,-300.781250
2800,-300.781250
2801,-300.781250
2802,-304.687500
2803,-304.687500
2804,-304.687500
2805,-308.593750
2806,-308.593750
2807,-308.593750
2808,-308.593750
2809,-312.500000
2810,-312.500000
2811,-312.500000
2812,-312.500000
2813,-312.500000
2814,-316.406250
2815,-316.406250
2816,-316.406250
2817,-316.406250
2818,-316.406250
2819,-316.406250
2820,-316.406250
2821,-316.406250
2822,-316.406250
2823,-316.406250
2824,-316.406250
2825,-316.406250
2826,-316.406250
2827,-316.406250
2828,-316.406250
2829,-316.406250
2830,-316.406250
2831,-316.406250
2832,-316.406250
2833,-312.500000
2834,-312.500000
2835,-312.500000
2836,-312.500000
2837,-312.500000
2838,-308.593750
2839,-308.593750
2840,-308.593750
2841,-304.687500
2842,-304.687500
2843,-304.687500
2844,-304.687500
2845,-300.781250
2846,-300.781250
2847,-296.875000
2848,-296.875000
2849,-296.875000
2850,-292.968750
2851,-289.062500
2852,-289.062500
2853,-289.062500
2854,-285.156250
2855,-285.156250
2856,-281.250000
2857,-281.250000
2858,-277.343750
2859,-273.437500
2860,-273.437500
2861,-269.531250
2862,-269.531250
2863,-265.625000
2864,-261.718750
2865,-261.718750
2866,-257.812500
2867,-253.906250
2868,-250.000000
2869,-250.000000
2870,-246.093750
2871,-242.187500
2872,-238.281250
2873,-238.281250
2874,-234.375000
2875,-230.468750
2876,-226.562500
2877,-222.656250
2878,-222.656250
2879,-218.750000
2880,-214.843750
2881,-210.937500
2882,-207.031250
2883,-203.125000
2884,-207.031250
2885,-195.312500
2886,-191.406250
2887,-187.500000
2888,-187.500000
2889,-183.593750
2890,-179.687500
2891,-175.781250
2892,-171.875000
2893,-167.968750
2894,-164.062500
2895,-160.156250
2896,-156.250000
2897,-152.343750
2898,-148.437500
2899,-140.625000
2900,-136.718750
2901,-136.718750
2902,-132.812500
2903,-125.000000
2904,-121.093750
2905,-117.187500
2906,-113.281250
2907,-109.375000
2908,-105.468750
2909,-101.562500
2910,-97.656250
2911,-93.750000
2912,-89.843750
2913,-85.937500
2914,-82.031250
2915,-78.125000
2916,-74.218750
2917,-70.312500
2918,-66.406250
2919,-58.593750
2920,-54.687500
2921,-50.781250
2922,-46.875000
2923,-42.968750
2924,-39.062500
2925,-35.156250
2926,-31.250000
2927,-27.343750
2928,-23.437500
2929,-19.531250
2930,-15.625000
2931,-11.718750
2932,-7.812500
2933,-3.906250
2934,0.000000
2935,3.906250
2936,7.812500
2937,11.718750
2938,15.625000
2939,19.531250
2940,23.437500
2941,27.343750
2942,27.343750
2943,35.156250
2944,39.062500
2945,39.062500
2946,42.968750
2947,46.875000
2948,50.781250
2949,54.687500
2950,54.687500
2951,58.593750
2952,62.500000
2953,66.406250
2954,70.312500
2955,74.218750
2956,78.125000
2957,78.125000
2958,82.031250
2959,85.937500
2960,89.843750
2961,89.843750
2962,93.750000
2963,97.656250
2964,101.562500
2965,101.562500
2966,101.562500
2967,109.375000
2968,109.375000
2969,113.281250
2970,117.187500
2971,117.187500
2972,121.093750
2973,125.000000
2974,125.000000
2975,128.906250
2976,128.906250
2977,132.812500
2978,132.812500
2979,136.718750
2980,136.718750
2981,140.625000
2982,140.625000
2983,144.531250
2984,144.531250
2985,148.437500
2986,148.437500
2987,152.343750
2988,152.343750
2989,156.250000
2990,156.250000
2991,156.250000
2992,160.156250
2993,160.156250
2994,160.156250
2995,164.062500
2996,164.062500
2997,164.062500
2998,167.968750
2999,167.968750
3000,167.968750
3001,171.875000
3002,171.875000
3003,171.875000
3004,171.875000
3005,175.781250
3006,175.781250
3007,175.781250
3008,175.781250
3009,179.687500
3010,179.687500
3011,179.687500
3012,179.687500
3013,179.687500
3014,179.687500
3015,183.593750
3016,183.593750
3017,183.593750
3018,183.593750
3019,183.593750
3020,183.593750
3021,183.593750
3022,183.593750
3023,183.593750
3024,183.593750
3025,183.593750
3026,187.500000
3027,187.500000
3028,187.500000
3029,187.500000
3030,187.500000
3031,187.500000
3032,187.500000
3033,187.500000
3034,187.500000
3035,187.500000
3036,183.593750
3037,187.500000
3038,187.500000
3039,187.500000
3040,183.593750
3041,183.593750
3042,183.593750
3043,183.593750
3044,183.593750
3045,183.593750
3046,183.593750
3047,179.687500
3048,179.687500
3049,179.687500
3050,179.687500
3051,179.687500
3052,179.687500
3053,175.781250
3054,175.781250
3055,175.781250
3056,175.781250
3057,175.781250
3058,171.875000
3059,171.875000
3060,171.875000
3061,167.968750
3062,167.968750
3063,167.968750
3064,167.968750
3065,164.062500
3066,164.062500
3067,160.156250
3068,160.156250
3069,160.156250
3070,160.156250
3071,156.250000
3072,156.250000
3073,156.250000
3074,152.343750
3075,152.343750
3076,148.437500
3077,148.437500
3078,144.531250
3079,144.531250
3080,140.625000
3081,140.625000
3082,136.718750
3083,136.718750
3084,132.812500
3085,132.812500
3086,128.906250
3087,125.000000
3088,125.000000
3089,121.093750
3090,121.093750
3091,117.187500
3092,113.281250
3093,113.281250
3094,109.375000
3095,105.468750
3096,105.468750
3097,101.562500
3098,101.562500
3099,97.656250
3100,93.750000
3101,93.750000
3102,89.843750
3103,85.937500
3104,82.031250
3105,78.125000
3106,74.218750
3107,74.218750
3108,70.312500
3109,66.406250
3110,62.500000
3111,62.500000
3112,54.687500
3113,54.687500
3114,50.781250
3115,46.875000
3116,42.968750
3117,39.062500
3118,39.062500
3119,31.250000
3120,27.343750
3121,27.343750
3122,19.531250
3123,15.625000
3124,11.718750
3125,11.718750
3126,7.812500
3127,0.000000
3128,0.000000
3129,-3.906250
3130,-7.812500
3131,-11.718750
3132,-15.625000
3133,-19.531250
3134,-23.437500
3135,-31.250000
3136,-31.250000
3137,-39.062500
3138,-42.968750
3139,-46.875000
3140,-50.781250
3141,-54.687500
3142,-58.593750
3143,-62.500000
3144,-66.406250
3145,-70.312500
3146,-74.218750
3147,-78.125000
3148,-82.031250
3149,-85.937500
3150,-89.843750
3151,-93.750000
3152,-101.562500
3153,-101.562500
3154,-105.468750
3155,-109.375000
3156,-117.187500
3157,-121.093750
3158,-125.000000
3159,-128.906250
3160,-128.906250
3161,-136.718750
3162,-140.625000
3163,-144.531250
3164,-148.437500
3165,-152.343750
3166,-156.250000
3167,-160.156250
3168,-164.062500
3169,-167.968750
3170,-171.875000
3171,-175.781250
3172,-179.687500
3173,-179.687500
3174,-187.500000
3175,-191.406250
3176,-191.406250
3177,-195.312500
3178,-199.218750
3179,-203.125000
3180,-207.031250
3181,-210.937500
3182,-214.843750
3183,-218.750000
3184,-222.656250
3185,-222.656250
3186,-226.562500
3187,-230.468750
3188,-234.375000
3189,-234.375000
3190,-238.281250
3191,-242.187500
3192,-246.093750
3193,-246.093750
3194,-250.000000
3195,-253.906250
3196,-257.812500
3197,-257.812500
3198,-261.718750
3199,-265.625000
3200,-265.625000
3201,-269.531250
3202,-273.437500
3203,-273.437500
3204,-277.343750
3205,-277.343750
3206,-281.250000
3207,-281.250000
3208,-285.156250
3209,-285.156250
3210,-289.062500
3211,-292.968750
3212,-292.968750
3213,-292.968750
3214,-296.875000
3215,-296.875000
3216,-300.781250
3217,-300.781250
3218,-300.781250
3219,-304.687500
3220,-304.687500
3221,-304.687500
3222,-308.593750
3223,-308.593750
3224,-312.500000
3225,-308.593750
3226,-312.500000
3227,-312.500000
3228,-312.500000
3229,-312.500000
3230,-316.406250
3231,-316.406250
3232,-316.406250
3233,-316.406250
3234,-316.406250
3235,-316.406250
3236,-316.406250
3237,-316.406250
3238,-316.406250
3239,-316.406250
3240,-320.312500
3241,-316.406250
3242,-316.406250
3243,-316.406250
3244,-316.406250
3245,-316.406250
3246,-316.406250
3247,-316.406250
3248,-316.406250
3249,-316.406250
3250,-312.500000
3251,-312.500000
3252,-312.500000
3253,-312.500000
3254,-312.500000
3255,-308.593750
3256,-308.593750
3257,-308.593750
3258,-308.593750
3259,-304.687500
3260,-304.687500
3261,-304.687500
3262,-300.781250
3263,-300.781250
3264,-296.875000
3265,-296.875000
3266,-296.875000
3267,-292.968750
3268,-289.062500
3269,-289.062500
3270,-289.062500
3271,-285.156250
3272,-285.156250
3273,-281.250000
3274,-277.343750
3275,-277.343750
3276,-273.437500
3277,-273.437500
3278,-269.531250
3279,-265.625000
3280,-265.625000
3281,-261.718750
3282,-257.812500
3283,-253.906250
3284,-253.906250
3285,-250.000000
3286,-250.000000
3287,-246.093750
3288,-242.187500
3289,-238.281250
3290,-234.375000
3291,-234.375000
3292,-230.468750
3293,-226.562500
3294,-222.656250
3295,-218.750000
3296,-214.843750
3297,-214.843750
3298,-210.937500
3299,-207.031250
3300,-203.125000
3301,-199.218750
3302,-195.312500
3303,-191.406250
3304,-187.500000
3305,-183.593750
3306,-179.687500
3307,-175.781250
3308,-171.875000
3309,-167.968750
3310,-164.062500
3311,-164.062500
3312,-156.250000
3313,-152.343750
3314,-152.343750
3315,-144.531250
3316,-140.625000
3317,-136.718750
3318,-136.718750
3319,-128.906250
3320,-125.000000
3321,-121.093750
3322,-117.187500
3323,-113.281250
3324,-109.375000
3325,-105.468750
3326,-101.562500
3327,-97.656250
3328,-93.750000
3329,-89.843750
3330,-85.937500
3331,-78.125000
3332,-78.125000
3333,-74.218750
3334,-66.406250
3335,-62.500000
3336,-58.593750
3337,-54.687500
3338,-50.781250
3339,-46.875000
3340,-42.968750
3341,-39.062500
3342,-39.062500
3343,-31.250000
3344,-27.343750
3345,-23.437500
3346,-19.531250
3347,-15.625000
3348,-11.718750
3349,-7.812500
3350,-3.906250
3351,0.000000
3352,3.906250
3353,7.812500
3354,11.718750
3355,15.625000
3356,19.531250
3357,23.437500
3358,27.343750
3359,31.250000
3360,35.156250
3361,39.062500
3362,42.968750
3363,42.968750
3364,46.875000
3365,50.781250
3366,54.687500
3367,58.593750
3368,62.500000
3369,66.406250
3370,66.406250
3371,70.312500
3372,74.218750
3373,78.125000
3374,82.031250
3375,82.031250
3376,85.937500
3377,89.843750
3378,93.750000
3379,93.750000
3380,97.656250
3381,101.562500
3382,101.562500
3383,105.468750
3384,109.375000
3385,109.375000
3386,113.281250
3387,117.187500
3388,117.187500
3389,121.093750
3390,125.000000
3391,125.000000
3392,125.000000
3393,128.906250
3394,132.812500
3395,132.812500
3396,136.718750
3397,136.718750
3398,140.625000
3399,140.625000
3400,144.531250
3401,144.531250
3402,148.437500
3403,148.437500
3404,152.343750
3405,152.343750
3406,156.250000
3407,156.250000
3408,156.250000
3409,160.156250
3410,160.156250
3411,164.062500
3412,164.062500
3413,164.062500
3414,167.968750
3415,167.968750
3416,167.968750
3417,167.968750
3418,171.875000
3419,171.875000
3420,171.875000
3421,175.781250
3422,175.781250
3423,175.781250
3424,175.781250
3425,175.781250
3426,179.687500
3427,179.687500
3428,179.687500
3429,179.687500
3430,179.687500
3431,183.593750
3432,179.687500
3433,183.593750
3434,183.593750
3435,183.593750
3436,183.593750
3437,183.593750
3438,183.593750
3439,183.593750
3440,183.593750
3441,183.593750
3442,187.500000
3443,187.500000
3444,187.500000
3445,187.500000
3446,187.500000
3447,187.500000
3448,187.500000
3449,187.500000
3450,187.500000
3451,187.500000
3452,187.500000
3453,187.500000
3454,187.500000
3455,183.593750
3456,183.593750
3457,183.593750
3458,183.593750
3459,183.593750
3460,183.593750
3461,183.593750
3462,183.593750
3463,183.593750
3464,179.687500
3465,179.687500
3466,179.687500
3467,179.687500
3468,179.687500
3469,175.781250
3470,175.781250
3471,175.781250
3472,175.781250
3473,175.781250
3474,175.781250
3475,171.875000
3476,171.875000
3477,171.875000
3478,167.968750
3479,171.875000
3480,167.968750
3481,164.062500
3482,164.062500
3483,164.062500
3484,164.062500
3485,160.156250
3486,160.156250
3487,160.156250
3488,156.250000
3489,156.250000
3490,156.250000
3491,152.343750
3492,148.437500
3493,148.437500
3494,148.437500
3495,144.531250
3496,144.531250
3497,140.625000
3498,140.625000
3499,136.718750
3500,136.718750
3501,132.812500
3502,128.906250
3503,128.906250
3504,125.000000
3505,125.000000
3506,121.093750
3507,121.093750
3508,117.187500
3509,113.281250
3510,113.281250
3511,109.375000
3512,105.468750
3513,105.468750
3514,101.562500
3515,97.656250
3516,93.750000
3517,93.750000
3518,89.843750
3519,85.937500
3520,82.031250
3521,82.031250
3522,78.125000
3523,74.218750
3524,70.312500
3525,70.312500
3526,66.406250
3527,62.500000
3528,58.593750
3529,54.687500
3530,50.781250
3531,46.875000
3532,42.968750
3533,42.968750
3534,39.062500
3535,35.156250
3536,31.250000
3537,27.343750
3538,23.437500
3539,19.531250
3540,15.625000
3541,11.718750
3542,7.812500
3543,3.906250
3544,0.000000
3545,-3.906250
3546,-7.812500
3547,-11.718750
3548,-15.625000
3549,-19.531250
3550,-23.437500
3551,-27.343750
3552,-31.250000
3553,-35.156250
3554,-39.062500
3555,-42.968750
3556,-46.875000
3557,-50.781250
3558,-54.687500
3559,-58.593750
3560,-62.500000
3561,-66.406250
3562,-74.218750
3563,-74.218750
3564,-82.031250
3565,-85.937500
3566,-89.843750
3567,-89.843750
3568,-93.750000
3569,-101.562500
3570,-105.468750
3571,-109.375000
3572,-113.281250
3573,-117.187500
3574,-121.093750
3575,-125.000000
3576,-128.906250
3577,-132.812500
3578,-136.718750
3579,-140.625000
3580,-144.531250
3581,-148.437500
3582,-152.343750
3583,-156.250000
3584,-160.156250
3585,-164.062500
3586,-167.968750
3587,-171.875000
3588,-175.781250
3589,-179.687500
3590,-183.593750
3591,-187.500000
3592,-191.406250
3593,-195.312500
3594,-199.218750
3595,-199.218750
3596,-203.125000
3597,-207.031250
3598,-210.937500
3599,-214.843750
3600,-218.750000
3601,-222.656250
3602,-226.562500
3603,-230.468750
3604,-230.468750
3605,-234.375000
3606,-238.281250
3607,-242.187500
3608,-242.187500
3609,-246.093750
3610,-250.000000
3611,-250.000000
3612,-253.906250
3613,-257.812500
3614,-257.812500
3615,-261.718750
3616,-265.625000
3617,-269.531250
3618,-269.531250
3619,-273.437500
3620,-273.437500
3621,-277.343750
3622,-281.250000
3623,-281.250000
3624,-285.156250
3625,-285.156250
3626,-289.062500
3627,-289.062500
3628,-292.968750
3629,-292.968750
3630,-296.875000
3631,-292.968750
3632,-296.875000
3633,-300.781250
3634,-300.781250
3635,-304.687500
3636,-304.687500
3637,-304.687500
3638,-304.687500
3639,-308.593750
3640,-308.593750
3641,-308.593750
3642,-308.593750
3643,-312.500000
3644,-312.500000
3645,-312.500000
3646,-312.500000
3647,-312.500000
3648,-316.406250
3649,-316.406250
3650,-316.406250
3651,-316.406250
3652,-316.406250
3653,-316.406250
3654,-316.406250
3655,-316.406250
3656,-316.406250
3657,-316.406250
3658,-316.406250
3659,-316.406250
3660,-316.406250
3661,-316.406250
3662,-316.406250
3663,-316.406250
3664,-316.406250
3665,-316.406250
3666,-312.500000
3667,-312.500000
3668,-312.500000
3669,-312.500000
3670,-308.593750
3671,-308.593750
3672,-308.593750
3673,-308.593750
3674,-308.593750
3675,-304.687500
3676,-304.687500
3677,-300.781250
3678,-300.781250
3679,-300.781250
3680,-300.781250
3681,-296.875000
3682,-296.875000
3683,-292.968750
3684,-292.968750
3685,-289.062500
3686,-289.062500
3687,-285.156250
3688,-285.156250
3689,-281.250000
3690,-281.250000
3691,-277.343750
3692,-277.343750
3693,-273.437500
3694,-269.531250
3695,-269.531250
3696,-265.625000
3697,-261.718750
3698,-261.718750
3699,-257.812500
3700,-253.906250
3701,-253.906250
3702,-250.000000
3703,-246.093750
3704,-246.093750
3705,-242.187500
3706,-238.281250
3707,-234.375000
3708,-230.468750
3709,-230.468750
3710,-226.562500
3711,-222.656250
3712,-218.750000
3713,-214.843750
3714,-210.937500
3715,-207.031250
3716,-207.031250
3717,-203.125000
3718,-199.218750
3719,-195.312500
3720,-191.406250
3721,-187.500000
3722,-183.593750
3723,-179.687500
3724,-175.781250
3725,-171.875000
3726,-167.968750
3727,-164.062500
3728,-160.156250
3729,-156.250000
3730,-152.343750
3731,-148.437500
3732,-144.531250
3733,-140.625000
3734,-136.718750
3735,-132.812500
3736,-128.906250
3737,-125.000000
3738,-121.093750
3739,-117.187500
3740,-113.281250
3741,-109.375000
3742,-105.468750
3743,-101.562500
3744,-97.656250
3745,-89.843750
3746,-85.937500
3747,-82.031250
3748,-78.125000
3749,-74.218750
3750,-70.312500
3751,-66.406250
3752,-66.406250
3753,-58.593750
3754,-54.687500
3755,-50.781250
3756,-46.875000
3757,-42.968750
3758,-35.156250
3759,-35.156250
3760,-31.250000
3761,-23.437500
3762,-23.437500
3763,-19.531250
3764,-15.625000
3765,-11.718750
3766,-7.812500
3767,-3.906250
3768,3.906250
3769,3.906250
3770,7.812500
3771,11.718750
3772,15.625000
3773,19.531250
3774,23.437500
3775,27.343750
3776,31.250000
3777,35.156250
3778,39.062500
3779,42.968750
3780,46.875000
3781,50.781250
3782,50.781250
3783,54.687500
3784,58.593750
3785,62.500000
3786,66.406250
3787,66.406250
3788,70.312500
3789,74.218750
3790,78.125000
3791,82.031250
3792,82.031250
3793,85.937500
3794,89.843750
3795,93.750000
3796,93.750000
3797,97.656250
3798,101.562500
3799,105.468750
3800,105.468750
3801,109.375000
3802,113.281250
3803,113.281250
3804,117.187500
3805,117.187500
3806,121.093750
3807,125.000000
3808,128.906250
3809,128.906250
3810,132.812500
3811,132.812500
3812,132.812500
3813,136.718750
3814,140.625000
3815,140.625000
3816,144.531250
3817,144.531250
3818,144.531250
3819,148.437500
3820,152.343750
3821,152.343750
3822,152.343750
3823,156.250000
3824,156.250000
3825,156.250000
3826,160.156250
3827,160.156250
3828,164.062500
3829,164.062500
3830,164.062500
3831,167.968750
3832,167.968750
3833,167.968750
3834,171.875000
3835,171.875000
3836,171.875000
3837,171.875000
3838,171.875000
3839,175.781250
3840,175.781250
3841,175.781250
3842,175.781250
3843,179.687500
3844,179.687500
3845,179.687500
3846,179.687500
3847,179.687500
3848,183.593750
3849,183.593750
3850,183.593750
3851,183.593750
3852,183.593750
3853,183.593750
3854,183.593750
3855,183.593750
3856,183.593750
3857,183.593750
3858,183.593750
3859,187.500000
3860,187.500000
3861,183.593750
3862,187.500000
3863,187.500000
3864,187.500000
3865,187.500000
3866,187.500000
3867,187.500000
3868,187.500000
3869,187.500000
3870,183.593750
3871,187.500000
3872,187.500000
3873,187.500000
3874,183.593750
3875,183.593750
3876,183.593750
3877,183.593750
3878,183.593750
3879,183.593750
3880,183.593750
3881,179.687500
3882,183.593750
3883,179.687500
3884,179.687500
3885,179.687500
3886,179.687500
3887,175.781250
3888,175.781250
3889,175.781250
3890,175.781250
3891,175.781250
3892,171.875000
3893,171.875000
3894,171.875000
3895,167.968750
3896,167.968750
3897,167.968750
3898,164.062500
3899,164.062500
3900,164.062500
3901,160.156250
3902,160.156250
3903,160.156250
3904,156.250000
3905,156.250000
3906,152.343750
3907,152.343750
3908,152.343750
3909,148.437500
3910,148.437500
3911,144.531250
3912,144.531250
3913,140.625000
3914,140.625000
3915,140.625000
3916,136.718750
3917,132.812500
3918,132.812500
3919,128.906250
3920,128.906250
3921,125.000000
3922,121.093750
3923,121.093750
3924,117.187500
3925,117.187500
3926,113.281250
3927,113.281250
3928,109.375000
3929,105.468750
3930,105.468750
3931,101.562500
3932,97.656250
3933,93.750000
3934,93.750000
3935,89.843750
3936,85.937500
3937,85.937500
3938,82.031250
3939,78.125000
3940,74.218750
3941,70.312500
3942,66.406250
3943,66.406250
3944,62.500000
3945,58.593750
3946,54.687500
3947,50.781250
3948,50.781250
3949,42.968750
3950,39.062500
3951,39.062500
3952,31.250000
3953,31.250000
3954,27.343750
3955,23.437500
3956,19.531250
3957,15.625000
3958,11.718750
3959,7.812500
3960,3.906250
3961,0.000000
3962,-3.906250
3963,-7.812500
3964,-11.718750
3965,-15.625000
3966,-19.531250
3967,-23.437500
3968,-27.343750
3969,-31.250000
3970,-35.156250
3971,-39.062500
3972,-42.968750
3973,-46.875000
3974,-50.781250
3975,-54.687500
3976,-58.593750
3977,-66.406250
3978,-66.406250
3979,-74.218750
3980,-74.218750
3981,-82.031250
3982,-85.937500
3983,-89.843750
3984,-93.750000
3985,-97.656250
3986,-101.562500
3987,-105.468750
3988,-109.375000
3989,-113.281250
3990,-117.187500
3991,-121.093750
3992,-125.000000
3993,-128.906250
3994,-132.812500
3995,-136.718750
3996,-140.625000
3997,-144.531250
3998,-148.437500
3999,-152.343750
4000,-156.250000
4001,-160.156250
4002,-164.062500
4003,-167.968750
4004,-171.875000
4005,-175.781250
4006,-179.687500
4007,-183.593750
4008,-187.500000
4009,-191.406250
4010,-195.312500
4011,-199.218750
4012,-203.125000
4013,-207.031250
4014,-210.937500
4015,-210.937500
4016,-214.843750
4017,-218.750000
4018,-222.656250
4019,-226.562500
4020,-230.468750
4021,-230.468750
4022,-234.375000
4023,-238.281250
4024,-242.187500
4025,-246.093750
4026,-246.093750
4027,-250.000000
4028,-253.906250
4029,-253.906250
4030,-257.812500
4031,-261.718750
4032,-265.625000
4033,-265.625000
4034,-269.531250
4035,-269.531250
4036,-273.437500
4037,-277.343750
4038,-277.343750
4039,-281.250000
4040,-281.250000
4041,-285.156250
4042,-289.062500
4043,-289.062500
4044,-289.062500
4045,-292.968750
4046,-292.968750
4047,-296.875000
4048,-296.875000
4049,-296.875000
4050,-300.781250
4051,-300.781250
4052,-304.687500
4053,-304.687500
4054,-304.687500
4055,-308.593750
4056,-308.593750
4057,-308.593750
4058,-308.593750
4059,-308.593750
4060,-312.500000
4061,-312.500000
4062,-312.500000
4063,-316.406250
4064,-316.406250
4065,-316.406250
4066,-316.406250
4067,-316.406250
4068,-316.406250
4069,-316.406250
4070,-316.406250
4071,-316.406250
4072,-316.406250
4073,-316.406250
4074,-316.406250
4075,-316.406250
4076,-316.406250
4077,-316.406250
4078,-316.406250
4079,-316.406250
4080,-316.406250
4081,-316.406250
4082,-316.406250
4083,-312.500000
4084,-312.500000
4085,-312.500000
4086,-312.500000
4087,-312.500000
4088,-312.500000
4089,-308.593750
4090,-308.593750
4091,-308.593750
4092,-304.687500
4093,-304.687500
4094,-304.687500
4095,-300.781250
4096,-300.781250
4097,-300.781250
4098,-296.875000
4099,-296.875000
4100,-292.968750
4101,-292.968750
4102,-292.968750
4103,-289.062500
4104,-285.156250
4105,-285.156250
4106,-281.250000
4107,-281.250000
4108,-277.343750
4109,-277.343750
4110,-273.437500
4111,-269.531250
4112,-269.531250
4113,-265.625000
4114,-265.625000
4115,-261.718750
4116,-257.812500
4117,-253.906250
4118,-253.906250
4119,-250.000000
4120,-246.093750
4121,-242.187500
4122,-242.187500
4123,-238.281250
4124,-234.375000
4125,-230.468750
4126,-230.468750
4127,-226.562500
4128,-222.656250
4129,-218.750000
4130,-214.843750
4131,-210.937500
4132,-207.031250
4133,-207.031250
4134,-199.218750
4135,-199.218750
4136,-195.312500
4137,-191.406250
4138,-187.500000
4139,-183.593750
4140,-179.687500
4141,-175.781250
4142,-171.875000
4143,-167.968750
4144,-164.062500
4145,-160.156250
4146,-156.250000
4147,-152.343750
4148,-148.437500
4149,-144.531250
4150,-140.625000
4151,-136.718750
4152,-132.812500
4153,-128.906250
4154,-125.000000
4155,-121.093750
4156,-117.187500
4157,-113.281250
4158,-109.375000
4159,-105.468750
4160,-101.562500
4161,-93.750000
4162,-89.843750
4163,-85.937500
4164,-82.031250
4165,-78.125000
4166,-74.218750
4167,-70.312500
4168,-66.406250
4169,-62.500000
4170,-58.593750
4171,-54.687500
4172,-50.781250
4173,-46.875000
4174,-42.968750
4175,-39.062500
4176,-35.156250
4177,-31.250000
4178,-23.437500
4179,-23.437500
4180,-15.625000
4181,-11.718750
4182,-11.718750
4183,-7.812500
4184,0.000000
4185,0.000000
4186,7.812500
4187,7.812500
4188,11.718750
4189,15.625000
4190,19.531250
4191,23.437500
4192,27.343750
4193,31.250000
4194,35.156250
4195,39.062500
4196,42.968750
4197,46.875000
4198,46.875000
4199,54.687500
4200,54.687500
4201,58.593750
4202,62.500000
4203,66.406250
4204,70.312500
4205,74.218750
4206,74.218750
4207,78.125000
4208,82.031250
4209,85.937500
4210,85.937500
4211,89.843750
4212,93.750000
4213,97.656250
4214,97.656250
4215,101.562500
4216,105.468750
4217,105.468750
4218,109.375000
4219,113.281250
4220,113.281250
4221,117.187500
4222,117.187500
4223,121.093750
4224,125.000000
4225,125.000000
4226,128.906250
4227,132.812500
4228,132.812500
4229,136.718750
4230,136.718750
4231,140.625000
4232,140.625000
4233,140.625000
4234,144.531250
4235,148.437500
4236,148.437500
4237,148.437500
4238,152.343750
4239,152.343750
4240,156.250000
4241,156.250000
4242,156.250000
4243,160.156250
4244,160.156250
4245,164.062500
4246,164.062500
4247,164.062500
4248,167.968750
4249,167.968750
4250,167.968750
4251,167.968750
4252,171.875000
4253,171.875000
4254,171.875000
4255,175.781250
4256,175.781250
4257,175.781250
4258,175.781250
4259,179.687500
4260,179.687500
4261,179.687500
4262,179.687500
4263,179.687500
4264,179.687500
4265,183.593750
4266,183.593750
4267,183.593750
4268,183.593750
4269,183.593750
4270,183.593750
4271,183.593750
4272,183.593750
4273,183.593750
4274,183.593750
4275,183.593750
4276,187.500000
4277,183.593750
4278,183.593750
4279,183.593750
4280,183.593750
4281,183.593750
4282,183.593750
4283,183.593750
4284,187.500000
4285,183.593750
4286,183.593750
4287,187.500000
4288,183.593750
4289,183.593750
4290,183.593750
4291,183.593750
4292,183.593750
4293,183.593750
4294,183.593750
4295,183.593750
4296,183.593750
4297,179.687500
4298,179.687500
4299,179.687500
4300,179.687500
4301,179.687500
4302,179.687500
4303,179.687500
4304,175.781250
4305,175.781250
4306,175.781250
4307,171.875000
4308,175.781250
4309,171.875000
4310,171.875000
4311,167.968750
4312,167.968750
4313,167.968750
4314,167.968750
4315,164.062500
4316,164.062500
4317,164.062500
4318,160.156250
4319,160.156250
4320,160.156250
4321,156.250000
4322,156.250000
4323,152.343750
4324,152.343750
4325,152.343750
4326,148.437500
4327,148.437500
4328,148.437500
4329,144.531250
4330,140.625000
4331,140.625000
4332,136.718750
4333,136.718750
4334,132.812500
4335,132.812500
4336,128.906250
4337,128.906250
4338,125.000000
4339,125.000000
4340,121.093750
4341,117.187500
4342,113.281250
4343,113.281250
4344,109.375000
4345,109.375000
4346,105.468750
4347,101.562500
4348,97.656250
4349,97.656250
4350,93.750000
4351,93.750000
4352,85.937500
4353,85.937500
4354,82.031250
4355,78.125000
4356,74.218750
4357,74.218750
4358,70.312500
4359,66.406250
4360,62.500000
4361,58.593750
4362,54.687500
4363,54.687500
4364,50.781250
4365,46.875000
4366,42.968750
4367,39.062500
4368,35.156250
4369,31.250000
4370,27.343750
4371,23.437500
4372,19.531250
4373,19.531250
4374,15.625000
4375,7.812500
4376,7.812500
4377,3.906250
4378,0.000000
4379,-7.812500
4380,-7.812500
4381,-11.718750
4382,-15.625000
4383,-19.531250
4384,-23.437500
4385,-27.343750
4386,-31.250000
4387,-35.156250
4388,-39.062500
4389,-42.968750
4390,-50.781250
4391,-50.781250
4392,-54.687500
4393,-62.500000
4394,-66.406250
4395,-70.312500
4396,-74.218750
4397,-78.125000
4398,-82.031250
4399,-85.937500
4400,-89.843750
4401,-93.750000
4402,-97.656250
4403,-101.562500
4404,-105.468750
4405,-109.375000
4406,-113.281250
4407,-117.187500
4408,-125.000000
4409,-128.906250
4410,-128.906250
4411,-136.718750
4412,-140.625000
4413,-144.531250
4414,-148.437500
4415,-148.437500
4416,-156.250000
4417,-156.250000
4418,-164.062500
4419,-167.968750
4420,-167.968750
4421,-171.875000
4422,-179.687500
4423,-179.687500
4424,-183.593750
4425,-187.500000
4426,-191.406250
4427,-195.312500
4428,-199.218750
4429,-203.125000
4430,-207.031250
4431,-207.031250
4432,-214.843750
4433,-214.843750
4434,-218.750000
4435,-222.656250
4436,-226.562500
4437,-230.468750
4438,-234.375000
4439,-234.375000
4440,-238.281250
4441,-242.187500
4442,-246.093750
4443,-246.093750
4444,-250.000000
4445,-253.906250
4446,-253.906250
4447,-257.812500
4448,-261.718750
4449,-261.718750
4450,-265.625000
4451,-269.531250
4452,-269.531250
4453,-273.437500
4454,-273.437500
4455,-277.343750
4456,-281.250000
4457,-281.250000
4458,-285.156250
4459,-285.156250
4460,-289.062500
4461,-289.062500
4462,-292.968750
4463,-292.968750
4464,-296.875000
4465,-296.875000
4466,-296.875000
4467,-300.781250
4468,-300.781250
4469,-300.781250
4470,-304.687500
4471,-304.687500
4472,-308.593750
4473,-308.593750
4474,-308.593750
4475,-308.593750
4476,-312.500000
4477,-312.500000
4478,-312.500000
4479,-312.500000
4480,-312.500000
4481,-316.406250
4482,-316.406250
4483,-316.406250
4484,-316.406250
4485,-316.406250
4486,-316.406250
4487,-316.406250
4488,-316.406250
4489,-316.406250
4490,-316.406250
4491,-316.406250
4492,-316.406250
4493,-316.406250
4494,-316.406250
4495,-316.406250
4496,-316.406250
4497,-316.406250
4498,-316.406250
4499,-312.500000
4500,-312.500000
4501,-312.500000
4502,-312.500000
4503,-312.500000
4504,-308.593750
4505,-308.593750
4506,-308.593750
4507,-308.593750
4508,-304.687500
4509,-304.687500
4510,-304.687500
4511,-300.781250
4512,-300.781250
4513,-300.781250
4514,-296.875000
4515,-296.875000
4516,-292.968750
4517,-292.968750
4518,-289.062500
4519,-289.062500
4520,-289.062500
4521,-285.156250
4522,-281.250000
4523,-281.250000
4524,-277.343750
4525,-277.343750
4526,-273.437500
4527,-273.437500
4528,-269.531250
4529,-265.625000
4530,-265.625000
4531,-261.718750
4532,-257.812500
4533,-257.812500
4534,-253.906250
4535,-250.000000
4536,-250.000000
4537,-246.093750
4538,-238.281250
4539,-238.281250
4540,-238.281250
4541,-234.375000
4542,-230.468750
4543,-226.562500
4544,-222.656250
4545,-218.750000
4546,-218.750000
4547,-210.937500
4548,-210.937500
4549,-207.031250
4550,-203.125000
4551,-199.218750
4552,-195.312500
4553,-195.312500
4554,-187.500000
4555,-183.593750
4556,-179.687500
4557,-175.781250
4558,-171.875000
4559,-167.968750
4560,-167.968750
4561,-164.062500
4562,-160.156250
4563,-152.343750
4564,-152.343750
4565,-148.437500
4566,-140.625000
4567,-140.625000
4568,-136.718750
4569,-128.906250
4570,-125.000000
4571,-121.093750
4572,-117.187500
4573,-113.281250
4574,-109.375000
4575,-105.468750
4576,-101.562500
4577,-97.656250
4578,-93.750000
4579,-89.843750
4580,-85.937500
4581,-82.031250
4582,-78.125000
4583,-74.218750
4584,-70.312500
4585,-62.500000
4586,-58.593750
4587,-54.687500
4588,-50.781250
4589,-46.875000
4590,-42.968750
4591,-39.062500
4592,-35.156250
4593,-31.250000
4594,-27.343750
4595,-23.437500
4596,-19.531250
4597,-15.625000
4598,-11.718750
4599,-7.812500
4600,-3.906250
4601,0.000000
4602,3.906250
4603,7.812500
4604,11.718750
4605,15.625000
4606,19.531250
4607,23.437500
4608,27.343750
4609,27.343750
4610,35.156250
4611,39.062500
4612,39.062500
4613,42.968750
4614,46.875000
4615,50.781250
4616,54.687500
4617,58.593750
4618,62.500000
4619,62.500000
4620,66.406250
4621,70.312500
4622,74.218750
4623,78.125000
4624,78.125000
4625,82.031250
4626,85.937500
4627,89.843750
4628,93.750000
4629,93.750000
4630,97.656250
4631,101.562500
4632,101.562500
4633,105.468750
4634,109.375000
4635,109.375000
4636,113.281250
4637,117.187500
4638,117.187500
4639,121.093750
4640,121.093750
4641,125.000000
4642,128.906250
4643,128.906250
4644,132.812500
4645,132.812500
4646,136.718750
4647,136.718750
4648,140.625000
4649,140.625000
4650,144.531250
4651,144.531250
4652,148.437500
4653,148.437500
4654,152.343750
4655,152.343750
4656,156.250000
4657,156.250000
4658,160.156250
4659,160.156250
4660,160.156250
4661,164.062500
4662,164.062500
4663,164.062500
4664,167.968750
4665,167.968750
4666,167.968750
4667,167.968750
4668,171.875000
4669,171.875000
4670,171.875000
4671,175.781250
4672,175.781250
4673,175.781250
4674,175.781250
4675,175.781250
4676,179.687500
4677,179.687500
4678,179.687500
4679,179.687500
4680,179.687500
4681,179.687500
4682,183.593750
4683,183.593750
4684,183.593750
4685,183.593750
4686,183.593750
4687,183.593750
4688,183.593750
4689,187.500000
4690,183.593750
4691,187.500000
4692,187.500000
4693,187.500000
4694,187.500000
4695,187.500000
4696,187.500000
4697,187.500000
4698,187.500000
4699,187.500000
4700,187.500000
4701,187.500000
4702,187.500000
4703,187.500000
4704,187.500000
4705,183.593750
4706,183.593750
4707,187.500000
4708,183.593750
4709,183.593750
4710,183.593750
4711,183.593750
4712,183.593750
4713,183.593750
4714,183.593750
4715,179.687500
4716,179.687500
4717,179.687500
4718,179.687500
4719,179.687500
4720,175.781250
4721,175.781250
4722,175.781250
4723,175.781250
4724,175.781250
4725,171.875000
4726,171.875000
4727,171.875000
4728,167.968750
4729,167.968750
4730,167.968750
4731,167.968750
4732,167.968750
4733,164.062500
4734,164.062500
4735,160.156250
4736,160.156250
4737,160.156250
4738,156.250000
4739,156.250000
4740,152.343750
4741,152.343750
4742,152.343750
4743,148.437500
4744,148.437500
4745,144.531250
4746,144.531250
4747,140.625000
4748,140.625000
4749,136.718750
4750,136.718750
4751,132.812500
4752,132.812500
4753,128.906250
4754,125.000000
4755,125.000000
4756,121.093750
4757,121.093750
4758,117.187500
4759,117.187500
4760,113.281250
4761,109.375000
4762,109.375000
4763,105.468750
4764,101.562500
4765,101.562500
4766,97.656250
4767,93.750000
4768,89.843750
4769,89.843750
4770,85.937500
4771,82.031250
4772,78.125000
4773,74.218750
4774,74.218750
4775,70.312500
4776,66.406250
4777,66.406250
4778,58.593750
4779,58.593750
4780,54.687500
4781,50.781250
4782,46.875000
4783,42.968750
4784,39.062500
4785,35.156250
4786,31.250000
4787,27.343750
4788,23.437500
4789,19.531250
4790,15.625000
4791,11.718750
4792,11.718750
4793,7.812500
4794,3.906250
4795,0.000000
4796,-3.906250
4797,-7.812500
4798,-11.718750
4799,-15.625000
4800,-19.531250
4801,-23.437500
4802,-27.343750
4803,-31.250000
4804,-39.062500
4805,-42.968750
4806,-42.968750
4807,-50.781250
4808,-54.687500
4809,-58.593750
4810,-62.500000
4811,-66.406250
4812,-70.312500
4813,-74.218750
4814,-78.125000
4815,-82.031250
4816,-85.937500
4817,-89.843750
4818,-93.750000
4819,-97.656250
4820,-101.562500
4821,-105.468750
4822,-109.375000
4823,-113.281250
4824,-117.187500
4825,-121.093750
4826,-125.000000
4827,-132.812500
4828,-132.812500
4829,-140.625000
4830,-144.531250
4831,-144.531250
4832,-148.437500
4833,-152.343750
4834,-160.156250
4835,-164.062500
4836,-164.062500
4837,-167.968750
4838,-171.875000
4839,-175.781250
4840,-179.687500
4841,-183.593750
4842,-187.500000
4843,-191.406250
4844,-195.312500
4845,-199.218750
4846,-203.125000
4847,-207.031250
4848,-210.937500
4849,-214.843750
4850,-214.843750
4851,-218.750000
4852,-222.656250
4853,-222.656250
4854,-230.468750
4855,-230.468750
4856,-234.375000
4857,-238.281250
4858,-242.187500
4859,-246.093750
4860,-246.093750
4861,-250.000000
4862,-253.906250
4863,-257.812500
4864,-257.812500
4865,-261.718750
4866,-265.625000
4867,-265.625000
4868,-269.531250
4869,-269.531250
4870,-273.437500
4871,-277.343750
4872,-277.343750
4873,-281.250000
4874,-281.250000
4875,-285.156250
4876,-285.156250
4877,-289.062500
4878,-289.062500
4879,-292.968750
4880,-292.968750
4881,-296.875000
4882,-296.875000
4883,-300.781250
4884,-300.781250
4885,-300.781250
4886,-304.687500
4887,-304.687500
4888,-304.687500
4889,-304.687500
4890,-304.687500
4891,-308.593750
4892,-308.593750
4893,-312.500000
4894,-312.500000
4895,-312.500000
4896,-312.500000
4897,-312.500000
4898,-316.406250
4899,-316.406250
4900,-316.406250
4901,-316.406250
4902,-320.312500
4903,-316.406250
4904,-316.406250
4905,-316.406250
4906,-316.406250
4907,-316.406250
4908,-316.406250
4909,-316.406250
4910,-316.406250
4911,-316.406250
4912,-316.406250
4913,-316.406250
4914,-316.406250
4915,-316.406250
4916,-312.500000
4917,-312.500000
4918,-312.500000
4919,-312.500000
4920,-312.500000
4921,-308.593750
4922,-308.593750
4923,-308.593750
4924,-308.593750
4925,-304.687500
4926,-304.687500
4927,-304.687500
4928,-300.781250
4929,-300.781250
4930,-300.781250
4931,-296.875000
4932,-296.875000
4933,-292.968750
4934,-292.968750
4935,-292.968750
4936,-289.062500
4937,-289.062500
4938,-285.156250
4939,-285.156250
4940,-281.250000
4941,-277.343750
4942,-277.343750
4943,-273.437500
4944,-273.437500
4945,-269.531250
4946,-265.625000
4947,-265.625000
4948,-261.718750
4949,-257.812500
4950,-257.812500
4951,-253.906250
4952,-250.000000
4953,-250.000000
4954,-246.093750
4955,-242.187500
4956,-238.281250
4957,-234.375000
4958,-234.375000
4959,-230.468750
4960,-226.562500
4961,-222.656250
4962,-218.750000
4963,-218.750000
4964,-210.937500
4965,-210.937500
4966,-207.031250
4967,-203.125000
4968,-199.218750
4969,-195.312500
4970,-191.406250
4971,-187.500000
4972,-187.500000
4973,-179.687500
4974,-175.781250
4975,-171.875000
4976,-167.968750
4977,-167.968750
4978,-160.156250
4979,-156.250000
4980,-156.250000
4981,-152.343750
4982,-144.531250
4983,-144.531250
4984,-140.625000
4985,-132.812500
4986,-128.906250
4987,-125.000000
4988,-121.093750
4989,-117.187500
4990,-113.281250
4991,-109.375000
4992,-105.468750
4993,-101.562500
4994,-97.656250
4995,-93.750000
4996,-89.843750
4997,-85.937500
4998,-82.031250
4999,-78.125000
5000,-74.218750
5001,-70.312500
5002,-66.406250
5003,-58.593750
5004,-54.687500
5005,-50.781250
5006,-46.875000
5007,-42.968750
5008,-39.062500
5009,-35.156250
5010,-31.250000
5011,-27.343750
5012,-23.437500
5013,-19.531250
5014,-15.625000
5015,-11.718750
5016,-7.812500
5017,-3.906250
5018,0.000000
5019,3.906250
5020,7.812500
5021,11.718750
5022,15.625000
5023,19.531250
5024,23.437500
5025,27.343750
5026,31.250000
5027,35.156250
5028,39.062500
5029,42.968750
5030,42.968750
5031,46.875000
5032,50.781250
5033,54.687500
5034,58.593750
5035,62.500000
5036,66.406250
5037,70.312500
5038,70.312500
5039,74.218750
5040,78.125000
5041,82.031250
5042,82.031250
5043,85.937500
5044,89.843750
5045,93.750000
5046,93.750000
5047,97.656250
5048,101.562500
5049,101.562500
5050,105.468750
5051,109.375000
5052,109.375000
5053,113.281250
5054,117.187500
5055,117.187500
5056,121.093750
5057,121.093750
5058,125.000000
5059,128.906250
5060,128.906250
5061,132.812500
5062,132.812500
5063,136.718750
5064,136.718750
5065,140.625000
5066,140.625000
5067,144.531250
5068,144.531250
5069,148.437500
5070,148.437500
5071,152.343750
5072,152.343750
5073,156.250000
5074,156.250000
5075,156.250000
5076,160.156250
5077,160.156250
5078,160.156250
5079,164.062500
5080,164.062500
5081,167.968750
5082,167.968750
5083,167.968750
5084,167.968750
5085,171.875000
5086,171.875000
5087,171.875000
5088,171.875000
5089,175.781250
5090,175.781250
5091,179.687500
5092,175.781250
5093,179.687500
5094,179.687500
5095,179.687500
5096,179.687500
5097,179.687500
5098,179.687500
5099,183.593750
5100,183.593750
5101,183.593750
5102,183.593750
5103,183.593750
5104,183.593750
5105,183.593750
5106,183.593750
5107,183.593750
5108,183.593750
5109,187.500000
5110,187.500000
5111,187.500000
5112,187.500000
5113,187.500000
5114,187.500000
5115,187.500000
5116,187.500000
5117,183.593750
5118,187.500000
5119,187.500000
5120,183.593750
5121,183.593750
5122,183.593750
5123,187.500000
5124,183.593750
5125,183.593750
5126,187.500000
5127,179.687500
5128,183.593750
5129,183.593750
5130,179.687500
5131,179.687500
5132,179.687500
5133,179.687500
5134,179.687500
5135,179.687500
5136,179.687500
5137,179.687500
5138,175.781250
5139,175.781250
5140,175.781250
5141,171.875000
5142,171.875000
5143,171.875000
5144,171.875000
5145,167.968750
5146,167.968750
5147,167.968750
5148,167.968750
5149,164.062500
5150,164.062500
5151,164.062500
5152,160.156250
5153,160.156250
5154,160.156250
5155,156.250000
5156,156.250000
5157,152.343750
5158,152.343750
5159,148.437500
5160,148.437500
5161,144.531250
5162,144.531250
5163,144.531250
5164,140.625000
5165,136.718750
5166,136.718750
5167,136.718750
5168,132.812500
5169,132.812500
5170,128.906250
5171,128.906250
5172,125.000000
5173,121.093750
5174,117.187500
5175,117.187500
5176,113.281250
5177,113.281250
5178,109.375000
5179,105.468750
5180,105.468750
5181,101.562500
5182,97.656250
5183,93.750000
5184,93.750000
5185,89.843750
5186,85.937500
5187,82.031250
5188,82.031250
5189,78.125000
5190,74.218750
5191,70.312500
5192,70.312500
5193,62.500000
5194,62.500000
5195,58.593750
5196,54.687500
5197,50.781250
5198,46.875000
5199,42.968750
5200,42.968750
5201,39.062500
5202,35.156250
5203,31.250000
5204,27.343750
5205,23.437500
5206,19.531250
5207,15.625000
5208,11.718750
5209,7.812500
5210,3.906250
5211,0.000000
5212,-3.906250
5213,-7.812500
5214,-11.718750
5215,-15.625000
5216,-19.531250
5217,-23.437500
5218,-27.343750
5219,-31.250000
5220,-35.156250
5221,-35.156250
5222,-42.968750
5223,-46.875000
5224,-50.781250
5225,-54.687500
5226,-58.593750
5227,-62.500000
5228,-66.406250
5229,-70.312500
5230,-74.218750
5231,-78.125000
5232,-82.031250
5233,-85.937500
5234,-89.843750
5235,-97.656250
5236,-101.562500
5237,-101.562500
5238,-109.375000
5239,-113.281250
5240,-117.187500
5241,-121.093750
5242,-121.093750
5243,-128.906250
5244,-132.812500
5245,-136.718750
5246,-140.625000
5247,-144.531250
5248,-148.437500
5249,-152.343750
5250,-156.250000
5251,-160.156250
5252,-164.062500
5253,-167.968750
5254,-171.875000
5255,-175.781250
5256,-179.687500
5257,-183.593750
5258,-187.500000
5259,-191.406250
5260,-195.312500
5261,-195.312500
5262,-199.218750
5263,-203.125000
5264,-207.031250
5265,-210.937500
5266,-214.843750
5267,-218.750000
5268,-222.656250
5269,-226.562500
5270,-226.562500
5271,-230.468750
5272,-234.375000
5273,-238.281250
5274,-242.187500
5275,-242.187500
5276,-246.093750
5277,-250.000000
5278,-250.000000
5279,-253.906250
5280,-257.812500
5281,-257.812500
5282,-261.718750
5283,-265.625000
5284,-269.531250
5285,-269.531250
5286,-273.437500
5287,-273.437500
5288,-277.343750
5289,-277.343750
5290,-281.250000
5291,-285.156250
5292,-285.156250
5293,-285.156250
5294,-289.062500
5295,-289.062500
5296,-292.968750
5297,-296.875000
5298,-296.875000
5299,-296.875000
5300,-300.781250
5301,-300.781250
5302,-300.781250
5303,-304.687500
5304,-304.687500
5305,-304.687500
5306,-304.687500
5307,-308.593750
5308,-308.593750
5309,-308.593750
5310,-312.500000
5311,-312.500000
5312,-312.500000
5313,-312.500000
5314,-312.500000
5315,-316.406250
5316,-316.406250
5317,-316.406250
5318,-316.406250
5319,-316.406250
5320,-316.406250
5321,-316.406250
5322,-316.406250
5323,-316.406250
5324,-316.406250
5325,-316.406250
5326,-316.406250
5327,-316.406250
5328,-316.406250
5329,-316.406250
5330,-316.406250
5331,-316.406250
5332,-316.406250
5333,-312.500000
5334,-312.500000
5335,-312.500000
5336,-312.500000
5337,-312.500000
5338,-308.593750
5339,-308.593750
5340,-308.593750
5341,-308.593750
5342,-304.687500
5343,-304.687500
5344,-300.781250
5345,-300.781250
5346,-300.781250
5347,-296.875000
5348,-296.875000
5349,-296.875000
5350,-292.968750
5351,-292.968750
5352,-289.062500
5353,-289.062500
5354,-285.156250
5355,-285.156250
5356,-281.250000
5357,-281.250000
5358,-277.343750
5359,-273.437500
5360,-273.437500
5361,-269.531250
5362,-269.531250
5363,-265.625000
5364,-261.718750
5365,-261.718750
5366,-257.812500
5367,-253.906250
5368,-253.906250
5369,-250.000000
5370,-246.093750
5371,-246.093750
5372,-242.187500
5373,-238.281250
5374,-234.375000
5375,-230.468750
5376,-230.468750
5377,-226.562500
5378,-222.656250
5379,-218.750000
5380,-214.843750
5381,-210.937500
5382,-207.031250
5383,-207.031250
5384,-203.125000
5385,-199.218750
5386,-195.312500
5387,-191.406250
5388,-187.500000
5389,-183.593750
5390,-179.687500
5391,-175.781250
5392,-171.875000
5393,-167.968750
5394,-164.062500
5395,-160.156250
5396,-156.250000
5397,-152.343750
5398,-148.437500
5399,-144.531250
5400,-140.625000
5401,-136.718750
5402,-132.812500
5403,-128.906250
5404,-125.000000
5405,-121.093750
5406,-117.187500
5407,-113.281250
5408,-109.375000
5409,-105.468750
5410,-101.562500
5411,-93.750000
5412,-89.843750
5413,-85.937500
5414,-82.031250
5415,-78.125000
5416,-74.218750
5417,-70.312500
5418,-66.406250
5419,-62.500000
5420,-58.593750
5421,-54.687500
5422,-50.781250
5423,-46.875000
5424,-42.968750
5425,-39.062500
5426,-35.156250
5427,-31.250000
5428,-23.437500
5429,-23.437500
5430,-19.531250
5431,-15.625000
5432,-7.812500
5433,-3.906250
5434,-3.906250
5435,0.000000
5436,3.906250
5437,7.812500
5438,11.718750
5439,15.625000
5440,19.531250
5441,23.437500
5442,27.343750
5443,31.250000
5444,35.156250
5445,39.062500
5446,42.968750
5447,46.875000
5448,50.781250
5449,54.687500
5450,54.687500
5451,58.593750
5452,62.500000
5453,66.406250
5454,70.312500
5455,70.312500
5456,74.218750
5457,78.125000
5458,82.031250
5459,85.937500
5460,85.937500
5461,89.843750
5462,93.750000
5463,97.656250
5464,97.656250
5465,101.562500
5466,105.468750
5467,105.468750
5468,109.375000
5469,113.281250
5470,113.281250
5471,117.187500
5472,117.187500
5473,121.093750
5474,125.000000
5475,125.000000
5476,128.906250
5477,128.906250
5478,132.812500
5479,136.718750
5480,136.718750
5481,140.625000
5482,140.625000
5483,144.531250
5484,148.437500
5485,148.437500
5486,148.437500
5487,148.437500
5488,152.343750
5489,152.343750
5490,156.250000
5491,156.250000
5492,160.156250
5493,160.156250
5494,164.062500
5495,164.062500
5496,164.062500
5497,164.062500
5498,167.968750
5499,167.968750
5500,167.968750
5501,171.875000
5502,171.875000
5503,171.875000
5504,171.875000
5505,175.781250
5506,175.781250
5507,175.781250
5508,175.781250
5509,175.781250
5510,179.687500
5511,179.687500
5512,179.687500
5513,179.687500
5514,183.593750
5515,183.593750
5516,183.593750
5517,183.593750
5518,183.593750
5519,183.593750
5520,183.593750
5521,183.593750
5522,183.593750
5523,183.593750
5524,183.593750
5525,187.500000
5526,183.593750
5527,187.500000
5528,187.500000
5529,187.500000
5530,187.500000
5531,187.500000
5532,187.500000
5533,187.500000
5534,183.593750
5535,187.500000
5536,187.500000
5537,187.500000
5538,187.500000
5539,183.593750
5540,183.593750
5541,183.593750
5542,183.593750
5543,183.593750
5544,183.593750
5545,183.593750
5546,183.593750
5547,183.593750
5548,183.593750
5549,179.687500
5550,179.687500
5551,179.687500
5552,179.687500
5553,179.687500
5554,175.781250
5555,175.781250
5556,175.781250
5557,175.781250
5558,175.781250
5559,171.875000
5560,171.875000
5561,171.875000
5562,167.968750
5563,167.968750
5564,167.968750
5565,164.062500
5566,164.062500
5567,164.062500
5568,160.156250
5569,160.156250
5570,160.156250
5571,156.250000
5572,156.250000
5573,156.250000
5574,152.343750
5575,152.343750
5576,148.437500
5577,148.437500
5578,144.531250
5579,144.531250
5580,144.531250
5581,140.625000
5582,140.625000
5583,136.718750
5584,136.718750
5585,132.812500
5586,128.906250
5587,128.906250
5588,125.000000
5589,121.093750
5590,121.093750
5591,117.187500
5592,117.187500
5593,113.281250
5594,109.375000
5595,109.375000
5596,105.468750
5597,105.468750
5598,101.562500
5599,97.656250
5600,97.656250
5601,93.750000
5602,89.843750
5603,85.937500
5604,85.937500
5605,82.031250
5606,78.125000
5607,74.218750
5608,70.312500
5609,66.406250
5610,66.406250
5611,62.500000
5612,58.593750
5613,54.687500
5614,50.781250
5615,46.875000
5616,42.968750
5617,42.968750
5618,39.062500
5619,35.156250
5620,31.250000
5621,27.343750
5622,23.437500
5623,19.531250
5624,15.625000
5625,11.718750
5626,7.812500
5627,3.906250
5628,0.000000
5629,-3.906250
5630,-7.812500
5631,-11.718750
5632,-15.625000
5633,-19.531250
5634,-23.437500
5635,-27.343750
5636,-27.343750
5637,-35.156250
5638,-39.062500
5639,-42.968750
5640,-46.875000
5641,-50.781250
5642,-54.687500
5643,-58.593750
5644,-62.500000
5645,-66.406250
5646,-70.312500
5647,-74.218750
5648,-78.125000
5649,-82.031250
5650,-89.843750
5651,-93.750000
5652,-97.656250
5653,-101.562500
5654,-105.468750
5655,-109.375000
5656,-113.281250
5657,-117.187500
5658,-121.093750
5659,-125.000000
5660,-128.906250
5661,-132.812500
5662,-136.718750
5663,-140.625000
5664,-144.531250
5665,-148.437500
5666,-152.343750
5667,-156.250000
5668,-160.156250
5669,-164.062500
5670,-171.875000
5671,-171.875000
5672,-175.781250
5673,-179.687500
5674,-183.593750
5675,-187.500000
5676,-191.406250
5677,-195.312500
5678,-195.312500
5679,-203.125000
5680,-203.125000
5681,-207.031250
5682,-210.937500
5683,-214.843750
5684,-218.750000
5685,-222.656250
5686,-226.562500
5687,-226.562500
5688,-230.468750
5689,-234.375000
5690,-238.281250
5691,-238.281250
5692,-242.187500
5693,-246.093750
5694,-250.000000
5695,-250.000000
5696,-253.906250
5697,-257.812500
5698,-261.718750
5699,-261.718750
5700,-265.625000
5701,-269.531250
5702,-269.531250
5703,-273.437500
5704,-273.437500
5705,-277.343750
5706,-281.250000
5707,-281.250000
5708,-285.156250
5709,-285.156250
5710,-289.062500
5711,-289.062500
5712,-292.968750
5713,-292.968750
5714,-292.968750
5715,-296.875000
5716,-296.875000
5717,-300.781250
5718,-300.781250
5719,-304.687500
5720,-304.687500
5721,-304.687500
5722,-308.593750
5723,-308.593750
5724,-308.593750
5725,-308.593750
5726,-312.500000
5727,-312.500000
5728,-312.500000
5729,-312.500000
5730,-312.500000
5731,-316.406250
5732,-316.406250
5733,-316.406250
5734,-316.406250
5735,-316.406250
5736,-316.406250
5737,-316.406250
5738,-316.406250
5739,-316.406250
5740,-316.406250
5741,-316.406250
5742,-316.406250
5743,-316.406250
5744,-316.406250
5745,-316.406250
5746,-316.406250
5747,-316.406250
5748,-316.406250
5749,-312.500000
5750,-312.500000
5751,-312.500000
5752,-312.500000
5753,-312.500000
5754,-312.500000
5755,-308.593750
5756,-308.593750
5757,-308.593750
5758,-308.593750
5759,-304.687500
5760,-304.687500
5761,-304.687500
5762,-304.687500
5763,-300.781250
5764,-296.875000
5765,-296.875000
5766,-296.875000
5767,-292.968750
5768,-292.968750
5769,-289.062500
5770,-289.062500
5771,-285.156250
5772,-285.156250
5773,-281.250000
5774,-281.250000
5775,-277.343750
5776,-277.343750
5777,-273.437500
5778,-269.531250
5779,-269.531250
5780,-265.625000
5781,-261.718750
5782,-261.718750
5783,-257.812500
5784,-257.812500
5785,-253.906250
5786,-250.000000
5787,-246.093750
5788,-246.093750
5789,-242.187500
5790,-238.281250
5791,-234.375000
5792,-230.468750
5793,-226.562500
5794,-226.562500
5795,-222.656250
5796,-218.750000
5797,-214.843750
5798,-210.937500
5799,-207.031250
5800,-203.125000
5801,-203.125000
5802,-199.218750
5803,-195.312500
5804,-191.406250
5805,-187.500000
5806,-183.593750
5807,-179.687500
5808,-175.781250
5809,-171.875000
5810,-167.968750
5811,-164.062500
5812,-160.156250
5813,-156.250000
5814,-152.343750
5815,-148.437500
5816,-144.531250
5817,-140.625000
5818,-136.718750
5819,-132.812500
5820,-128.906250
5821,-125.000000
5822,-121.093750
5823,-117.187500
5824,-113.281250
5825,-109.375000
5826,-105.468750
5827,-97.656250
5828,-93.750000
5829,-93.750000
5830,-85.937500
5831,-82.031250
5832,-78.125000
5833,-74.218750
5834,-70.312500
5835,-66.406250
5836,-62.500000
5837,-58.593750
5838,-54.687500
5839,-50.781250
5840,-46.875000
5841,-39.062500
5842,-39.062500
5843,-35.156250
5844,-31.250000
5845,-27.343750
5846,-23.437500
5847,-15.625000
5848,-11.718750
5849,-7.812500
5850,-3.906250
5851,0.000000
5852,3.906250
5853,3.906250
5854,7.812500
5855,11.718750
5856,15.625000
5857,19.531250
5858,23.437500
5859,27.343750
5860,31.250000
5861,35.156250
5862,39.062500
5863,42.968750
5864,46.875000
5865,50.781250
5866,50.781250
5867,54.687500
5868,58.593750
5869,62.500000
5870,66.406250
5871,70.312500
5872,74.218750
5873,78.125000
5874,78.125000
5875,82.031250
5876,85.937500
5877,85.937500
5878,89.843750
5879,93.750000
5880,97.656250
5881,97.656250
5882,101.562500
5883,105.468750
5884,105.468750
5885,109.375000
5886,113.281250
5887,113.281250
5888,117.187500
5889,117.187500
5890,121.093750
5891,125.000000
5892,128.906250
5893,128.906250
5894,128.906250
5895,132.812500
5896,136.718750
5897,136.718750
5898,140.625000
5899,140.625000
5900,144.531250
5901,144.531250
5902,148.437500
5903,148.437500
5904,148.437500
5905,152.343750
5906,152.343750
5907,156.250000
5908,156.250000
5909,160.156250
5910,160.156250
5911,164.062500
5912,164.062500
5913,164.062500
5914,164.062500
5915,167.968750
5916,167.968750
5917,167.968750
5918,171.875000
5919,171.875000
5920,171.875000
5921,171.875000
5922,175.781250
5923,175.781250
5924,175.781250
5925,175.781250
5926,175.781250
5927,179.687500
5928,179.687500
5929,179.687500
5930,179.687500
5931,183.593750
5932,183.593750
5933,183.593750
5934,183.593750
5935,183.593750
5936,183.593750
5937,183.593750
5938,183.593750
5939,187.500000
5940,187.500000
5941,187.500000
5942,187.500000
5943,187.500000
5944,187.500000
5945,187.500000
5946,187.500000
5947,187.500000
5948,187.500000
5949,187.500000
5950,187.500000
5951,187.500000
5952,187.500000
5953,187.500000
5954,183.593750
5955,187.500000
5956,187.500000
5957,183.593750
5958,183.593750
5959,183.593750
5960,183.593750
5961,183.593750
5962,183.593750
5963,183.593750
5964,183.593750
5965,183.593750
5966,179.687500
5967,179.687500
5968,179.687500
5969,179.687500
5970,179.687500
5971,175.781250
5972,175.781250
5973,175.781250
5974,175.781250
5975,171.875000
5976,171.875000
5977,171.875000
5978,171.875000
5979,167.968750
5980,167.968750
5981,167.968750
5982,167.968750
5983,164.062500
5984,164.062500
5985,160.156250
5986,160.156250
5987,160.156250
5988,156.250000
5989,156.250000
5990,156.250000
5991,152.343750
5992,152.343750
5993,152.343750
5994,148.437500
5995,148.437500
5996,144.531250
5997,140.625000
5998,140.625000
5999,140.625000
6000,136.718750
6001,136.718750
6002,132.812500
6003,128.906250
6004,128.906250
6005,125.000000
6006,125.000000
6007,121.093750
6008,121.093750
6009,117.187500
6010,113.281250
6011,113.281250
6012,109.375000
6013,105.468750
6014,105.468750
6015,101.562500
6016,97.656250
6017,93.750000
6018,93.750000
6019,85.937500
6020,85.937500
6021,82.031250
6022,82.031250
6023,78.125000
6024,74.218750
6025,70.312500
6026,66.406250
6027,66.406250
6028,62.500000
6029,58.593750
6030,54.687500
6031,50.781250
6032,46.875000
6033,42.968750
6034,39.062500
6035,35.156250
6036,35.156250
6037,31.250000
6038,27.343750
6039,23.437500
6040,19.531250
6041,15.625000
6042,11.718750
6043,7.812500
6044,3.906250
6045,0.000000
6046,-3.906250
6047,-7.812500
6048,-11.718750
6049,-15.625000
6050,-19.531250
6051,-23.437500
6052,-27.343750
6053,-31.250000
6054,-35.156250
6055,-39.062500
6056,-42.968750
6057,-50.781250
6058,-50.781250
6059,-54.687500
6060,-58.593750
6061,-62.500000
6062,-66.406250
6063,-74.218750
6064,-78.125000
6065,-78.125000
6066,-85.937500
6067,-89.843750
6068,-93.750000
6069,-97.656250
6070,-101.562500
6071,-105.468750
6072,-109.375000
6073,-113.281250
6074,-117.187500
6075,-121.093750
6076,-125.000000
6077,-128.906250
6078,-132.812500
6079,-136.718750
6080,-140.625000
6081,-144.531250
6082,-148.437500
6083,-152.343750
6084,-156.250000
6085,-160.156250
6086,-164.062500
6087,-167.968750
6088,-171.875000
6089,-175.781250
6090,-179.687500
6091,-183.593750
6092,-187.500000
6093,-187.500000
6094,-195.312500
6095,-199.218750
6096,-203.125000
6097,-207.031250
6098,-210.937500
6099,-214.843750
6100,-214.843750
6101,-218.750000
6102,-222.656250
6103,-226.562500
6104,-230.468750
6105,-230.468750
6106,-234.375000
6107,-238.281250
6108,-242.187500
6109,-246.093750
6110,-246.093750
6111,-250.000000
6112,-253.906250
6113,-253.906250
6114,-257.812500
6115,-261.718750
6116,-261.718750
6117,-265.625000
6118,-269.531250
6119,-269.531250
6120,-273.437500
6121,-273.437500
6122,-277.343750
6123,-281.250000
6124,-281.250000
6125,-285.156250
6126,-285.156250
6127,-289.062500
6128,-289.062500
6129,-292.968750
6130,-292.968750
6131,-296.875000
6132,-296.875000
6133,-300.781250
6134,-296.875000
6135,-300.781250
6136,-300.781250
6137,-304.687500
6138,-304.687500
6139,-308.593750
6140,-308.593750
6141,-308.593750
6142,-308.593750
6143,-312.500000
6144,-308.593750
6145,-312.500000
6146,-312.500000
6147,-312.500000
6148,-312.500000
6149,-312.500000
6150,-316.406250
6151,-316.406250
6152,-316.406250
6153,-316.406250
6154,-316.406250
6155,-316.406250
6156,-316.406250
6157,-316.406250
6158,-316.406250
6159,-316.406250
6160,-316.406250
6161,-316.406250
6162,-316.406250
6163,-316.406250
6164,-316.406250
6165,-312.500000
6166,-316.406250
6167,-312.500000
6168,-312.500000
6169,-312.500000
6170,-312.500000
6171,-312.500000
6172,-308.593750
6173,-308.593750
6174,-304.687500
6175,-304.687500
6176,-304.687500
6177,-304.687500
6178,-300.781250
6179,-300.781250
6180,-300.781250
6181,-296.875000
6182,-296.875000
6183,-296.875000
6184,-292.968750
6185,-292.968750
6186,-289.062500
6187,-289.062500
6188,-285.156250
6189,-285.156250
6190,-281.250000
6191,-277.343750
6192,-277.343750
6193,-273.437500
6194,-273.437500
6195,-269.531250
6196,-265.625000
6197,-265.625000
6198,-261.718750
6199,-257.812500
6200,-257.812500
6201,-253.906250
6202,-250.000000
6203,-250.000000
6204,-246.093750
6205,-242.187500
6206,-238.281250
6207,-234.375000
6208,-234.375000
6209,-230.468750
6210,-226.562500
6211,-226.562500
6212,-222.656250
6213,-218.750000
6214,-214.843750
6215,-210.937500
6216,-207.031250
6217,-203.125000
6218,-199.218750
6219,-195.312500
6220,-191.406250
6221,-187.500000
6222,-187.500000
6223,-183.593750
6224,-179.687500
6225,-175.781250
6226,-171.875000
6227,-167.968750
6228,-164.062500
6229,-160.156250
6230,-156.250000
6231,-152.343750
6232,-148.437500
6233,-144.531250
6234,-140.625000
6235,-136.718750
6236,-128.906250
6237,-125.000000
6238,-121.093750
6239,-117.187500
6240,-113.281250
6241,-109.375000
6242,-105.468750
6243,-101.562500
6244,-97.656250
6245,-93.750000
6246,-89.843750
6247,-85.937500
6248,-82.031250
6249,-78.125000
6250,-74.218750
6251,-70.312500
6252,-62.500000
6253,-58.593750
6254,-54.687500
6255,-50.781250
6256,-46.875000
6257,-42.968750
6258,-39.062500
6259,-35.156250
6260,-31.250000
6261,-27.343750
6262,-23.437500
6263,-19.531250
6264,-15.625000
6265,-11.718750
6266,-7.812500
6267,-3.906250
6268,0.000000
6269,3.906250
6270,7.812500
6271,11.718750
6272,15.625000
6273,19.531250
6274,23.437500
6275,27.343750
6276,31.250000
6277,35.156250
6278,35.156250
6279,39.062500
6280,42.968750
6281,46.875000
6282,50.781250
6283,54.687500
6284,58.593750
6285,62.500000
6286,66.406250
6287,66.406250
6288,70.312500
6289,74.218750
6290,78.125000
6291,78.125000
6292,82.031250
6293,85.937500
6294,89.843750
6295,89.843750
6296,93.750000
6297,97.656250
6298,101.562500
6299,101.562500
6300,105.468750
6301,109.375000
6302,109.375000
6303,113.281250
6304,117.187500
6305,117.187500
6306,121.093750
6307,121.093750
6308,125.000000
6309,128.906250
6310,128.906250
6311,132.812500
6312,132.812500
6313,136.718750
6314,136.718750
6315,140.625000
6316,144.531250
6317,144.531250
6318,144.531250
6319,148.437500
6320,148.437500
6321,152.343750
6322,152.343750
6323,156.250000
6324,156.250000
6325,156.250000
6326,160.156250
6327,160.156250
6328,160.156250
6329,164.062500
6330,164.062500
6331,164.062500
6332,167.968750
6333,167.968750
6334,171.875000
6335,171.875000
6336,171.875000
6337,171.875000
6338,171.875000
6339,175.781250
6340,175.781250
6341,175.781250
6342,179.687500
6343,179.687500
6344,179.687500
6345,179.687500
6346,179.687500
6347,179.687500
6348,183.593750
6349,183.593750
6350,183.593750
6351,183.593750
6352,183.593750
6353,183.593750
6354,183.593750
6355,183.593750
6356,183.593750
6357,183.593750
6358,183.593750
6359,183.593750
6360,187.500000
6361,187.500000
6362,187.500000
6363,187.500000
6364,187.500000
6365,187.500000
6366,187.500000
6367,187.500000
6368,187.500000
6369,187.500000
6370,187.500000
6371,187.500000
6372,187.500000
6373,183.593750
6374,183.593750
6375,183.593750
6376,183.593750
6377,183.593750
6378,183.593750
6379,183.593750
6380,183.593750
6381,183.593750
6382,179.687500
6383,179.687500
6384,179.687500
6385,179.687500
6386,179.687500
6387,179.687500
6388,179.687500
6389,175.781250
6390,175.781250
6391,175.781250
6392,171.875000
6393,171.875000
6394,171.875000
6395,171.875000
6396,171.875000
6397,167.968750
6398,167.968750
6399,167.968750
6400,164.062500
6401,164.062500
6402,164.062500
6403,160.156250
6404,160.156250
6405,156.250000
6406,156.250000
6407,152.343750
6408,152.343750
6409,152.343750
6410,148.437500
6411,148.437500
6412,144.531250
6413,144.531250
6414,140.625000
6415,140.625000
6416,140.625000
6417,136.718750
6418,132.812500
6419,132.812500
6420,128.906250
6421,128.906250
6422,125.000000
6423,121.093750
6424,121.093750
6425,117.187500
6426,117.187500
6427,113.281250
6428,109.375000
6429,105.468750
6430,105.468750
6431,101.562500
6432,101.562500
6433,97.656250
6434,93.750000
6435,89.843750
6436,85.937500
6437,85.937500
6438,82.031250
6439,78.125000
6440,78.125000
6441,74.218750
6442,70.312500
6443,66.406250
6444,62.500000
6445,62.500000
6446,58.593750
6447,54.687500
6448,50.781250
6449,46.875000
6450,42.968750
6451,39.062500
6452,35.156250
6453,31.250000
6454,27.343750
6455,23.437500
6456,23.437500
6457,19.531250
6458,15.625000
6459,11.718750
6460,7.812500
6461,3.906250
6462,0.000000
6463,-3.906250
6464,-7.812500
6465,-11.718750
6466,-15.625000
6467,-19.531250
6468,-23.437500
6469,-27.343750
6470,-31.250000
6471,-35.156250
6472,-39.062500
6473,-42.968750
6474,-50.781250
6475,-54.687500
6476,-54.687500
6477,-62.500000
6478,-66.406250
6479,-70.312500
6480,-74.218750
6481,-78.125000
6482,-82.031250
6483,-85.937500
6484,-89.843750
6485,-93.750000
6486,-97.656250
6487,-101.562500
6488,-105.468750
6489,-109.375000
6490,-113.281250
6491,-117.187500
6492,-121.093750
6493,-128.906250
6494,-128.906250
6495,-132.812500
6496,-140.625000
6497,-144.531250
6498,-144.531250
6499,-152.343750
6500,-156.250000
6501,-160.156250
6502,-160.156250
6503,-167.968750
6504,-171.875000
6505,-175.781250
6506,-179.687500
6507,-179.687500
6508,-183.593750
6509,-187.500000
6510,-191.406250
6511,-195.312500
6512,-199.218750
6513,-203.125000
6514,-207.031250
6515,-210.937500
6516,-214.843750
6517,-214.843750
6518,-218.750000
6519,-222.656250
6520,-226.562500
6521,-230.468750
6522,-234.375000
6523,-234.375000
6524,-238.281250
6525,-242.187500
6526,-246.093750
6527,-246.093750
6528,-250.000000
6529,-253.906250
6530,-257.812500
6531,-257.812500
6532,-261.718750
6533,-261.718750
6534,-265.625000
6535,-269.531250
6536,-269.531250
6537,-273.437500
6538,-277.343750
6539,-277.343750
6540,-281.250000
6541,-281.250000
6542,-285.156250
6543,-285.156250
6544,-289.062500
6545,-289.062500
6546,-292.968750
6547,-292.968750
6548,-296.875000
6549,-296.875000
6550,-296.875000
6551,-300.781250
6552,-300.781250
6553,-304.687500
6554,-304.687500
6555,-304.687500
6556,-304.687500
6557,-308.593750
6558,-308.593750
6559,-308.593750
6560,-312.500000
6561,-312.500000
6562,-312.500000
6563,-312.500000
6564,-312.500000
6565,-312.500000
6566,-316.406250
6567,-316.406250
6568,-316.406250
6569,-316.406250
6570,-316.406250
6571,-316.406250
6572,-316.406250
6573,-316.406250
6574,-316.406250
6575,-316.406250
6576,-316.406250
6577,-316.406250
6578,-316.406250
6579,-316.406250
6580,-316.406250
6581,-316.406250
6582,-312.500000
6583,-312.500000
6584,-312.500000
6585,-312.500000
6586,-312.500000
6587,-308.593750
6588,-308.593750
6589,-308.593750
6590,-308.593750
6591,-304.687500
6592,-304.687500
6593,-304.687500
6594,-304.687500
6595,-300.781250
6596,-300.781250
6597,-300.781250
6598,-296.875000
6599,-296.875000
6600,-296.875000
6601,-292.968750
6602,-289.062500
6603,-289.062500
6604,-289.062500
6605,-285.156250
6606,-281.250000
6607,-281.250000
6608,-277.343750
6609,-277.343750
6610,-273.437500
6611,-273.437500
6612,-269.531250
6613,-265.625000
6614,-265.625000
6615,-261.718750
6616,-257.812500
6617,-257.812500
6618,-253.906250
6619,-246.093750
6620,-250.000000
6621,-246.093750
6622,-242.187500
6623,-238.281250
6624,-234.375000
6625,-234.375000
6626,-230.468750
6627,-226.562500
6628,-222.656250
6629,-218.750000
6630,-218.750000
6631,-214.843750
6632,-210.937500
6633,-207.031250
6634,-203.125000
6635,-199.218750
6636,-195.312500
6637,-191.406250
6638,-187.500000
6639,-183.593750
6640,-183.593750
6641,-175.781250
6642,-171.875000
6643,-167.968750
6644,-167.968750
6645,-164.062500
6646,-156.250000
6647,-152.343750
6648,-152.343750
6649,-144.531250
6650,-144.531250
6651,-136.718750
6652,-132.812500
6653,-128.906250
6654,-125.000000
6655,-121.093750
6656,-117.187500
6657,-113.281250
6658,-109.375000
6659,-105.468750
6660,-101.562500
6661,-97.656250
6662,-93.750000
6663,-89.843750
6664,-85.937500
6665,-82.031250
6666,-74.218750
6667,-74.218750
6668,-66.406250
6669,-66.406250
6670,-58.593750
6671,-54.687500
6672,-50.781250
6673,-46.875000
6674,-42.968750
6675,-39.062500
6676,-35.156250
6677,-31.250000
6678,-27.343750
6679,-23.437500
6680,-19.531250
6681,-15.625000
6682,-11.718750
6683,-7.812500
6684,-3.906250
6685,0.000000
6686,3.906250
6687,7.812500
6688,11.718750
6689,15.625000
6690,19.531250
6691,23.437500
6692,27.343750
6693,31.250000
6694,35.156250
6695,39.062500
6696,42.968750
6697,42.968750
6698,46.875000
6699,50.781250
6700,54.687500
6701,58.593750
6702,62.500000
6703,62.500000
6704,66.406250
6705,70.312500
6706,74.218750
6707,78.125000
6708,82.031250
6709,82.031250
6710,85.937500
6711,89.843750
6712,93.750000
6713,93.750000
6714,97.656250
6715,101.562500
6716,101.562500
6717,105.468750
6718,109.375000
6719,109.375000
6720,113.281250
6721,117.187500
6722,117.187500
6723,121.093750
6724,125.000000
6725,125.000000
6726,128.906250
6727,128.906250
6728,132.812500
6729,132.812500
6730,136.718750
6731,140.625000
6732,140.625000
6733,144.531250
6734,144.531250
6735,144.531250
6736,148.437500
6737,148.437500
6738,152.343750
6739,152.343750
6740,152.343750
6741,156.250000
6742,156.250000
6743,160.156250
6744,160.156250
6745,164.062500
6746,164.062500
6747,164.062500
6748,167.968750
6749,167.968750
6750,167.968750
6751,167.968750
6752,171.875000
6753,171.875000
6754,171.875000
6755,175.781250
6756,175.781250
6757,175.781250
6758,175.781250
6759,175.781250
6760,179.687500
6761,179.687500
6762,179.687500
6763,179.687500
6764,179.687500
6765,179.687500
6766,183.593750
6767,183.593750
6768,183.593750
6769,183.593750
6770,183.593750
6771,183.593750
6772,183.593750
6773,187.500000
6774,187.500000
6775,187.500000
6776,187.500000
6777,187.500000
6778,187.500000
6779,187.500000
6780,187.500000
6781,187.500000
6782,187.500000
6783,187.500000
6784,187.500000
6785,187.500000
6786,187.500000
6787,187.500000
6788,187.500000
6789,187.500000
6790,187.500000
6791,183.593750
6792,183.593750
6793,183.593750
6794,183.593750
6795,183.593750
6796,183.593750
6797,183.593750
6798,179.687500
6799,179.687500
6800,179.687500
6801,179.687500
6802,179.687500
6803,179.687500
6804,179.687500
6805,175.781250
6806,175.781250
6807,175.781250
6808,175.781250
6809,171.875000
6810,171.875000
6811,171.875000
6812,171.875000
6813,167.968750
6814,167.968750
6815,167.968750
6816,164.062500
6817,164.062500
6818,164.062500
6819,160.156250
6820,160.156250
6821,160.156250
6822,156.250000
6823,156.250000
6824,152.343750
6825,152.343750
6826,152.343750
6827,148.437500
6828,148.437500
6829,144.531250
6830,144.531250
6831,140.625000
6832,140.625000
6833,136.718750
6834,136.718750
6835,136.718750
6836,132.812500
6837,128.906250
6838,128.906250
6839,125.000000
6840,121.093750
6841,121.093750
6842,117.187500
6843,117.187500
6844,113.281250
6845,109.375000
6846,105.468750
6847,105.468750
6848,101.562500
6849,101.562500
6850,97.656250
6851,93.750000
6852,89.843750
6853,89.843750
6854,85.937500
6855,82.031250
6856,78.125000
6857,74.218750
6858,74.218750
6859,70.312500
6860,66.406250
6861,62.500000
6862,58.593750
6863,54.687500
6864,54.687500
6865,50.781250
6866,46.875000
6867,42.968750
6868,39.062500
6869,35.156250
6870,31.250000
6871,27.343750
6872,23.437500
6873,19.531250
6874,15.625000
6875,11.718750
6876,11.718750
6877,3.906250
6878,0.000000
6879,-3.906250
6880,-3.906250
6881,-7.812500
6882,-15.625000
6883,-15.625000
6884,-19.531250
6885,-23.437500
6886,-31.250000
6887,-31.250000
6888,-39.062500
6889,-42.968750
6890,-46.875000
6891,-50.781250
6892,-54.687500
6893,-58.593750
6894,-62.500000
6895,-66.406250
6896,-70.312500
6897,-74.218750
6898,-78.125000
6899,-82.031250
6900,-85.937500
6901,-89.843750
6902,-93.750000
6903,-97.656250
6904,-101.562500
6905,-105.468750
6906,-109.375000
6907,-117.187500
6908,-117.187500
6909,-121.093750
6910,-128.906250
6911,-132.812500
6912,-136.718750
6913,-140.625000
6914,-144.531250
6915,-148.437500
6916,-152.343750
6917,-152.343750
6918,-160.156250
6919,-164.062500
6920,-167.968750
6921,-171.875000
6922,-175.781250
6923,-179.687500
6924,-179.687500
6925,-187.500000
6926,-187.500000
6927,-191.406250
6928,-195.312500
6929,-199.218750
6930,-203.125000
6931,-207.031250
6932,-210.937500
6933,-214.843750
6934,-218.750000
6935,-218.750000
6936,-222.656250
6937,-226.562500
6938,-230.468750
6939,-234.375000
6940,-234.375000
6941,-238.281250
6942,-242.187500
6943,-246.093750
6944,-250.000000
6945,-250.000000
6946,-253.906250
6947,-257.812500
6948,-257.812500
6949,-261.718750
6950,-265.625000
6951,-265.625000
6952,-269.531250
6953,-269.531250
6954,-273.437500
6955,-277.343750
6956,-277.343750
6957,-281.250000
6958,-281.250000
6959,-285.156250
6960,-285.156250
6961,-289.062500
6962,-289.062500
6963,-292.968750
6964,-292.968750
6965,-296.875000
6966,-296.875000
6967,-296.875000
6968,-300.781250
6969,-300.781250
6970,-304.687500
6971,-304.687500
6972,-304.687500
6973,-308.593750
6974,-308.593750
6975,-308.593750
6976,-308.593750
6977,-312.500000
6978,-312.500000
6979,-312.500000
6980,-312.500000
6981,-312.500000
6982,-312.500000
6983,-316.406250
6984,-316.406250
6985,-316.406250
6986,-316.406250
6987,-316.406250
6988,-316.406250
6989,-316.406250
6990,-316.406250
6991,-316.406250
6992,-316.406250
6993,-316.406250
6994,-316.406250
6995,-316.406250
6996,-316.406250
6997,-316.406250
6998,-316.406250
6999,-312.500000
7000,-312.500000
7001,-312.500000
7002,-312.500000
7003,-312.500000
7004,-312.500000
7005,-308.593750
7006,-308.593750
7007,-308.593750
7008,-304.687500
7009,-304.687500
7010,-304.687500
7011,-304.687500
7012,-300.781250
7013,-300.781250
7014,-296.875000
7015,-296.875000
7016,-296.875000
7017,-292.968750
7018,-292.968750
7019,-289.062500
7020,-289.062500
7021,-285.156250
7022,-285.156250
7023,-281.250000
7024,-281.250000
7025,-277.343750
7026,-273.437500
7027,-273.437500
7028,-269.531250
7029,-269.531250
7030,-265.625000
7031,-265.625000
7032,-261.718750
7033,-257.812500
7034,-253.906250
7035,-253.906250
7036,-250.000000
7037,-246.093750
7038,-246.093750
7039,-242.187500
7040,-238.281250
7041,-234.375000
7042,-230.468750
7043,-230.468750
7044,-226.562500
7045,-222.656250
7046,-218.750000
7047,-214.843750
7048,-210.937500
7049,-207.031250
7050,-207.031250
7051,-203.125000
7052,-199.218750
7053,-195.312500
7054,-191.406250
7055,-187.500000
7056,-183.593750
7057,-179.687500
7058,-175.781250
7059,-171.875000
7060,-167.968750
7061,-164.062500
7062,-160.156250
7063,-156.250000
7064,-152.343750
7065,-148.437500
7066,-144.531250
7067,-140.625000
7068,-136.718750
7069,-132.812500
7070,-128.906250
7071,-125.000000
7072,-121.093750
7073,-117.187500
7074,-113.281250
7075,-109.375000
7076,-105.468750
7077,-101.562500
7078,-97.656250
7079,-93.750000
7080,-89.843750
7081,-82.031250
7082,-78.125000
7083,-74.218750
7084,-70.312500
7085,-66.406250
7086,-62.500000
7087,-58.593750
7088,-54.687500
7089,-50.781250
7090,-46.875000
7091,-42.968750
7092,-39.062500
7093,-35.156250
7094,-27.343750
7095,-27.343750
7096,-23.437500
7097,-19.531250
7098,-15.625000
7099,-11.718750
7100,-7.812500
7101,-3.906250
7102,0.000000
7103,3.906250
7104,7.812500
7105,11.718750
7106,15.625000
7107,19.531250
7108,23.437500
7109,27.343750
7110,31.250000
7111,35.156250
7112,39.062500
7113,42.968750
7114,46.875000
7115,46.875000
7116,50.781250
7117,54.687500
7118,58.593750
7119,62.500000
7120,66.406250
7121,70.312500
7122,70.312500
7123,74.218750
7124,78.125000
7125,82.031250
7126,82.031250
7127,82.031250
7128,89.843750
7129,93.750000
7130,93.750000
7131,97.656250
7132,101.562500
7133,105.468750
7134,105.468750
7135,109.375000
7136,109.375000
7137,117.187500
7138,117.187500
7139,117.187500
7140,121.093750
7141,125.000000
7142,125.000000
7143,128.906250
7144,128.906250
7145,132.812500
7146,136.718750
7147,136.718750
7148,140.625000
7149,140.625000
7150,144.531250
7151,144.531250
7152,148.437500
7153,148.437500
7154,148.437500
7155,152.343750
7156,152.343750
7157,156.250000
7158,156.250000
7159,160.156250
7160,160.156250
7161,160.156250
7162,160.156250
7163,164.062500
7164,164.062500
7165,167.968750
7166,167.968750
7167,167.968750
7168,171.875000
7169,171.875000
7170,171.875000
7171,171.875000
7172,175.781250
7173,175.781250
7174,175.781250
7175,175.781250
7176,179.687500
7177,179.687500
7178,179.687500
7179,179.687500
7180,179.687500
7181,183.593750
7182,183.593750
7183,183.593750
7184,183.593750
7185,183.593750
7186,183.593750
7187,183.593750
7188,183.593750
7189,183.593750
7190,183.593750
7191,187.500000
7192,183.593750
7193,187.500000
7194,183.593750
7195,187.500000
7196,187.500000
7197,187.500000
7198,187.500000
7199,187.500000
7200,187.500000
7201,187.500000
7202,187.500000
7203,183.593750
7204,187.500000
7205,183.593750
7206,187.500000
7207,183.593750
7208,183.593750
7209,183.593750
7210,183.593750
7211,183.593750
7212,183.593750
7213,183.593750
7214,183.593750
7215,183.593750
7216,179.687500
7217,179.687500
7218,179.687500
7219,179.687500
7220,179.687500
7221,175.781250
7222,175.781250
7223,175.781250
7224,175.781250
7225,171.875000
7226,171.875000
7227,171.875000
7228,171.875000
7229,171.875000
7230,167.968750
7231,167.968750
7232,164.062500
7233,164.062500
7234,164.062500
7235,164.062500
7236,160.156250
7237,160.156250
7238,160.156250
7239,156.250000
7240,156.250000
7241,152.343750
7242,152.343750
7243,152.343750
7244,148.437500
7245,148.437500
7246,144.531250
7247,144.531250
7248,140.625000
7249,140.625000
7250,136.718750
7251,136.718750
7252,132.812500
7253,128.906250
7254,128.906250
7255,125.000000
7256,125.000000
7257,121.093750
7258,117.187500
7259,117.187500
7260,113.281250
7261,109.375000
7262,109.375000
7263,105.468750
7264,105.468750
7265,101.562500
7266,97.656250
7267,93.750000
7268,93.750000
7269,89.843750
7270,85.937500
7271,82.031250
7272,82.031250
7273,78.125000
7274,74.218750
7275,70.312500
7276,66.406250
7277,66.406250
7278,62.500000
7279,58.593750
7280,54.687500
7281,50.781250
7282,46.875000
7283,42.968750
7284,42.968750
7285,39.062500
7286,35.156250
7287,31.250000
7288,27.343750
7289,23.437500
7290,19.531250
7291,15.625000
7292,11.718750
7293,7.812500
7294,3.906250
7295,0.000000
7296,-3.906250
7297,-7.812500
7298,-11.718750
7299,-15.625000
7300,-19.531250
7301,-23.437500
7302,-27.343750
7303,-31.250000
7304,-35.156250
7305,-39.062500
7306,-42.968750
7307,-46.875000
7308,-50.781250
7309,-54.687500
7310,-58.593750
7311,-62.500000
7312,-66.406250
7313,-70.312500
7314,-74.218750
7315,-78.125000
7316,-85.937500
7317,-85.937500
7318,-93.750000
7319,-97.656250
7320,-101.562500
7321,-105.468750
7322,-109.375000
7323,-113.281250
7324,-117.187500
7325,-121.093750
7326,-125.000000
7327,-128.906250
7328,-132.812500
7329,-136.718750
7330,-140.625000
7331,-144.531250
7332,-148.437500
7333,-152.343750
7334,-156.250000
7335,-160.156250
7336,-164.062500
7337,-167.968750
7338,-171.875000
7339,-175.781250
7340,-179.687500
7341,-183.593750
7342,-183.593750
7343,-191.406250
7344,-195.312500
7345,-199.218750
7346,-199.218750
7347,-203.125000
7348,-207.031250
7349,-210.937500
7350,-214.843750
7351,-218.750000
7352,-222.656250
7353,-222.656250
7354,-226.562500
7355,-230.468750
7356,-234.375000
7357,-238.281250
7358,-238.281250
7359,-242.187500
7360,-246.093750
7361,-250.000000
7362,-250.000000
7363,-253.906250
7364,-257.812500
7365,-257.812500
7366,-261.718750
7367,-265.625000
7368,-265.625000
7369,-269.531250
7370,-269.531250
7371,-273.437500
7372,-277.343750
7373,-277.343750
7374,-281.250000
7375,-281.250000
7376,-285.156250
7377,-285.156250
7378,-289.062500
7379,-292.968750
7380,-292.968750
7381,-292.968750
7382,-296.875000
7383,-296.875000
7384,-300.781250
7385,-300.781250
7386,-300.781250
7387,-304.687500
7388,-304.687500
7389,-304.687500
7390,-308.593750
7391,-308.593750
7392,-308.593750
7393,-312.500000
7394,-312.500000
7395,-312.500000
7396,-312.500000
7397,-312.500000
7398,-312.500000
7399,-316.406250
7400,-316.406250
7401,-316.406250
7402,-316.406250
7403,-316.406250
7404,-316.406250
7405,-312.500000
7406,-316.406250
7407,-316.406250
7408,-316.406250
7409,-316.406250
7410,-316.406250
7411,-316.406250
7412,-316.406250
7413,-316.406250
7414,-316.406250
7415,-312.500000
7416,-316.406250
7417,-312.500000
7418,-312.500000
7419,-312.500000
7420,-312.500000
7421,-308.593750
7422,-308.593750
7423,-308.593750
7424,-308.593750
7425,-304.687500
7426,-304.687500
7427,-304.687500
7428,-300.781250
7429,-300.781250
7430,-300.781250
7431,-296.875000
7432,-296.875000
7433,-296.875000
7434,-292.968750
7435,-292.968750
7436,-289.062500
7437,-285.156250
7438,-285.156250
7439,-285.156250
7440,-281.250000
7441,-277.343750
7442,-277.343750
7443,-273.437500
7444,-273.437500
7445,-269.531250
7446,-269.531250
7447,-265.625000
7448,-265.625000
7449,-261.718750
7450,-257.812500
7451,-253.906250
7452,-253.906250
7453,-250.000000
7454,-246.093750
7455,-246.093750
7456,-242.187500
7457,-238.281250
7458,-234.375000
7459,-230.468750
7460,-226.562500
7461,-226.562500
7462,-222.656250
7463,-218.750000
7464,-214.843750
7465,-210.937500
7466,-207.031250
7467,-207.031250
7468,-199.218750
7469,-199.218750
7470,-191.406250
7471,-191.406250
7472,-187.500000
7473,-183.593750
7474,-179.687500
7475,-175.781250
7476,-171.875000
7477,-167.968750
7478,-164.062500
7479,-160.156250
7480,-156.250000
7481,-152.343750
7482,-148.437500
7483,-144.531250
7484,-140.625000
7485,-136.718750
7486,-132.812500
7487,-128.906250
7488,-125.000000
7489,-121.093750
7490,-117.187500
7491,-113.281250
7492,-105.468750
7493,-101.562500
7494,-97.656250
7495,-93.750000
7496,-89.843750
7497,-85.937500
7498,-82.031250
7499,-78.125000
7500,-74.218750
7501,-70.312500
7502,-66.406250
7503,-62.500000
7504,-58.593750
7505,-54.687500
7506,-50.781250
7507,-46.875000
7508,-42.968750
7509,-39.062500
7510,-35.156250
7511,-31.250000
7512,-23.437500
7513,-23.437500
7514,-19.531250
7515,-15.625000
7516,-7.812500
7517,-7.812500
7518,0.000000
7519,3.906250
7520,7.812500
7521,7.812500
7522,11.718750
7523,15.625000
7524,23.437500
7525,23.437500
7526,27.343750
7527,31.250000
7528,35.156250
7529,39.062500
7530,42.968750
7531,46.875000
7532,50.781250
7533,54.687500
7534,54.687500
7535,58.593750
7536,62.500000
7537,66.406250
7538,70.312500
7539,74.218750
7540,74.218750
7541,78.125000
7542,82.031250
7543,85.937500
7544,85.937500
7545,89.843750
7546,93.750000
7547,97.656250
7548,97.656250
7549,101.562500
7550,105.468750
7551,109.375000
7552,109.375000
7553,113.281250
7554,113.281250
7555,117.187500
7556,121.093750
7557,121.093750
7558,125.000000
7559,128.906250
7560,128.906250
7561,128.906250
7562,132.812500
7563,136.718750
7564,136.718750
7565,140.625000
7566,140.625000
7567,144.531250
7568,144.531250
7569,148.437500
7570,148.437500
7571,148.437500
7572,152.343750
7573,156.250000
7574,156.250000
7575,156.250000
7576,156.250000
7577,160.156250
7578,160.156250
7579,164.062500
7580,164.062500
7581,164.062500
7582,167.968750
7583,167.968750
7584,167.968750
7585,171.875000
7586,171.875000
7587,171.875000
7588,171.875000
7589,175.781250
7590,175.781250
7591,175.781250
7592,175.781250
7593,179.687500
7594,179.687500
7595,179.687500
7596,179.687500
7597,179.687500
7598,179.687500
7599,183.593750
7600,183.593750
7601,183.593750
7602,183.593750
7603,183.593750
7604,183.593750
7605,183.593750
7606,183.593750
7607,183.593750
7608,187.500000
7609,187.500000
7610,187.500000
7611,187.500000
7612,187.500000
7613,187.500000
7614,187.500000
7615,187.500000
7616,187.500000
7617,187.500000
7618,187.500000
7619,187.500000
7620,187.500000
7621,187.500000
7622,187.500000
7623,187.500000
7624,187.500000
7625,183.593750
7626,183.593750
7627,183.593750
7628,183.593750
7629,183.593750
7630,183.593750
7631,183.593750
7632,179.687500
7633,179.687500
7634,179.687500
7635,179.687500
7636,179.687500
7637,179.687500
7638,175.781250
7639,175.781250
7640,175.781250
7641,175.781250
7642,171.875000
7643,171.875000
7644,171.875000
7645,171.875000
7646,167.968750
7647,167.968750
7648,167.968750
7649,164.062500
7650,164.062500
7651,164.062500
7652,160.156250
7653,160.156250
7654,160.156250
7655,156.250000
7656,156.250000
7657,152.343750
7658,152.343750
7659,152.343750
7660,148.437500
7661,148.437500
7662,144.531250
7663,144.531250
7664,140.625000
7665,140.625000
7666,136.718750
7667,136.718750
7668,132.812500
7669,132.812500
7670,128.906250
7671,128.906250
7672,128.906250
7673,125.000000
7674,121.093750
7675,117.187500
7676,117.187500
7677,113.281250
7678,113.281250
7679,109.375000
7680,105.468750
7681,105.468750
7682,101.562500
7683,97.656250
7684,93.750000
7685,93.750000
7686,89.843750
7687,85.937500
7688,82.031250
7689,82.031250
7690,78.125000
7691,74.218750
7692,70.312500
7693,66.406250
7694,66.406250
7695,62.500000
7696,58.593750
7697,54.687500
7698,50.781250
7699,46.875000
7700,46.875000
7701,42.968750
7702,39.062500
7703,35.156250
7704,31.250000
7705,27.343750
7706,23.437500
7707,19.531250
7708,15.625000
7709,11.718750
7710,7.812500
7711,3.906250
7712,0.000000
7713,-3.906250
7714,-7.812500
7715,-11.718750
7716,-15.625000
7717,-19.531250
7718,-23.437500
7719,-27.343750
7720,-31.250000
7721,-35.156250
7722,-39.062500
7723,-42.968750
7724,-46.875000
7725,-50.781250
7726,-54.687500
7727,-58.593750
7728,-62.500000
7729,-66.406250
7730,-70.312500
7731,-74.218750
7732,-78.125000
7733,-82.031250
7734,-89.843750
7735,-89.843750
7736,-97.656250
7737,-101.562500
7738,-105.468750
7739,-109.375000
7740,-113.281250
7741,-117.187500
7742,-121.093750
7743,-125.000000
7744,-128.906250
7745,-136.718750
7746,-136.718750
7747,-140.625000
7748,-144.531250
7749,-148.437500
7750,-152.343750
7751,-156.250000
7752,-160.156250
7753,-164.062500
7754,-167.968750
7755,-171.875000
7756,-175.781250
7757,-179.687500
7758,-183.593750
7759,-187.500000
7760,-191.406250
7761,-195.312500
7762,-195.312500
7763,-199.218750
7764,-203.125000
7765,-207.031250
7766,-210.937500
7767,-214.843750
7768,-218.750000
7769,-222.656250
7770,-226.562500
7771,-226.562500
7772,-230.468750
7773,-234.375000
7774,-238.281250
7775,-242.187500
7776,-242.187500
7777,-246.093750
7778,-250.000000
7779,-250.000000
7780,-253.906250
7781,-257.812500
7782,-257.812500
7783,-261.718750
7784,-265.625000
7785,-265.625000
7786,-269.531250
7787,-273.437500
7788,-277.343750
7789,-277.343750
7790,-277.343750
7791,-281.250000
7792,-281.250000
7793,-285.156250
7794,-285.156250
7795,-289.062500
7796,-292.968750
7797,-296.875000
7798,-292.968750
7799,-296.875000
7800,-296.875000
7801,-300.781250
7802,-300.781250
7803,-300.781250
7804,-304.687500
7805,-304.687500
7806,-304.687500
7807,-300.781250
7808,-308.593750
7809,-312.500000
7810,-308.593750
7811,-312.500000
7812,-312.500000
7813,-308.593750
7814,-316.406250
7815,-312.500000
7816,-312.500000
7817,-316.406250
7818,-316.406250
7819,-316.406250
7820,-316.406250
7821,-316.406250
7822,-316.406250
7823,-316.406250
7824,-316.406250
7825,-316.406250
7826,-316.406250
7827,-316.406250
7828,-316.406250
7829,-316.406250
7830,-316.406250
7831,-316.406250
7832,-312.500000
7833,-312.500000
7834,-312.500000
7835,-312.500000
7836,-312.500000
7837,-312.500000
7838,-308.593750
7839,-308.593750
7840,-308.593750
7841,-308.593750
7842,-304.687500
7843,-304.687500
7844,-304.687500
7845,-300.781250
7846,-300.781250
7847,-296.875000
7848,-296.875000
7849,-296.875000
7850,-292.968750
7851,-292.968750
7852,-289.062500
7853,-289.062500
7854,-289.062500
7855,-285.156250
7856,-281.250000
7857,-281.250000
7858,-277.343750
7859,-277.343750
7860,-273.437500
7861,-273.437500
7862,-269.531250
7863,-269.531250
7864,-265.625000
7865,-261.718750
7866,-257.812500
7867,-257.812500
7868,-253.906250
7869,-250.000000
7870,-250.000000
7871,-246.093750
7872,-242.187500
7873,-242.187500
7874,-234.375000
7875,-234.375000
7876,-230.468750
7877,-226.562500
7878,-222.656250
7879,-218.750000
7880,-218.750000
7881,-214.843750
7882,-210.937500
7883,-207.031250
7884,-203.125000
7885,-199.218750
7886,-195.312500
7887,-191.406250
7888,-191.406250
7889,-183.593750
7890,-183.593750
7891,-179.687500
7892,-175.781250
7893,-171.875000
7894,-167.968750
7895,-164.062500
7896,-160.156250
7897,-156.250000
7898,-152.343750
7899,-148.437500
7900,-144.531250
7901,-140.625000
7902,-136.718750
7903,-132.812500
7904,-128.906250
7905,-121.093750
7906,-117.187500
7907,-117.187500
7908,-109.375000
7909,-105.468750
7910,-101.562500
7911,-97.656250
7912,-93.750000
7913,-89.843750
7914,-85.937500
7915,-82.031250
7916,-78.125000
7917,-74.218750
7918,-70.312500
7919,-66.406250
7920,-62.500000
7921,-58.593750
7922,-54.687500
7923,-46.875000
7924,-42.968750
7925,-42.968750
7926,-35.156250
7927,-31.250000
7928,-27.343750
7929,-23.437500
7930,-19.531250
7931,-15.625000
7932,-11.718750
7933,-7.812500
7934,-3.906250
7935,0.000000
7936,3.906250
7937,7.812500
7938,11.718750
7939,15.625000
7940,19.531250
7941,19.531250
7942,27.343750
7943,27.343750
7944,31.250000
7945,35.156250
7946,39.062500
7947,42.968750
7948,46.875000
7949,50.781250
7950,54.687500
7951,58.593750
7952,62.500000
7953,62.500000
7954,66.406250
7955,70.312500
7956,74.218750
7957,78.125000
7958,78.125000
7959,82.031250
7960,85.937500
7961,89.843750
7962,89.843750
7963,93.750000
7964,97.656250
7965,97.656250
7966,101.562500
7967,105.468750
7968,109.375000
7969,109.375000
7970,113.281250
7971,117.187500
7972,117.187500
7973,121.093750
7974,121.093750
7975,125.000000
7976,125.000000
7977,128.906250
7978,132.812500
7979,132.812500
7980,136.718750
7981,136.718750
7982,140.625000
7983,140.625000
7984,144.531250
7985,144.531250
7986,148.437500
7987,148.437500
7988,152.343750
7989,152.343750
7990,152.343750
7991,156.250000
7992,156.250000
7993,160.156250
7994,160.156250
7995,160.156250
7996,164.062500
7997,164.062500
7998,164.062500
7999,167.968750
8000,167.968750
8001,167.968750
8002,171.875000
8003,171.875000
8004,171.875000
8005,171.875000
8006,175.781250
8007,175.781250
8008,175.781250
8009,175.781250
8010,179.687500
8011,179.687500
8012,179.687500
8013,179.687500
8014,183.593750
8015,179.687500
8016,183.593750
8017,183.593750
8018,183.593750
8019,183.593750
8020,183.593750
8021,183.593750
8022,183.593750
8023,183.593750
8024,183.593750
8025,187.500000
8026,183.593750
8027,187.500000
8028,187.500000
8029,187.500000
8030,183.593750
8031,187.500000
8032,187.500000
8033,187.500000
8034,187.500000
8035,187.500000
8036,187.500000
8037,183.593750
8038,187.500000
8039,183.593750
8040,183.593750
8041,183.593750
8042,183.593750
8043,183.593750
8044,183.593750
8045,183.593750
8046,183.593750
8047,179.687500
8048,183.593750
8049,179.687500
8050,179.687500
8051,179.687500
8052,179.687500
8053,179.687500
8054,175.781250
8055,175.781250
8056,175.781250
8057,175.781250
8058,175.781250
8059,171.875000
8060,171.875000
8061,171.875000
8062,171.875000
8063,167.968750
8064,167.968750
8065,167.968750
8066,164.062500
8067,164.062500
8068,164.062500
8069,160.156250
8070,160.156250
8071,160.156250
8072,156.250000
8073,156.250000
8074,156.250000
8075,152.343750
8076,148.437500
8077,148.437500
8078,148.437500
8079,144.531250
8080,144.531250
8081,140.625000
8082,140.625000
8083,136.718750
8084,136.718750
8085,132.812500
8086,132.812500
8087,128.906250
8088,128.906250
8089,125.000000
8090,125.000000
8091,121.093750
8092,117.187500
8093,113.281250
8094,113.281250
8095,109.375000
8096,109.375000
8097,105.468750
8098,101.562500
8099,97.656250
8100,97.656250
8101,93.750000
8102,89.843750
8103,89.843750
8104,85.937500
8105,82.031250
8106,78.125000
8107,78.125000
8108,74.218750
8109,70.312500
8110,66.406250
8111,62.500000
8112,58.593750
8113,54.687500
8114,54.687500
8115,50.781250
8116,46.875000
8117,42.968750
8118,39.062500
8119,35.156250
8120,31.250000
8121,27.343750
8122,27.343750
8123,23.437500
8124,19.531250
8125,15.625000
8126,11.718750
8127,7.812500
8128,3.906250
8129,0.000000
8130,-3.906250
8131,-7.812500
8132,-11.718750
8133,-15.625000
8134,-19.531250
8135,-23.437500
8136,-27.343750
8137,-31.250000
8138,-35.156250
8139,-39.062500
8140,-42.968750
8141,-46.875000
8142,-50.781250
8143,-58.593750
8144,-62.500000
8145,-62.500000
8146,-70.312500
8147,-74.218750
8148,-74.218750
8149,-78.125000
8150,-85.937500
8151,-89.843750
8152,-93.750000
8153,-97.656250
8154,-101.562500
8155,-109.375000
8156,-109.375000
8157,-113.281250
8158,-117.187500
8159,-121.093750
8160,-128.906250
8161,-128.906250
8162,-132.812500
8163,-136.718750
8164,-140.625000
8165,-144.531250
8166,-148.437500
8167,-156.250000
8168,-156.250000
8169,-160.156250
8170,-167.968750
8171,-171.875000
8172,-171.875000
8173,-175.781250
8174,-179.687500
8175,-183.593750
8176,-187.500000
8177,-191.406250
8178,-195.312500
8179,-199.218750
8180,-199.218750
8181,-207.031250
8182,-210.937500
8183,-210.937500
8184,-214.843750
8185,-218.750000
8186,-218.750000
8187,-226.562500
8188,-226.562500
8189,-230.468750
8190,-234.375000
8191,-238.281250
8192,-242.187500
8193,-242.187500
8194,-246.093750
8195,-246.093750
8196,-250.000000
8197,-253.906250
8198,-257.812500
8199,-261.718750
8200,-261.718750
8201,-265.625000
8202,-265.625000
8203,-269.531250
8204,-273.437500
8205,-277.343750
8206,-277.343750
8207,-277.343750
8208,-281.250000
8209,-285.156250
8210,-285.156250
8211,-285.156250
8212,-289.062500
8213,-292.968750
8214,-292.968750
8215,-296.875000
8216,-296.875000
8217,-296.875000
8218,-300.781250
8219,-300.781250
8220,-300.781250
8221,-304.687500
8222,-304.687500
8223,-304.687500
8224,-308.593750
8225,-308.593750
8226,-308.593750
8227,-308.593750
8228,-308.593750
8229,-312.500000
8230,-312.500000
8231,-312.500000
8232,-312.500000
8233,-312.500000
8234,-316.406250
8235,-312.500000
8236,-316.406250
8237,-316.406250
8238,-316.406250
8239,-316.406250
8240,-316.406250
8241,-316.406250
8242,-316.406250
8243,-316.406250
8244,-316.406250
8245,-316.406250
8246,-316.406250
8247,-312.500000
8248,-312.500000
8249,-312.500000
8250,-312.500000
8251,-312.500000
8252,-312.500000
8253,-312.500000
8254,-308.593750
8255,-308.593750
8256,-308.593750
8257,-308.593750
8258,-304.687500
8259,-304.687500
8260,-304.687500
8261,-300.781250
8262,-300.781250
8263,-300.781250
8264,-296.875000
8265,-296.875000
8266,-292.968750
8267,-292.968750
8268,-292.968750
8269,-289.062500
8270,-289.062500
8271,-285.156250
8272,-285.156250
8273,-281.250000
8274,-281.250000
8275,-277.343750
8276,-277.343750
8277,-273.437500
8278,-269.531250
8279,-269.531250
8280,-265.625000
8281,-261.718750
8282,-261.718750
8283,-257.812500
8284,-253.906250
8285,-253.906250
8286,-250.000000
8287,-246.093750
8288,-246.093750
8289,-242.187500
8290,-238.281250
8291,-234.375000
8292,-234.375000
8293,-230.468750
8294,-226.562500
8295,-222.656250
8296,-218.750000
8297,-214.843750
8298,-210.937500
8299,-210.937500
8300,-207.031250
8301,-203.125000
8302,-199.218750
8303,-195.312500
8304,-191.406250
8305,-187.500000
8306,-183.593750
8307,-179.687500
8308,-175.781250
8309,-171.875000
8310,-167.968750
8311,-167.968750
8312,-160.156250
8313,-156.250000
8314,-152.343750
8315,-148.437500
8316,-144.531250
8317,-140.625000
8318,-136.718750
8319,-132.812500
8320,-128.906250
8321,-125.000000
8322,-121.093750
8323,-117.187500
8324,-113.281250
8325,-109.375000
8326,-105.468750
8327,-101.562500
8328,-97.656250
8329,-93.750000
8330,-85.937500
8331,-85.937500
8332,-82.031250
8333,-74.218750
8334,-74.218750
8335,-66.406250
8336,-62.500000
8337,-58.593750
8338,-54.687500
8339,-50.781250
8340,-46.875000
8341,-42.968750
8342,-39.062500
8343,-35.156250
8344,-31.250000
8345,-27.343750
8346,-23.437500
8347,-19.531250
8348,-15.625000
8349,-11.718750
8350,-7.812500
8351,-3.906250
8352,0.000000
8353,3.906250
8354,7.812500
8355,11.718750
8356,15.625000
8357,19.531250
8358,23.437500
8359,27.343750
8360,31.250000
8361,31.250000
8362,35.156250
8363,39.062500
8364,42.968750
8365,46.875000
8366,50.781250
8367,54.687500
8368,58.593750
8369,58.593750
8370,62.500000
8371,66.406250
8372,70.312500
8373,74.218750
8374,78.125000
8375,82.031250
8376,82.031250
8377,85.937500
8378,89.843750
8379,89.843750
8380,93.750000
8381,97.656250
8382,101.562500
8383,101.562500
8384,105.468750
8385,109.375000
8386,109.375000
8387,113.281250
8388,117.187500
8389,117.187500
8390,121.093750
8391,125.000000
8392,125.000000
8393,128.906250
8394,128.906250
8395,132.812500
8396,132.812500
8397,136.718750
8398,136.718750
8399,140.625000
8400,140.625000
8401,144.531250
8402,144.531250
8403,148.437500
8404,152.343750
8405,152.343750
8406,152.343750
8407,156.250000
8408,156.250000
8409,156.250000
8410,160.156250
8411,160.156250
8412,164.062500
8413,164.062500
8414,164.062500
8415,167.968750
8416,167.968750
8417,167.968750
8418,167.968750
8419,171.875000
8420,171.875000
8421,171.875000
8422,175.781250
8423,175.781250
8424,175.781250
8425,179.687500
8426,175.781250
8427,179.687500
8428,179.687500
8429,179.687500
8430,179.687500
8431,179.687500
8432,179.687500
8433,183.593750
8434,183.593750
8435,183.593750
8436,183.593750
8437,183.593750
8438,183.593750
8439,183.593750
8440,183.593750
8441,187.500000
8442,183.593750
8443,187.500000
8444,187.500000
8445,187.500000
8446,187.500000
8447,187.500000
8448,187.500000
8449,187.500000
8450,187.500000
8451,187.500000
8452,187.500000
8453,187.500000
8454,187.500000
8455,187.500000
8456,183.593750
8457,183.593750
8458,183.593750
8459,183.593750
8460,183.593750
8461,183.593750
8462,183.593750
8463,183.593750
8464,183.593750
8465,183.593750
8466,179.687500
8467,179.687500
8468,179.687500
8469,179.687500
8470,179.687500
8471,175.781250
8472,175.781250
8473,175.781250
8474,175.781250
8475,175.781250
8476,171.875000
8477,171.875000
8478,171.875000
8479,171.875000
8480,167.968750
8481,167.968750
8482,167.968750
8483,164.062500
8484,164.062500
8485,164.062500
8486,160.156250
8487,160.156250
8488,160.156250
8489,156.250000
8490,156.250000
8491,152.343750
8492,152.343750
8493,152.343750
8494,148.437500
8495,148.437500
8496,144.531250
8497,144.531250
8498,140.625000
8499,140.625000
8500,136.718750
8501,136.718750
8502,132.812500
8503,132.812500
8504,128.906250
8505,128.906250
8506,125.000000
8507,125.000000
8508,121.093750
8509,117.187500
8510,117.187500
8511,113.281250
8512,109.375000
8513,109.375000
8514,105.468750
8515,101.562500
8516,97.656250
8517,97.656250
8518,93.750000
8519,89.843750
8520,85.937500
8521,85.937500
8522,82.031250
8523,78.125000
8524,78.125000
8525,74.218750
8526,70.312500
8527,66.406250
8528,62.500000
8529,62.500000
8530,58.593750
8531,54.687500
8532,50.781250
8533,46.875000
8534,42.968750
8535,39.062500
8536,35.156250
8537,31.250000
8538,27.343750
8539,27.343750
8540,23.437500
8541,15.625000
8542,11.718750
8543,11.718750
8544,7.812500
8545,3.906250
8546,0.000000
8547,-3.906250
8548,-7.812500
8549,-11.718750
8550,-15.625000
8551,-19.531250
8552,-23.437500
8553,-27.343750
8554,-31.250000
8555,-39.062500
8556,-42.968750
8557,-42.968750
8558,-46.875000
8559,-54.687500
8560,-58.593750
8561,-62.500000
8562,-66.406250
8563,-70.312500
8564,-74.218750
8565,-78.125000
8566,-82.031250
8567,-85.937500
8568,-89.843750
8569,-93.750000
8570,-97.656250
8571,-101.562500
8572,-105.468750
8573,-109.375000
8574,-113.281250
8575,-121.093750
8576,-125.000000
8577,-128.906250
8578,-128.906250
8579,-132.812500
8580,-136.718750
8581,-144.531250
8582,-148.437500
8583,-156.250000
8584,-156.250000
8585,-160.156250
8586,-160.156250
8587,-167.968750
8588,-167.968750
8589,-175.781250
8590,-175.781250
8591,-183.593750
8592,-183.593750
8593,-187.500000
8594,-191.406250
8595,-195.312500
8596,-199.218750
8597,-203.125000
8598,-207.031250
8599,-210.937500
8600,-214.843750
8601,-218.750000
8602,-218.750000
8603,-222.656250
8604,-226.562500
8605,-230.468750
8606,-234.375000
8607,-234.375000
8608,-238.281250
8609,-242.187500
8610,-246.093750
8611,-246.093750
8612,-250.000000
8613,-253.906250
8614,-253.906250
8615,-257.812500
8616,-261.718750
8617,-261.718750
8618,-265.625000
8619,-269.531250
8620,-269.531250
8621,-273.437500
8622,-277.343750
8623,-277.343750
8624,-281.250000
8625,-281.250000
8626,-285.156250
8627,-285.156250
8628,-289.062500
8629,-289.062500
8630,-292.968750
8631,-292.968750
8632,-296.875000
8633,-296.875000
8634,-296.875000
8635,-300.781250
8636,-300.781250
8637,-304.687500
8638,-304.687500
8639,-304.687500
8640,-304.687500
8641,-308.593750
8642,-308.593750
8643,-308.593750
8644,-308.593750
8645,-312.500000
8646,-312.500000
8647,-312.500000
8648,-312.500000
8649,-312.500000
8650,-316.406250
8651,-316.406250
8652,-316.406250
8653,-316.406250
8654,-316.406250
8655,-316.406250
8656,-316.406250
8657,-316.406250
8658,-316.406250
8659,-316.406250
8660,-316.406250
8661,-316.406250
8662,-316.406250
8663,-316.406250
8664,-316.406250
8665,-316.406250
8666,-312.500000
8667,-312.500000
8668,-312.500000
8669,-312.500000
8670,-312.500000
8671,-312.500000
8672,-308.593750
8673,-308.593750
8674,-308.593750
8675,-304.687500
8676,-304.687500
8677,-304.687500
8678,-304.687500
8679,-300.781250
8680,-300.781250
8681,-300.781250
8682,-296.875000
8683,-296.875000
8684,-292.968750
8685,-292.968750
8686,-289.062500
8687,-289.062500
8688,-285.156250
8689,-285.156250
8690,-281.250000
8691,-281.250000
8692,-277.343750
8693,-277.343750
8694,-273.437500
8695,-269.531250
8696,-269.531250
8697,-265.625000
8698,-265.625000
8699,-261.718750
8700,-257.812500
8701,-253.906250
8702,-253.906250
8703,-250.000000
8704,-246.093750
8705,-246.093750
8706,-242.187500
8707,-238.281250
8708,-234.375000
8709,-230.468750
8710,-230.468750
8711,-226.562500
8712,-222.656250
8713,-218.750000
8714,-214.843750
8715,-214.843750
8716,-207.031250
8717,-203.125000
8718,-203.125000
8719,-199.218750
8720,-195.312500
8721,-191.406250
8722,-187.500000
8723,-183.593750
8724,-179.687500
8725,-175.781250
8726,-171.875000
8727,-167.968750
8728,-164.062500
8729,-160.156250
8730,-156.250000
8731,-152.343750
8732,-148.437500
8733,-144.531250
8734,-140.625000
8735,-136.718750
8736,-132.812500
8737,-128.906250
8738,-125.000000
8739,-121.093750
8740,-117.187500
8741,-113.281250
8742,-109.375000
8743,-105.468750
8744,-101.562500
8745,-97.656250
8746,-93.750000
8747,-89.843750
8748,-82.031250
8749,-82.031250
8750,-74.218750
8751,-70.312500
8752,-70.312500
8753,-62.500000
8754,-58.593750
8755,-54.687500
8756,-50.781250
8757,-46.875000
8758,-42.968750
8759,-39.062500
8760,-35.156250
8761,-31.250000
8762,-27.343750
8763,-23.437500
8764,-19.531250
8765,-15.625000
8766,-11.718750
8767,-7.812500
8768,-3.906250
8769,0.000000
8770,3.906250
8771,7.812500
8772,11.718750
8773,15.625000
8774,19.531250
8775,23.437500
8776,27.343750
8777,31.250000
8778,35.156250
8779,39.062500
8780,39.062500
8781,46.875000
8782,50.781250
8783,50.781250
8784,54.687500
8785,58.593750
8786,62.500000
8787,66.406250
8788,66.406250
8789,70.312500
8790,74.218750
8791,78.125000
8792,82.031250
8793,82.031250
8794,85.937500
8795,89.843750
8796,93.750000
8797,93.750000
8798,97.656250
8799,101.562500
8800,101.562500
8801,105.468750
8802,109.375000
8803,109.375000
8804,113.281250
8805,117.187500
8806,117.187500
8807,121.093750
8808,125.000000
8809,125.000000
8810,128.906250
8811,128.906250
8812,132.812500
8813,132.812500
8814,136.718750
8815,136.718750
8816,140.625000
8817,140.625000
8818,144.531250
8819,144.531250
8820,148.437500
8821,148.437500
8822,152.343750
8823,152.343750
8824,152.343750
8825,156.250000
8826,156.250000
8827,160.156250
8828,160.156250
8829,160.156250
8830,164.062500
8831,164.062500
8832,167.968750
8833,167.968750
8834,167.968750
8835,167.968750
8836,171.875000
8837,171.875000
8838,171.875000
8839,175.781250
8840,175.781250
8841,175.781250
8842,175.781250
8843,175.781250
8844,179.687500
8845,179.687500
8846,179.687500
8847,179.687500
8848,179.687500
8849,183.593750
8850,183.593750
8851,183.593750
8852,183.593750
8853,183.593750
8854,183.593750
8855,183.593750
8856,183.593750
8857,187.500000
8858,187.500000
8859,187.500000
8860,187.500000
8861,187.500000
8862,187.500000
8863,187.500000
8864,187.500000
8865,187.500000
8866,187.500000
8867,187.500000
8868,187.500000
8869,187.500000
8870,187.500000
8871,183.593750
8872,187.500000
8873,183.593750
8874,183.593750
8875,183.593750
8876,183.593750
8877,183.593750
8878,183.593750
8879,183.593750
8880,183.593750
8881,183.593750
8882,179.687500
8883,183.593750
8884,179.687500
8885,179.687500
8886,179.687500
8887,179.687500
8888,175.781250
8889,175.781250
8890,175.781250
8891,175.781250
8892,175.781250
8893,171.875000
8894,171.875000
8895,171.875000
8896,171.875000
8897,167.968750
8898,167.968750
8899,164.062500
8900,164.062500
8901,164.062500
8902,164.062500
8903,160.156250
8904,160.156250
8905,160.156250
8906,156.250000
8907,156.250000
8908,152.343750
8909,152.343750
8910,148.437500
8911,148.437500
8912,148.437500
8913,144.531250
8914,144.531250
8915,140.625000
8916,140.625000
8917,136.718750
8918,136.718750
8919,132.812500
8920,132.812500
8921,128.906250
8922,125.000000
8923,125.000000
8924,125.000000
8925,121.093750
8926,117.187500
8927,113.281250
8928,113.281250
8929,109.375000
8930,105.468750
8931,105.468750
8932,101.562500
8933,97.656250
8934,93.750000
8935,93.750000
8936,89.843750
8937,85.937500
8938,82.031250
8939,82.031250
8940,78.125000
8941,74.218750
8942,70.312500
8943,66.406250
8944,66.406250
8945,62.500000
8946,58.593750
8947,54.687500
8948,50.781250
8949,50.781250
8950,42.968750
8951,42.968750
8952,39.062500
8953,35.156250
8954,31.250000
8955,27.343750
8956,23.437500
8957,19.531250
8958,15.625000
8959,11.718750
8960,7.812500
8961,7.812500
8962,0.000000
8963,-3.906250
8964,-7.812500
8965,-11.718750
8966,-15.625000
8967,-19.531250
8968,-23.437500
8969,-27.343750
8970,-31.250000
8971,-35.156250
8972,-39.062500
8973,-39.062500
8974,-46.875000
8975,-46.875000
8976,-54.687500
8977,-58.593750
8978,-62.500000
8979,-66.406250
8980,-70.312500
8981,-74.218750
8982,-78.125000
8983,-82.031250
8984,-85.937500
8985,-89.843750
8986,-93.750000
8987,-97.656250
8988,-105.468750
8989,-109.375000
8990,-113.281250
8991,-117.187500
8992,-121.093750
8993,-125.000000
8994,-128.906250
8995,-132.812500
8996,-136.718750
8997,-140.625000
8998,-144.531250
8999,-148.437500
9000,-152.343750
9001,-156.250000
9002,-160.156250
9003,-164.062500
9004,-167.968750
9005,-171.875000
9006,-175.781250
9007,-179.687500
9008,-183.593750
9009,-187.500000
9010,-187.500000
9011,-191.406250
9012,-199.218750
9013,-199.218750
9014,-203.125000
9015,-207.031250
9016,-210.937500
9017,-214.843750
9018,-218.750000
9019,-222.656250
9020,-222.656250
9021,-226.562500
9022,-230.468750
9023,-234.375000
9024,-234.375000
9025,-238.281250
9026,-242.187500
9027,-246.093750
9028,-246.093750
9029,-250.000000
9030,-253.906250
9031,-257.812500
9032,-257.812500
9033,-261.718750
9034,-265.625000
9035,-265.625000
9036,-269.531250
9037,-269.531250
9038,-273.437500
9039,-273.437500
9040,-277.343750
9041,-281.250000
9042,-281.250000
9043,-285.156250
9044,-285.156250
9045,-289.062500
9046,-289.062500
9047,-292.968750
9048,-292.968750
9049,-296.875000
9050,-296.875000
9051,-296.875000
9052,-300.781250
9053,-300.781250
9054,-300.781250
9055,-304.687500
9056,-304.687500
9057,-304.687500
9058,-308.593750
9059,-308.593750
9060,-308.593750
9061,-308.593750
9062,-312.500000
9063,-312.500000
9064,-312.500000
9065,-312.500000
9066,-312.500000
9067,-316.406250
9068,-316.406250
9069,-316.406250
9070,-316.406250
9071,-316.406250
9072,-316.406250
9073,-316.406250
9074,-316.406250
9075,-316.406250
9076,-316.406250
9077,-316.406250
9078,-316.406250
9079,-316.406250
9080,-316.406250
9081,-316.406250
9082,-312.500000
9083,-312.500000
9084,-312.500000
9085,-312.500000
9086,-312.500000
9087,-312.500000
9088,-308.593750
9089,-308.593750
9090,-308.593750
9091,-304.687500
9092,-304.687500
9093,-304.687500
9094,-304.687500
9095,-300.781250
9096,-300.781250
9097,-300.781250
9098,-296.875000
9099,-296.875000
9100,-292.968750
9101,-292.968750
9102,-289.062500
9103,-289.062500
9104,-285.156250
9105,-285.156250
9106,-285.156250
9107,-281.250000
9108,-277.343750
9109,-277.343750
9110,-273.437500
9111,-273.437500
9112,-269.531250
9113,-265.625000
9114,-265.625000
9115,-261.718750
9116,-261.718750
9117,-257.812500
9118,-253.906250
9119,-253.906250
9120,-250.000000
9121,-246.093750
9122,-242.187500
9123,-242.187500
9124,-238.281250
9125,-234.375000
9126,-230.468750
9127,-226.562500
9128,-226.562500
9129,-222.656250
9130,-218.750000
9131,-214.843750
9132,-210.937500
9133,-207.031250
9134,-203.125000
9135,-199.218750
9136,-199.218750
9137,-195.312500
9138,-191.406250
9139,-187.500000
9140,-183.593750
9141,-179.687500
9142,-175.781250
9143,-171.875000
9144,-167.968750
9145,-164.062500
9146,-160.156250
9147,-156.250000
9148,-152.343750
9149,-148.437500
9150,-144.531250
9151,-140.625000
9152,-136.718750
9153,-132.812500
9154,-128.906250
9155,-125.000000
9156,-121.093750
9157,-117.187500
9158,-113.281250
9159,-105.468750
9160,-101.562500
9161,-97.656250
9162,-93.750000
9163,-89.843750
9164,-85.937500
9165,-82.031250
9166,-78.125000
9167,-74.218750
9168,-70.312500
9169,-66.406250
9170,-62.500000
9171,-58.593750
9172,-54.687500
9173,-50.781250
9174,-46.875000
9175,-42.968750
9176,-39.062500
9177,-35.156250
9178,-27.343750
9179,-27.343750
9180,-19.531250
9181,-15.625000
9182,-11.718750
9183,-7.812500
9184,-3.906250
9185,0.000000
9186,0.000000
9187,3.906250
9188,11.718750
9189,11.718750
9190,19.531250
9191,19.531250
9192,23.437500
9193,27.343750
9194,31.250000
9195,35.156250
9196,39.062500
9197,42.968750
9198,46.875000
9199,50.781250
9200,50.781250
9201,54.687500
9202,58.593750
9203,62.500000
9204,66.406250
9205,70.312500
9206,70.312500
9207,74.218750
9208,78.125000
9209,82.031250
9210,85.937500
9211,85.937500
9212,89.843750
9213,93.750000
9214,97.656250
9215,97.656250
9216,101.562500
9217,105.468750
9218,105.468750
9219,109.375000
9220,113.281250
9221,113.281250
9222,117.187500
9223,121.093750
9224,121.093750
9225,125.000000
9226,125.000000
9227,128.906250
9228,132.812500
9229,132.812500
9230,136.718750
9231,136.718750
9232,140.625000
9233,140.625000
9234,144.531250
9235,144.531250
9236,148.437500
9237,148.437500
9238,148.437500
9239,152.343750
9240,152.343750
9241,156.250000
9242,156.250000
9243,156.250000
9244,160.156250
9245,160.156250
9246,160.156250
9247,164.062500
9248,164.062500
9249,167.968750
9250,167.968750
9251,167.968750
9252,167.968750
9253,171.875000
9254,171.875000
9255,171.875000
9256,175.781250
9257,175.781250
9258,175.781250
9259,175.781250
9260,175.781250
9261,179.687500
9262,179.687500
9263,179.687500
9264,179.687500
9265,179.687500
9266,183.593750
9267,183.593750
9268,183.593750
9269,183.593750
9270,183.593750
9271,183.593750
9272,183.593750
9273,183.593750
9274,183.593750
9275,183.593750
9276,187.500000
9277,187.500000
9278,187.500000
9279,187.500000
9280,187.500000
9281,187.500000
9282,187.500000
9283,187.500000
9284,187.500000
9285,187.500000
9286,187.500000
9287,187.500000
9288,187.500000
9289,183.593750
9290,187.500000
9291,187.500000
9292,183.593750
9293,183.593750
9294,183.593750
9295,183.593750
9296,183.593750
9297,183.593750
9298,183.593750
9299,183.593750
9300,179.687500
9301,179.687500
9302,179.687500
9303,179.687500
9304,179.687500
9305,175.781250
9306,175.781250
9307,175.781250
9308,175.781250
9309,175.781250
9310,171.875000
9311,171.875000
9312,171.875000
9313,167.968750
9314,167.968750
9315,167.968750
9316,167.968750
9317,164.062500
9318,164.062500
9319,160.156250
9320,160.156250
9321,160.156250
9322,160.156250
9323,156.250000
9324,156.250000
9325,148.437500
9326,152.343750
9327,148.437500
9328,148.437500
9329,148.437500
9330,144.531250
9331,144.531250
9332,140.625000
9333,140.625000
9334,136.718750
9335,136.718750
9336,132.812500
9337,128.906250
9338,128.906250
9339,125.000000
9340,125.000000
9341,121.093750
9342,121.093750
9343,117.187500
9344,113.281250
9345,113.281250
9346,109.375000
9347,105.468750
9348,105.468750
9349,101.562500
9350,97.656250
9351,93.750000
9352,93.750000
9353,89.843750
9354,85.937500
9355,82.031250
9356,82.031250
9357,78.125000
9358,74.218750
9359,70.312500
9360,70.312500
9361,66.406250
9362,62.500000
9363,58.593750
9364,54.687500
9365,50.781250
9366,46.875000
9367,42.968750
9368,42.968750
9369,39.062500
9370,35.156250
9371,31.250000
9372,27.343750
9373,23.437500
9374,19.531250
9375,15.625000
9376,11.718750
9377,7.812500
9378,3.906250
9379,0.000000
9380,-3.906250
9381,-7.812500
9382,-11.718750
9383,-15.625000
9384,-19.531250
9385,-19.531250
9386,-27.343750
9387,-31.250000
9388,-35.156250
9389,-39.062500
9390,-42.968750
9391,-46.875000
9392,-50.781250
9393,-54.687500
9394,-58.593750
9395,-62.500000
9396,-66.406250
9397,-70.312500
9398,-74.218750
9399,-78.125000
9400,-85.937500
9401,-89.843750
9402,-93.750000
9403,-97.656250
9404,-101.562500
9405,-105.468750
9406,-109.375000
9407,-113.281250
9408,-117.187500
9409,-121.093750
9410,-125.000000
9411,-128.906250
9412,-132.812500
9413,-136.718750
9414,-140.625000
9415,-144.531250
9416,-148.437500
9417,-152.343750
9418,-156.250000
9419,-160.156250
9420,-164.062500
9421,-167.968750
9422,-171.875000
9423,-175.781250
9424,-179.687500
9425,-183.593750
9426,-187.500000
9427,-191.406250
9428,-195.312500
9429,-195.312500
9430,-199.218750
9431,-203.125000
9432,-207.031250
9433,-210.937500
9434,-214.843750
9435,-218.750000
9436,-222.656250
9437,-226.562500
9438,-226.562500
9439,-230.468750
9440,-234.375000
9441,-238.281250
9442,-242.187500
9443,-242.187500
9444,-246.093750
9445,-250.000000
9446,-253.906250
9447,-253.906250
9448,-257.812500
9449,-257.812500
9450,-261.718750
9451,-265.625000
9452,-265.625000
9453,-269.531250
9454,-273.437500
9455,-277.343750
9456,-277.343750
9457,-277.343750
9458,-281.250000
9459,-285.156250
9460,-285.156250
9461,-289.062500
9462,-289.062500
9463,-292.968750
9464,-292.968750
9465,-292.968750
9466,-296.875000
9467,-296.875000
9468,-300.781250
9469,-300.781250
9470,-300.781250
9471,-304.687500
9472,-304.687500
9473,-304.687500
9474,-308.593750
9475,-308.593750
9476,-308.593750
9477,-308.593750
9478,-312.500000
9479,-312.500000
9480,-312.500000
9481,-312.500000
9482,-312.500000
9483,-316.406250
9484,-316.406250
9485,-312.500000
9486,-312.500000
9487,-316.406250
9488,-316.406250
9489,-316.406250
9490,-316.406250
9491,-316.406250
9492,-316.406250
9493,-316.406250
9494,-316.406250
9495,-316.406250
9496,-316.406250
9497,-316.406250
9498,-316.406250
9499,-312.500000
9500,-312.500000
9501,-312.500000
9502,-312.500000
9503,-312.500000
9504,-312.500000
9505,-308.593750
9506,-308.593750
9507,-308.593750
9508,-308.593750
9509,-304.687500
9510,-304.687500
9511,-304.687500
9512,-300.781250
9513,-300.781250
9514,-300.781250
9515,-296.875000
9516,-296.875000
9517,-292.968750
9518,-292.968750
9519,-289.062500
9520,-289.062500
9521,-289.062500
9522,-285.156250
9523,-281.250000
9524,-281.250000
9525,-277.343750
9526,-277.343750
9527,-277.343750
9528,-273.437500
9529,-269.531250
9530,-265.625000
9531,-265.625000
9532,-261.718750
9533,-257.812500
9534,-257.812500
9535,-253.906250
9536,-253.906250
9537,-246.093750
9538,-246.093750
9539,-242.187500
9540,-238.281250
9541,-238.281250
9542,-234.375000
9543,-230.468750
9544,-226.562500
9545,-222.656250
9546,-222.656250
9547,-218.750000
9548,-214.843750
9549,-210.937500
9550,-207.031250
9551,-203.125000
9552,-199.218750
9553,-195.312500
9554,-195.312500
9555,-191.406250
9556,-187.500000
9557,-183.593750
9558,-179.687500
9559,-175.781250
9560,-171.875000
9561,-167.968750
9562,-164.062500
9563,-160.156250
9564,-156.250000
9565,-152.343750
9566,-148.437500
9567,-144.531250
9568,-140.625000
9569,-136.718750
9570,-132.812500
9571,-128.906250
9572,-125.000000
9573,-117.187500
9574,-113.281250
9575,-109.375000
9576,-105.468750
9577,-101.562500
9578,-97.656250
9579,-93.750000
9580,-89.843750
9581,-85.937500
9582,-82.031250
9583,-78.125000
9584,-74.218750
9585,-70.312500
9586,-66.406250
9587,-62.500000
9588,-54.687500
9589,-54.687500
9590,-50.781250
9591,-46.875000
9592,-42.968750
9593,-35.156250
9594,-31.250000
9595,-27.343750
9596,-23.437500
9597,-19.531250
9598,-15.625000
9599,-11.718750
9600,-7.812500
9601,-3.906250
9602,0.000000
9603,3.906250
9604,7.812500
9605,11.718750
9606,15.625000
9607,19.531250
9608,19.531250
9609,23.437500
9610,27.343750
9611,35.156250
9612,35.156250
9613,39.062500
9614,42.968750
9615,46.875000
9616,50.781250
9617,54.687500
9618,58.593750
9619,62.500000
9620,62.500000
9621,66.406250
9622,70.312500
9623,74.218750
9624,78.125000
9625,78.125000
9626,82.031250
9627,85.937500
9628,89.843750
9629,89.843750
9630,93.750000
9631,97.656250
9632,97.656250
9633,101.562500
9634,105.468750
9635,109.375000
9636,109.375000
9637,113.281250
9638,117.187500
9639,117.187500
9640,121.093750
9641,121.093750
9642,125.000000
9643,128.906250
9644,128.906250
9645,132.812500
9646,132.812500
9647,136.718750
9648,136.718750
9649,140.625000
9650,140.625000
9651,144.531250
9652,144.531250
9653,148.437500
9654,148.437500
9655,152.343750
9656,152.343750
9657,152.343750
9658,156.250000
9659,156.250000
9660,160.156250
9661,160.156250
9662,164.062500
9663,164.062500
9664,164.062500
9665,164.062500
9666,167.968750
9667,167.968750
9668,167.968750
9669,171.875000
9670,171.875000
9671,171.875000
9672,175.781250
9673,175.781250
9674,175.781250
9675,175.781250
9676,175.781250
9677,179.687500
9678,179.687500
9679,179.687500
9680,179.687500
9681,179.687500
9682,183.593750
9683,183.593750
9684,183.593750
9685,183.593750
9686,183.593750
9687,183.593750
9688,183.593750
9689,183.593750
9690,183.593750
9691,187.500000
9692,187.500000
9693,187.500000
9694,187.500000
9695,187.500000
9696,187.500000
9697,187.500000
9698,187.500000
9699,183.593750
9700,187.500000
9701,187.500000
9702,187.500000
9703,187.500000
9704,187.500000
9705,187.500000
9706,183.593750
9707,183.593750
9708,183.593750
9709,183.593750
9710,183.593750
9711,183.593750
9712,183.593750
9713,183.593750
9714,183.593750
9715,183.593750
9716,179.687500
9717,179.687500
9718,179.687500
9719,179.687500
9720,179.687500
9721,179.687500
9722,175.781250
9723,175.781250
9724,175.781250
9725,171.875000
9726,175.781250
9727,171.875000
9728,171.875000
9729,171.875000
9730,167.968750
9731,167.968750
9732,167.968750
9733,164.062500
9734,164.062500
9735,164.062500
9736,160.156250
9737,160.156250
9738,160.156250
9739,160.156250
9740,156.250000
9741,152.343750
9742,152.343750
9743,152.343750
9744,148.437500
9745,148.437500
9746,144.531250
9747,144.531250
9748,140.625000
9749,140.625000
9750,136.718750
9751,136.718750
9752,132.812500
9753,132.812500
9754,128.906250
9755,128.906250
9756,125.000000
9757,121.093750
9758,121.093750
9759,117.187500
9760,113.281250
9761,113.281250
9762,109.375000
9763,109.375000
9764,105.468750
9765,101.562500
9766,101.562500
9767,97.656250
9768,93.750000
9769,89.843750
9770,89.843750
9771,85.937500
9772,82.031250
9773,78.125000
9774,74.218750
9775,74.218750
9776,70.312500
9777,66.406250
9778,62.500000
9779,58.593750
9780,58.593750
9781,54.687500
9782,50.781250
9783,46.875000
9784,42.968750
9785,39.062500
9786,35.156250
9787,31.250000
9788,27.343750
9789,27.343750
9790,23.437500
9791,19.531250
9792,15.625000
9793,11.718750
9794,7.812500
9795,3.906250
9796,0.000000
9797,-3.906250
9798,-7.812500
9799,-11.718750
9800,-15.625000
9801,-19.531250
9802,-23.437500
9803,-27.343750
9804,-31.250000
9805,-35.156250
9806,-39.062500
9807,-42.968750
9808,-46.875000
9809,-50.781250
9810,-54.687500
9811,-62.500000
9812,-62.500000
9813,-66.406250
9814,-70.312500
9815,-78.125000
9816,-82.031250
9817,-85.937500
9818,-89.843750
9819,-93.750000
9820,-97.656250
9821,-101.562500
9822,-105.468750
9823,-109.375000
9824,-113.281250
9825,-117.187500
9826,-121.093750
9827,-125.000000
9828,-128.906250
9829,-132.812500
9830,-136.718750
9831,-140.625000
9832,-144.531250
9833,-148.437500
9834,-152.343750
9835,-156.250000
9836,-160.156250
9837,-164.062500
9838,-167.968750
9839,-171.875000
9840,-175.781250
9841,-179.687500
9842,-183.593750
9843,-187.500000
9844,-191.406250
9845,-195.312500
9846,-199.218750
9847,-199.218750
9848,-207.031250
9849,-207.031250
9850,-210.937500
9851,-214.843750
9852,-218.750000
9853,-222.656250
9854,-226.562500
9855,-230.468750
9856,-230.468750
9857,-234.375000
9858,-238.281250
9859,-242.187500
9860,-242.187500
9861,-246.093750
9862,-250.000000
9863,-250.000000
9864,-253.906250
9865,-257.812500
9866,-261.718750
9867,-261.718750
9868,-265.625000
9869,-269.531250
9870,-269.531250
9871,-273.437500
9872,-273.437500
9873,-277.343750
9874,-277.343750
9875,-281.250000
9876,-285.156250
9877,-285.156250
9878,-289.062500
9879,-289.062500
9880,-289.062500
9881,-292.968750
9882,-296.875000
9883,-296.875000
9884,-296.875000
9885,-296.875000
9886,-300.781250
9887,-304.687500
9888,-304.687500
9889,-304.687500
9890,-304.687500
9891,-308.593750
9892,-308.593750
9893,-308.593750
9894,-308.593750
9895,-312.500000
9896,-312.500000
9897,-312.500000
9898,-312.500000
9899,-312.500000
9900,-312.500000
9901,-312.500000
9902,-316.406250
9903,-316.406250
9904,-316.406250
9905,-316.406250
9906,-316.406250
9907,-316.406250
9908,-316.406250
9909,-316.406250
9910,-316.406250
9911,-316.406250
9912,-316.406250
9913,-312.500000
9914,-312.500000
9915,-312.500000
9916,-316.406250
9917,-312.500000
9918,-312.500000
9919,-312.500000
9920,-312.500000
9921,-308.593750
9922,-308.593750
9923,-308.593750
9924,-308.593750
9925,-304.687500
9926,-304.687500
9927,-304.687500
9928,-304.687500
9929,-300.781250
9930,-300.781250
9931,-296.875000
9932,-296.875000
9933,-296.875000
9934,-292.968750
9935,-292.968750
9936,-289.062500
9937,-289.062500
9938,-285.156250
9939,-285.156250
9940,-281.250000
9941,-281.250000
9942,-277.343750
9943,-277.343750
9944,-273.437500
9945,-269.531250
9946,-269.531250
9947,-265.625000
9948,-265.625000
9949,-261.718750
9950,-257.812500
9951,-257.812500
9952,-253.906250
9953,-250.000000
9954,-246.093750
9955,-246.093750
9956,-242.187500
9957,-238.281250
9958,-234.375000
9959,-234.375000
9960,-230.468750
9961,-226.562500
9962,-222.656250
9963,-218.750000
9964,-218.750000
9965,-214.843750
9966,-210.937500
9967,-207.031250
9968,-199.218750
9969,-199.218750
9970,-195.312500
9971,-191.406250
9972,-187.500000
9973,-187.500000
9974,-179.687500
9975,-175.781250
9976,-171.875000
9977,-171.875000
9978,-164.062500
9979,-160.156250
9980,-156.250000
9981,-152.343750
9982,-152.343750
9983,-144.531250
9984,-144.531250
9985,-136.718750
9986,-132.812500
9987,-128.906250
9988,-125.000000
9989,-121.093750
9990,-117.187500
9991,-113.281250
9992,-109.375000
9993,-105.468750
9994,-101.562500
9995,-97.656250
9996,-93.750000
9997,-89.843750
9998,-82.031250
9999,-82.031250
10000,-74.218750
