Channel              :,CH1
Frequency            :,1.200kHz
Period               :,0.833ms
PK-PK                :,304.7mV
Probe attenuation    :,1X
Voltage per ADC value:,0.244141mV
Time interval        :,2.00000us

index,CH1_Voltage(mV)
1,-54.687500
2,-54.687500
3,-54.687500
4,-50.781250
5,-46.875000
6,-46.875000
7,-42.968750
8,-42.968750
9,-39.062500
10,-39.062500
11,-35.156250
12,-31.250000
13,-31.250000
14,-27.343750
15,-27.343750
16,-23.437500
17,-19.531250
18,-19.531250
19,-15.625000
20,-11.718750
21,-11.718750
22,-7.812500
23,-7.812500
24,-3.906250
25,-3.906250
26,0.000000
27,0.000000
28,3.906250
29,7.812500
30,7.812500
31,11.718750
32,11.718750
33,15.625000
34,15.625000
35,19.531250
36,23.437500
37,23.437500
38,27.343750
39,27.343750
40,31.250000
41,31.250000
42,35.156250
43,35.156250
44,39.062500
45,39.062500
46,39.062500
47,42.968750
48,46.875000
49,46.875000
50,46.875000
51,50.781250
52,54.687500
53,54.687500
54,58.593750
55,58.593750
56,58.593750
57,62.500000
58,62.500000
59,66.406250
60,66.406250
61,70.312500
62,70.312500
63,70.312500
64,74.218750
65,74.218750
66,78.125000
67,78.125000
68,78.125000
69,82.031250
70,82.031250
71,85.937500
72,85.937500
73,85.937500
74,89.843750
75,89.843750
76,89.843750
77,93.750000
78,93.750000
79,93.750000
80,97.656250
81,97.656250
82,97.656250
83,101.562500
84,101.562500
85,101.562500
86,101.562500
87,105.468750
88,105.468750
89,105.468750
90,109.375000
91,109.375000
92,109.375000
93,109.375000
94,113.281250
95,113.281250
96,113.281250
97,113.281250
98,113.281250
99,113.281250
100,117.187500
101,117.187500
102,117.187500
103,117.187500
104,117.187500
105,117.187500
106,117.187500
107,121.093750
108,121.093750
109,121.093750
110,121.093750
111,121.093750
112,121.093750
113,121.093750
114,125.000000
115,121.093750
116,125.000000
117,125.000000
118,125.000000
119,125.000000
120,125.000000
121,125.000000
122,125.000000
123,125.000000
124,125.000000
125,125.000000
126,125.000000
127,125.000000
128,125.000000
129,125.000000
130,125.000000
131,125.000000
132,125.000000
133,125.000000
134,125.000000
135,125.000000
136,125.000000
137,121.093750
138,125.000000
139,125.000000
140,125.000000
141,125.000000
142,125.000000
143,121.093750
144,121.093750
145,121.093750
146,121.093750
147,121.093750
148,121.093750
149,121.093750
150,121.093750
151,117.187500
152,117.187500
153,117.187500
154,117.187500
155,109.375000
156,113.281250
157,113.281250
158,113.281250
159,113.281250
160,113.281250
161,113.281250
162,109.375000
163,109.375000
164,109.375000
165,109.375000
166,105.468750
167,105.468750
168,105.468750
169,105.468750
170,101.562500
171,101.562500
172,101.562500
173,97.656250
174,97.656250
175,97.656250
176,93.750000
177,93.750000
178,93.750000
179,89.843750
180,89.843750
181,89.843750
182,85.937500
183,85.937500
184,85.937500
185,82.031250
186,82.031250
187,78.125000
188,78.125000
189,78.125000
190,74.218750
191,74.218750
192,74.218750
193,70.312500
194,70.312500
195,66.406250
196,66.406250
197,62.500000
198,62.500000
199,58.593750
200,58.593750
201,54.687500
202,54.687500
203,54.687500
204,50.781250
205,50.781250
206,46.875000
207,42.968750
208,42.968750
209,39.062500
210,39.062500
211,35.156250
212,35.156250
213,31.250000
214,31.250000
215,27.343750
216,27.343750
217,23.437500
218,23.437500
219,19.531250
220,19.531250
221,15.625000
222,11.718750
223,11.718750
224,7.812500
225,7.812500
226,3.906250
227,3.906250
228,0.000000
229,-3.906250
230,-3.906250
231,-7.812500
232,-7.812500
233,-11.718750
234,-15.625000
235,-15.625000
236,-19.531250
237,-19.531250
238,-23.437500
239,-27.343750
240,-27.343750
241,-31.250000
242,-35.156250
243,-35.156250
244,-39.062500
245,-39.062500
246,-42.968750
247,-42.968750
248,-46.875000
249,-50.781250
250,-50.781250
251,-54.687500
252,-54.687500
253,-58.593750
254,-62.500000
255,-62.500000
256,-66.406250
257,-66.406250
258,-70.312500
259,-70.312500
260,-74.218750
261,-74.218750
262,-78.125000
263,-82.031250
264,-82.031250
265,-85.937500
266,-85.937500
267,-89.843750
268,-93.750000
269,-93.750000
270,-97.656250
271,-97.656250
272,-101.562500
273,-101.562500
274,-105.468750
275,-105.468750
276,-109.375000
277,-109.375000
278,-113.281250
279,-113.281250
280,-117.187500
281,-117.187500
282,-121.093750
283,-121.093750
284,-125.000000
285,-125.000000
286,-125.000000
287,-128.906250
288,-128.906250
289,-132.812500
290,-132.812500
291,-136.718750
292,-136.718750
293,-136.718750
294,-140.625000
295,-140.625000
296,-140.625000
297,-144.531250
298,-144.531250
299,-148.437500
300,-148.437500
301,-148.437500
302,-152.343750
303,-152.343750
304,-152.343750
305,-156.250000
306,-156.250000
307,-156.250000
308,-156.250000
309,-160.156250
310,-160.156250
311,-160.156250
312,-164.062500
313,-164.062500
314,-164.062500
315,-164.062500
316,-164.062500
317,-167.968750
318,-167.968750
319,-167.968750
320,-167.968750
321,-167.968750
322,-167.968750
323,-167.968750
324,-171.875000
325,-171.875000
326,-167.968750
327,-171.875000
328,-171.875000
329,-171.875000
330,-171.875000
331,-171.875000
332,-171.875000
333,-171.875000
334,-171.875000
335,-171.875000
336,-171.875000
337,-171.875000
338,-171.875000
339,-171.875000
340,-171.875000
341,-171.875000
342,-171.875000
343,-171.875000
344,-171.875000
345,-171.875000
346,-171.875000
347,-167.968750
348,-171.875000
349,-167.968750
350,-167.968750
351,-167.968750
352,-167.968750
353,-164.062500
354,-164.062500
355,-164.062500
356,-164.062500
357,-164.062500
358,-160.156250
359,-160.156250
360,-160.156250
361,-160.156250
362,-156.250000
363,-156.250000
364,-156.250000
365,-156.250000
366,-152.343750
367,-152.343750
368,-152.343750
369,-152.343750
370,-148.437500
371,-148.437500
372,-144.531250
373,-144.531250
374,-144.531250
375,-140.625000
376,-140.625000
377,-140.625000
378,-136.718750
379,-136.718750
380,-132.812500
381,-132.812500
382,-132.812500
383,-128.906250
384,-128.906250
385,-125.000000
386,-125.000000
387,-121.093750
388,-121.093750
389,-117.187500
390,-117.187500
391,-117.187500
392,-113.281250
393,-113.281250
394,-109.375000
395,-109.375000
396,-105.468750
397,-101.562500
398,-101.562500
399,-101.562500
400,-97.656250
401,-93.750000
402,-93.750000
403,-89.843750
404,-89.843750
405,-85.937500
406,-85.937500
407,-82.031250
408,-78.125000
409,-78.125000
410,-74.218750
411,-74.218750
412,-70.312500
413,-70.312500
414,-66.406250
415,-66.406250
416,-62.500000
417,-58.593750
418,-58.593750
419,-54.687500
420,-54.687500
421,-50.781250
422,-46.875000
423,-46.875000
424,-42.968750
425,-42.968750
426,-39.062500
427,-39.062500
428,-35.156250
429,-31.250000
430,-31.250000
431,-27.343750
432,-27.343750
433,-23.437500
434,-19.531250
435,-19.531250
436,-15.625000
437,-15.625000
438,-11.718750
439,-7.812500
440,-7.812500
441,-3.906250
442,-3.906250
443,0.000000
444,0.000000
445,3.906250
446,3.906250
447,7.812500
448,11.718750
449,11.718750
450,15.625000
451,15.625000
452,19.531250
453,19.531250
454,23.437500
455,27.343750
456,27.343750
457,27.343750
458,31.250000
459,35.156250
460,35.156250
461,39.062500
462,39.062500
463,42.968750
464,42.968750
465,46.875000
466,46.875000
467,50.781250
468,50.781250
469,54.687500
470,54.687500
471,54.687500
472,58.593750
473,58.593750
474,62.500000
475,62.500000
476,66.406250
477,66.406250
478,70.312500
479,70.312500
480,70.312500
481,74.218750
482,74.218750
483,78.125000
484,78.125000
485,78.125000
486,82.031250
487,82.031250
488,85.937500
489,85.937500
490,85.937500
491,89.843750
492,89.843750
493,89.843750
494,93.750000
495,93.750000
496,93.750000
497,97.656250
498,97.656250
499,97.656250
500,101.562500
501,101.562500
502,101.562500
503,105.468750
504,105.468750
505,105.468750
506,105.468750
507,105.468750
508,105.468750
509,109.375000
510,109.375000
511,109.375000
512,113.281250
513,113.281250
514,113.281250
515,113.281250
516,113.281250
517,113.281250
518,117.187500
519,117.187500
520,117.187500
521,117.187500
522,117.187500
523,117.187500
524,121.093750
525,121.093750
526,121.093750
527,121.093750
528,121.093750
529,121.093750
530,121.093750
531,121.093750
532,125.000000
533,125.000000
534,125.000000
535,125.000000
536,125.000000
537,125.000000
538,125.000000
539,125.000000
540,125.000000
541,125.000000
542,125.000000
543,125.000000
544,125.000000
545,125.000000
546,125.000000
547,125.000000
548,125.000000
549,125.000000
550,125.000000
551,125.000000
552,125.000000
553,125.000000
554,125.000000
555,125.000000
556,125.000000
557,125.000000
558,121.093750
559,121.093750
560,121.093750
561,121.093750
562,121.093750
563,121.093750
564,121.093750
565,121.093750
566,117.187500
567,117.187500
568,117.187500
569,117.187500
570,117.187500
571,117.187500
572,113.281250
573,113.281250
574,113.281250
575,113.281250
576,113.281250
577,109.375000
578,109.375000
579,109.375000
580,109.375000
581,109.375000
582,105.468750
583,105.468750
584,105.468750
585,105.468750
586,101.562500
587,101.562500
588,101.562500
589,101.562500
590,97.656250
591,97.656250
592,97.656250
593,93.750000
594,93.750000
595,93.750000
596,89.843750
597,89.843750
598,89.843750
599,85.937500
600,85.937500
601,85.937500
602,82.031250
603,82.031250
604,78.125000
605,78.125000
606,78.125000
607,74.218750
608,74.218750
609,70.312500
610,70.312500
611,70.312500
612,66.406250
613,66.406250
614,62.500000
615,62.500000
616,58.593750
617,58.593750
618,54.687500
619,54.687500
620,54.687500
621,50.781250
622,46.875000
623,46.875000
624,46.875000
625,42.968750
626,39.062500
627,39.062500
628,35.156250
629,35.156250
630,31.250000
631,31.250000
632,27.343750
633,27.343750
634,23.437500
635,19.531250
636,19.531250
637,19.531250
638,15.625000
639,11.718750
640,11.718750
641,7.812500
642,3.906250
643,3.906250
644,0.000000
645,0.000000
646,-3.906250
647,-3.906250
648,-11.718750
649,-7.812500
650,-11.718750
651,-15.625000
652,-15.625000
653,-19.531250
654,-23.437500
655,-23.437500
656,-27.343750
657,-27.343750
658,-31.250000
659,-31.250000
660,-35.156250
661,-35.156250
662,-39.062500
663,-42.968750
664,-42.968750
665,-46.875000
666,-50.781250
667,-50.781250
668,-54.687500
669,-58.593750
670,-58.593750
671,-62.500000
672,-62.500000
673,-66.406250
674,-70.312500
675,-70.312500
676,-70.312500
677,-74.218750
678,-78.125000
679,-78.125000
680,-82.031250
681,-85.937500
682,-85.937500
683,-85.937500
684,-89.843750
685,-93.750000
686,-93.750000
687,-97.656250
688,-97.656250
689,-101.562500
690,-101.562500
691,-105.468750
692,-105.468750
693,-109.375000
694,-113.281250
695,-113.281250
696,-113.281250
697,-117.187500
698,-117.187500
699,-121.093750
700,-121.093750
701,-125.000000
702,-125.000000
703,-128.906250
704,-128.906250
705,-128.906250
706,-132.812500
707,-132.812500
708,-136.718750
709,-136.718750
710,-140.625000
711,-140.625000
712,-140.625000
713,-144.531250
714,-144.531250
715,-144.531250
716,-148.437500
717,-148.437500
718,-148.437500
719,-152.343750
720,-152.343750
721,-152.343750
722,-152.343750
723,-156.250000
724,-156.250000
725,-156.250000
726,-160.156250
727,-160.156250
728,-160.156250
729,-160.156250
730,-164.062500
731,-164.062500
732,-164.062500
733,-164.062500
734,-164.062500
735,-167.968750
736,-167.968750
737,-167.968750
738,-167.968750
739,-167.968750
740,-167.968750
741,-167.968750
742,-171.875000
743,-171.875000
744,-171.875000
745,-171.875000
746,-171.875000
747,-171.875000
748,-171.875000
749,-171.875000
750,-171.875000
751,-171.875000
752,-171.875000
753,-171.875000
754,-171.875000
755,-171.875000
756,-171.875000
757,-171.875000
758,-171.875000
759,-171.875000
760,-171.875000
761,-171.875000
762,-171.875000
763,-167.968750
764,-171.875000
765,-167.968750
766,-167.968750
767,-167.968750
768,-167.968750
769,-167.968750
770,-167.968750
771,-164.062500
772,-164.062500
773,-164.062500
774,-164.062500
775,-160.156250
776,-160.156250
777,-160.156250
778,-160.156250
779,-160.156250
780,-156.250000
781,-156.250000
782,-156.250000
783,-152.343750
784,-152.343750
785,-152.343750
786,-148.437500
787,-148.437500
788,-148.437500
789,-144.531250
790,-144.531250
791,-144.531250
792,-140.625000
793,-140.625000
794,-136.718750
795,-136.718750
796,-136.718750
797,-132.812500
798,-132.812500
799,-128.906250
800,-128.906250
801,-125.000000
802,-125.000000
803,-125.000000
804,-121.093750
805,-121.093750
806,-117.187500
807,-117.187500
808,-113.281250
809,-113.281250
810,-109.375000
811,-109.375000
812,-105.468750
813,-105.468750
814,-101.562500
815,-101.562500
816,-97.656250
817,-97.656250
818,-93.750000
819,-93.750000
820,-89.843750
821,-85.937500
822,-85.937500
823,-85.937500
824,-82.031250
825,-78.125000
826,-78.125000
827,-74.218750
828,-74.218750
829,-70.312500
830,-70.312500
831,-66.406250
832,-62.500000
833,-62.500000
834,-58.593750
835,-54.687500
836,-54.687500
837,-54.687500
838,-50.781250
839,-46.875000
840,-46.875000
841,-42.968750
842,-42.968750
843,-39.062500
844,-35.156250
845,-35.156250
846,-31.250000
847,-31.250000
848,-27.343750
849,-23.437500
850,-23.437500
851,-19.531250
852,-19.531250
853,-15.625000
854,-11.718750
855,-11.718750
856,-7.812500
857,-7.812500
858,-3.906250
859,-3.906250
860,0.000000
861,3.906250
862,3.906250
863,7.812500
864,11.718750
865,11.718750
866,11.718750
867,15.625000
868,15.625000
869,19.531250
870,23.437500
871,23.437500
872,27.343750
873,27.343750
874,31.250000
875,31.250000
876,35.156250
877,35.156250
878,39.062500
879,39.062500
880,42.968750
881,42.968750
882,46.875000
883,46.875000
884,50.781250
885,50.781250
886,54.687500
887,54.687500
888,54.687500
889,58.593750
890,62.500000
891,62.500000
892,62.500000
893,66.406250
894,66.406250
895,70.312500
896,70.312500
897,74.218750
898,74.218750
899,78.125000
900,78.125000
901,78.125000
902,78.125000
903,82.031250
904,82.031250
905,85.937500
906,85.937500
907,85.937500
908,89.843750
909,89.843750
910,93.750000
911,93.750000
912,93.750000
913,93.750000
914,97.656250
915,97.656250
916,97.656250
917,101.562500
918,101.562500
919,101.562500
920,105.468750
921,105.468750
922,105.468750
923,105.468750
924,109.375000
925,109.375000
926,109.375000
927,109.375000
928,109.375000
929,113.281250
930,113.281250
931,113.281250
932,113.281250
933,113.281250
934,117.187500
935,117.187500
936,117.187500
937,117.187500
938,117.187500
939,117.187500
940,121.093750
941,121.093750
942,121.093750
943,121.093750
944,121.093750
945,121.093750
946,121.093750
947,125.000000
948,121.093750
949,125.000000
950,125.000000
951,125.000000
952,125.000000
953,125.000000
954,125.000000
955,125.000000
956,125.000000
957,125.000000
958,125.000000
959,125.000000
960,125.000000
961,125.000000
962,125.000000
963,125.000000
964,125.000000
965,125.000000
966,125.000000
967,125.000000
968,125.000000
969,125.000000
970,125.000000
971,125.000000
972,125.000000
973,125.000000
974,125.000000
975,121.093750
976,121.093750
977,121.093750
978,121.093750
979,121.093750
980,121.093750
981,121.093750
982,121.093750
983,121.093750
984,117.187500
985,117.187500
986,117.187500
987,117.187500
988,117.187500
989,117.187500
990,113.281250
991,113.281250
992,113.281250
993,113.281250
994,113.281250
995,109.375000
996,109.375000
997,109.375000
998,109.375000
999,105.468750
1000,105.468750
1001,105.468750
1002,105.468750
1003,101.562500
1004,101.562500
1005,101.562500
1006,97.656250
1007,97.656250
1008,97.656250
1009,97.656250
1010,93.750000
1011,93.750000
1012,93.750000
1013,89.843750
1014,89.843750
1015,85.937500
1016,85.937500
1017,85.937500
1018,82.031250
1019,82.031250
1020,82.031250
1021,78.125000
1022,78.125000
1023,78.125000
1024,74.218750
1025,74.218750
1026,70.312500
1027,70.312500
1028,66.406250
1029,66.406250
1030,66.406250
1031,62.500000
1032,62.500000
1033,58.593750
1034,58.593750
1035,54.687500
1036,54.687500
1037,50.781250
1038,50.781250
1039,46.875000
1040,46.875000
1041,42.968750
1042,42.968750
1043,39.062500
1044,39.062500
1045,35.156250
1046,35.156250
1047,31.250000
1048,27.343750
1049,27.343750
1050,23.437500
1051,23.437500
1052,19.531250
1053,19.531250
1054,15.625000
1055,15.625000
1056,11.718750
1057,11.718750
1058,7.812500
1059,7.812500
1060,3.906250
1061,0.000000
1062,0.000000
1063,-3.906250
1064,-3.906250
1065,-7.812500
1066,-11.718750
1067,-11.718750
1068,-15.625000
1069,-15.625000
1070,-19.531250
1071,-23.437500
1072,-23.437500
1073,-27.343750
1074,-27.343750
1075,-31.250000
1076,-35.156250
1077,-35.156250
1078,-39.062500
1079,-42.968750
1080,-42.968750
1081,-46.875000
1082,-46.875000
1083,-50.781250
1084,-54.687500
1085,-54.687500
1086,-58.593750
1087,-62.500000
1088,-62.500000
1089,-62.500000
1090,-66.406250
1091,-70.312500
1092,-74.218750
1093,-74.218750
1094,-74.218750
1095,-78.125000
1096,-82.031250
1097,-82.031250
1098,-85.937500
1099,-85.937500
1100,-89.843750
1101,-89.843750
1102,-93.750000
1103,-93.750000
1104,-97.656250
1105,-101.562500
1106,-101.562500
1107,-105.468750
1108,-105.468750
1109,-109.375000
1110,-109.375000
1111,-109.375000
1112,-113.281250
1113,-117.187500
1114,-117.187500
1115,-117.187500
1116,-121.093750
1117,-121.093750
1118,-125.000000
1119,-125.000000
1120,-128.906250
1121,-128.906250
1122,-132.812500
1123,-132.812500
1124,-132.812500
1125,-136.718750
1126,-136.718750
1127,-140.625000
1128,-140.625000
1129,-140.625000
1130,-144.531250
1131,-144.531250
1132,-144.531250
1133,-148.437500
1134,-148.437500
1135,-152.343750
1136,-152.343750
1137,-152.343750
1138,-156.250000
1139,-156.250000
1140,-156.250000
1141,-156.250000
1142,-160.156250
1143,-160.156250
1144,-160.156250
1145,-160.156250
1146,-160.156250
1147,-164.062500
1148,-164.062500
1149,-164.062500
1150,-164.062500
1151,-167.968750
1152,-167.968750
1153,-167.968750
1154,-167.968750
1155,-167.968750
1156,-167.968750
1157,-167.968750
1158,-167.968750
1159,-171.875000
1160,-171.875000
1161,-171.875000
1162,-171.875000
1163,-171.875000
1164,-171.875000
1165,-171.875000
1166,-171.875000
1167,-171.875000
1168,-171.875000
1169,-171.875000
1170,-171.875000
1171,-171.875000
1172,-171.875000
1173,-171.875000
1174,-171.875000
1175,-171.875000
1176,-171.875000
1177,-171.875000
1178,-171.875000
1179,-171.875000
1180,-171.875000
1181,-167.968750
1182,-167.968750
1183,-167.968750
1184,-167.968750
1185,-167.968750
1186,-167.968750
1187,-164.062500
1188,-164.062500
1189,-164.062500
1190,-164.062500
1191,-164.062500
1192,-160.156250
1193,-160.156250
1194,-160.156250
1195,-160.156250
1196,-156.250000
1197,-156.250000
1198,-156.250000
1199,-152.343750
1200,-152.343750
1201,-152.343750
1202,-148.437500
1203,-148.437500
1204,-148.437500
1205,-144.531250
1206,-144.531250
1207,-144.531250
1208,-144.531250
1209,-140.625000
1210,-140.625000
1211,-140.625000
1212,-136.718750
1213,-132.812500
1214,-132.812500
1215,-132.812500
1216,-128.906250
1217,-128.906250
1218,-128.906250
1219,-125.000000
1220,-121.093750
1221,-121.093750
1222,-121.093750
1223,-117.187500
1224,-117.187500
1225,-113.281250
1226,-113.281250
1227,-109.375000
1228,-109.375000
1229,-105.468750
1230,-105.468750
1231,-101.562500
1232,-101.562500
1233,-97.656250
1234,-97.656250
1235,-93.750000
1236,-93.750000
1237,-89.843750
1238,-85.937500
1239,-85.937500
1240,-82.031250
1241,-82.031250
1242,-78.125000
1243,-78.125000
1244,-74.218750
1245,-74.218750
1246,-70.312500
1247,-66.406250
1248,-66.406250
1249,-62.500000
1250,-58.593750
1251,-58.593750
1252,-58.593750
1253,-54.687500
1254,-50.781250
1255,-50.781250
1256,-46.875000
1257,-42.968750
1258,-42.968750
1259,-39.062500
1260,-39.062500
1261,-35.156250
1262,-31.250000
1263,-31.250000
1264,-27.343750
1265,-27.343750
1266,-23.437500
1267,-23.437500
1268,-19.531250
1269,-19.531250
1270,-15.625000
1271,-11.718750
1272,-11.718750
1273,-7.812500
1274,-3.906250
1275,-3.906250
1276,0.000000
1277,0.000000
1278,3.906250
1279,3.906250
1280,3.906250
1281,7.812500
1282,11.718750
1283,15.625000
1284,15.625000
1285,15.625000
1286,19.531250
1287,23.437500
1288,23.437500
1289,27.343750
1290,27.343750
1291,31.250000
1292,31.250000
1293,35.156250
1294,35.156250
1295,39.062500
1296,39.062500
1297,42.968750
1298,42.968750
1299,46.875000
1300,46.875000
1301,50.781250
1302,50.781250
1303,54.687500
1304,54.687500
1305,58.593750
1306,58.593750
1307,62.500000
1308,62.500000
1309,62.500000
1310,66.406250
1311,66.406250
1312,70.312500
1313,70.312500
1314,74.218750
1315,74.218750
1316,74.218750
1317,78.125000
1318,78.125000
1319,82.031250
1320,85.937500
1321,82.031250
1322,85.937500
1323,85.937500
1324,89.843750
1325,89.843750
1326,89.843750
1327,93.750000
1328,93.750000
1329,97.656250
1330,93.750000
1331,97.656250
1332,97.656250
1333,97.656250
1334,101.562500
1335,101.562500
1336,101.562500
1337,101.562500
1338,105.468750
1339,105.468750
1340,105.468750
1341,105.468750
1342,109.375000
1343,109.375000
1344,109.375000
1345,109.375000
1346,113.281250
1347,113.281250
1348,113.281250
1349,113.281250
1350,117.187500
1351,113.281250
1352,117.187500
1353,113.281250
1354,117.187500
1355,117.187500
1356,117.187500
1357,121.093750
1358,121.093750
1359,121.093750
1360,121.093750
1361,125.000000
1362,121.093750
1363,121.093750
1364,121.093750
1365,125.000000
1366,125.000000
1367,125.000000
1368,125.000000
1369,125.000000
1370,128.906250
1371,125.000000
1372,125.000000
1373,125.000000
1374,125.000000
1375,125.000000
1376,125.000000
1377,125.000000
1378,125.000000
1379,125.000000
1380,125.000000
1381,125.000000
1382,125.000000
1383,125.000000
1384,125.000000
1385,125.000000
1386,125.000000
1387,125.000000
1388,125.000000
1389,125.000000
1390,125.000000
1391,121.093750
1392,125.000000
1393,121.093750
1394,121.093750
1395,121.093750
1396,121.093750
1397,121.093750
1398,121.093750
1399,121.093750
1400,117.187500
1401,117.187500
1402,117.187500
1403,117.187500
1404,117.187500
1405,113.281250
1406,113.281250
1407,113.281250
1408,113.281250
1409,113.281250
1410,113.281250
1411,109.375000
1412,105.468750
1413,109.375000
1414,109.375000
1415,105.468750
1416,105.468750
1417,105.468750
1418,105.468750
1419,101.562500
1420,101.562500
1421,101.562500
1422,101.562500
1423,97.656250
1424,97.656250
1425,97.656250
1426,97.656250
1427,93.750000
1428,93.750000
1429,89.843750
1430,89.843750
1431,89.843750
1432,85.937500
1433,85.937500
1434,85.937500
1435,82.031250
1436,82.031250
1437,78.125000
1438,78.125000
1439,78.125000
1440,74.218750
1441,74.218750
1442,74.218750
1443,70.312500
1444,70.312500
1445,66.406250
1446,66.406250
1447,62.500000
1448,62.500000
1449,62.500000
1450,58.593750
1451,54.687500
1452,54.687500
1453,54.687500
1454,50.781250
1455,50.781250
1456,46.875000
1457,46.875000
1458,42.968750
1459,42.968750
1460,39.062500
1461,35.156250
1462,35.156250
1463,35.156250
1464,31.250000
1465,31.250000
1466,27.343750
1467,23.437500
1468,23.437500
1469,19.531250
1470,19.531250
1471,15.625000
1472,15.625000
1473,11.718750
1474,11.718750
1475,7.812500
1476,3.906250
1477,3.906250
1478,0.000000
1479,-3.906250
1480,-3.906250
1481,-7.812500
1482,-11.718750
1483,-11.718750
1484,-11.718750
1485,-15.625000
1486,-19.531250
1487,-19.531250
1488,-23.437500
1489,-27.343750
1490,-27.343750
1491,-31.250000
1492,-31.250000
1493,-35.156250
1494,-35.156250
1495,-39.062500
1496,-42.968750
1497,-42.968750
1498,-46.875000
1499,-46.875000
1500,-50.781250
1501,-54.687500
1502,-54.687500
1503,-58.593750
1504,-58.593750
1505,-62.500000
1506,-62.500000
1507,-66.406250
1508,-70.312500
1509,-70.312500
1510,-74.218750
1511,-74.218750
1512,-78.125000
1513,-78.125000
1514,-82.031250
1515,-85.937500
1516,-85.937500
1517,-89.843750
1518,-89.843750
1519,-93.750000
1520,-93.750000
1521,-93.750000
1522,-97.656250
1523,-101.562500
1524,-105.468750
1525,-109.375000
1526,-109.375000
1527,-109.375000
1528,-113.281250
1529,-113.281250
1530,-117.187500
1531,-117.187500
1532,-121.093750
1533,-121.093750
1534,-121.093750
1535,-125.000000
1536,-125.000000
1537,-128.906250
1538,-128.906250
1539,-132.812500
1540,-132.812500
1541,-132.812500
1542,-136.718750
1543,-136.718750
1544,-140.625000
1545,-140.625000
1546,-144.531250
1547,-144.531250
1548,-148.437500
1549,-144.531250
1550,-148.437500
1551,-148.437500
1552,-152.343750
1553,-152.343750
1554,-152.343750
1555,-156.250000
1556,-156.250000
1557,-156.250000
1558,-156.250000
1559,-160.156250
1560,-160.156250
1561,-160.156250
1562,-164.062500
1563,-164.062500
1564,-164.062500
1565,-164.062500
1566,-164.062500
1567,-164.062500
1568,-164.062500
1569,-167.968750
1570,-167.968750
1571,-167.968750
1572,-167.968750
1573,-167.968750
1574,-167.968750
1575,-171.875000
1576,-167.968750
1577,-171.875000
1578,-171.875000
1579,-171.875000
1580,-171.875000
1581,-171.875000
1582,-171.875000
1583,-171.875000
1584,-171.875000
1585,-171.875000
1586,-171.875000
1587,-171.875000
1588,-171.875000
1589,-171.875000
1590,-171.875000
1591,-171.875000
1592,-171.875000
1593,-171.875000
1594,-171.875000
1595,-171.875000
1596,-167.968750
1597,-167.968750
1598,-167.968750
1599,-167.968750
1600,-167.968750
1601,-167.968750
1602,-167.968750
1603,-164.062500
1604,-164.062500
1605,-164.062500
1606,-164.062500
1607,-164.062500
1608,-164.062500
1609,-160.156250
1610,-160.156250
1611,-160.156250
1612,-160.156250
1613,-156.250000
1614,-156.250000
1615,-156.250000
1616,-156.250000
1617,-152.343750
1618,-152.343750
1619,-148.437500
1620,-148.437500
1621,-148.437500
1622,-148.437500
1623,-144.531250
1624,-144.531250
1625,-140.625000
1626,-140.625000
1627,-140.625000
1628,-136.718750
1629,-136.718750
1630,-132.812500
1631,-132.812500
1632,-132.812500
1633,-128.906250
1634,-128.906250
1635,-125.000000
1636,-125.000000
1637,-125.000000
1638,-121.093750
1639,-117.187500
1640,-117.187500
1641,-113.281250
1642,-113.281250
1643,-113.281250
1644,-109.375000
1645,-109.375000
1646,-105.468750
1647,-105.468750
1648,-101.562500
1649,-101.562500
1650,-97.656250
1651,-93.750000
1652,-93.750000
1653,-89.843750
1654,-89.843750
1655,-85.937500
1656,-85.937500
1657,-82.031250
1658,-82.031250
1659,-78.125000
1660,-74.218750
1661,-74.218750
1662,-70.312500
1663,-70.312500
1664,-66.406250
1665,-66.406250
1666,-62.500000
1667,-62.500000
1668,-58.593750
1669,-54.687500
1670,-54.687500
1671,-50.781250
1672,-46.875000
1673,-46.875000
1674,-42.968750
1675,-42.968750
1676,-39.062500
1677,-39.062500
1678,-35.156250
1679,-35.156250
1680,-31.250000
1681,-27.343750
1682,-27.343750
1683,-23.437500
1684,-19.531250
1685,-19.531250
1686,-15.625000
1687,-15.625000
1688,-11.718750
1689,-11.718750
1690,-7.812500
1691,-7.812500
1692,-3.906250
1693,0.000000
1694,0.000000
1695,3.906250
1696,7.812500
1697,7.812500
1698,11.718750
1699,11.718750
1700,15.625000
1701,15.625000
1702,19.531250
1703,19.531250
1704,23.437500
1705,27.343750
1706,27.343750
1707,31.250000
1708,31.250000
1709,35.156250
1710,35.156250
1711,39.062500
1712,39.062500
1713,42.968750
1714,42.968750
1715,46.875000
1716,46.875000
1717,50.781250
1718,50.781250
1719,54.687500
1720,54.687500
1721,58.593750
1722,58.593750
1723,58.593750
1724,62.500000
1725,62.500000
1726,66.406250
1727,66.406250
1728,70.312500
1729,70.312500
1730,70.312500
1731,74.218750
1732,74.218750
1733,78.125000
1734,78.125000
1735,82.031250
1736,82.031250
1737,82.031250
1738,85.937500
1739,85.937500
1740,85.937500
1741,89.843750
1742,89.843750
1743,89.843750
1744,93.750000
1745,93.750000
1746,93.750000
1747,97.656250
1748,97.656250
1749,97.656250
1750,101.562500
1751,101.562500
1752,101.562500
1753,101.562500
1754,101.562500
1755,105.468750
1756,105.468750
1757,105.468750
1758,105.468750
1759,109.375000
1760,109.375000
1761,113.281250
1762,109.375000
1763,113.281250
1764,113.281250
1765,113.281250
1766,113.281250
1767,113.281250
1768,117.187500
1769,117.187500
1770,117.187500
1771,117.187500
1772,117.187500
1773,121.093750
1774,121.093750
1775,121.093750
1776,121.093750
1777,121.093750
1778,121.093750
1779,121.093750
1780,121.093750
1781,121.093750
1782,121.093750
1783,121.093750
1784,125.000000
1785,125.000000
1786,125.000000
1787,125.000000
1788,125.000000
1789,125.000000
1790,125.000000
1791,125.000000
1792,125.000000
1793,125.000000
1794,125.000000
1795,125.000000
1796,125.000000
1797,125.000000
1798,121.093750
1799,125.000000
1800,125.000000
1801,125.000000
1802,125.000000
1803,125.000000
1804,125.000000
1805,125.000000
1806,121.093750
1807,125.000000
1808,125.000000
1809,121.093750
1810,121.093750
1811,121.093750
1812,121.093750
1813,121.093750
1814,121.093750
1815,121.093750
1816,117.187500
1817,117.187500
1818,117.187500
1819,117.187500
1820,117.187500
1821,117.187500
1822,117.187500
1823,117.187500
1824,113.281250
1825,113.281250
1826,113.281250
1827,113.281250
1828,109.375000
1829,109.375000
1830,109.375000
1831,105.468750
1832,105.468750
1833,105.468750
1834,105.468750
1835,105.468750
1836,101.562500
1837,101.562500
1838,101.562500
1839,101.562500
1840,97.656250
1841,97.656250
1842,97.656250
1843,93.750000
1844,93.750000
1845,93.750000
1846,89.843750
1847,89.843750
1848,89.843750
1849,85.937500
1850,85.937500
1851,85.937500
1852,82.031250
1853,82.031250
1854,78.125000
1855,78.125000
1856,78.125000
1857,74.218750
1858,74.218750
1859,70.312500
1860,70.312500
1861,70.312500
1862,66.406250
1863,66.406250
1864,62.500000
1865,62.500000
1866,58.593750
1867,58.593750
1868,54.687500
1869,54.687500
1870,54.687500
1871,50.781250
1872,50.781250
1873,46.875000
1874,46.875000
1875,42.968750
1876,42.968750
1877,39.062500
1878,35.156250
1879,35.156250
1880,31.250000
1881,31.250000
1882,31.250000
1883,27.343750
1884,23.437500
1885,23.437500
1886,19.531250
1887,19.531250
1888,15.625000
1889,15.625000
1890,11.718750
1891,7.812500
1892,3.906250
1893,3.906250
1894,3.906250
1895,0.000000
1896,0.000000
1897,-3.906250
1898,-7.812500
1899,-7.812500
1900,-11.718750
1901,-11.718750
1902,-15.625000
1903,-19.531250
1904,-23.437500
1905,-23.437500
1906,-23.437500
1907,-27.343750
1908,-31.250000
1909,-31.250000
1910,-35.156250
1911,-35.156250
1912,-39.062500
1913,-42.968750
1914,-42.968750
1915,-46.875000
1916,-50.781250
1917,-50.781250
1918,-54.687500
1919,-54.687500
1920,-58.593750
1921,-62.500000
1922,-62.500000
1923,-66.406250
1924,-66.406250
1925,-70.312500
1926,-74.218750
1927,-74.218750
1928,-78.125000
1929,-78.125000
1930,-82.031250
1931,-82.031250
1932,-85.937500
1933,-89.843750
1934,-89.843750
1935,-93.750000
1936,-93.750000
1937,-97.656250
1938,-97.656250
1939,-101.562500
1940,-101.562500
1941,-105.468750
1942,-105.468750
1943,-109.375000
1944,-113.281250
1945,-113.281250
1946,-117.187500
1947,-117.187500
1948,-117.187500
1949,-121.093750
1950,-121.093750
1951,-125.000000
1952,-125.000000
1953,-128.906250
1954,-128.906250
1955,-132.812500
1956,-132.812500
1957,-132.812500
1958,-136.718750
1959,-136.718750
1960,-140.625000
1961,-140.625000
1962,-140.625000
1963,-144.531250
1964,-144.531250
1965,-148.437500
1966,-148.437500
1967,-148.437500
1968,-152.343750
1969,-152.343750
1970,-152.343750
1971,-152.343750
1972,-156.250000
1973,-156.250000
1974,-156.250000
1975,-160.156250
1976,-160.156250
1977,-160.156250
1978,-160.156250
1979,-160.156250
1980,-164.062500
1981,-164.062500
1982,-164.062500
1983,-164.062500
1984,-167.968750
1985,-167.968750
1986,-167.968750
1987,-167.968750
1988,-167.968750
1989,-167.968750
1990,-171.875000
1991,-171.875000
1992,-171.875000
1993,-171.875000
1994,-171.875000
1995,-171.875000
1996,-175.781250
1997,-171.875000
1998,-171.875000
1999,-171.875000
2000,-171.875000
2001,-171.875000
2002,-171.875000
2003,-171.875000
2004,-171.875000
2005,-171.875000
2006,-171.875000
2007,-171.875000
2008,-171.875000
2009,-171.875000
2010,-171.875000
2011,-171.875000
2012,-171.875000
2013,-171.875000
2014,-167.968750
2015,-167.968750
2016,-167.968750
2017,-167.968750
2018,-167.968750
2019,-167.968750
2020,-167.968750
2021,-164.062500
2022,-164.062500
2023,-164.062500
2024,-164.062500
2025,-164.062500
2026,-160.156250
2027,-160.156250
2028,-160.156250
2029,-156.250000
2030,-156.250000
2031,-156.250000
2032,-156.250000
2033,-152.343750
2034,-152.343750
2035,-152.343750
2036,-148.437500
2037,-148.437500
2038,-148.437500
2039,-144.531250
2040,-144.531250
2041,-144.531250
2042,-140.625000
2043,-140.625000
2044,-136.718750
2045,-136.718750
2046,-136.718750
2047,-132.812500
2048,-132.812500
2049,-132.812500
2050,-128.906250
2051,-128.906250
2052,-125.000000
2053,-125.000000
2054,-121.093750
2055,-121.093750
2056,-117.187500
2057,-117.187500
2058,-113.281250
2059,-113.281250
2060,-109.375000
2061,-109.375000
2062,-105.468750
2063,-105.468750
2064,-101.562500
2065,-101.562500
2066,-97.656250
2067,-97.656250
2068,-93.750000
2069,-93.750000
2070,-89.843750
2071,-89.843750
2072,-85.937500
2073,-85.937500
2074,-82.031250
2075,-78.125000
2076,-78.125000
2077,-74.218750
2078,-74.218750
2079,-70.312500
2080,-70.312500
2081,-66.406250
2082,-66.406250
2083,-62.500000
2084,-62.500000
2085,-58.593750
2086,-54.687500
2087,-54.687500
2088,-50.781250
2089,-46.875000
2090,-46.875000
2091,-42.968750
2092,-42.968750
2093,-39.062500
2094,-35.156250
2095,-35.156250
2096,-31.250000
2097,-31.250000
2098,-27.343750
2099,-23.437500
2100,-23.437500
2101,-23.437500
2102,-19.531250
2103,-15.625000
2104,-15.625000
2105,-11.718750
2106,-7.812500
2107,-7.812500
2108,-3.906250
2109,-3.906250
2110,0.000000
2111,0.000000
2112,3.906250
2113,7.812500
2114,7.812500
2115,11.718750
2116,11.718750
2117,15.625000
2118,15.625000
2119,19.531250
2120,23.437500
2121,23.437500
2122,23.437500
2123,27.343750
2124,31.250000
2125,31.250000
2126,35.156250
2127,35.156250
2128,35.156250
2129,42.968750
2130,42.968750
2131,42.968750
2132,46.875000
2133,46.875000
2134,50.781250
2135,50.781250
2136,50.781250
2137,54.687500
2138,58.593750
2139,58.593750
2140,58.593750
2141,62.500000
2142,62.500000
2143,70.312500
2144,66.406250
2145,70.312500
2146,70.312500
2147,70.312500
2148,74.218750
2149,74.218750
2150,78.125000
2151,78.125000
2152,78.125000
2153,82.031250
2154,82.031250
2155,85.937500
2156,85.937500
2157,85.937500
2158,89.843750
2159,89.843750
2160,93.750000
2161,93.750000
2162,93.750000
2163,93.750000
2164,97.656250
2165,97.656250
2166,97.656250
2167,101.562500
2168,101.562500
2169,101.562500
2170,101.562500
2171,105.468750
2172,105.468750
2173,105.468750
2174,105.468750
2175,109.375000
2176,109.375000
2177,109.375000
2178,113.281250
2179,109.375000
2180,109.375000
2181,113.281250
2182,113.281250
2183,113.281250
2184,113.281250
2185,117.187500
2186,117.187500
2187,117.187500
2188,117.187500
2189,121.093750
2190,121.093750
2191,121.093750
2192,121.093750
2193,121.093750
2194,121.093750
2195,121.093750
2196,121.093750
2197,121.093750
2198,125.000000
2199,125.000000
2200,125.000000
2201,125.000000
2202,125.000000
2203,125.000000
2204,125.000000
2205,125.000000
2206,125.000000
2207,125.000000
2208,125.000000
2209,125.000000
2210,125.000000
2211,125.000000
2212,125.000000
2213,125.000000
2214,125.000000
2215,125.000000
2216,125.000000
2217,125.000000
2218,125.000000
2219,125.000000
2220,125.000000
2221,125.000000
2222,125.000000
2223,125.000000
2224,121.093750
2225,125.000000
2226,125.000000
2227,121.093750
2228,121.093750
2229,121.093750
2230,121.093750
2231,121.093750
2232,121.093750
2233,117.187500
2234,117.187500
2235,117.187500
2236,117.187500
2237,117.187500
2238,117.187500
2239,113.281250
2240,113.281250
2241,113.281250
2242,113.281250
2243,113.281250
2244,109.375000
2245,109.375000
2246,109.375000
2247,109.375000
2248,109.375000
2249,105.468750
2250,105.468750
2251,105.468750
2252,105.468750
2253,101.562500
2254,101.562500
2255,101.562500
2256,101.562500
2257,97.656250
2258,97.656250
2259,97.656250
2260,93.750000
2261,93.750000
2262,93.750000
2263,89.843750
2264,89.843750
2265,89.843750
2266,85.937500
2267,85.937500
2268,82.031250
2269,82.031250
2270,82.031250
2271,78.125000
2272,78.125000
2273,78.125000
2274,74.218750
2275,74.218750
2276,70.312500
2277,70.312500
2278,66.406250
2279,66.406250
2280,66.406250
2281,62.500000
2282,62.500000
2283,58.593750
2284,58.593750
2285,54.687500
2286,54.687500
2287,50.781250
2288,50.781250
2289,46.875000
2290,46.875000
2291,42.968750
2292,42.968750
2293,42.968750
2294,39.062500
2295,39.062500
2296,35.156250
2297,31.250000
2298,31.250000
2299,27.343750
2300,27.343750
2301,23.437500
2302,23.437500
2303,19.531250
2304,15.625000
2305,15.625000
2306,11.718750
2307,11.718750
2308,7.812500
2309,7.812500
2310,3.906250
2311,0.000000
2312,0.000000
2313,-3.906250
2314,-3.906250
2315,-7.812500
2316,-7.812500
2317,-11.718750
2318,-15.625000
2319,-15.625000
2320,-19.531250
2321,-19.531250
2322,-23.437500
2323,-27.343750
2324,-27.343750
2325,-31.250000
2326,-31.250000
2327,-35.156250
2328,-39.062500
2329,-39.062500
2330,-42.968750
2331,-46.875000
2332,-46.875000
2333,-50.781250
2334,-50.781250
2335,-54.687500
2336,-54.687500
2337,-58.593750
2338,-62.500000
2339,-62.500000
2340,-66.406250
2341,-66.406250
2342,-70.312500
2343,-74.218750
2344,-70.312500
2345,-78.125000
2346,-78.125000
2347,-82.031250
2348,-82.031250
2349,-85.937500
2350,-85.937500
2351,-89.843750
2352,-93.750000
2353,-93.750000
2354,-97.656250
2355,-97.656250
2356,-101.562500
2357,-101.562500
2358,-105.468750
2359,-105.468750
2360,-109.375000
2361,-109.375000
2362,-113.281250
2363,-113.281250
2364,-117.187500
2365,-117.187500
2366,-121.093750
2367,-121.093750
2368,-125.000000
2369,-125.000000
2370,-128.906250
2371,-128.906250
2372,-128.906250
2373,-132.812500
2374,-132.812500
2375,-136.718750
2376,-136.718750
2377,-140.625000
2378,-140.625000
2379,-140.625000
2380,-140.625000
2381,-144.531250
2382,-144.531250
2383,-148.437500
2384,-148.437500
2385,-152.343750
2386,-152.343750
2387,-152.343750
2388,-152.343750
2389,-156.250000
2390,-156.250000
2391,-156.250000
2392,-156.250000
2393,-160.156250
2394,-160.156250
2395,-160.156250
2396,-164.062500
2397,-164.062500
2398,-164.062500
2399,-164.062500
2400,-164.062500
2401,-164.062500
2402,-167.968750
2403,-167.968750
2404,-167.968750
2405,-167.968750
2406,-167.968750
2407,-167.968750
2408,-171.875000
2409,-167.968750
2410,-167.968750
2411,-171.875000
2412,-171.875000
2413,-171.875000
2414,-171.875000
2415,-171.875000
2416,-179.687500
2417,-171.875000
2418,-171.875000
2419,-171.875000
2420,-171.875000
2421,-171.875000
2422,-171.875000
2423,-171.875000
2424,-171.875000
2425,-171.875000
2426,-171.875000
2427,-171.875000
2428,-171.875000
2429,-167.968750
2430,-167.968750
2431,-167.968750
2432,-167.968750
2433,-167.968750
2434,-167.968750
2435,-167.968750
2436,-167.968750
2437,-167.968750
2438,-164.062500
2439,-164.062500
2440,-164.062500
2441,-160.156250
2442,-160.156250
2443,-160.156250
2444,-160.156250
2445,-156.250000
2446,-156.250000
2447,-156.250000
2448,-156.250000
2449,-152.343750
2450,-152.343750
2451,-152.343750
2452,-152.343750
2453,-148.437500
2454,-148.437500
2455,-148.437500
2456,-144.531250
2457,-144.531250
2458,-144.531250
2459,-140.625000
2460,-140.625000
2461,-136.718750
2462,-136.718750
2463,-136.718750
2464,-132.812500
2465,-132.812500
2466,-128.906250
2467,-128.906250
2468,-125.000000
2469,-125.000000
2470,-121.093750
2471,-121.093750
2472,-121.093750
2473,-117.187500
2474,-117.187500
2475,-113.281250
2476,-113.281250
2477,-109.375000
2478,-109.375000
2479,-105.468750
2480,-101.562500
2481,-101.562500
2482,-101.562500
2483,-97.656250
2484,-93.750000
2485,-93.750000
2486,-89.843750
2487,-89.843750
2488,-85.937500
2489,-85.937500
2490,-82.031250
2491,-82.031250
2492,-78.125000
2493,-78.125000
2494,-74.218750
2495,-74.218750
2496,-70.312500
2497,-66.406250
2498,-66.406250
2499,-62.500000
2500,-62.500000
2501,-58.593750
2502,-58.593750
2503,-54.687500
2504,-50.781250
2505,-50.781250
2506,-46.875000
2507,-46.875000
2508,-42.968750
2509,-39.062500
2510,-39.062500
2511,-35.156250
2512,-35.156250
2513,-31.250000
2514,-27.343750
2515,-27.343750
2516,-27.343750
2517,-23.437500
2518,-19.531250
2519,-19.531250
2520,-15.625000
2521,-11.718750
2522,-11.718750
2523,-7.812500
2524,-7.812500
2525,-3.906250
2526,0.000000
2527,0.000000
2528,3.906250
2529,3.906250
2530,7.812500
2531,7.812500
2532,11.718750
2533,11.718750
2534,15.625000
2535,15.625000
2536,19.531250
2537,23.437500
2538,23.437500
2539,23.437500
2540,27.343750
2541,31.250000
2542,31.250000
2543,35.156250
2544,35.156250
2545,39.062500
2546,39.062500
2547,42.968750
2548,42.968750
2549,46.875000
2550,46.875000
2551,50.781250
2552,50.781250
2553,54.687500
2554,54.687500
2555,58.593750
2556,58.593750
2557,62.500000
2558,62.500000
2559,62.500000
2560,74.218750
2561,66.406250
2562,70.312500
2563,70.312500
2564,74.218750
2565,74.218750
2566,78.125000
2567,78.125000
2568,78.125000
2569,82.031250
2570,82.031250
2571,82.031250
2572,85.937500
2573,85.937500
2574,85.937500
2575,89.843750
2576,89.843750
2577,89.843750
2578,93.750000
2579,93.750000
2580,93.750000
2581,97.656250
2582,97.656250
2583,97.656250
2584,101.562500
2585,101.562500
2586,101.562500
2587,105.468750
2588,105.468750
2589,105.468750
2590,105.468750
2591,105.468750
2592,109.375000
2593,109.375000
2594,109.375000
2595,109.375000
2596,113.281250
2597,113.281250
2598,113.281250
2599,113.281250
2600,113.281250
2601,117.187500
2602,117.187500
2603,117.187500
2604,117.187500
2605,117.187500
2606,117.187500
2607,121.093750
2608,121.093750
2609,121.093750
2610,121.093750
2611,121.093750
2612,121.093750
2613,121.093750
2614,121.093750
2615,121.093750
2616,121.093750
2617,125.000000
2618,125.000000
2619,125.000000
2620,125.000000
2621,125.000000
2622,125.000000
2623,125.000000
2624,125.000000
2625,125.000000
2626,125.000000
2627,125.000000
2628,125.000000
2629,125.000000
2630,125.000000
2631,125.000000
2632,125.000000
2633,125.000000
2634,125.000000
2635,125.000000
2636,125.000000
2637,125.000000
2638,125.000000
2639,125.000000
2640,121.093750
2641,125.000000
2642,121.093750
2643,121.093750
2644,121.093750
2645,121.093750
2646,121.093750
2647,121.093750
2648,121.093750
2649,121.093750
2650,117.187500
2651,121.093750
2652,117.187500
2653,117.187500
2654,117.187500
2655,117.187500
2656,117.187500
2657,113.281250
2658,113.281250
2659,113.281250
2660,113.281250
2661,113.281250
2662,109.375000
2663,109.375000
2664,109.375000
2665,109.375000
2666,105.468750
2667,105.468750
2668,105.468750
2669,105.468750
2670,101.562500
2671,101.562500
2672,101.562500
2673,97.656250
2674,97.656250
2675,97.656250
2676,93.750000
2677,93.750000
2678,93.750000
2679,93.750000
2680,89.843750
2681,89.843750
2682,85.937500
2683,85.937500
2684,85.937500
2685,82.031250
2686,82.031250
2687,82.031250
2688,78.125000
2689,78.125000
2690,78.125000
2691,74.218750
2692,74.218750
2693,70.312500
2694,70.312500
2695,66.406250
2696,66.406250
2697,62.500000
2698,66.406250
2699,58.593750
2700,58.593750
2701,54.687500
2702,54.687500
2703,54.687500
2704,50.781250
2705,50.781250
2706,46.875000
2707,42.968750
2708,42.968750
2709,42.968750
2710,39.062500
2711,39.062500
2712,35.156250
2713,35.156250
2714,31.250000
2715,31.250000
2716,27.343750
2717,23.437500
2718,23.437500
2719,19.531250
2720,19.531250
2721,15.625000
2722,15.625000
2723,11.718750
2724,11.718750
2725,7.812500
2726,3.906250
2727,3.906250
2728,0.000000
2729,0.000000
2730,-3.906250
2731,-3.906250
2732,-7.812500
2733,-7.812500
2734,-11.718750
2735,-15.625000
2736,-19.531250
2737,-19.531250
2738,-23.437500
2739,-23.437500
2740,-23.437500
2741,-27.343750
2742,-31.250000
2743,-35.156250
2744,-35.156250
2745,-39.062500
2746,-39.062500
2747,-42.968750
2748,-42.968750
2749,-46.875000
2750,-50.781250
2751,-50.781250
2752,-54.687500
2753,-54.687500
2754,-58.593750
2755,-62.500000
2756,-62.500000
2757,-66.406250
2758,-70.312500
2759,-70.312500
2760,-74.218750
2761,-74.218750
2762,-78.125000
2763,-78.125000
2764,-82.031250
2765,-82.031250
2766,-85.937500
2767,-89.843750
2768,-89.843750
2769,-93.750000
2770,-97.656250
2771,-97.656250
2772,-101.562500
2773,-101.562500
2774,-101.562500
2775,-105.468750
2776,-105.468750
2777,-109.375000
2778,-113.281250
2779,-113.281250
2780,-113.281250
2781,-117.187500
2782,-121.093750
2783,-121.093750
2784,-125.000000
2785,-125.000000
2786,-125.000000
2787,-128.906250
2788,-128.906250
2789,-132.812500
2790,-132.812500
2791,-132.812500
2792,-136.718750
2793,-136.718750
2794,-140.625000
2795,-140.625000
2796,-140.625000
2797,-144.531250
2798,-144.531250
2799,-148.437500
2800,-148.437500
2801,-148.437500
2802,-152.343750
2803,-152.343750
2804,-152.343750
2805,-152.343750
2806,-156.250000
2807,-156.250000
2808,-160.156250
2809,-156.250000
2810,-160.156250
2811,-160.156250
2812,-160.156250
2813,-164.062500
2814,-164.062500
2815,-164.062500
2816,-164.062500
2817,-164.062500
2818,-167.968750
2819,-167.968750
2820,-167.968750
2821,-167.968750
2822,-167.968750
2823,-167.968750
2824,-171.875000
2825,-171.875000
2826,-171.875000
2827,-171.875000
2828,-171.875000
2829,-171.875000
2830,-171.875000
2831,-171.875000
2832,-171.875000
2833,-171.875000
2834,-171.875000
2835,-171.875000
2836,-171.875000
2837,-171.875000
2838,-171.875000
2839,-171.875000
2840,-171.875000
2841,-171.875000
2842,-171.875000
2843,-171.875000
2844,-171.875000
2845,-171.875000
2846,-167.968750
2847,-171.875000
2848,-167.968750
2849,-167.968750
2850,-167.968750
2851,-167.968750
2852,-167.968750
2853,-167.968750
2854,-167.968750
2855,-164.062500
2856,-164.062500
2857,-164.062500
2858,-164.062500
2859,-160.156250
2860,-160.156250
2861,-160.156250
2862,-160.156250
2863,-156.250000
2864,-156.250000
2865,-156.250000
2866,-152.343750
2867,-152.343750
2868,-152.343750
2869,-148.437500
2870,-148.437500
2871,-148.437500
2872,-144.531250
2873,-144.531250
2874,-144.531250
2875,-140.625000
2876,-140.625000
2877,-140.625000
2878,-136.718750
2879,-136.718750
2880,-136.718750
2881,-132.812500
2882,-132.812500
2883,-128.906250
2884,-128.906250
2885,-125.000000
2886,-125.000000
2887,-125.000000
2888,-121.093750
2889,-121.093750
2890,-117.187500
2891,-117.187500
2892,-113.281250
2893,-113.281250
2894,-109.375000
2895,-109.375000
2896,-105.468750
2897,-105.468750
2898,-101.562500
2899,-97.656250
2900,-97.656250
2901,-93.750000
2902,-93.750000
2903,-89.843750
2904,-89.843750
2905,-85.937500
2906,-85.937500
2907,-82.031250
2908,-82.031250
2909,-78.125000
2910,-74.218750
2911,-74.218750
2912,-70.312500
2913,-70.312500
2914,-66.406250
2915,-66.406250
2916,-62.500000
2917,-58.593750
2918,-58.593750
2919,-54.687500
2920,-54.687500
2921,-50.781250
2922,-46.875000
2923,-46.875000
2924,-42.968750
2925,-42.968750
2926,-39.062500
2927,-39.062500
2928,-35.156250
2929,-31.250000
2930,-31.250000
2931,-27.343750
2932,-23.437500
2933,-23.437500
2934,-23.437500
2935,-19.531250
2936,-15.625000
2937,-15.625000
2938,-11.718750
2939,-11.718750
2940,-7.812500
2941,-3.906250
2942,-3.906250
2943,0.000000
2944,0.000000
2945,3.906250
2946,7.812500
2947,7.812500
2948,7.812500
2949,11.718750
2950,15.625000
2951,15.625000
2952,19.531250
2953,19.531250
2954,23.437500
2955,23.437500
2956,27.343750
2957,27.343750
2958,31.250000
2959,35.156250
2960,35.156250
2961,39.062500
2962,39.062500
2963,39.062500
2964,42.968750
2965,46.875000
2966,46.875000
2967,46.875000
2968,50.781250
2969,50.781250
2970,54.687500
2971,54.687500
2972,58.593750
2973,58.593750
2974,62.500000
2975,62.500000
2976,66.406250
2977,66.406250
2978,66.406250
2979,70.312500
2980,70.312500
2981,74.218750
2982,74.218750
2983,78.125000
2984,78.125000
2985,78.125000
2986,82.031250
2987,82.031250
2988,82.031250
2989,85.937500
2990,85.937500
2991,85.937500
2992,89.843750
2993,89.843750
2994,93.750000
2995,93.750000
2996,93.750000
2997,97.656250
2998,97.656250
2999,97.656250
3000,97.656250
3001,101.562500
3002,101.562500
3003,101.562500
3004,105.468750
3005,105.468750
3006,105.468750
3007,105.468750
3008,109.375000
3009,109.375000
3010,109.375000
3011,109.375000
3012,113.281250
3013,113.281250
3014,113.281250
3015,113.281250
3016,113.281250
3017,117.187500
3018,117.187500
3019,117.187500
3020,117.187500
3021,117.187500
3022,117.187500
3023,121.093750
3024,121.093750
3025,121.093750
3026,121.093750
3027,121.093750
3028,121.093750
3029,121.093750
3030,121.093750
3031,121.093750
3032,121.093750
3033,125.000000
3034,125.000000
3035,125.000000
3036,125.000000
3037,125.000000
3038,125.000000
3039,125.000000
3040,125.000000
3041,125.000000
3042,125.000000
3043,125.000000
3044,125.000000
3045,125.000000
3046,125.000000
3047,125.000000
3048,125.000000
3049,125.000000
3050,125.000000
3051,125.000000
3052,125.000000
3053,125.000000
3054,125.000000
3055,125.000000
3056,125.000000
3057,125.000000
3058,125.000000
3059,121.093750
3060,125.000000
3061,121.093750
3062,121.093750
3063,121.093750
3064,121.093750
3065,121.093750
3066,121.093750
3067,121.093750
3068,117.187500
3069,117.187500
3070,117.187500
3071,117.187500
3072,113.281250
3073,117.187500
3074,113.281250
3075,113.281250
3076,113.281250
3077,113.281250
3078,113.281250
3079,109.375000
3080,109.375000
3081,109.375000
3082,109.375000
3083,105.468750
3084,105.468750
3085,105.468750
3086,101.562500
3087,101.562500
3088,101.562500
3089,101.562500
3090,97.656250
3091,97.656250
3092,97.656250
3093,97.656250
3094,93.750000
3095,93.750000
3096,93.750000
3097,89.843750
3098,89.843750
3099,85.937500
3100,85.937500
3101,85.937500
3102,82.031250
3103,82.031250
3104,82.031250
3105,78.125000
3106,74.218750
3107,78.125000
3108,74.218750
3109,74.218750
3110,70.312500
3111,70.312500
3112,66.406250
3113,66.406250
3114,62.500000
3115,62.500000
3116,62.500000
3117,58.593750
3118,58.593750
3119,54.687500
3120,54.687500
3121,50.781250
3122,50.781250
3123,46.875000
3124,46.875000
3125,42.968750
3126,42.968750
3127,39.062500
3128,39.062500
3129,35.156250
3130,35.156250
3131,31.250000
3132,27.343750
3133,27.343750
3134,27.343750
3135,23.437500
3136,23.437500
3137,19.531250
3138,15.625000
3139,15.625000
3140,11.718750
3141,11.718750
3142,7.812500
3143,3.906250
3144,3.906250
3145,0.000000
3146,-3.906250
3147,-3.906250
3148,-7.812500
3149,-7.812500
3150,-11.718750
3151,-11.718750
3152,-15.625000
3153,-15.625000
3154,-19.531250
3155,-23.437500
3156,-23.437500
3157,-27.343750
3158,-31.250000
3159,-31.250000
3160,-31.250000
3161,-35.156250
3162,-39.062500
3163,-42.968750
3164,-42.968750
3165,-46.875000
3166,-46.875000
3167,-50.781250
3168,-50.781250
3169,-54.687500
3170,-58.593750
3171,-58.593750
3172,-62.500000
3173,-66.406250
3174,-66.406250
3175,-70.312500
3176,-70.312500
3177,-74.218750
3178,-74.218750
3179,-78.125000
3180,-78.125000
3181,-82.031250
3182,-85.937500
3183,-85.937500
3184,-89.843750
3185,-89.843750
3186,-93.750000
3187,-93.750000
3188,-97.656250
3189,-97.656250
3190,-101.562500
3191,-105.468750
3192,-105.468750
3193,-105.468750
3194,-109.375000
3195,-109.375000
3196,-113.281250
3197,-113.281250
3198,-117.187500
3199,-117.187500
3200,-121.093750
3201,-125.000000
3202,-125.000000
3203,-128.906250
3204,-128.906250
3205,-128.906250
3206,-132.812500
3207,-132.812500
3208,-136.718750
3209,-136.718750
3210,-136.718750
3211,-140.625000
3212,-140.625000
3213,-144.531250
3214,-144.531250
3215,-144.531250
3216,-148.437500
3217,-148.437500
3218,-148.437500
3219,-152.343750
3220,-152.343750
3221,-152.343750
3222,-156.250000
3223,-156.250000
3224,-156.250000
3225,-156.250000
3226,-160.156250
3227,-160.156250
3228,-160.156250
3229,-160.156250
3230,-164.062500
3231,-164.062500
3232,-164.062500
3233,-164.062500
3234,-164.062500
3235,-167.968750
3236,-167.968750
3237,-167.968750
3238,-167.968750
3239,-167.968750
3240,-167.968750
3241,-167.968750
3242,-167.968750
3243,-167.968750
3244,-171.875000
3245,-171.875000
3246,-171.875000
3247,-171.875000
3248,-171.875000
3249,-171.875000
3250,-171.875000
3251,-171.875000
3252,-171.875000
3253,-171.875000
3254,-171.875000
3255,-171.875000
3256,-171.875000
3257,-171.875000
3258,-171.875000
3259,-171.875000
3260,-171.875000
3261,-171.875000
3262,-171.875000
3263,-171.875000
3264,-167.968750
3265,-167.968750
3266,-167.968750
3267,-167.968750
3268,-167.968750
3269,-164.062500
3270,-167.968750
3271,-164.062500
3272,-164.062500
3273,-164.062500
3274,-164.062500
3275,-160.156250
3276,-160.156250
3277,-160.156250
3278,-160.156250
3279,-160.156250
3280,-156.250000
3281,-156.250000
3282,-156.250000
3283,-152.343750
3284,-152.343750
3285,-152.343750
3286,-148.437500
3287,-148.437500
3288,-148.437500
3289,-148.437500
3290,-144.531250
3291,-144.531250
3292,-140.625000
3293,-140.625000
3294,-136.718750
3295,-136.718750
3296,-136.718750
3297,-132.812500
3298,-132.812500
3299,-132.812500
3300,-128.906250
3301,-128.906250
3302,-125.000000
3303,-125.000000
3304,-125.000000
3305,-121.093750
3306,-117.187500
3307,-117.187500
3308,-117.187500
3309,-113.281250
3310,-109.375000
3311,-109.375000
3312,-105.468750
3313,-105.468750
3314,-105.468750
3315,-101.562500
3316,-97.656250
3317,-97.656250
3318,-93.750000
3319,-93.750000
3320,-89.843750
3321,-89.843750
3322,-85.937500
3323,-85.937500
3324,-82.031250
3325,-82.031250
3326,-78.125000
3327,-74.218750
3328,-74.218750
3329,-74.218750
3330,-66.406250
3331,-66.406250
3332,-66.406250
3333,-62.500000
3334,-58.593750
3335,-58.593750
3336,-54.687500
3337,-54.687500
3338,-50.781250
3339,-50.781250
3340,-46.875000
3341,-42.968750
3342,-42.968750
3343,-39.062500
3344,-39.062500
3345,-35.156250
3346,-31.250000
3347,-31.250000
3348,-27.343750
3349,-27.343750
3350,-23.437500
3351,-23.437500
3352,-19.531250
3353,-15.625000
3354,-15.625000
3355,-11.718750
3356,-11.718750
3357,-7.812500
3358,-3.906250
3359,-3.906250
3360,0.000000
3361,0.000000
3362,3.906250
3363,3.906250
3364,7.812500
3365,11.718750
3366,11.718750
3367,15.625000
3368,15.625000
3369,19.531250
3370,19.531250
3371,23.437500
3372,23.437500
3373,27.343750
3374,27.343750
3375,31.250000
3376,31.250000
3377,35.156250
3378,39.062500
3379,39.062500
3380,42.968750
3381,42.968750
3382,46.875000
3383,46.875000
3384,50.781250
3385,50.781250
3386,54.687500
3387,54.687500
3388,54.687500
3389,58.593750
3390,58.593750
3391,62.500000
3392,62.500000
3393,66.406250
3394,66.406250
3395,70.312500
3396,70.312500
3397,70.312500
3398,74.218750
3399,74.218750
3400,78.125000
3401,78.125000
3402,78.125000
3403,82.031250
3404,82.031250
3405,82.031250
3406,85.937500
3407,85.937500
3408,89.843750
3409,89.843750
3410,89.843750
3411,93.750000
3412,93.750000
3413,93.750000
3414,97.656250
3415,97.656250
3416,97.656250
3417,97.656250
3418,101.562500
3419,101.562500
3420,101.562500
3421,105.468750
3422,105.468750
3423,105.468750
3424,105.468750
3425,109.375000
3426,109.375000
3427,109.375000
3428,109.375000
3429,113.281250
3430,113.281250
3431,113.281250
3432,113.281250
3433,113.281250
3434,113.281250
3435,117.187500
3436,117.187500
3437,117.187500
3438,117.187500
3439,117.187500
3440,121.093750
3441,121.093750
3442,121.093750
3443,121.093750
3444,121.093750
3445,121.093750
3446,121.093750
3447,121.093750
3448,121.093750
3449,125.000000
3450,125.000000
3451,125.000000
3452,125.000000
3453,125.000000
3454,125.000000
3455,125.000000
3456,125.000000
3457,125.000000
3458,125.000000
3459,125.000000
3460,125.000000
3461,125.000000
3462,125.000000
3463,125.000000
3464,125.000000
3465,125.000000
3466,125.000000
3467,125.000000
3468,125.000000
3469,125.000000
3470,125.000000
3471,125.000000
3472,125.000000
3473,125.000000
3474,125.000000
3475,125.000000
3476,121.093750
3477,121.093750
3478,125.000000
3479,121.093750
3480,121.093750
3481,121.093750
3482,121.093750
3483,121.093750
3484,121.093750
3485,117.187500
3486,117.187500
3487,117.187500
3488,117.187500
3489,117.187500
3490,117.187500
3491,113.281250
3492,113.281250
3493,113.281250
3494,113.281250
3495,113.281250
3496,109.375000
3497,109.375000
3498,109.375000
3499,109.375000
3500,105.468750
3501,105.468750
3502,105.468750
3503,101.562500
3504,101.562500
3505,101.562500
3506,101.562500
3507,97.656250
3508,97.656250
3509,97.656250
3510,93.750000
3511,93.750000
3512,93.750000
3513,93.750000
3514,89.843750
3515,89.843750
3516,85.937500
3517,85.937500
3518,82.031250
3519,82.031250
3520,82.031250
3521,78.125000
3522,78.125000
3523,78.125000
3524,74.218750
3525,74.218750
3526,70.312500
3527,74.218750
3528,70.312500
3529,66.406250
3530,66.406250
3531,62.500000
3532,62.500000
3533,58.593750
3534,58.593750
3535,54.687500
3536,54.687500
3537,50.781250
3538,50.781250
3539,50.781250
3540,46.875000
3541,42.968750
3542,42.968750
3543,39.062500
3544,39.062500
3545,39.062500
3546,35.156250
3547,31.250000
3548,31.250000
3549,27.343750
3550,27.343750
3551,23.437500
3552,23.437500
3553,19.531250
3554,15.625000
3555,15.625000
3556,11.718750
3557,11.718750
3558,7.812500
3559,7.812500
3560,3.906250
3561,3.906250
3562,0.000000
3563,0.000000
3564,-3.906250
3565,-7.812500
3566,-7.812500
3567,-11.718750
3568,-15.625000
3569,-15.625000
3570,-19.531250
3571,-19.531250
3572,-23.437500
3573,-27.343750
3574,-27.343750
3575,-31.250000
3576,-31.250000
3577,-35.156250
3578,-35.156250
3579,-39.062500
3580,-42.968750
3581,-42.968750
3582,-46.875000
3583,-50.781250
3584,-50.781250
3585,-54.687500
3586,-54.687500
3587,-58.593750
3588,-58.593750
3589,-62.500000
3590,-66.406250
3591,-66.406250
3592,-70.312500
3593,-70.312500
3594,-74.218750
3595,-74.218750
3596,-78.125000
3597,-82.031250
3598,-82.031250
3599,-85.937500
3600,-85.937500
3601,-89.843750
3602,-89.843750
3603,-93.750000
3604,-97.656250
3605,-97.656250
3606,-101.562500
3607,-101.562500
3608,-105.468750
3609,-105.468750
3610,-105.468750
3611,-109.375000
3612,-113.281250
3613,-113.281250
3614,-117.187500
3615,-117.187500
3616,-121.093750
3617,-121.093750
3618,-121.093750
3619,-125.000000
3620,-125.000000
3621,-128.906250
3622,-128.906250
3623,-132.812500
3624,-132.812500
3625,-136.718750
3626,-136.718750
3627,-136.718750
3628,-140.625000
3629,-140.625000
3630,-144.531250
3631,-144.531250
3632,-144.531250
3633,-144.531250
3634,-148.437500
3635,-148.437500
3636,-148.437500
3637,-152.343750
3638,-152.343750
3639,-152.343750
3640,-156.250000
3641,-156.250000
3642,-156.250000
3643,-160.156250
3644,-160.156250
3645,-160.156250
3646,-160.156250
3647,-164.062500
3648,-164.062500
3649,-164.062500
3650,-164.062500
3651,-164.062500
3652,-164.062500
3653,-167.968750
3654,-167.968750
3655,-167.968750
3656,-167.968750
3657,-167.968750
3658,-167.968750
3659,-171.875000
3660,-167.968750
3661,-171.875000
3662,-171.875000
3663,-171.875000
3664,-171.875000
3665,-171.875000
3666,-171.875000
3667,-171.875000
3668,-171.875000
3669,-171.875000
3670,-171.875000
3671,-171.875000
3672,-171.875000
3673,-171.875000
3674,-171.875000
3675,-171.875000
3676,-171.875000
3677,-171.875000
3678,-171.875000
3679,-171.875000
3680,-171.875000
3681,-167.968750
3682,-167.968750
3683,-167.968750
3684,-167.968750
3685,-167.968750
3686,-167.968750
3687,-164.062500
3688,-164.062500
3689,-164.062500
3690,-164.062500
3691,-164.062500
3692,-164.062500
3693,-160.156250
3694,-160.156250
3695,-160.156250
3696,-156.250000
3697,-156.250000
3698,-152.343750
3699,-156.250000
3700,-152.343750
3701,-152.343750
3702,-152.343750
3703,-152.343750
3704,-148.437500
3705,-148.437500
3706,-144.531250
3707,-144.531250
3708,-144.531250
3709,-140.625000
3710,-140.625000
3711,-136.718750
3712,-136.718750
3713,-136.718750
3714,-132.812500
3715,-132.812500
3716,-128.906250
3717,-128.906250
3718,-128.906250
3719,-125.000000
3720,-125.000000
3721,-121.093750
3722,-121.093750
3723,-117.187500
3724,-117.187500
3725,-117.187500
3726,-113.281250
3727,-113.281250
3728,-105.468750
3729,-109.375000
3730,-101.562500
3731,-105.468750
3732,-101.562500
3733,-97.656250
3734,-97.656250
3735,-93.750000
3736,-93.750000
3737,-89.843750
3738,-89.843750
3739,-85.937500
3740,-85.937500
3741,-82.031250
3742,-78.125000
3743,-78.125000
3744,-74.218750
3745,-74.218750
3746,-70.312500
3747,-70.312500
3748,-66.406250
3749,-62.500000
3750,-62.500000
3751,-58.593750
3752,-58.593750
3753,-54.687500
3754,-54.687500
3755,-50.781250
3756,-46.875000
3757,-46.875000
3758,-42.968750
3759,-42.968750
3760,-39.062500
3761,-35.156250
3762,-35.156250
3763,-31.250000
3764,-31.250000
3765,-27.343750
3766,-23.437500
3767,-23.437500
3768,-19.531250
3769,-19.531250
3770,-15.625000
3771,-11.718750
3772,-11.718750
3773,-7.812500
3774,-7.812500
3775,-3.906250
3776,-3.906250
3777,0.000000
3778,3.906250
3779,3.906250
3780,7.812500
3781,7.812500
3782,11.718750
3783,15.625000
3784,15.625000
3785,19.531250
3786,19.531250
3787,23.437500
3788,23.437500
3789,27.343750
3790,27.343750
3791,31.250000
3792,31.250000
3793,35.156250
3794,35.156250
3795,39.062500
3796,42.968750
3797,42.968750
3798,42.968750
3799,46.875000
3800,46.875000
3801,50.781250
3802,50.781250
3803,54.687500
3804,54.687500
3805,58.593750
3806,58.593750
3807,58.593750
3808,62.500000
3809,66.406250
3810,66.406250
3811,66.406250
3812,70.312500
3813,70.312500
3814,74.218750
3815,74.218750
3816,74.218750
3817,78.125000
3818,78.125000
3819,78.125000
3820,82.031250
3821,82.031250
3822,85.937500
3823,85.937500
3824,89.843750
3825,89.843750
3826,89.843750
3827,93.750000
3828,93.750000
3829,93.750000
3830,97.656250
3831,97.656250
3832,97.656250
3833,97.656250
3834,101.562500
3835,101.562500
3836,101.562500
3837,105.468750
3838,105.468750
3839,105.468750
3840,105.468750
3841,109.375000
3842,109.375000
3843,109.375000
3844,109.375000
3845,113.281250
3846,113.281250
3847,113.281250
3848,113.281250
3849,113.281250
3850,113.281250
3851,117.187500
3852,117.187500
3853,117.187500
3854,117.187500
3855,117.187500
3856,117.187500
3857,117.187500
3858,121.093750
3859,121.093750
3860,121.093750
3861,121.093750
3862,121.093750
3863,121.093750
3864,121.093750
3865,121.093750
3866,125.000000
3867,125.000000
3868,125.000000
3869,125.000000
3870,125.000000
3871,125.000000
3872,125.000000
3873,125.000000
3874,125.000000
3875,125.000000
3876,125.000000
3877,125.000000
3878,125.000000
3879,125.000000
3880,125.000000
3881,125.000000
3882,125.000000
3883,125.000000
3884,125.000000
3885,125.000000
3886,125.000000
3887,125.000000
3888,125.000000
3889,125.000000
3890,125.000000
3891,125.000000
3892,121.093750
3893,121.093750
3894,121.093750
3895,121.093750
3896,121.093750
3897,121.093750
3898,121.093750
3899,121.093750
3900,121.093750
3901,121.093750
3902,117.187500
3903,117.187500
3904,117.187500
3905,117.187500
3906,117.187500
3907,113.281250
3908,113.281250
3909,113.281250
3910,113.281250
3911,113.281250
3912,109.375000
3913,109.375000
3914,109.375000
3915,109.375000
3916,105.468750
3917,109.375000
3918,105.468750
3919,105.468750
3920,101.562500
3921,101.562500
3922,101.562500
3923,101.562500
3924,97.656250
3925,97.656250
3926,97.656250
3927,93.750000
3928,93.750000
3929,93.750000
3930,89.843750
3931,89.843750
3932,85.937500
3933,85.937500
3934,85.937500
3935,85.937500
3936,82.031250
3937,78.125000
3938,78.125000
3939,78.125000
3940,78.125000
3941,74.218750
3942,74.218750
3943,70.312500
3944,70.312500
3945,66.406250
3946,66.406250
3947,66.406250
3948,62.500000
3949,62.500000
3950,58.593750
3951,58.593750
3952,54.687500
3953,54.687500
3954,50.781250
3955,50.781250
3956,46.875000
3957,46.875000
3958,46.875000
3959,42.968750
3960,39.062500
3961,39.062500
3962,35.156250
3963,35.156250
3964,31.250000
3965,31.250000
3966,27.343750
3967,27.343750
3968,23.437500
3969,23.437500
3970,19.531250
3971,15.625000
3972,15.625000
3973,11.718750
3974,11.718750
3975,7.812500
3976,7.812500
3977,3.906250
3978,3.906250
3979,0.000000
3980,-3.906250
3981,-3.906250
3982,-7.812500
3983,-7.812500
3984,-11.718750
3985,-15.625000
3986,-15.625000
3987,-19.531250
3988,-19.531250
3989,-23.437500
3990,-27.343750
3991,-27.343750
3992,-31.250000
3993,-31.250000
3994,-35.156250
3995,-39.062500
3996,-39.062500
3997,-42.968750
3998,-46.875000
3999,-46.875000
4000,-50.781250
4001,-50.781250
4002,-54.687500
4003,-54.687500
4004,-58.593750
4005,-62.500000
4006,-62.500000
4007,-66.406250
4008,-66.406250
4009,-70.312500
4010,-70.312500
4011,-74.218750
4012,-78.125000
4013,-78.125000
4014,-82.031250
4015,-82.031250
4016,-85.937500
4017,-85.937500
4018,-89.843750
4019,-89.843750
4020,-93.750000
4021,-97.656250
4022,-97.656250
4023,-101.562500
4024,-101.562500
4025,-105.468750
4026,-105.468750
4027,-109.375000
4028,-109.375000
4029,-113.281250
4030,-113.281250
4031,-117.187500
4032,-117.187500
4033,-121.093750
4034,-121.093750
4035,-125.000000
4036,-125.000000
4037,-128.906250
4038,-128.906250
4039,-132.812500
4040,-132.812500
4041,-132.812500
4042,-136.718750
4043,-136.718750
4044,-140.625000
4045,-140.625000
4046,-140.625000
4047,-144.531250
4048,-144.531250
4049,-144.531250
4050,-148.437500
4051,-148.437500
4052,-148.437500
4053,-152.343750
4054,-152.343750
4055,-152.343750
4056,-156.250000
4057,-156.250000
4058,-156.250000
4059,-160.156250
4060,-160.156250
4061,-160.156250
4062,-160.156250
4063,-160.156250
4064,-164.062500
4065,-164.062500
4066,-164.062500
4067,-164.062500
4068,-167.968750
4069,-167.968750
4070,-167.968750
4071,-167.968750
4072,-167.968750
4073,-167.968750
4074,-171.875000
4075,-167.968750
4076,-167.968750
4077,-171.875000
4078,-171.875000
4079,-171.875000
4080,-171.875000
4081,-171.875000
4082,-167.968750
4083,-171.875000
4084,-171.875000
4085,-171.875000
4086,-171.875000
4087,-171.875000
4088,-171.875000
4089,-171.875000
4090,-171.875000
4091,-171.875000
4092,-171.875000
4093,-171.875000
4094,-171.875000
4095,-171.875000
4096,-171.875000
4097,-167.968750
4098,-167.968750
4099,-167.968750
4100,-167.968750
4101,-167.968750
4102,-167.968750
4103,-164.062500
4104,-164.062500
4105,-164.062500
4106,-164.062500
4107,-164.062500
4108,-164.062500
4109,-160.156250
4110,-160.156250
4111,-160.156250
4112,-156.250000
4113,-160.156250
4114,-156.250000
4115,-156.250000
4116,-156.250000
4117,-152.343750
4118,-156.250000
4119,-152.343750
4120,-148.437500
4121,-148.437500
4122,-148.437500
4123,-144.531250
4124,-144.531250
4125,-140.625000
4126,-140.625000
4127,-140.625000
4128,-136.718750
4129,-136.718750
4130,-132.812500
4131,-132.812500
4132,-132.812500
4133,-132.812500
4134,-128.906250
4135,-128.906250
4136,-125.000000
4137,-121.093750
4138,-121.093750
4139,-121.093750
4140,-117.187500
4141,-117.187500
4142,-113.281250
4143,-113.281250
4144,-109.375000
4145,-109.375000
4146,-105.468750
4147,-105.468750
4148,-101.562500
4149,-97.656250
4150,-97.656250
4151,-97.656250
4152,-93.750000
4153,-93.750000
4154,-89.843750
4155,-85.937500
4156,-85.937500
4157,-82.031250
4158,-82.031250
4159,-78.125000
4160,-78.125000
4161,-74.218750
4162,-74.218750
4163,-70.312500
4164,-66.406250
4165,-66.406250
4166,-62.500000
4167,-62.500000
4168,-58.593750
4169,-54.687500
4170,-54.687500
4171,-50.781250
4172,-50.781250
4173,-46.875000
4174,-42.968750
4175,-42.968750
4176,-39.062500
4177,-39.062500
4178,-35.156250
4179,-35.156250
4180,-31.250000
4181,-31.250000
4182,-27.343750
4183,-23.437500
4184,-23.437500
4185,-19.531250
4186,-19.531250
4187,-15.625000
4188,-11.718750
4189,-11.718750
4190,-7.812500
4191,-7.812500
4192,-3.906250
4193,-3.906250
4194,0.000000
4195,0.000000
4196,3.906250
4197,7.812500
4198,7.812500
4199,11.718750
4200,11.718750
4201,15.625000
4202,19.531250
4203,23.437500
4204,23.437500
4205,23.437500
4206,27.343750
4207,27.343750
4208,31.250000
4209,31.250000
4210,35.156250
4211,35.156250
4212,39.062500
4213,39.062500
4214,42.968750
4215,42.968750
4216,46.875000
4217,46.875000
4218,50.781250
4219,50.781250
4220,54.687500
4221,54.687500
4222,58.593750
4223,58.593750
4224,62.500000
4225,62.500000
4226,62.500000
4227,66.406250
4228,66.406250
4229,70.312500
4230,70.312500
4231,74.218750
4232,74.218750
4233,74.218750
4234,78.125000
4235,78.125000
4236,82.031250
4237,82.031250
4238,82.031250
4239,85.937500
4240,85.937500
4241,85.937500
4242,89.843750
4243,89.843750
4244,89.843750
4245,93.750000
4246,93.750000
4247,93.750000
4248,97.656250
4249,97.656250
4250,97.656250
4251,101.562500
4252,101.562500
4253,101.562500
4254,101.562500
4255,105.468750
4256,105.468750
4257,105.468750
4258,109.375000
4259,109.375000
4260,109.375000
4261,109.375000
4262,109.375000
4263,113.281250
4264,113.281250
4265,113.281250
4266,113.281250
4267,113.281250
4268,117.187500
4269,117.187500
4270,117.187500
4271,117.187500
4272,117.187500
4273,117.187500
4274,117.187500
4275,121.093750
4276,121.093750
4277,121.093750
4278,121.093750
4279,121.093750
4280,121.093750
4281,125.000000
4282,121.093750
4283,125.000000
4284,125.000000
4285,125.000000
4286,125.000000
4287,125.000000
4288,125.000000
4289,125.000000
4290,125.000000
4291,125.000000
4292,125.000000
4293,125.000000
4294,125.000000
4295,125.000000
4296,125.000000
4297,125.000000
4298,125.000000
4299,125.000000
4300,125.000000
4301,125.000000
4302,125.000000
4303,125.000000
4304,125.000000
4305,125.000000
4306,125.000000
4307,125.000000
4308,121.093750
4309,121.093750
4310,121.093750
4311,121.093750
4312,121.093750
4313,121.093750
4314,121.093750
4315,121.093750
4316,121.093750
4317,121.093750
4318,117.187500
4319,117.187500
4320,117.187500
4321,117.187500
4322,117.187500
4323,117.187500
4324,113.281250
4325,113.281250
4326,113.281250
4327,113.281250
4328,113.281250
4329,109.375000
4330,109.375000
4331,109.375000
4332,109.375000
4333,109.375000
4334,105.468750
4335,105.468750
4336,105.468750
4337,105.468750
4338,101.562500
4339,101.562500
4340,101.562500
4341,97.656250
4342,97.656250
4343,97.656250
4344,93.750000
4345,93.750000
4346,89.843750
4347,89.843750
4348,89.843750
4349,89.843750
4350,85.937500
4351,85.937500
4352,85.937500
4353,82.031250
4354,82.031250
4355,78.125000
4356,78.125000
4357,74.218750
4358,74.218750
4359,74.218750
4360,70.312500
4361,70.312500
4362,66.406250
4363,66.406250
4364,66.406250
4365,62.500000
4366,62.500000
4367,58.593750
4368,58.593750
4369,54.687500
4370,54.687500
4371,50.781250
4372,50.781250
4373,46.875000
4374,46.875000
4375,42.968750
4376,42.968750
4377,39.062500
4378,39.062500
4379,35.156250
4380,35.156250
4381,31.250000
4382,31.250000
4383,27.343750
4384,27.343750
4385,23.437500
4386,23.437500
4387,19.531250
4388,15.625000
4389,15.625000
4390,11.718750
4391,11.718750
4392,7.812500
4393,3.906250
4394,3.906250
4395,0.000000
4396,0.000000
4397,-3.906250
4398,-3.906250
4399,-11.718750
4400,-11.718750
4401,-11.718750
4402,-15.625000
4403,-15.625000
4404,-19.531250
4405,-23.437500
4406,-23.437500
4407,-27.343750
4408,-27.343750
4409,-31.250000
4410,-31.250000
4411,-35.156250
4412,-39.062500
4413,-39.062500
4414,-42.968750
4415,-46.875000
4416,-46.875000
4417,-50.781250
4418,-50.781250
4419,-54.687500
4420,-54.687500
4421,-58.593750
4422,-62.500000
4423,-62.500000
4424,-66.406250
4425,-66.406250
4426,-70.312500
4427,-70.312500
4428,-74.218750
4429,-78.125000
4430,-78.125000
4431,-82.031250
4432,-82.031250
4433,-85.937500
4434,-89.843750
4435,-89.843750
4436,-93.750000
4437,-93.750000
4438,-97.656250
4439,-101.562500
4440,-101.562500
4441,-101.562500
4442,-105.468750
4443,-105.468750
4444,-109.375000
4445,-109.375000
4446,-113.281250
4447,-113.281250
4448,-117.187500
4449,-117.187500
4450,-121.093750
4451,-121.093750
4452,-125.000000
4453,-125.000000
4454,-128.906250
4455,-128.906250
4456,-132.812500
4457,-132.812500
4458,-136.718750
4459,-136.718750
4460,-136.718750
4461,-140.625000
4462,-140.625000
4463,-140.625000
4464,-144.531250
4465,-144.531250
4466,-144.531250
4467,-148.437500
4468,-148.437500
4469,-148.437500
4470,-152.343750
4471,-152.343750
4472,-156.250000
4473,-156.250000
4474,-156.250000
4475,-156.250000
4476,-160.156250
4477,-160.156250
4478,-160.156250
4479,-160.156250
4480,-160.156250
4481,-164.062500
4482,-164.062500
4483,-164.062500
4484,-164.062500
4485,-164.062500
4486,-164.062500
4487,-167.968750
4488,-167.968750
4489,-167.968750
4490,-167.968750
4491,-167.968750
4492,-167.968750
4493,-171.875000
4494,-171.875000
4495,-171.875000
4496,-171.875000
4497,-171.875000
4498,-171.875000
4499,-171.875000
4500,-171.875000
4501,-171.875000
4502,-171.875000
4503,-171.875000
4504,-171.875000
4505,-171.875000
4506,-171.875000
4507,-171.875000
4508,-171.875000
4509,-171.875000
4510,-171.875000
4511,-167.968750
4512,-167.968750
4513,-171.875000
4514,-167.968750
4515,-167.968750
4516,-167.968750
4517,-167.968750
4518,-167.968750
4519,-167.968750
4520,-167.968750
4521,-164.062500
4522,-164.062500
4523,-164.062500
4524,-160.156250
4525,-160.156250
4526,-160.156250
4527,-160.156250
4528,-160.156250
4529,-156.250000
4530,-156.250000
4531,-156.250000
4532,-156.250000
4533,-152.343750
4534,-152.343750
4535,-152.343750
4536,-148.437500
4537,-148.437500
4538,-148.437500
4539,-144.531250
4540,-144.531250
4541,-140.625000
4542,-140.625000
4543,-140.625000
4544,-136.718750
4545,-136.718750
4546,-136.718750
4547,-132.812500
4548,-132.812500
4549,-128.906250
4550,-128.906250
4551,-128.906250
4552,-125.000000
4553,-121.093750
4554,-121.093750
4555,-121.093750
4556,-117.187500
4557,-117.187500
4558,-113.281250
4559,-113.281250
4560,-109.375000
4561,-109.375000
4562,-105.468750
4563,-105.468750
4564,-101.562500
4565,-101.562500
4566,-97.656250
4567,-97.656250
4568,-93.750000
4569,-93.750000
4570,-89.843750
4571,-89.843750
4572,-85.937500
4573,-85.937500
4574,-82.031250
4575,-82.031250
4576,-78.125000
4577,-74.218750
4578,-74.218750
4579,-70.312500
4580,-70.312500
4581,-66.406250
4582,-66.406250
4583,-62.500000
4584,-58.593750
4585,-58.593750
4586,-54.687500
4587,-54.687500
4588,-50.781250
4589,-46.875000
4590,-46.875000
4591,-42.968750
4592,-42.968750
4593,-39.062500
4594,-39.062500
4595,-35.156250
4596,-31.250000
4597,-31.250000
4598,-27.343750
4599,-27.343750
4600,-23.437500
4601,-23.437500
4602,-19.531250
4603,-15.625000
4604,-15.625000
4605,-11.718750
4606,-11.718750
4607,-7.812500
4608,-3.906250
4609,-3.906250
4610,0.000000
4611,0.000000
4612,3.906250
4613,7.812500
4614,7.812500
4615,7.812500
4616,15.625000
4617,15.625000
4618,15.625000
4619,19.531250
4620,19.531250
4621,23.437500
4622,27.343750
4623,27.343750
4624,27.343750
4625,31.250000
4626,35.156250
4627,35.156250
4628,39.062500
4629,39.062500
4630,42.968750
4631,46.875000
4632,46.875000
4633,46.875000
4634,50.781250
4635,50.781250
4636,50.781250
4637,54.687500
4638,58.593750
4639,58.593750
4640,58.593750
4641,62.500000
4642,62.500000
4643,66.406250
4644,66.406250
4645,66.406250
4646,70.312500
4647,74.218750
4648,74.218750
4649,74.218750
4650,78.125000
4651,78.125000
4652,78.125000
4653,82.031250
4654,82.031250
4655,85.937500
4656,85.937500
4657,85.937500
4658,89.843750
4659,89.843750
4660,89.843750
4661,93.750000
4662,93.750000
4663,93.750000
4664,97.656250
4665,97.656250
4666,97.656250
4667,101.562500
4668,101.562500
4669,101.562500
4670,101.562500
4671,105.468750
4672,105.468750
4673,105.468750
4674,105.468750
4675,109.375000
4676,109.375000
4677,109.375000
4678,109.375000
4679,113.281250
4680,113.281250
4681,113.281250
4682,113.281250
4683,113.281250
4684,117.187500
4685,117.187500
4686,113.281250
4687,117.187500
4688,117.187500
4689,117.187500
4690,121.093750
4691,121.093750
4692,121.093750
4693,121.093750
4694,121.093750
4695,121.093750
4696,121.093750
4697,121.093750
4698,125.000000
4699,125.000000
4700,121.093750
4701,125.000000
4702,125.000000
4703,125.000000
4704,125.000000
4705,125.000000
4706,125.000000
4707,125.000000
4708,125.000000
4709,125.000000
4710,125.000000
4711,125.000000
4712,125.000000
4713,125.000000
4714,125.000000
4715,125.000000
4716,125.000000
4717,125.000000
4718,125.000000
4719,125.000000
4720,125.000000
4721,125.000000
4722,125.000000
4723,125.000000
4724,125.000000
4725,121.093750
4726,121.093750
4727,121.093750
4728,121.093750
4729,121.093750
4730,121.093750
4731,121.093750
4732,121.093750
4733,121.093750
4734,121.093750
4735,117.187500
4736,117.187500
4737,117.187500
4738,117.187500
4739,117.187500
4740,117.187500
4741,113.281250
4742,113.281250
4743,113.281250
4744,113.281250
4745,113.281250
4746,109.375000
4747,109.375000
4748,109.375000
4749,109.375000
4750,105.468750
4751,105.468750
4752,105.468750
4753,105.468750
4754,101.562500
4755,101.562500
4756,101.562500
4757,97.656250
4758,97.656250
4759,97.656250
4760,97.656250
4761,93.750000
4762,93.750000
4763,89.843750
4764,89.843750
4765,89.843750
4766,85.937500
4767,85.937500
4768,85.937500
4769,82.031250
4770,82.031250
4771,78.125000
4772,78.125000
4773,78.125000
4774,74.218750
4775,74.218750
4776,70.312500
4777,70.312500
4778,70.312500
4779,66.406250
4780,66.406250
4781,62.500000
4782,62.500000
4783,62.500000
4784,58.593750
4785,54.687500
4786,54.687500
4787,54.687500
4788,50.781250
4789,50.781250
4790,46.875000
4791,46.875000
4792,42.968750
4793,42.968750
4794,39.062500
4795,39.062500
4796,35.156250
4797,31.250000
4798,31.250000
4799,31.250000
4800,27.343750
4801,23.437500
4802,23.437500
4803,19.531250
4804,19.531250
4805,15.625000
4806,15.625000
4807,11.718750
4808,11.718750
4809,7.812500
4810,3.906250
4811,3.906250
4812,0.000000
4813,0.000000
4814,-3.906250
4815,-3.906250
4816,-7.812500
4817,-11.718750
4818,-11.718750
4819,-15.625000
4820,-19.531250
4821,-19.531250
4822,-23.437500
4823,-23.437500
4824,-27.343750
4825,-31.250000
4826,-31.250000
4827,-35.156250
4828,-35.156250
4829,-39.062500
4830,-42.968750
4831,-42.968750
4832,-46.875000
4833,-46.875000
4834,-50.781250
4835,-54.687500
4836,-54.687500
4837,-58.593750
4838,-58.593750
4839,-62.500000
4840,-66.406250
4841,-66.406250
4842,-70.312500
4843,-70.312500
4844,-74.218750
4845,-74.218750
4846,-78.125000
4847,-82.031250
4848,-82.031250
4849,-85.937500
4850,-85.937500
4851,-89.843750
4852,-89.843750
4853,-93.750000
4854,-93.750000
4855,-97.656250
4856,-101.562500
4857,-101.562500
4858,-101.562500
4859,-105.468750
4860,-109.375000
4861,-109.375000
4862,-109.375000
4863,-113.281250
4864,-117.187500
4865,-117.187500
4866,-117.187500
4867,-121.093750
4868,-121.093750
4869,-125.000000
4870,-125.000000
4871,-128.906250
4872,-128.906250
4873,-132.812500
4874,-132.812500
4875,-136.718750
4876,-136.718750
4877,-136.718750
4878,-140.625000
4879,-140.625000
4880,-144.531250
4881,-144.531250
4882,-144.531250
4883,-148.437500
4884,-148.437500
4885,-148.437500
4886,-152.343750
4887,-152.343750
4888,-152.343750
4889,-156.250000
4890,-156.250000
4891,-156.250000
4892,-160.156250
4893,-160.156250
4894,-160.156250
4895,-160.156250
4896,-164.062500
4897,-164.062500
4898,-164.062500
4899,-164.062500
4900,-164.062500
4901,-167.968750
4902,-167.968750
4903,-167.968750
4904,-167.968750
4905,-167.968750
4906,-171.875000
4907,-171.875000
4908,-171.875000
4909,-171.875000
4910,-171.875000
4911,-171.875000
4912,-171.875000
4913,-171.875000
4914,-171.875000
4915,-171.875000
4916,-171.875000
4917,-175.781250
4918,-171.875000
4919,-171.875000
4920,-171.875000
4921,-171.875000
4922,-171.875000
4923,-171.875000
4924,-171.875000
4925,-171.875000
4926,-171.875000
4927,-171.875000
4928,-167.968750
4929,-171.875000
4930,-171.875000
4931,-167.968750
4932,-167.968750
4933,-167.968750
4934,-167.968750
4935,-167.968750
4936,-167.968750
4937,-164.062500
4938,-164.062500
4939,-164.062500
4940,-164.062500
4941,-164.062500
4942,-160.156250
4943,-160.156250
4944,-160.156250
4945,-160.156250
4946,-156.250000
4947,-156.250000
4948,-156.250000
4949,-156.250000
4950,-152.343750
4951,-152.343750
4952,-152.343750
4953,-152.343750
4954,-148.437500
4955,-148.437500
4956,-148.437500
4957,-144.531250
4958,-144.531250
4959,-144.531250
4960,-140.625000
4961,-136.718750
4962,-136.718750
4963,-136.718750
4964,-132.812500
4965,-132.812500
4966,-132.812500
4967,-128.906250
4968,-128.906250
4969,-125.000000
4970,-125.000000
4971,-121.093750
4972,-121.093750
4973,-117.187500
4974,-117.187500
4975,-117.187500
4976,-113.281250
4977,-113.281250
4978,-109.375000
4979,-105.468750
4980,-105.468750
4981,-105.468750
4982,-101.562500
4983,-97.656250
4984,-97.656250
4985,-93.750000
4986,-93.750000
4987,-89.843750
4988,-89.843750
4989,-85.937500
4990,-85.937500
4991,-82.031250
4992,-82.031250
4993,-78.125000
4994,-74.218750
4995,-74.218750
4996,-74.218750
4997,-70.312500
4998,-66.406250
4999,-62.500000
5000,-62.500000
5001,-58.593750
5002,-58.593750
5003,-54.687500
5004,-54.687500
5005,-50.781250
5006,-46.875000
5007,-46.875000
5008,-42.968750
5009,-42.968750
5010,-39.062500
5011,-35.156250
5012,-35.156250
5013,-31.250000
5014,-31.250000
5015,-27.343750
5016,-27.343750
5017,-23.437500
5018,-19.531250
5019,-19.531250
5020,-15.625000
5021,-11.718750
5022,-11.718750
5023,-7.812500
5024,-7.812500
5025,-3.906250
5026,-3.906250
5027,0.000000
5028,0.000000
5029,3.906250
5030,7.812500
5031,7.812500
5032,7.812500
5033,11.718750
5034,15.625000
5035,15.625000
5036,19.531250
5037,23.437500
5038,23.437500
5039,27.343750
5040,27.343750
5041,31.250000
5042,31.250000
5043,35.156250
5044,35.156250
5045,39.062500
5046,39.062500
5047,42.968750
5048,42.968750
5049,46.875000
5050,46.875000
5051,50.781250
5052,50.781250
5053,54.687500
5054,54.687500
5055,58.593750
5056,58.593750
5057,62.500000
5058,62.500000
5059,62.500000
5060,66.406250
5061,66.406250
5062,70.312500
5063,70.312500
5064,70.312500
5065,74.218750
5066,74.218750
5067,78.125000
5068,78.125000
5069,82.031250
5070,82.031250
5071,82.031250
5072,82.031250
5073,85.937500
5074,85.937500
5075,89.843750
5076,89.843750
5077,89.843750
5078,93.750000
5079,93.750000
5080,93.750000
5081,97.656250
5082,97.656250
5083,97.656250
5084,101.562500
5085,101.562500
5086,101.562500
5087,101.562500
5088,105.468750
5089,105.468750
5090,105.468750
5091,105.468750
5092,109.375000
5093,109.375000
5094,109.375000
5095,109.375000
5096,113.281250
5097,113.281250
5098,113.281250
5099,113.281250
5100,113.281250
5101,117.187500
5102,117.187500
5103,117.187500
5104,117.187500
5105,117.187500
5106,117.187500
5107,121.093750
5108,121.093750
5109,121.093750
5110,121.093750
5111,121.093750
5112,121.093750
5113,121.093750
5114,121.093750
5115,125.000000
5116,125.000000
5117,125.000000
5118,125.000000
5119,125.000000
5120,125.000000
5121,125.000000
5122,125.000000
5123,125.000000
5124,125.000000
5125,125.000000
5126,125.000000
5127,125.000000
5128,125.000000
5129,125.000000
5130,125.000000
5131,125.000000
5132,125.000000
5133,125.000000
5134,125.000000
5135,125.000000
5136,125.000000
5137,125.000000
5138,125.000000
5139,125.000000
5140,125.000000
5141,125.000000
5142,121.093750
5143,121.093750
5144,121.093750
5145,121.093750
5146,121.093750
5147,121.093750
5148,121.093750
5149,121.093750
5150,121.093750
5151,117.187500
5152,117.187500
5153,117.187500
5154,117.187500
5155,117.187500
5156,117.187500
5157,113.281250
5158,113.281250
5159,113.281250
5160,113.281250
5161,113.281250
5162,113.281250
5163,109.375000
5164,109.375000
5165,109.375000
5166,109.375000
5167,105.468750
5168,105.468750
5169,105.468750
5170,101.562500
5171,101.562500
5172,101.562500
5173,101.562500
5174,97.656250
5175,97.656250
5176,97.656250
5177,97.656250
5178,93.750000
5179,93.750000
5180,93.750000
5181,89.843750
5182,89.843750
5183,85.937500
5184,85.937500
5185,85.937500
5186,82.031250
5187,82.031250
5188,82.031250
5189,78.125000
5190,78.125000
5191,74.218750
5192,74.218750
5193,70.312500
5194,70.312500
5195,70.312500
5196,66.406250
5197,66.406250
5198,62.500000
5199,62.500000
5200,58.593750
5201,58.593750
5202,54.687500
5203,54.687500
5204,54.687500
5205,50.781250
5206,46.875000
5207,46.875000
5208,46.875000
5209,42.968750
5210,42.968750
5211,39.062500
5212,35.156250
5213,35.156250
5214,31.250000
5215,31.250000
5216,27.343750
5217,27.343750
5218,23.437500
5219,23.437500
5220,19.531250
5221,19.531250
5222,15.625000
5223,11.718750
5224,11.718750
5225,7.812500
5226,7.812500
5227,3.906250
5228,0.000000
5229,0.000000
5230,0.000000
5231,-3.906250
5232,-7.812500
5233,-7.812500
5234,-11.718750
5235,-11.718750
5236,-15.625000
5237,-19.531250
5238,-19.531250
5239,-23.437500
5240,-27.343750
5241,-27.343750
5242,-31.250000
5243,-31.250000
5244,-35.156250
5245,-35.156250
5246,-39.062500
5247,-42.968750
5248,-42.968750
5249,-46.875000
5250,-46.875000
5251,-50.781250
5252,-54.687500
5253,-54.687500
5254,-58.593750
5255,-58.593750
5256,-62.500000
5257,-66.406250
5258,-66.406250
5259,-70.312500
5260,-70.312500
5261,-74.218750
5262,-74.218750
5263,-78.125000
5264,-82.031250
5265,-82.031250
5266,-85.937500
5267,-85.937500
5268,-89.843750
5269,-93.750000
5270,-93.750000
5271,-97.656250
5272,-97.656250
5273,-101.562500
5274,-101.562500
5275,-105.468750
5276,-105.468750
5277,-109.375000
5278,-113.281250
5279,-113.281250
5280,-113.281250
5281,-117.187500
5282,-117.187500
5283,-117.187500
5284,-121.093750
5285,-125.000000
5286,-125.000000
5287,-128.906250
5288,-128.906250
5289,-128.906250
5290,-132.812500
5291,-132.812500
5292,-132.812500
5293,-136.718750
5294,-136.718750
5295,-140.625000
5296,-140.625000
5297,-144.531250
5298,-144.531250
5299,-144.531250
5300,-148.437500
5301,-148.437500
5302,-148.437500
5303,-152.343750
5304,-152.343750
5305,-152.343750
5306,-156.250000
5307,-156.250000
5308,-156.250000
5309,-156.250000
5310,-160.156250
5311,-160.156250
5312,-160.156250
5313,-160.156250
5314,-164.062500
5315,-164.062500
5316,-164.062500
5317,-164.062500
5318,-164.062500
5319,-167.968750
5320,-167.968750
5321,-167.968750
5322,-167.968750
5323,-167.968750
5324,-167.968750
5325,-171.875000
5326,-171.875000
5327,-171.875000
5328,-171.875000
5329,-171.875000
5330,-171.875000
5331,-171.875000
5332,-171.875000
5333,-171.875000
5334,-171.875000
5335,-171.875000
5336,-171.875000
5337,-171.875000
5338,-171.875000
5339,-171.875000
5340,-171.875000
5341,-171.875000
5342,-171.875000
5343,-171.875000
5344,-171.875000
5345,-171.875000
5346,-167.968750
5347,-171.875000
5348,-167.968750
5349,-167.968750
5350,-167.968750
5351,-167.968750
5352,-167.968750
5353,-167.968750
5354,-167.968750
5355,-164.062500
5356,-164.062500
5357,-164.062500
5358,-164.062500
5359,-160.156250
5360,-160.156250
5361,-160.156250
5362,-160.156250
5363,-156.250000
5364,-156.250000
5365,-156.250000
5366,-152.343750
5367,-152.343750
5368,-152.343750
5369,-152.343750
5370,-148.437500
5371,-148.437500
5372,-144.531250
5373,-144.531250
5374,-144.531250
5375,-144.531250
5376,-140.625000
5377,-140.625000
5378,-136.718750
5379,-136.718750
5380,-136.718750
5381,-132.812500
5382,-132.812500
5383,-128.906250
5384,-128.906250
5385,-128.906250
5386,-125.000000
5387,-121.093750
5388,-121.093750
5389,-121.093750
5390,-117.187500
5391,-117.187500
5392,-113.281250
5393,-113.281250
5394,-109.375000
5395,-109.375000
5396,-101.562500
5397,-105.468750
5398,-101.562500
5399,-101.562500
5400,-97.656250
5401,-97.656250
5402,-93.750000
5403,-93.750000
5404,-89.843750
5405,-85.937500
5406,-85.937500
5407,-82.031250
5408,-82.031250
5409,-78.125000
5410,-78.125000
5411,-74.218750
5412,-74.218750
5413,-70.312500
5414,-66.406250
5415,-66.406250
5416,-62.500000
5417,-62.500000
5418,-58.593750
5419,-54.687500
5420,-54.687500
5421,-54.687500
5422,-50.781250
5423,-46.875000
5424,-46.875000
5425,-42.968750
5426,-39.062500
5427,-39.062500
5428,-35.156250
5429,-35.156250
5430,-31.250000
5431,-31.250000
5432,-27.343750
5433,-23.437500
5434,-23.437500
5435,-19.531250
5436,-19.531250
5437,-15.625000
5438,-15.625000
5439,-11.718750
5440,-7.812500
5441,-7.812500
5442,-3.906250
5443,-3.906250
5444,0.000000
5445,3.906250
5446,3.906250
5447,7.812500
5448,7.812500
5449,11.718750
5450,11.718750
5451,15.625000
5452,15.625000
5453,19.531250
5454,23.437500
5455,23.437500
5456,27.343750
5457,27.343750
5458,31.250000
5459,31.250000
5460,35.156250
5461,35.156250
5462,39.062500
5463,39.062500
5464,42.968750
5465,42.968750
5466,46.875000
5467,46.875000
5468,50.781250
5469,50.781250
5470,54.687500
5471,54.687500
5472,58.593750
5473,58.593750
5474,62.500000
5475,62.500000
5476,62.500000
5477,66.406250
5478,66.406250
5479,70.312500
5480,70.312500
5481,74.218750
5482,74.218750
5483,74.218750
5484,78.125000
5485,78.125000
5486,82.031250
5487,82.031250
5488,82.031250
5489,82.031250
5490,85.937500
5491,85.937500
5492,89.843750
5493,89.843750
5494,89.843750
5495,93.750000
5496,93.750000
5497,93.750000
5498,97.656250
5499,97.656250
5500,97.656250
5501,101.562500
5502,101.562500
5503,101.562500
5504,101.562500
5505,105.468750
5506,105.468750
5507,105.468750
5508,105.468750
5509,109.375000
5510,109.375000
5511,109.375000
5512,109.375000
5513,113.281250
5514,113.281250
5515,113.281250
5516,113.281250
5517,113.281250
5518,117.187500
5519,117.187500
5520,117.187500
5521,117.187500
5522,117.187500
5523,117.187500
5524,117.187500
5525,121.093750
5526,121.093750
5527,121.093750
5528,121.093750
5529,121.093750
5530,121.093750
5531,121.093750
5532,121.093750
5533,125.000000
5534,125.000000
5535,125.000000
5536,125.000000
5537,125.000000
5538,125.000000
5539,125.000000
5540,125.000000
5541,125.000000
5542,125.000000
5543,125.000000
5544,125.000000
5545,125.000000
5546,125.000000
5547,125.000000
5548,125.000000
5549,125.000000
5550,125.000000
5551,125.000000
5552,125.000000
5553,125.000000
5554,125.000000
5555,125.000000
5556,125.000000
5557,125.000000
5558,121.093750
5559,121.093750
5560,121.093750
5561,121.093750
5562,121.093750
5563,121.093750
5564,121.093750
5565,121.093750
5566,121.093750
5567,117.187500
5568,117.187500
5569,117.187500
5570,117.187500
5571,117.187500
5572,117.187500
5573,113.281250
5574,113.281250
5575,113.281250
5576,113.281250
5577,113.281250
5578,113.281250
5579,109.375000
5580,109.375000
5581,109.375000
5582,109.375000
5583,105.468750
5584,105.468750
5585,105.468750
5586,105.468750
5587,101.562500
5588,101.562500
5589,101.562500
5590,97.656250
5591,97.656250
5592,97.656250
5593,93.750000
5594,93.750000
5595,93.750000
5596,89.843750
5597,89.843750
5598,89.843750
5599,89.843750
5600,85.937500
5601,85.937500
5602,82.031250
5603,82.031250
5604,82.031250
5605,78.125000
5606,78.125000
5607,78.125000
5608,74.218750
5609,74.218750
5610,70.312500
5611,70.312500
5612,70.312500
5613,66.406250
5614,62.500000
5615,62.500000
5616,62.500000
5617,58.593750
5618,58.593750
5619,54.687500
5620,54.687500
5621,50.781250
5622,50.781250
5623,46.875000
5624,46.875000
5625,46.875000
5626,42.968750
5627,39.062500
5628,35.156250
5629,35.156250
5630,35.156250
5631,31.250000
5632,31.250000
5633,27.343750
5634,27.343750
5635,23.437500
5636,19.531250
5637,19.531250
5638,15.625000
5639,15.625000
5640,11.718750
5641,11.718750
5642,7.812500
5643,3.906250
5644,3.906250
5645,0.000000
5646,0.000000
5647,-3.906250
5648,-3.906250
5649,-7.812500
5650,-11.718750
5651,-11.718750
5652,-15.625000
5653,-15.625000
5654,-19.531250
5655,-23.437500
5656,-23.437500
5657,-27.343750
5658,-31.250000
5659,-31.250000
5660,-35.156250
5661,-35.156250
5662,-39.062500
5663,-42.968750
5664,-42.968750
5665,-46.875000
5666,-46.875000
5667,-50.781250
5668,-50.781250
5669,-54.687500
5670,-58.593750
5671,-58.593750
5672,-62.500000
5673,-62.500000
5674,-66.406250
5675,-70.312500
5676,-70.312500
5677,-74.218750
5678,-74.218750
5679,-78.125000
5680,-78.125000
5681,-82.031250
5682,-85.937500
5683,-85.937500
5684,-89.843750
5685,-89.843750
5686,-93.750000
5687,-93.750000
5688,-97.656250
5689,-97.656250
5690,-101.562500
5691,-105.468750
5692,-105.468750
5693,-105.468750
5694,-109.375000
5695,-109.375000
5696,-113.281250
5697,-113.281250
5698,-117.187500
5699,-117.187500
5700,-121.093750
5701,-121.093750
5702,-125.000000
5703,-125.000000
5704,-128.906250
5705,-128.906250
5706,-128.906250
5707,-132.812500
5708,-132.812500
5709,-136.718750
5710,-136.718750
5711,-136.718750
5712,-140.625000
5713,-140.625000
5714,-144.531250
5715,-144.531250
5716,-144.531250
5717,-148.437500
5718,-148.437500
5719,-148.437500
5720,-152.343750
5721,-152.343750
5722,-152.343750
5723,-156.250000
5724,-156.250000
5725,-156.250000
5726,-160.156250
5727,-160.156250
5728,-160.156250
5729,-160.156250
5730,-164.062500
5731,-164.062500
5732,-164.062500
5733,-164.062500
5734,-164.062500
5735,-164.062500
5736,-167.968750
5737,-167.968750
5738,-167.968750
5739,-167.968750
5740,-167.968750
5741,-167.968750
5742,-171.875000
5743,-171.875000
5744,-171.875000
5745,-171.875000
5746,-171.875000
5747,-171.875000
5748,-171.875000
5749,-171.875000
5750,-171.875000
5751,-171.875000
5752,-171.875000
5753,-171.875000
5754,-171.875000
5755,-171.875000
5756,-171.875000
5757,-171.875000
5758,-171.875000
5759,-171.875000
5760,-171.875000
5761,-171.875000
5762,-171.875000
5763,-171.875000
5764,-171.875000
5765,-167.968750
5766,-167.968750
5767,-167.968750
5768,-167.968750
5769,-167.968750
5770,-167.968750
5771,-164.062500
5772,-164.062500
5773,-164.062500
5774,-164.062500
5775,-164.062500
5776,-160.156250
5777,-160.156250
5778,-160.156250
5779,-160.156250
5780,-156.250000
5781,-156.250000
5782,-156.250000
5783,-152.343750
5784,-156.250000
5785,-152.343750
5786,-148.437500
5787,-148.437500
5788,-148.437500
5789,-148.437500
5790,-144.531250
5791,-144.531250
5792,-144.531250
5793,-140.625000
5794,-140.625000
5795,-136.718750
5796,-136.718750
5797,-132.812500
5798,-132.812500
5799,-132.812500
5800,-128.906250
5801,-128.906250
5802,-125.000000
5803,-125.000000
5804,-121.093750
5805,-121.093750
5806,-121.093750
5807,-117.187500
5808,-121.093750
5809,-117.187500
5810,-113.281250
5811,-109.375000
5812,-109.375000
5813,-105.468750
5814,-105.468750
5815,-101.562500
5816,-101.562500
5817,-97.656250
5818,-93.750000
5819,-93.750000
5820,-89.843750
5821,-89.843750
5822,-85.937500
5823,-85.937500
5824,-78.125000
5825,-78.125000
5826,-74.218750
5827,-74.218750
5828,-74.218750
5829,-70.312500
5830,-70.312500
5831,-66.406250
5832,-66.406250
5833,-62.500000
5834,-62.500000
5835,-58.593750
5836,-54.687500
5837,-54.687500
5838,-50.781250
5839,-50.781250
5840,-46.875000
5841,-42.968750
5842,-42.968750
5843,-39.062500
5844,-39.062500
5845,-35.156250
5846,-31.250000
5847,-31.250000
5848,-27.343750
5849,-27.343750
5850,-23.437500
5851,-23.437500
5852,-19.531250
5853,-15.625000
5854,-15.625000
5855,-11.718750
5856,-11.718750
5857,-7.812500
5858,-7.812500
5859,-3.906250
5860,0.000000
5861,0.000000
5862,3.906250
5863,3.906250
5864,7.812500
5865,7.812500
5866,11.718750
5867,15.625000
5868,15.625000
5869,19.531250
5870,23.437500
5871,23.437500
5872,23.437500
5873,27.343750
5874,27.343750
5875,31.250000
5876,35.156250
5877,31.250000
5878,35.156250
5879,39.062500
5880,39.062500
5881,42.968750
5882,42.968750
5883,46.875000
5884,46.875000
5885,50.781250
5886,54.687500
5887,54.687500
5888,58.593750
5889,58.593750
5890,62.500000
5891,62.500000
5892,62.500000
5893,66.406250
5894,66.406250
5895,70.312500
5896,70.312500
5897,70.312500
5898,74.218750
5899,74.218750
5900,78.125000
5901,78.125000
5902,78.125000
5903,82.031250
5904,82.031250
5905,85.937500
5906,85.937500
5907,85.937500
5908,89.843750
5909,89.843750
5910,93.750000
5911,93.750000
5912,93.750000
5913,93.750000
5914,97.656250
5915,97.656250
5916,97.656250
5917,97.656250
5918,101.562500
5919,101.562500
5920,101.562500
5921,105.468750
5922,105.468750
5923,105.468750
5924,105.468750
5925,109.375000
5926,109.375000
5927,109.375000
5928,109.375000
5929,109.375000
5930,113.281250
5931,113.281250
5932,113.281250
5933,113.281250
5934,117.187500
5935,117.187500
5936,117.187500
5937,117.187500
5938,117.187500
5939,117.187500
5940,117.187500
5941,121.093750
5942,121.093750
5943,121.093750
5944,121.093750
5945,121.093750
5946,121.093750
5947,121.093750
5948,125.000000
5949,125.000000
5950,125.000000
5951,125.000000
5952,125.000000
5953,125.000000
5954,125.000000
5955,125.000000
5956,125.000000
5957,125.000000
5958,125.000000
5959,125.000000
5960,125.000000
5961,125.000000
5962,125.000000
5963,125.000000
5964,125.000000
5965,125.000000
5966,125.000000
5967,125.000000
5968,125.000000
5969,125.000000
5970,125.000000
5971,125.000000
5972,125.000000
5973,125.000000
5974,125.000000
5975,121.093750
5976,121.093750
5977,121.093750
5978,121.093750
5979,121.093750
5980,121.093750
5981,121.093750
5982,121.093750
5983,121.093750
5984,121.093750
5985,117.187500
5986,117.187500
5987,117.187500
5988,117.187500
5989,117.187500
5990,113.281250
5991,113.281250
5992,109.375000
5993,113.281250
5994,113.281250
5995,109.375000
5996,109.375000
5997,109.375000
5998,109.375000
5999,109.375000
6000,105.468750
6001,105.468750
6002,105.468750
6003,105.468750
6004,101.562500
6005,101.562500
6006,101.562500
6007,101.562500
6008,97.656250
6009,97.656250
6010,97.656250
6011,93.750000
6012,93.750000
6013,93.750000
6014,89.843750
6015,89.843750
6016,85.937500
6017,85.937500
6018,85.937500
6019,82.031250
6020,82.031250
6021,82.031250
6022,78.125000
6023,78.125000
6024,74.218750
6025,74.218750
6026,74.218750
6027,70.312500
6028,70.312500
6029,66.406250
6030,62.500000
6031,62.500000
6032,62.500000
6033,62.500000
6034,58.593750
6035,58.593750
6036,54.687500
6037,54.687500
6038,50.781250
6039,50.781250
6040,46.875000
6041,46.875000
6042,42.968750
6043,42.968750
6044,39.062500
6045,39.062500
6046,35.156250
6047,35.156250
6048,31.250000
6049,31.250000
6050,27.343750
6051,23.437500
6052,23.437500
6053,19.531250
6054,19.531250
6055,15.625000
6056,11.718750
6057,11.718750
6058,7.812500
6059,7.812500
6060,3.906250
6061,3.906250
6062,0.000000
6063,-3.906250
6064,-3.906250
6065,-3.906250
6066,-7.812500
6067,-11.718750
6068,-11.718750
6069,-15.625000
6070,-15.625000
6071,-19.531250
6072,-23.437500
6073,-23.437500
6074,-27.343750
6075,-31.250000
6076,-31.250000
6077,-35.156250
6078,-35.156250
6079,-39.062500
6080,-39.062500
6081,-42.968750
6082,-46.875000
6083,-46.875000
6084,-50.781250
6085,-54.687500
6086,-54.687500
6087,-58.593750
6088,-58.593750
6089,-62.500000
6090,-62.500000
6091,-66.406250
6092,-70.312500
6093,-70.312500
6094,-74.218750
6095,-74.218750
6096,-78.125000
6097,-78.125000
6098,-82.031250
6099,-82.031250
6100,-85.937500
6101,-89.843750
6102,-89.843750
6103,-93.750000
6104,-93.750000
6105,-97.656250
6106,-97.656250
6107,-101.562500
6108,-101.562500
6109,-105.468750
6110,-109.375000
6111,-109.375000
6112,-113.281250
6113,-113.281250
6114,-113.281250
6115,-117.187500
6116,-121.093750
6117,-121.093750
6118,-121.093750
6119,-125.000000
6120,-125.000000
6121,-128.906250
6122,-128.906250
6123,-132.812500
6124,-132.812500
6125,-136.718750
6126,-136.718750
6127,-136.718750
6128,-140.625000
6129,-140.625000
6130,-140.625000
6131,-144.531250
6132,-148.437500
6133,-148.437500
6134,-148.437500
6135,-148.437500
6136,-152.343750
6137,-152.343750
6138,-152.343750
6139,-152.343750
6140,-156.250000
6141,-156.250000
6142,-156.250000
6143,-160.156250
6144,-160.156250
6145,-160.156250
6146,-160.156250
6147,-164.062500
6148,-164.062500
6149,-164.062500
6150,-164.062500
6151,-164.062500
6152,-167.968750
6153,-167.968750
6154,-167.968750
6155,-167.968750
6156,-167.968750
6157,-167.968750
6158,-171.875000
6159,-171.875000
6160,-171.875000
6161,-171.875000
6162,-171.875000
6163,-171.875000
6164,-171.875000
6165,-171.875000
6166,-171.875000
6167,-171.875000
6168,-171.875000
6169,-171.875000
6170,-171.875000
6171,-171.875000
6172,-171.875000
6173,-171.875000
6174,-171.875000
6175,-171.875000
6176,-171.875000
6177,-171.875000
6178,-171.875000
6179,-171.875000
6180,-171.875000
6181,-171.875000
6182,-167.968750
6183,-167.968750
6184,-167.968750
6185,-167.968750
6186,-167.968750
6187,-167.968750
6188,-164.062500
6189,-164.062500
6190,-164.062500
6191,-164.062500
6192,-164.062500
6193,-160.156250
6194,-160.156250
6195,-160.156250
6196,-156.250000
6197,-156.250000
6198,-156.250000
6199,-156.250000
6200,-156.250000
6201,-152.343750
6202,-152.343750
6203,-148.437500
6204,-148.437500
6205,-148.437500
6206,-148.437500
6207,-144.531250
6208,-144.531250
6209,-144.531250
6210,-140.625000
6211,-140.625000
6212,-136.718750
6213,-136.718750
6214,-132.812500
6215,-132.812500
6216,-132.812500
6217,-132.812500
6218,-128.906250
6219,-125.000000
6220,-125.000000
6221,-121.093750
6222,-121.093750
6223,-117.187500
6224,-117.187500
6225,-113.281250
6226,-113.281250
6227,-113.281250
6228,-109.375000
6229,-105.468750
6230,-105.468750
6231,-105.468750
6232,-101.562500
6233,-97.656250
6234,-97.656250
6235,-93.750000
6236,-93.750000
6237,-89.843750
6238,-89.843750
6239,-85.937500
6240,-85.937500
6241,-82.031250
6242,-82.031250
6243,-78.125000
6244,-78.125000
6245,-74.218750
6246,-70.312500
6247,-70.312500
6248,-66.406250
6249,-62.500000
6250,-62.500000
6251,-58.593750
6252,-58.593750
6253,-54.687500
6254,-54.687500
6255,-50.781250
6256,-50.781250
6257,-46.875000
6258,-42.968750
6259,-42.968750
6260,-39.062500
6261,-35.156250
6262,-35.156250
6263,-31.250000
6264,-31.250000
6265,-27.343750
6266,-27.343750
6267,-23.437500
6268,-19.531250
6269,-19.531250
6270,-15.625000
6271,-15.625000
6272,-11.718750
6273,-7.812500
6274,-7.812500
6275,-3.906250
6276,-3.906250
6277,0.000000
6278,3.906250
6279,3.906250
6280,7.812500
6281,7.812500
6282,11.718750
6283,11.718750
6284,15.625000
6285,19.531250
6286,19.531250
6287,23.437500
6288,23.437500
6289,27.343750
6290,27.343750
6291,31.250000
6292,31.250000
6293,35.156250
6294,35.156250
6295,39.062500
6296,39.062500
6297,42.968750
6298,42.968750
6299,46.875000
6300,46.875000
6301,50.781250
6302,50.781250
6303,54.687500
6304,54.687500
6305,54.687500
6306,58.593750
6307,58.593750
6308,62.500000
6309,62.500000
6310,66.406250
6311,66.406250
6312,70.312500
6313,70.312500
6314,70.312500
6315,74.218750
6316,74.218750
6317,78.125000
6318,78.125000
6319,78.125000
6320,82.031250
6321,82.031250
6322,82.031250
6323,85.937500
6324,85.937500
6325,89.843750
6326,89.843750
6327,89.843750
6328,93.750000
6329,93.750000
6330,93.750000
6331,93.750000
6332,97.656250
6333,97.656250
6334,97.656250
6335,101.562500
6336,101.562500
6337,101.562500
6338,105.468750
6339,105.468750
6340,105.468750
6341,105.468750
6342,109.375000
6343,109.375000
6344,109.375000
6345,109.375000
6346,109.375000
6347,113.281250
6348,113.281250
6349,113.281250
6350,113.281250
6351,117.187500
6352,117.187500
6353,117.187500
6354,117.187500
6355,117.187500
6356,117.187500
6357,117.187500
6358,121.093750
6359,121.093750
6360,121.093750
6361,121.093750
6362,121.093750
6363,121.093750
6364,121.093750
6365,121.093750
6366,125.000000
6367,125.000000
6368,125.000000
6369,125.000000
6370,125.000000
6371,125.000000
6372,125.000000
6373,125.000000
6374,125.000000
6375,125.000000
6376,125.000000
6377,125.000000
6378,125.000000
6379,125.000000
6380,125.000000
6381,125.000000
6382,125.000000
6383,125.000000
6384,125.000000
6385,125.000000
6386,125.000000
6387,125.000000
6388,125.000000
6389,125.000000
6390,125.000000
6391,125.000000
6392,121.093750
6393,121.093750
6394,117.187500
6395,121.093750
6396,121.093750
6397,121.093750
6398,121.093750
6399,121.093750
6400,121.093750
6401,117.187500
6402,117.187500
6403,117.187500
6404,117.187500
6405,117.187500
6406,117.187500
6407,117.187500
6408,113.281250
6409,113.281250
6410,113.281250
6411,113.281250
6412,109.375000
6413,109.375000
6414,109.375000
6415,109.375000
6416,109.375000
6417,105.468750
6418,105.468750
6419,105.468750
6420,105.468750
6421,101.562500
6422,101.562500
6423,101.562500
6424,97.656250
6425,97.656250
6426,97.656250
6427,97.656250
6428,93.750000
6429,93.750000
6430,89.843750
6431,89.843750
6432,89.843750
6433,85.937500
6434,85.937500
6435,85.937500
6436,78.125000
6437,82.031250
6438,78.125000
6439,78.125000
6440,78.125000
6441,74.218750
6442,74.218750
6443,70.312500
6444,70.312500
6445,66.406250
6446,66.406250
6447,66.406250
6448,62.500000
6449,62.500000
6450,58.593750
6451,58.593750
6452,54.687500
6453,54.687500
6454,50.781250
6455,50.781250
6456,46.875000
6457,46.875000
6458,46.875000
6459,42.968750
6460,39.062500
6461,39.062500
6462,35.156250
6463,35.156250
6464,31.250000
6465,31.250000
6466,27.343750
6467,23.437500
6468,23.437500
6469,23.437500
6470,19.531250
6471,19.531250
6472,15.625000
6473,11.718750
6474,11.718750
6475,7.812500
6476,7.812500
6477,3.906250
6478,3.906250
6479,0.000000
6480,0.000000
6481,-3.906250
6482,-7.812500
6483,-7.812500
6484,-11.718750
6485,-15.625000
6486,-15.625000
6487,-19.531250
6488,-19.531250
6489,-23.437500
6490,-27.343750
6491,-27.343750
6492,-27.343750
6493,-31.250000
6494,-35.156250
6495,-39.062500
6496,-39.062500
6497,-42.968750
6498,-42.968750
6499,-46.875000
6500,-46.875000
6501,-50.781250
6502,-54.687500
6503,-54.687500
6504,-58.593750
6505,-62.500000
6506,-62.500000
6507,-66.406250
6508,-66.406250
6509,-70.312500
6510,-70.312500
6511,-74.218750
6512,-78.125000
6513,-78.125000
6514,-82.031250
6515,-82.031250
6516,-85.937500
6517,-85.937500
6518,-89.843750
6519,-89.843750
6520,-93.750000
6521,-97.656250
6522,-97.656250
6523,-101.562500
6524,-101.562500
6525,-105.468750
6526,-105.468750
6527,-109.375000
6528,-109.375000
6529,-113.281250
6530,-113.281250
6531,-117.187500
6532,-117.187500
6533,-121.093750
6534,-121.093750
6535,-121.093750
6536,-125.000000
6537,-125.000000
6538,-128.906250
6539,-128.906250
6540,-132.812500
6541,-132.812500
6542,-136.718750
6543,-136.718750
6544,-136.718750
6545,-136.718750
6546,-140.625000
6547,-140.625000
6548,-144.531250
6549,-144.531250
6550,-148.437500
6551,-148.437500
6552,-148.437500
6553,-148.437500
6554,-152.343750
6555,-152.343750
6556,-152.343750
6557,-156.250000
6558,-156.250000
6559,-156.250000
6560,-156.250000
6561,-160.156250
6562,-160.156250
6563,-160.156250
6564,-160.156250
6565,-164.062500
6566,-164.062500
6567,-164.062500
6568,-164.062500
6569,-164.062500
6570,-167.968750
6571,-167.968750
6572,-167.968750
6573,-167.968750
6574,-167.968750
6575,-167.968750
6576,-167.968750
6577,-167.968750
6578,-171.875000
6579,-171.875000
6580,-171.875000
6581,-171.875000
6582,-171.875000
6583,-171.875000
6584,-171.875000
6585,-171.875000
6586,-171.875000
6587,-171.875000
6588,-171.875000
6589,-171.875000
6590,-171.875000
6591,-171.875000
6592,-171.875000
6593,-171.875000
6594,-171.875000
6595,-167.968750
6596,-167.968750
6597,-167.968750
6598,-167.968750
6599,-167.968750
6600,-167.968750
6601,-167.968750
6602,-164.062500
6603,-164.062500
6604,-164.062500
6605,-164.062500
6606,-164.062500
6607,-160.156250
6608,-160.156250
6609,-160.156250
6610,-160.156250
6611,-160.156250
6612,-156.250000
6613,-156.250000
6614,-156.250000
6615,-156.250000
6616,-152.343750
6617,-152.343750
6618,-152.343750
6619,-148.437500
6620,-148.437500
6621,-148.437500
6622,-148.437500
6623,-144.531250
6624,-144.531250
6625,-144.531250
6626,-140.625000
6627,-140.625000
6628,-136.718750
6629,-136.718750
6630,-136.718750
6631,-132.812500
6632,-132.812500
6633,-132.812500
6634,-128.906250
6635,-125.000000
6636,-125.000000
6637,-125.000000
6638,-121.093750
6639,-121.093750
6640,-117.187500
6641,-113.281250
6642,-113.281250
6643,-113.281250
6644,-113.281250
6645,-109.375000
6646,-105.468750
6647,-105.468750
6648,-101.562500
6649,-101.562500
6650,-97.656250
6651,-97.656250
6652,-93.750000
6653,-93.750000
6654,-89.843750
6655,-85.937500
6656,-85.937500
6657,-82.031250
6658,-82.031250
6659,-78.125000
6660,-78.125000
6661,-74.218750
6662,-70.312500
6663,-70.312500
6664,-70.312500
6665,-66.406250
6666,-62.500000
6667,-62.500000
6668,-58.593750
6669,-54.687500
6670,-54.687500
6671,-50.781250
6672,-50.781250
6673,-46.875000
6674,-46.875000
6675,-42.968750
6676,-39.062500
6677,-39.062500
6678,-35.156250
6679,-31.250000
6680,-31.250000
6681,-27.343750
6682,-27.343750
6683,-23.437500
6684,-23.437500
6685,-19.531250
6686,-15.625000
6687,-15.625000
6688,-11.718750
6689,-11.718750
6690,-11.718750
6691,-7.812500
6692,-3.906250
6693,0.000000
6694,0.000000
6695,3.906250
6696,3.906250
6697,7.812500
6698,7.812500
6699,11.718750
6700,11.718750
6701,15.625000
6702,19.531250
6703,19.531250
6704,23.437500
6705,23.437500
6706,27.343750
6707,27.343750
6708,31.250000
6709,31.250000
6710,35.156250
6711,35.156250
6712,39.062500
6713,39.062500
6714,42.968750
6715,46.875000
6716,46.875000
6717,46.875000
6718,50.781250
6719,50.781250
6720,54.687500
6721,54.687500
6722,58.593750
6723,58.593750
6724,62.500000
6725,62.500000
6726,66.406250
6727,66.406250
6728,66.406250
6729,70.312500
6730,70.312500
6731,74.218750
6732,74.218750
6733,78.125000
6734,78.125000
6735,82.031250
6736,82.031250
6737,82.031250
6738,82.031250
6739,85.937500
6740,85.937500
6741,89.843750
6742,89.843750
6743,89.843750
6744,93.750000
6745,93.750000
6746,93.750000
6747,93.750000
6748,97.656250
6749,97.656250
6750,97.656250
6751,101.562500
6752,101.562500
6753,101.562500
6754,105.468750
6755,101.562500
6756,105.468750
6757,105.468750
6758,109.375000
6759,109.375000
6760,109.375000
6761,109.375000
6762,113.281250
6763,113.281250
6764,113.281250
6765,113.281250
6766,113.281250
6767,117.187500
6768,117.187500
6769,117.187500
6770,117.187500
6771,117.187500
6772,117.187500
6773,117.187500
6774,121.093750
6775,121.093750
6776,121.093750
6777,121.093750
6778,121.093750
6779,121.093750
6780,121.093750
6781,121.093750
6782,125.000000
6783,125.000000
6784,125.000000
6785,125.000000
6786,125.000000
6787,125.000000
6788,125.000000
6789,125.000000
6790,125.000000
6791,125.000000
6792,125.000000
6793,125.000000
6794,125.000000
6795,125.000000
6796,125.000000
6797,125.000000
6798,125.000000
6799,125.000000
6800,125.000000
6801,125.000000
6802,125.000000
6803,125.000000
6804,125.000000
6805,125.000000
6806,125.000000
6807,125.000000
6808,125.000000
6809,121.093750
6810,121.093750
6811,121.093750
6812,121.093750
6813,121.093750
6814,121.093750
6815,121.093750
6816,121.093750
6817,121.093750
6818,117.187500
6819,117.187500
6820,117.187500
6821,117.187500
6822,117.187500
6823,117.187500
6824,113.281250
6825,113.281250
6826,113.281250
6827,113.281250
6828,113.281250
6829,109.375000
6830,109.375000
6831,109.375000
6832,109.375000
6833,109.375000
6834,105.468750
6835,105.468750
6836,105.468750
6837,101.562500
6838,101.562500
6839,101.562500
6840,97.656250
6841,97.656250
6842,97.656250
6843,97.656250
6844,93.750000
6845,93.750000
6846,93.750000
6847,89.843750
6848,89.843750
6849,89.843750
6850,85.937500
6851,85.937500
6852,82.031250
6853,82.031250
6854,82.031250
6855,82.031250
6856,78.125000
6857,78.125000
6858,74.218750
6859,74.218750
6860,70.312500
6861,70.312500
6862,70.312500
6863,66.406250
6864,66.406250
6865,62.500000
6866,62.500000
6867,58.593750
6868,58.593750
6869,54.687500
6870,54.687500
6871,50.781250
6872,50.781250
6873,46.875000
6874,46.875000
6875,42.968750
6876,42.968750
6877,39.062500
6878,39.062500
6879,35.156250
6880,35.156250
6881,31.250000
6882,31.250000
6883,27.343750
6884,27.343750
6885,23.437500
6886,19.531250
6887,19.531250
6888,15.625000
6889,15.625000
6890,11.718750
6891,11.718750
6892,7.812500
6893,3.906250
6894,3.906250
6895,0.000000
6896,0.000000
6897,-3.906250
6898,-3.906250
6899,-7.812500
6900,-11.718750
6901,-11.718750
6902,-15.625000
6903,-15.625000
6904,-19.531250
6905,-19.531250
6906,-23.437500
6907,-27.343750
6908,-27.343750
6909,-31.250000
6910,-35.156250
6911,-35.156250
6912,-39.062500
6913,-39.062500
6914,-42.968750
6915,-42.968750
6916,-46.875000
6917,-46.875000
6918,-50.781250
6919,-54.687500
6920,-54.687500
6921,-58.593750
6922,-58.593750
6923,-62.500000
6924,-66.406250
6925,-66.406250
6926,-70.312500
6927,-70.312500
6928,-74.218750
6929,-78.125000
6930,-78.125000
6931,-82.031250
6932,-82.031250
6933,-85.937500
6934,-85.937500
6935,-89.843750
6936,-93.750000
6937,-93.750000
6938,-93.750000
6939,-97.656250
6940,-101.562500
6941,-101.562500
6942,-105.468750
6943,-105.468750
6944,-109.375000
6945,-109.375000
6946,-113.281250
6947,-113.281250
6948,-117.187500
6949,-117.187500
6950,-121.093750
6951,-121.093750
6952,-125.000000
6953,-125.000000
6954,-125.000000
6955,-128.906250
6956,-132.812500
6957,-132.812500
6958,-132.812500
6959,-136.718750
6960,-136.718750
6961,-136.718750
6962,-140.625000
6963,-140.625000
6964,-140.625000
6965,-144.531250
6966,-144.531250
6967,-148.437500
6968,-148.437500
6969,-148.437500
6970,-152.343750
6971,-152.343750
6972,-152.343750
6973,-152.343750
6974,-156.250000
6975,-156.250000
6976,-156.250000
6977,-160.156250
6978,-160.156250
6979,-160.156250
6980,-160.156250
6981,-164.062500
6982,-164.062500
6983,-164.062500
6984,-164.062500
6985,-164.062500
6986,-167.968750
6987,-167.968750
6988,-167.968750
6989,-167.968750
6990,-167.968750
6991,-167.968750
6992,-167.968750
6993,-171.875000
6994,-167.968750
6995,-171.875000
6996,-171.875000
6997,-171.875000
6998,-171.875000
6999,-171.875000
7000,-171.875000
7001,-171.875000
7002,-171.875000
7003,-171.875000
7004,-171.875000
7005,-171.875000
7006,-171.875000
7007,-171.875000
7008,-171.875000
7009,-171.875000
7010,-171.875000
7011,-171.875000
7012,-171.875000
7013,-171.875000
7014,-167.968750
7015,-167.968750
7016,-167.968750
7017,-167.968750
7018,-167.968750
7019,-167.968750
7020,-164.062500
7021,-164.062500
7022,-164.062500
7023,-164.062500
7024,-164.062500
7025,-164.062500
7026,-160.156250
7027,-160.156250
7028,-160.156250
7029,-160.156250
7030,-156.250000
7031,-156.250000
7032,-152.343750
7033,-152.343750
7034,-152.343750
7035,-152.343750
7036,-152.343750
7037,-148.437500
7038,-148.437500
7039,-144.531250
7040,-144.531250
7041,-144.531250
7042,-144.531250
7043,-140.625000
7044,-140.625000
7045,-136.718750
7046,-136.718750
7047,-136.718750
7048,-132.812500
7049,-132.812500
7050,-128.906250
7051,-128.906250
7052,-125.000000
7053,-125.000000
7054,-125.000000
7055,-121.093750
7056,-117.187500
7057,-117.187500
7058,-117.187500
7059,-113.281250
7060,-113.281250
7061,-109.375000
7062,-109.375000
7063,-105.468750
7064,-105.468750
7065,-101.562500
7066,-101.562500
7067,-97.656250
7068,-97.656250
7069,-93.750000
7070,-93.750000
7071,-89.843750
7072,-85.937500
7073,-85.937500
7074,-82.031250
7075,-82.031250
7076,-78.125000
7077,-78.125000
7078,-74.218750
7079,-74.218750
7080,-70.312500
7081,-66.406250
7082,-66.406250
7083,-62.500000
7084,-62.500000
7085,-58.593750
7086,-54.687500
7087,-54.687500
7088,-50.781250
7089,-50.781250
7090,-46.875000
7091,-42.968750
7092,-42.968750
7093,-39.062500
7094,-39.062500
7095,-35.156250
7096,-35.156250
7097,-31.250000
7098,-27.343750
7099,-27.343750
7100,-23.437500
7101,-23.437500
7102,-19.531250
7103,-15.625000
7104,-15.625000
7105,-11.718750
7106,-11.718750
7107,-7.812500
7108,-7.812500
7109,-3.906250
7110,0.000000
7111,0.000000
7112,3.906250
7113,3.906250
7114,7.812500
7115,7.812500
7116,11.718750
7117,15.625000
7118,15.625000
7119,19.531250
7120,19.531250
7121,23.437500
7122,23.437500
7123,27.343750
7124,27.343750
7125,31.250000
7126,31.250000
7127,35.156250
7128,39.062500
7129,39.062500
7130,39.062500
7131,42.968750
7132,46.875000
7133,46.875000
7134,46.875000
7135,50.781250
7136,54.687500
7137,54.687500
7138,54.687500
7139,58.593750
7140,58.593750
7141,62.500000
7142,62.500000
7143,66.406250
7144,66.406250
7145,66.406250
7146,70.312500
7147,70.312500
7148,74.218750
7149,74.218750
7150,78.125000
7151,78.125000
7152,78.125000
7153,78.125000
7154,82.031250
7155,85.937500
7156,85.937500
7157,85.937500
7158,89.843750
7159,89.843750
7160,89.843750
7161,89.843750
7162,93.750000
7163,93.750000
7164,93.750000
7165,97.656250
7166,97.656250
7167,97.656250
7168,101.562500
7169,101.562500
7170,101.562500
7171,101.562500
7172,105.468750
7173,105.468750
7174,105.468750
7175,109.375000
7176,109.375000
7177,109.375000
7178,109.375000
7179,109.375000
7180,113.281250
7181,113.281250
7182,113.281250
7183,113.281250
7184,117.187500
7185,117.187500
7186,117.187500
7187,117.187500
7188,117.187500
7189,117.187500
7190,121.093750
7191,121.093750
7192,121.093750
7193,121.093750
7194,121.093750
7195,121.093750
7196,121.093750
7197,121.093750
7198,121.093750
7199,121.093750
7200,121.093750
7201,125.000000
7202,125.000000
7203,125.000000
7204,125.000000
7205,125.000000
7206,125.000000
7207,125.000000
7208,125.000000
7209,125.000000
7210,125.000000
7211,125.000000
7212,125.000000
7213,125.000000
7214,125.000000
7215,125.000000
7216,125.000000
7217,125.000000
7218,125.000000
7219,125.000000
7220,125.000000
7221,125.000000
7222,125.000000
7223,125.000000
7224,125.000000
7225,121.093750
7226,125.000000
7227,121.093750
7228,121.093750
7229,121.093750
7230,125.000000
7231,121.093750
7232,121.093750
7233,121.093750
7234,121.093750
7235,117.187500
7236,117.187500
7237,117.187500
7238,117.187500
7239,117.187500
7240,117.187500
7241,113.281250
7242,113.281250
7243,113.281250
7244,113.281250
7245,109.375000
7246,109.375000
7247,109.375000
7248,109.375000
7249,109.375000
7250,105.468750
7251,105.468750
7252,105.468750
7253,105.468750
7254,105.468750
7255,105.468750
7256,101.562500
7257,101.562500
7258,97.656250
7259,97.656250
7260,93.750000
7261,93.750000
7262,93.750000
7263,93.750000
7264,89.843750
7265,89.843750
7266,85.937500
7267,85.937500
7268,85.937500
7269,82.031250
7270,82.031250
7271,82.031250
7272,78.125000
7273,78.125000
7274,74.218750
7275,74.218750
7276,74.218750
7277,70.312500
7278,70.312500
7279,66.406250
7280,66.406250
7281,62.500000
7282,62.500000
7283,62.500000
7284,58.593750
7285,58.593750
7286,54.687500
7287,54.687500
7288,50.781250
7289,50.781250
7290,46.875000
7291,46.875000
7292,46.875000
7293,42.968750
7294,42.968750
7295,39.062500
7296,35.156250
7297,35.156250
7298,31.250000
7299,31.250000
7300,27.343750
7301,27.343750
7302,23.437500
7303,23.437500
7304,19.531250
7305,15.625000
7306,15.625000
7307,11.718750
7308,11.718750
7309,7.812500
7310,7.812500
7311,3.906250
7312,3.906250
7313,0.000000
7314,-3.906250
7315,-3.906250
7316,-7.812500
7317,-7.812500
7318,-11.718750
7319,-15.625000
7320,-15.625000
7321,-19.531250
7322,-19.531250
7323,-23.437500
7324,-27.343750
7325,-27.343750
7326,-31.250000
7327,-35.156250
7328,-35.156250
7329,-39.062500
7330,-39.062500
7331,-42.968750
7332,-46.875000
7333,-46.875000
7334,-50.781250
7335,-50.781250
7336,-54.687500
7337,-58.593750
7338,-58.593750
7339,-62.500000
7340,-62.500000
7341,-66.406250
7342,-70.312500
7343,-70.312500
7344,-74.218750
7345,-74.218750
7346,-78.125000
7347,-74.218750
7348,-82.031250
7349,-82.031250
7350,-85.937500
7351,-89.843750
7352,-89.843750
7353,-93.750000
7354,-93.750000
7355,-97.656250
7356,-97.656250
7357,-101.562500
7358,-105.468750
7359,-105.468750
7360,-105.468750
7361,-109.375000
7362,-109.375000
7363,-113.281250
7364,-113.281250
7365,-117.187500
7366,-117.187500
7367,-121.093750
7368,-121.093750
7369,-125.000000
7370,-125.000000
7371,-128.906250
7372,-128.906250
7373,-132.812500
7374,-132.812500
7375,-132.812500
7376,-136.718750
7377,-136.718750
7378,-136.718750
7379,-140.625000
7380,-140.625000
7381,-144.531250
7382,-144.531250
7383,-144.531250
7384,-148.437500
7385,-148.437500
7386,-148.437500
7387,-152.343750
7388,-152.343750
7389,-152.343750
7390,-156.250000
7391,-156.250000
7392,-156.250000
7393,-156.250000
7394,-160.156250
7395,-160.156250
7396,-160.156250
7397,-164.062500
7398,-164.062500
7399,-164.062500
7400,-164.062500
7401,-164.062500
7402,-167.968750
7403,-167.968750
7404,-167.968750
7405,-167.968750
7406,-167.968750
7407,-167.968750
7408,-167.968750
7409,-167.968750
7410,-171.875000
7411,-171.875000
7412,-171.875000
7413,-171.875000
7414,-171.875000
7415,-171.875000
7416,-171.875000
7417,-171.875000
7418,-171.875000
7419,-171.875000
7420,-171.875000
7421,-171.875000
7422,-171.875000
7423,-171.875000
7424,-171.875000
7425,-171.875000
7426,-171.875000
7427,-171.875000
7428,-171.875000
7429,-171.875000
7430,-167.968750
7431,-167.968750
7432,-167.968750
7433,-167.968750
7434,-167.968750
7435,-167.968750
7436,-167.968750
7437,-164.062500
7438,-164.062500
7439,-164.062500
7440,-164.062500
7441,-160.156250
7442,-160.156250
7443,-160.156250
7444,-160.156250
7445,-160.156250
7446,-156.250000
7447,-156.250000
7448,-156.250000
7449,-156.250000
7450,-152.343750
7451,-152.343750
7452,-152.343750
7453,-148.437500
7454,-148.437500
7455,-144.531250
7456,-144.531250
7457,-144.531250
7458,-144.531250
7459,-140.625000
7460,-140.625000
7461,-136.718750
7462,-136.718750
7463,-136.718750
7464,-132.812500
7465,-132.812500
7466,-128.906250
7467,-128.906250
7468,-128.906250
7469,-125.000000
7470,-125.000000
7471,-121.093750
7472,-121.093750
7473,-117.187500
7474,-117.187500
7475,-113.281250
7476,-113.281250
7477,-109.375000
7478,-109.375000
7479,-105.468750
7480,-105.468750
7481,-101.562500
7482,-101.562500
7483,-97.656250
7484,-97.656250
7485,-93.750000
7486,-93.750000
7487,-89.843750
7488,-89.843750
7489,-85.937500
7490,-85.937500
7491,-82.031250
7492,-78.125000
7493,-78.125000
7494,-78.125000
7495,-74.218750
7496,-70.312500
7497,-70.312500
7498,-66.406250
7499,-62.500000
7500,-62.500000
7501,-58.593750
7502,-58.593750
7503,-54.687500
7504,-50.781250
7505,-50.781250
7506,-50.781250
7507,-46.875000
7508,-42.968750
7509,-39.062500
7510,-39.062500
7511,-35.156250
7512,-35.156250
7513,-31.250000
7514,-31.250000
7515,-27.343750
7516,-27.343750
7517,-23.437500
7518,-19.531250
7519,-19.531250
7520,-15.625000
7521,-11.718750
7522,-11.718750
7523,-11.718750
7524,-7.812500
7525,-3.906250
7526,-3.906250
7527,0.000000
7528,0.000000
7529,3.906250
7530,3.906250
7531,7.812500
7532,11.718750
7533,11.718750
7534,15.625000
7535,15.625000
7536,19.531250
7537,19.531250
7538,23.437500
7539,27.343750
7540,27.343750
7541,31.250000
7542,31.250000
7543,31.250000
7544,35.156250
7545,39.062500
7546,39.062500
7547,39.062500
7548,42.968750
7549,42.968750
7550,46.875000
7551,50.781250
7552,50.781250
7553,54.687500
7554,54.687500
7555,54.687500
7556,58.593750
7557,58.593750
7558,62.500000
7559,62.500000
7560,66.406250
7561,66.406250
7562,66.406250
7563,70.312500
7564,74.218750
7565,74.218750
7566,74.218750
7567,78.125000
7568,78.125000
7569,78.125000
7570,82.031250
7571,85.937500
7572,85.937500
7573,85.937500
7574,89.843750
7575,89.843750
7576,89.843750
7577,89.843750
7578,93.750000
7579,93.750000
7580,93.750000
7581,93.750000
7582,97.656250
7583,97.656250
7584,101.562500
7585,101.562500
7586,101.562500
7587,101.562500
7588,105.468750
7589,105.468750
7590,105.468750
7591,109.375000
7592,109.375000
7593,109.375000
7594,109.375000
7595,109.375000
7596,109.375000
7597,113.281250
7598,113.281250
7599,113.281250
7600,113.281250
7601,117.187500
7602,117.187500
7603,117.187500
7604,117.187500
7605,117.187500
7606,117.187500
7607,121.093750
7608,121.093750
7609,121.093750
7610,121.093750
7611,121.093750
7612,121.093750
7613,125.000000
7614,121.093750
7615,121.093750
7616,121.093750
7617,121.093750
7618,125.000000
7619,125.000000
7620,125.000000
7621,125.000000
7622,125.000000
7623,125.000000
7624,125.000000
7625,125.000000
7626,125.000000
7627,125.000000
7628,125.000000
7629,125.000000
7630,125.000000
7631,125.000000
7632,125.000000
7633,125.000000
7634,125.000000
7635,125.000000
7636,125.000000
7637,125.000000
7638,125.000000
7639,125.000000
7640,125.000000
7641,125.000000
7642,125.000000
7643,125.000000
7644,121.093750
7645,121.093750
7646,121.093750
7647,121.093750
7648,121.093750
7649,121.093750
7650,121.093750
7651,117.187500
7652,117.187500
7653,117.187500
7654,117.187500
7655,117.187500
7656,117.187500
7657,113.281250
7658,113.281250
7659,113.281250
7660,113.281250
7661,113.281250
7662,109.375000
7663,109.375000
7664,109.375000
7665,109.375000
7666,109.375000
7667,105.468750
7668,105.468750
7669,105.468750
7670,101.562500
7671,101.562500
7672,101.562500
7673,101.562500
7674,97.656250
7675,97.656250
7676,97.656250
7677,93.750000
7678,93.750000
7679,93.750000
7680,89.843750
7681,89.843750
7682,89.843750
7683,85.937500
7684,85.937500
7685,85.937500
7686,82.031250
7687,82.031250
7688,78.125000
7689,78.125000
7690,78.125000
7691,74.218750
7692,74.218750
7693,74.218750
7694,70.312500
7695,70.312500
7696,66.406250
7697,66.406250
7698,62.500000
7699,62.500000
7700,58.593750
7701,58.593750
7702,58.593750
7703,54.687500
7704,50.781250
7705,50.781250
7706,50.781250
7707,46.875000
7708,46.875000
7709,42.968750
7710,42.968750
7711,39.062500
7712,39.062500
7713,35.156250
7714,31.250000
7715,31.250000
7716,27.343750
7717,27.343750
7718,23.437500
7719,23.437500
7720,19.531250
7721,15.625000
7722,15.625000
7723,15.625000
7724,11.718750
7725,7.812500
7726,7.812500
7727,3.906250
7728,0.000000
7729,0.000000
7730,0.000000
7731,-3.906250
7732,-7.812500
7733,-7.812500
7734,-11.718750
7735,-15.625000
7736,-15.625000
7737,-19.531250
7738,-19.531250
7739,-23.437500
7740,-27.343750
7741,-27.343750
7742,-31.250000
7743,-31.250000
7744,-35.156250
7745,-35.156250
7746,-39.062500
7747,-42.968750
7748,-42.968750
7749,-46.875000
7750,-50.781250
7751,-50.781250
7752,-54.687500
7753,-54.687500
7754,-58.593750
7755,-58.593750
7756,-62.500000
7757,-66.406250
7758,-66.406250
7759,-70.312500
7760,-70.312500
7761,-74.218750
7762,-74.218750
7763,-78.125000
7764,-78.125000
7765,-82.031250
7766,-85.937500
7767,-85.937500
7768,-89.843750
7769,-89.843750
7770,-93.750000
7771,-93.750000
7772,-97.656250
7773,-101.562500
7774,-101.562500
7775,-101.562500
7776,-105.468750
7777,-105.468750
7778,-109.375000
7779,-109.375000
7780,-113.281250
7781,-117.187500
7782,-117.187500
7783,-117.187500
7784,-121.093750
7785,-121.093750
7786,-125.000000
7787,-125.000000
7788,-128.906250
7789,-128.906250
7790,-132.812500
7791,-132.812500
7792,-136.718750
7793,-136.718750
7794,-136.718750
7795,-140.625000
7796,-140.625000
7797,-140.625000
7798,-144.531250
7799,-144.531250
7800,-148.437500
7801,-148.437500
7802,-148.437500
7803,-148.437500
7804,-152.343750
7805,-152.343750
7806,-156.250000
7807,-156.250000
7808,-156.250000
7809,-156.250000
7810,-156.250000
7811,-160.156250
7812,-160.156250
7813,-160.156250
7814,-164.062500
7815,-164.062500
7816,-164.062500
7817,-164.062500
7818,-164.062500
7819,-164.062500
7820,-164.062500
7821,-167.968750
7822,-167.968750
7823,-167.968750
7824,-167.968750
7825,-167.968750
7826,-171.875000
7827,-171.875000
7828,-171.875000
7829,-171.875000
7830,-171.875000
7831,-171.875000
7832,-171.875000
7833,-171.875000
7834,-171.875000
7835,-171.875000
7836,-171.875000
7837,-171.875000
7838,-171.875000
7839,-171.875000
7840,-171.875000
7841,-171.875000
7842,-171.875000
7843,-171.875000
7844,-171.875000
7845,-167.968750
7846,-171.875000
7847,-167.968750
7848,-167.968750
7849,-167.968750
7850,-167.968750
7851,-167.968750
7852,-167.968750
7853,-167.968750
7854,-164.062500
7855,-164.062500
7856,-164.062500
7857,-164.062500
7858,-160.156250
7859,-160.156250
7860,-160.156250
7861,-160.156250
7862,-160.156250
7863,-156.250000
7864,-156.250000
7865,-156.250000
7866,-156.250000
7867,-152.343750
7868,-152.343750
7869,-152.343750
7870,-148.437500
7871,-148.437500
7872,-148.437500
7873,-144.531250
7874,-144.531250
7875,-144.531250
7876,-140.625000
7877,-140.625000
7878,-136.718750
7879,-136.718750
7880,-136.718750
7881,-132.812500
7882,-132.812500
7883,-128.906250
7884,-128.906250
7885,-128.906250
7886,-125.000000
7887,-125.000000
7888,-121.093750
7889,-121.093750
7890,-117.187500
7891,-117.187500
7892,-113.281250
7893,-113.281250
7894,-109.375000
7895,-109.375000
7896,-105.468750
7897,-105.468750
7898,-101.562500
7899,-101.562500
7900,-97.656250
7901,-97.656250
7902,-93.750000
7903,-93.750000
7904,-89.843750
7905,-89.843750
7906,-85.937500
7907,-85.937500
7908,-78.125000
7909,-78.125000
7910,-78.125000
7911,-74.218750
7912,-74.218750
7913,-70.312500
7914,-70.312500
7915,-66.406250
7916,-62.500000
7917,-62.500000
7918,-58.593750
7919,-58.593750
7920,-54.687500
7921,-54.687500
7922,-50.781250
7923,-46.875000
7924,-46.875000
7925,-42.968750
7926,-42.968750
7927,-39.062500
7928,-35.156250
7929,-35.156250
7930,-31.250000
7931,-27.343750
7932,-27.343750
7933,-23.437500
7934,-23.437500
7935,-19.531250
7936,-19.531250
7937,-15.625000
7938,-11.718750
7939,-11.718750
7940,-7.812500
7941,-7.812500
7942,-3.906250
7943,-3.906250
7944,0.000000
7945,3.906250
7946,3.906250
7947,3.906250
7948,7.812500
7949,11.718750
7950,11.718750
7951,15.625000
7952,15.625000
7953,19.531250
7954,19.531250
7955,23.437500
7956,27.343750
7957,27.343750
7958,27.343750
7959,31.250000
7960,35.156250
7961,35.156250
7962,39.062500
7963,39.062500
7964,42.968750
7965,42.968750
7966,46.875000
7967,46.875000
7968,50.781250
7969,50.781250
7970,54.687500
7971,54.687500
7972,58.593750
7973,58.593750
7974,58.593750
7975,62.500000
7976,62.500000
7977,66.406250
7978,66.406250
7979,70.312500
7980,70.312500
7981,74.218750
7982,74.218750
7983,74.218750
7984,78.125000
7985,78.125000
7986,82.031250
7987,82.031250
7988,82.031250
7989,85.937500
7990,85.937500
7991,85.937500
7992,89.843750
7993,89.843750
7994,89.843750
7995,93.750000
7996,93.750000
7997,93.750000
7998,97.656250
7999,97.656250
8000,97.656250
8001,101.562500
8002,101.562500
8003,101.562500
8004,101.562500
8005,105.468750
8006,105.468750
8007,105.468750
8008,105.468750
8009,109.375000
8010,109.375000
8011,109.375000
8012,109.375000
8013,113.281250
8014,113.281250
8015,113.281250
8016,113.281250
8017,113.281250
8018,117.187500
8019,117.187500
8020,117.187500
8021,117.187500
8022,117.187500
8023,121.093750
8024,121.093750
8025,121.093750
8026,121.093750
8027,121.093750
8028,121.093750
8029,121.093750
8030,121.093750
8031,121.093750
8032,121.093750
8033,125.000000
8034,125.000000
8035,125.000000
8036,125.000000
8037,121.093750
8038,125.000000
8039,125.000000
8040,125.000000
8041,125.000000
8042,125.000000
8043,125.000000
8044,125.000000
8045,125.000000
8046,125.000000
8047,125.000000
8048,125.000000
8049,125.000000
8050,125.000000
8051,125.000000
8052,125.000000
8053,125.000000
8054,125.000000
8055,125.000000
8056,125.000000
8057,125.000000
8058,121.093750
8059,125.000000
8060,121.093750
8061,121.093750
8062,121.093750
8063,121.093750
8064,121.093750
8065,121.093750
8066,121.093750
8067,121.093750
8068,117.187500
8069,117.187500
8070,117.187500
8071,117.187500
8072,117.187500
8073,117.187500
8074,113.281250
8075,113.281250
8076,113.281250
8077,113.281250
8078,113.281250
8079,113.281250
8080,109.375000
8081,109.375000
8082,109.375000
8083,109.375000
8084,105.468750
8085,105.468750
8086,105.468750
8087,105.468750
8088,101.562500
8089,101.562500
8090,97.656250
8091,97.656250
8092,97.656250
8093,97.656250
8094,97.656250
8095,93.750000
8096,93.750000
8097,89.843750
8098,89.843750
8099,89.843750
8100,85.937500
8101,85.937500
8102,85.937500
8103,82.031250
8104,82.031250
8105,82.031250
8106,78.125000
8107,78.125000
8108,74.218750
8109,74.218750
8110,74.218750
8111,70.312500
8112,70.312500
8113,66.406250
8114,66.406250
8115,62.500000
8116,62.500000
8117,58.593750
8118,58.593750
8119,54.687500
8120,54.687500
8121,50.781250
8122,50.781250
8123,50.781250
8124,46.875000
8125,42.968750
8126,42.968750
8127,39.062500
8128,39.062500
8129,35.156250
8130,35.156250
8131,31.250000
8132,31.250000
8133,27.343750
8134,27.343750
8135,23.437500
8136,23.437500
8137,19.531250
8138,15.625000
8139,15.625000
8140,11.718750
8141,11.718750
8142,7.812500
8143,7.812500
8144,3.906250
8145,0.000000
8146,0.000000
8147,-3.906250
8148,-3.906250
8149,-7.812500
8150,-7.812500
8151,-11.718750
8152,-11.718750
8153,-15.625000
8154,-19.531250
8155,-19.531250
8156,-23.437500
8157,-23.437500
8158,-27.343750
8159,-31.250000
8160,-31.250000
8161,-35.156250
8162,-35.156250
8163,-39.062500
8164,-42.968750
8165,-42.968750
8166,-46.875000
8167,-46.875000
8168,-50.781250
8169,-54.687500
8170,-54.687500
8171,-58.593750
8172,-58.593750
8173,-62.500000
8174,-66.406250
8175,-66.406250
8176,-70.312500
8177,-74.218750
8178,-74.218750
8179,-78.125000
8180,-78.125000
8181,-82.031250
8182,-82.031250
8183,-85.937500
8184,-89.843750
8185,-89.843750
8186,-93.750000
8187,-93.750000
8188,-97.656250
8189,-97.656250
8190,-101.562500
8191,-101.562500
8192,-105.468750
8193,-105.468750
8194,-109.375000
8195,-109.375000
8196,-113.281250
8197,-113.281250
8198,-117.187500
8199,-117.187500
8200,-121.093750
8201,-121.093750
8202,-125.000000
8203,-125.000000
8204,-125.000000
8205,-128.906250
8206,-128.906250
8207,-132.812500
8208,-132.812500
8209,-136.718750
8210,-136.718750
8211,-136.718750
8212,-140.625000
8213,-140.625000
8214,-144.531250
8215,-144.531250
8216,-144.531250
8217,-144.531250
8218,-148.437500
8219,-148.437500
8220,-152.343750
8221,-152.343750
8222,-152.343750
8223,-152.343750
8224,-156.250000
8225,-156.250000
8226,-156.250000
8227,-160.156250
8228,-160.156250
8229,-160.156250
8230,-160.156250
8231,-164.062500
8232,-164.062500
8233,-164.062500
8234,-164.062500
8235,-164.062500
8236,-167.968750
8237,-167.968750
8238,-167.968750
8239,-167.968750
8240,-167.968750
8241,-167.968750
8242,-167.968750
8243,-171.875000
8244,-171.875000
8245,-171.875000
8246,-171.875000
8247,-171.875000
8248,-171.875000
8249,-171.875000
8250,-171.875000
8251,-171.875000
8252,-171.875000
8253,-171.875000
8254,-171.875000
8255,-171.875000
8256,-171.875000
8257,-171.875000
8258,-171.875000
8259,-171.875000
8260,-171.875000
8261,-171.875000
8262,-171.875000
8263,-171.875000
8264,-171.875000
8265,-167.968750
8266,-167.968750
8267,-167.968750
8268,-167.968750
8269,-167.968750
8270,-167.968750
8271,-164.062500
8272,-164.062500
8273,-164.062500
8274,-164.062500
8275,-160.156250
8276,-160.156250
8277,-160.156250
8278,-160.156250
8279,-160.156250
8280,-156.250000
8281,-156.250000
8282,-156.250000
8283,-152.343750
8284,-152.343750
8285,-152.343750
8286,-148.437500
8287,-148.437500
8288,-148.437500
8289,-144.531250
8290,-144.531250
8291,-144.531250
8292,-144.531250
8293,-140.625000
8294,-140.625000
8295,-136.718750
8296,-136.718750
8297,-136.718750
8298,-132.812500
8299,-132.812500
8300,-132.812500
8301,-128.906250
8302,-125.000000
8303,-125.000000
8304,-121.093750
8305,-121.093750
8306,-117.187500
8307,-117.187500
8308,-117.187500
8309,-113.281250
8310,-113.281250
8311,-109.375000
8312,-109.375000
8313,-105.468750
8314,-105.468750
8315,-101.562500
8316,-101.562500
8317,-97.656250
8318,-89.843750
8319,-93.750000
8320,-93.750000
8321,-89.843750
8322,-89.843750
8323,-85.937500
8324,-82.031250
8325,-82.031250
8326,-78.125000
8327,-78.125000
8328,-74.218750
8329,-74.218750
8330,-70.312500
8331,-66.406250
8332,-66.406250
8333,-62.500000
8334,-62.500000
8335,-58.593750
8336,-54.687500
8337,-54.687500
8338,-50.781250
8339,-50.781250
8340,-46.875000
8341,-46.875000
8342,-42.968750
8343,-39.062500
8344,-39.062500
8345,-35.156250
8346,-35.156250
8347,-31.250000
8348,-27.343750
8349,-27.343750
8350,-23.437500
8351,-19.531250
8352,-19.531250
8353,-19.531250
8354,-15.625000
8355,-11.718750
8356,-11.718750
8357,-7.812500
8358,-7.812500
8359,-3.906250
8360,0.000000
8361,0.000000
8362,3.906250
8363,3.906250
8364,7.812500
8365,7.812500
8366,11.718750
8367,11.718750
8368,15.625000
8369,19.531250
8370,19.531250
8371,23.437500
8372,23.437500
8373,23.437500
8374,27.343750
8375,31.250000
8376,31.250000
8377,35.156250
8378,35.156250
8379,39.062500
8380,39.062500
8381,42.968750
8382,42.968750
8383,46.875000
8384,46.875000
8385,50.781250
8386,50.781250
8387,54.687500
8388,54.687500
8389,54.687500
8390,58.593750
8391,62.500000
8392,62.500000
8393,62.500000
8394,66.406250
8395,66.406250
8396,70.312500
8397,70.312500
8398,74.218750
8399,74.218750
8400,74.218750
8401,78.125000
8402,78.125000
8403,78.125000
8404,82.031250
8405,82.031250
8406,85.937500
8407,85.937500
8408,85.937500
8409,89.843750
8410,89.843750
8411,89.843750
8412,93.750000
8413,93.750000
8414,97.656250
8415,97.656250
8416,97.656250
8417,97.656250
8418,101.562500
8419,101.562500
8420,101.562500
8421,105.468750
8422,105.468750
8423,105.468750
8424,105.468750
8425,109.375000
8426,109.375000
8427,109.375000
8428,109.375000
8429,109.375000
8430,113.281250
8431,113.281250
8432,113.281250
8433,113.281250
8434,117.187500
8435,113.281250
8436,117.187500
8437,117.187500
8438,117.187500
8439,117.187500
8440,117.187500
8441,121.093750
8442,121.093750
8443,121.093750
8444,121.093750
8445,121.093750
8446,121.093750
8447,121.093750
8448,121.093750
8449,121.093750
8450,121.093750
8451,125.000000
8452,125.000000
8453,125.000000
8454,125.000000
8455,125.000000
8456,125.000000
8457,125.000000
8458,125.000000
8459,125.000000
8460,125.000000
8461,125.000000
8462,125.000000
8463,125.000000
8464,125.000000
8465,125.000000
8466,125.000000
8467,125.000000
8468,125.000000
8469,125.000000
8470,125.000000
8471,125.000000
8472,125.000000
8473,125.000000
8474,125.000000
8475,125.000000
8476,125.000000
8477,125.000000
8478,121.093750
8479,121.093750
8480,121.093750
8481,121.093750
8482,121.093750
8483,121.093750
8484,121.093750
8485,117.187500
8486,117.187500
8487,117.187500
8488,117.187500
8489,117.187500
8490,117.187500
8491,113.281250
8492,113.281250
8493,113.281250
8494,113.281250
8495,109.375000
8496,109.375000
8497,109.375000
8498,109.375000
8499,109.375000
8500,105.468750
8501,109.375000
8502,105.468750
8503,101.562500
8504,101.562500
8505,101.562500
8506,101.562500
8507,97.656250
8508,97.656250
8509,97.656250
8510,97.656250
8511,93.750000
8512,93.750000
8513,89.843750
8514,89.843750
8515,89.843750
8516,89.843750
8517,85.937500
8518,85.937500
8519,85.937500
8520,82.031250
8521,82.031250
8522,78.125000
8523,78.125000
8524,74.218750
8525,74.218750
8526,74.218750
8527,70.312500
8528,70.312500
8529,66.406250
8530,66.406250
8531,62.500000
8532,62.500000
8533,62.500000
8534,58.593750
8535,58.593750
8536,54.687500
8537,54.687500
8538,50.781250
8539,50.781250
8540,46.875000
8541,46.875000
8542,42.968750
8543,42.968750
8544,39.062500
8545,39.062500
8546,35.156250
8547,35.156250
8548,31.250000
8549,31.250000
8550,27.343750
8551,27.343750
8552,23.437500
8553,23.437500
8554,19.531250
8555,15.625000
8556,15.625000
8557,11.718750
8558,7.812500
8559,7.812500
8560,3.906250
8561,3.906250
8562,0.000000
8563,0.000000
8564,-3.906250
8565,-3.906250
8566,-7.812500
8567,-11.718750
8568,-11.718750
8569,-15.625000
8570,-19.531250
8571,-19.531250
8572,-23.437500
8573,-23.437500
8574,-27.343750
8575,-31.250000
8576,-31.250000
8577,-35.156250
8578,-35.156250
8579,-39.062500
8580,-39.062500
8581,-42.968750
8582,-46.875000
8583,-46.875000
8584,-50.781250
8585,-50.781250
8586,-54.687500
8587,-58.593750
8588,-58.593750
8589,-62.500000
8590,-62.500000
8591,-66.406250
8592,-66.406250
8593,-70.312500
8594,-74.218750
8595,-74.218750
8596,-78.125000
8597,-78.125000
8598,-82.031250
8599,-85.937500
8600,-85.937500
8601,-89.843750
8602,-89.843750
8603,-93.750000
8604,-93.750000
8605,-97.656250
8606,-97.656250
8607,-101.562500
8608,-101.562500
8609,-105.468750
8610,-109.375000
8611,-109.375000
8612,-109.375000
8613,-113.281250
8614,-113.281250
8615,-117.187500
8616,-117.187500
8617,-121.093750
8618,-121.093750
8619,-125.000000
8620,-125.000000
8621,-128.906250
8622,-128.906250
8623,-128.906250
8624,-132.812500
8625,-132.812500
8626,-136.718750
8627,-136.718750
8628,-140.625000
8629,-140.625000
8630,-140.625000
8631,-144.531250
8632,-144.531250
8633,-148.437500
8634,-148.437500
8635,-148.437500
8636,-148.437500
8637,-152.343750
8638,-152.343750
8639,-152.343750
8640,-156.250000
8641,-156.250000
8642,-156.250000
8643,-160.156250
8644,-160.156250
8645,-160.156250
8646,-160.156250
8647,-164.062500
8648,-160.156250
8649,-164.062500
8650,-164.062500
8651,-164.062500
8652,-164.062500
8653,-167.968750
8654,-167.968750
8655,-167.968750
8656,-167.968750
8657,-167.968750
8658,-167.968750
8659,-171.875000
8660,-167.968750
8661,-167.968750
8662,-171.875000
8663,-171.875000
8664,-171.875000
8665,-171.875000
8666,-171.875000
8667,-171.875000
8668,-171.875000
8669,-171.875000
8670,-171.875000
8671,-171.875000
8672,-171.875000
8673,-171.875000
8674,-171.875000
8675,-171.875000
8676,-171.875000
8677,-171.875000
8678,-171.875000
8679,-167.968750
8680,-167.968750
8681,-167.968750
8682,-167.968750
8683,-167.968750
8684,-167.968750
8685,-167.968750
8686,-164.062500
8687,-164.062500
8688,-164.062500
8689,-164.062500
8690,-164.062500
8691,-164.062500
8692,-160.156250
8693,-160.156250
8694,-160.156250
8695,-160.156250
8696,-156.250000
8697,-156.250000
8698,-156.250000
8699,-156.250000
8700,-156.250000
8701,-156.250000
8702,-152.343750
8703,-148.437500
8704,-148.437500
8705,-148.437500
8706,-144.531250
8707,-144.531250
8708,-144.531250
8709,-140.625000
8710,-140.625000
8711,-140.625000
8712,-136.718750
8713,-136.718750
8714,-136.718750
8715,-132.812500
8716,-128.906250
8717,-128.906250
8718,-128.906250
8719,-128.906250
8720,-125.000000
8721,-125.000000
8722,-121.093750
8723,-121.093750
8724,-117.187500
8725,-117.187500
8726,-113.281250
8727,-113.281250
8728,-109.375000
8729,-109.375000
8730,-105.468750
8731,-101.562500
8732,-101.562500
8733,-101.562500
8734,-97.656250
8735,-97.656250
8736,-93.750000
8737,-89.843750
8738,-89.843750
8739,-89.843750
8740,-85.937500
8741,-82.031250
8742,-82.031250
8743,-78.125000
8744,-78.125000
8745,-74.218750
8746,-74.218750
8747,-70.312500
8748,-66.406250
8749,-66.406250
8750,-62.500000
8751,-62.500000
8752,-58.593750
8753,-54.687500
8754,-54.687500
8755,-50.781250
8756,-50.781250
8757,-46.875000
8758,-42.968750
8759,-42.968750
8760,-39.062500
8761,-39.062500
8762,-35.156250
8763,-35.156250
8764,-31.250000
8765,-27.343750
8766,-27.343750
8767,-23.437500
8768,-23.437500
8769,-19.531250
8770,-15.625000
8771,-15.625000
8772,-11.718750
8773,-11.718750
8774,-7.812500
8775,-11.718750
8776,-3.906250
8777,0.000000
8778,0.000000
8779,3.906250
8780,3.906250
8781,7.812500
8782,7.812500
8783,11.718750
8784,15.625000
8785,15.625000
8786,19.531250
8787,19.531250
8788,23.437500
8789,23.437500
8790,27.343750
8791,31.250000
8792,31.250000
8793,31.250000
8794,35.156250
8795,35.156250
8796,39.062500
8797,42.968750
8798,42.968750
8799,46.875000
8800,46.875000
8801,46.875000
8802,50.781250
8803,50.781250
8804,54.687500
8805,54.687500
8806,58.593750
8807,58.593750
8808,62.500000
8809,62.500000
8810,66.406250
8811,66.406250
8812,66.406250
8813,70.312500
8814,70.312500
8815,74.218750
8816,74.218750
8817,78.125000
8818,78.125000
8819,78.125000
8820,82.031250
8821,82.031250
8822,82.031250
8823,85.937500
8824,85.937500
8825,89.843750
8826,89.843750
8827,89.843750
8828,93.750000
8829,93.750000
8830,93.750000
8831,97.656250
8832,97.656250
8833,97.656250
8834,101.562500
8835,101.562500
8836,101.562500
8837,101.562500
8838,105.468750
8839,105.468750
8840,105.468750
8841,105.468750
8842,109.375000
8843,109.375000
8844,109.375000
8845,109.375000
8846,113.281250
8847,113.281250
8848,113.281250
8849,113.281250
8850,117.187500
8851,117.187500
8852,117.187500
8853,117.187500
8854,117.187500
8855,117.187500
8856,117.187500
8857,121.093750
8858,121.093750
8859,121.093750
8860,121.093750
8861,121.093750
8862,121.093750
8863,121.093750
8864,121.093750
8865,125.000000
8866,125.000000
8867,125.000000
8868,125.000000
8869,125.000000
8870,125.000000
8871,125.000000
8872,125.000000
8873,125.000000
8874,125.000000
8875,125.000000
8876,125.000000
8877,125.000000
8878,125.000000
8879,125.000000
8880,125.000000
8881,125.000000
8882,125.000000
8883,125.000000
8884,125.000000
8885,125.000000
8886,125.000000
8887,125.000000
8888,125.000000
8889,125.000000
8890,125.000000
8891,125.000000
8892,125.000000
8893,121.093750
8894,121.093750
8895,121.093750
8896,121.093750
8897,121.093750
8898,121.093750
8899,121.093750
8900,121.093750
8901,117.187500
8902,117.187500
8903,117.187500
8904,117.187500
8905,117.187500
8906,117.187500
8907,113.281250
8908,113.281250
8909,113.281250
8910,113.281250
8911,113.281250
8912,109.375000
8913,109.375000
8914,109.375000
8915,109.375000
8916,109.375000
8917,105.468750
8918,105.468750
8919,105.468750
8920,105.468750
8921,101.562500
8922,101.562500
8923,97.656250
8924,97.656250
8925,97.656250
8926,97.656250
8927,93.750000
8928,93.750000
8929,93.750000
8930,89.843750
8931,89.843750
8932,89.843750
8933,85.937500
8934,85.937500
8935,85.937500
8936,82.031250
8937,82.031250
8938,82.031250
8939,82.031250
8940,78.125000
8941,74.218750
8942,74.218750
8943,74.218750
8944,70.312500
8945,70.312500
8946,66.406250
8947,66.406250
8948,62.500000
8949,62.500000
8950,58.593750
8951,58.593750
8952,58.593750
8953,54.687500
8954,54.687500
8955,50.781250
8956,50.781250
8957,46.875000
8958,46.875000
8959,42.968750
8960,42.968750
8961,39.062500
8962,39.062500
8963,35.156250
8964,31.250000
8965,31.250000
8966,27.343750
8967,27.343750
8968,23.437500
8969,23.437500
8970,19.531250
8971,19.531250
8972,15.625000
8973,15.625000
8974,11.718750
8975,7.812500
8976,7.812500
8977,3.906250
8978,3.906250
8979,0.000000
8980,0.000000
8981,-3.906250
8982,-7.812500
8983,-7.812500
8984,-11.718750
8985,-11.718750
8986,-15.625000
8987,-19.531250
8988,-19.531250
8989,-23.437500
8990,-23.437500
8991,-27.343750
8992,-27.343750
8993,-31.250000
8994,-35.156250
8995,-35.156250
8996,-39.062500
8997,-39.062500
8998,-42.968750
8999,-46.875000
9000,-46.875000
9001,-50.781250
9002,-50.781250
9003,-54.687500
9004,-58.593750
9005,-58.593750
9006,-62.500000
9007,-62.500000
9008,-66.406250
9009,-70.312500
9010,-70.312500
9011,-74.218750
9012,-74.218750
9013,-78.125000
9014,-82.031250
9015,-82.031250
9016,-85.937500
9017,-85.937500
9018,-89.843750
9019,-89.843750
9020,-93.750000
9021,-93.750000
9022,-97.656250
9023,-101.562500
9024,-101.562500
9025,-101.562500
9026,-105.468750
9027,-109.375000
9028,-109.375000
9029,-109.375000
9030,-113.281250
9031,-113.281250
9032,-117.187500
9033,-117.187500
9034,-121.093750
9035,-121.093750
9036,-125.000000
9037,-125.000000
9038,-128.906250
9039,-128.906250
9040,-132.812500
9041,-132.812500
9042,-136.718750
9043,-136.718750
9044,-140.625000
9045,-140.625000
9046,-140.625000
9047,-140.625000
9048,-144.531250
9049,-144.531250
9050,-148.437500
9051,-148.437500
9052,-148.437500
9053,-152.343750
9054,-152.343750
9055,-152.343750
9056,-152.343750
9057,-156.250000
9058,-156.250000
9059,-156.250000
9060,-156.250000
9061,-160.156250
9062,-160.156250
9063,-160.156250
9064,-160.156250
9065,-164.062500
9066,-164.062500
9067,-164.062500
9068,-167.968750
9069,-164.062500
9070,-167.968750
9071,-167.968750
9072,-167.968750
9073,-167.968750
9074,-167.968750
9075,-167.968750
9076,-171.875000
9077,-167.968750
9078,-171.875000
9079,-171.875000
9080,-171.875000
9081,-171.875000
9082,-171.875000
9083,-171.875000
9084,-171.875000
9085,-171.875000
9086,-171.875000
9087,-171.875000
9088,-171.875000
9089,-171.875000
9090,-171.875000
9091,-171.875000
9092,-171.875000
9093,-171.875000
9094,-171.875000
9095,-171.875000
9096,-171.875000
9097,-171.875000
9098,-171.875000
9099,-167.968750
9100,-167.968750
9101,-167.968750
9102,-167.968750
9103,-167.968750
9104,-167.968750
9105,-164.062500
9106,-164.062500
9107,-164.062500
9108,-164.062500
9109,-164.062500
9110,-160.156250
9111,-160.156250
9112,-160.156250
9113,-156.250000
9114,-156.250000
9115,-156.250000
9116,-156.250000
9117,-152.343750
9118,-152.343750
9119,-152.343750
9120,-148.437500
9121,-148.437500
9122,-148.437500
9123,-148.437500
9124,-144.531250
9125,-144.531250
9126,-140.625000
9127,-140.625000
9128,-140.625000
9129,-136.718750
9130,-136.718750
9131,-136.718750
9132,-132.812500
9133,-132.812500
9134,-128.906250
9135,-128.906250
9136,-125.000000
9137,-125.000000
9138,-125.000000
9139,-121.093750
9140,-121.093750
9141,-117.187500
9142,-113.281250
9143,-113.281250
9144,-113.281250
9145,-109.375000
9146,-109.375000
9147,-105.468750
9148,-105.468750
9149,-101.562500
9150,-97.656250
9151,-97.656250
9152,-97.656250
9153,-93.750000
9154,-89.843750
9155,-89.843750
9156,-85.937500
9157,-85.937500
9158,-82.031250
9159,-82.031250
9160,-78.125000
9161,-78.125000
9162,-74.218750
9163,-70.312500
9164,-70.312500
9165,-66.406250
9166,-66.406250
9167,-62.500000
9168,-62.500000
9169,-58.593750
9170,-54.687500
9171,-54.687500
9172,-50.781250
9173,-46.875000
9174,-46.875000
9175,-42.968750
9176,-42.968750
9177,-39.062500
9178,-39.062500
9179,-35.156250
9180,-31.250000
9181,-31.250000
9182,-27.343750
9183,-23.437500
9184,-23.437500
9185,-19.531250
9186,-19.531250
9187,-15.625000
9188,-15.625000
9189,-11.718750
9190,-11.718750
9191,-7.812500
9192,-3.906250
9193,-3.906250
9194,0.000000
9195,0.000000
9196,3.906250
9197,3.906250
9198,7.812500
9199,11.718750
9200,11.718750
9201,15.625000
9202,15.625000
9203,19.531250
9204,19.531250
9205,23.437500
9206,27.343750
9207,27.343750
9208,31.250000
9209,31.250000
9210,31.250000
9211,35.156250
9212,39.062500
9213,39.062500
9214,39.062500
9215,42.968750
9216,46.875000
9217,46.875000
9218,50.781250
9219,50.781250
9220,54.687500
9221,54.687500
9222,54.687500
9223,58.593750
9224,58.593750
9225,62.500000
9226,62.500000
9227,66.406250
9228,66.406250
9229,70.312500
9230,70.312500
9231,70.312500
9232,74.218750
9233,74.218750
9234,78.125000
9235,78.125000
9236,78.125000
9237,82.031250
9238,82.031250
9239,85.937500
9240,85.937500
9241,85.937500
9242,89.843750
9243,89.843750
9244,89.843750
9245,93.750000
9246,93.750000
9247,93.750000
9248,97.656250
9249,97.656250
9250,97.656250
9251,97.656250
9252,101.562500
9253,101.562500
9254,105.468750
9255,105.468750
9256,105.468750
9257,105.468750
9258,109.375000
9259,109.375000
9260,109.375000
9261,109.375000
9262,109.375000
9263,109.375000
9264,113.281250
9265,113.281250
9266,113.281250
9267,113.281250
9268,113.281250
9269,117.187500
9270,117.187500
9271,117.187500
9272,117.187500
9273,117.187500
9274,121.093750
9275,121.093750
9276,121.093750
9277,121.093750
9278,121.093750
9279,121.093750
9280,121.093750
9281,121.093750
9282,121.093750
9283,125.000000
9284,121.093750
9285,125.000000
9286,125.000000
9287,125.000000
9288,125.000000
9289,125.000000
9290,125.000000
9291,125.000000
9292,125.000000
9293,125.000000
9294,125.000000
9295,125.000000
9296,125.000000
9297,125.000000
9298,125.000000
9299,125.000000
9300,125.000000
9301,125.000000
9302,125.000000
9303,125.000000
9304,121.093750
9305,125.000000
9306,125.000000
9307,125.000000
9308,125.000000
9309,121.093750
9310,121.093750
9311,121.093750
9312,121.093750
9313,121.093750
9314,121.093750
9315,121.093750
9316,121.093750
9317,121.093750
9318,117.187500
9319,117.187500
9320,117.187500
9321,117.187500
9322,117.187500
9323,117.187500
9324,117.187500
9325,113.281250
9326,113.281250
9327,113.281250
9328,113.281250
9329,109.375000
9330,109.375000
9331,109.375000
9332,109.375000
9333,105.468750
9334,105.468750
9335,105.468750
9336,105.468750
9337,101.562500
9338,101.562500
9339,101.562500
9340,101.562500
9341,97.656250
9342,97.656250
9343,93.750000
9344,93.750000
9345,93.750000
9346,93.750000
9347,93.750000
9348,89.843750
9349,89.843750
9350,85.937500
9351,85.937500
9352,85.937500
9353,82.031250
9354,82.031250
9355,82.031250
9356,78.125000
9357,74.218750
9358,74.218750
9359,74.218750
9360,70.312500
9361,70.312500
9362,70.312500
9363,66.406250
9364,66.406250
9365,62.500000
9366,62.500000
9367,58.593750
9368,58.593750
9369,54.687500
9370,54.687500
9371,50.781250
9372,50.781250
9373,50.781250
9374,46.875000
9375,42.968750
9376,42.968750
9377,42.968750
9378,39.062500
9379,35.156250
9380,35.156250
9381,31.250000
9382,31.250000
9383,27.343750
9384,27.343750
9385,23.437500
9386,23.437500
9387,19.531250
9388,19.531250
9389,15.625000
9390,15.625000
9391,11.718750
9392,7.812500
9393,7.812500
9394,3.906250
9395,3.906250
9396,0.000000
9397,-3.906250
9398,-3.906250
9399,-7.812500
9400,-7.812500
9401,-11.718750
9402,-15.625000
9403,-15.625000
9404,-19.531250
9405,-19.531250
9406,-23.437500
9407,-23.437500
9408,-27.343750
9409,-31.250000
9410,-31.250000
9411,-35.156250
9412,-39.062500
9413,-39.062500
9414,-42.968750
9415,-46.875000
9416,-46.875000
9417,-46.875000
9418,-50.781250
9419,-54.687500
9420,-54.687500
9421,-58.593750
9422,-62.500000
9423,-62.500000
9424,-66.406250
9425,-66.406250
9426,-70.312500
9427,-70.312500
9428,-74.218750
9429,-78.125000
9430,-78.125000
9431,-82.031250
9432,-82.031250
9433,-82.031250
9434,-85.937500
9435,-89.843750
9436,-89.843750
9437,-93.750000
9438,-97.656250
9439,-97.656250
9440,-97.656250
9441,-101.562500
9442,-105.468750
9443,-105.468750
9444,-109.375000
9445,-109.375000
9446,-113.281250
9447,-113.281250
9448,-117.187500
9449,-117.187500
9450,-121.093750
9451,-121.093750
9452,-125.000000
9453,-125.000000
9454,-128.906250
9455,-128.906250
9456,-128.906250
9457,-132.812500
9458,-132.812500
9459,-136.718750
9460,-136.718750
9461,-136.718750
9462,-136.718750
9463,-140.625000
9464,-144.531250
9465,-144.531250
9466,-144.531250
9467,-148.437500
9468,-148.437500
9469,-148.437500
9470,-152.343750
9471,-152.343750
9472,-152.343750
9473,-156.250000
9474,-156.250000
9475,-156.250000
9476,-156.250000
9477,-160.156250
9478,-160.156250
9479,-160.156250
9480,-160.156250
9481,-160.156250
9482,-164.062500
9483,-164.062500
9484,-164.062500
9485,-164.062500
9486,-164.062500
9487,-167.968750
9488,-167.968750
9489,-167.968750
9490,-167.968750
9491,-167.968750
9492,-167.968750
9493,-167.968750
9494,-167.968750
9495,-171.875000
9496,-171.875000
9497,-171.875000
9498,-171.875000
9499,-171.875000
9500,-171.875000
9501,-171.875000
9502,-171.875000
9503,-171.875000
9504,-171.875000
9505,-171.875000
9506,-171.875000
9507,-171.875000
9508,-171.875000
9509,-171.875000
9510,-171.875000
9511,-171.875000
9512,-171.875000
9513,-171.875000
9514,-167.968750
9515,-167.968750
9516,-167.968750
9517,-167.968750
9518,-167.968750
9519,-167.968750
9520,-167.968750
9521,-164.062500
9522,-164.062500
9523,-164.062500
9524,-164.062500
9525,-160.156250
9526,-160.156250
9527,-160.156250
9528,-160.156250
9529,-160.156250
9530,-156.250000
9531,-156.250000
9532,-156.250000
9533,-152.343750
9534,-152.343750
9535,-152.343750
9536,-152.343750
9537,-148.437500
9538,-148.437500
9539,-148.437500
9540,-148.437500
9541,-144.531250
9542,-144.531250
9543,-140.625000
9544,-140.625000
9545,-140.625000
9546,-136.718750
9547,-136.718750
9548,-132.812500
9549,-132.812500
9550,-132.812500
9551,-128.906250
9552,-125.000000
9553,-125.000000
9554,-125.000000
9555,-121.093750
9556,-121.093750
9557,-117.187500
9558,-113.281250
9559,-113.281250
9560,-113.281250
9561,-109.375000
9562,-109.375000
9563,-105.468750
9564,-105.468750
9565,-101.562500
9566,-101.562500
9567,-97.656250
9568,-97.656250
9569,-93.750000
9570,-93.750000
9571,-89.843750
9572,-89.843750
9573,-85.937500
9574,-85.937500
9575,-82.031250
9576,-78.125000
9577,-78.125000
9578,-74.218750
9579,-74.218750
9580,-70.312500
9581,-66.406250
9582,-66.406250
9583,-62.500000
9584,-62.500000
9585,-58.593750
9586,-58.593750
9587,-54.687500
9588,-54.687500
9589,-50.781250
9590,-46.875000
9591,-46.875000
9592,-42.968750
9593,-42.968750
9594,-39.062500
9595,-35.156250
9596,-35.156250
9597,-31.250000
9598,-31.250000
9599,-27.343750
9600,-23.437500
9601,-23.437500
9602,-19.531250
9603,-23.437500
9604,-15.625000
9605,-15.625000
9606,-11.718750
9607,-7.812500
9608,-7.812500
9609,-3.906250
9610,-3.906250
9611,0.000000
9612,3.906250
9613,3.906250
9614,7.812500
9615,7.812500
9616,11.718750
9617,11.718750
9618,15.625000
9619,19.531250
9620,19.531250
9621,19.531250
9622,23.437500
9623,27.343750
9624,27.343750
9625,31.250000
9626,31.250000
9627,35.156250
9628,35.156250
9629,39.062500
9630,39.062500
9631,42.968750
9632,42.968750
9633,46.875000
9634,46.875000
9635,50.781250
9636,50.781250
9637,54.687500
9638,54.687500
9639,58.593750
9640,58.593750
9641,58.593750
9642,62.500000
9643,66.406250
9644,66.406250
9645,66.406250
9646,70.312500
9647,70.312500
9648,70.312500
9649,74.218750
9650,74.218750
9651,78.125000
9652,78.125000
9653,82.031250
9654,82.031250
9655,82.031250
9656,85.937500
9657,85.937500
9658,85.937500
9659,89.843750
9660,89.843750
9661,93.750000
9662,93.750000
9663,93.750000
9664,93.750000
9665,97.656250
9666,97.656250
9667,97.656250
9668,97.656250
9669,101.562500
9670,101.562500
9671,101.562500
9672,105.468750
9673,105.468750
9674,105.468750
9675,109.375000
9676,109.375000
9677,109.375000
9678,109.375000
9679,109.375000
9680,113.281250
9681,113.281250
9682,113.281250
9683,113.281250
9684,113.281250
9685,117.187500
9686,117.187500
9687,117.187500
9688,117.187500
9689,117.187500
9690,117.187500
9691,121.093750
9692,121.093750
9693,121.093750
9694,121.093750
9695,121.093750
9696,121.093750
9697,121.093750
9698,125.000000
9699,125.000000
9700,121.093750
9701,125.000000
9702,125.000000
9703,125.000000
9704,125.000000
9705,125.000000
9706,125.000000
9707,125.000000
9708,125.000000
9709,125.000000
9710,125.000000
9711,125.000000
9712,125.000000
9713,125.000000
9714,125.000000
9715,125.000000
9716,125.000000
9717,125.000000
9718,125.000000
9719,125.000000
9720,125.000000
9721,125.000000
9722,125.000000
9723,125.000000
9724,125.000000
9725,125.000000
9726,125.000000
9727,121.093750
9728,121.093750
9729,121.093750
9730,121.093750
9731,121.093750
9732,121.093750
9733,121.093750
9734,121.093750
9735,117.187500
9736,117.187500
9737,117.187500
9738,117.187500
9739,117.187500
9740,113.281250
9741,117.187500
9742,113.281250
9743,113.281250
9744,113.281250
9745,113.281250
9746,109.375000
9747,109.375000
9748,109.375000
9749,109.375000
9750,109.375000
9751,105.468750
9752,105.468750
9753,105.468750
9754,101.562500
9755,101.562500
9756,101.562500
9757,101.562500
9758,97.656250
9759,97.656250
9760,97.656250
9761,93.750000
9762,93.750000
9763,93.750000
9764,89.843750
9765,89.843750
9766,89.843750
9767,85.937500
9768,85.937500
9769,85.937500
9770,82.031250
9771,82.031250
9772,78.125000
9773,78.125000
9774,78.125000
9775,74.218750
9776,74.218750
9777,70.312500
9778,70.312500
9779,66.406250
9780,66.406250
9781,66.406250
9782,62.500000
9783,62.500000
9784,58.593750
9785,58.593750
9786,54.687500
9787,54.687500
9788,50.781250
9789,50.781250
9790,46.875000
9791,46.875000
9792,42.968750
9793,42.968750
9794,39.062500
9795,39.062500
9796,35.156250
9797,35.156250
9798,31.250000
9799,31.250000
9800,27.343750
9801,27.343750
9802,23.437500
9803,19.531250
9804,19.531250
9805,15.625000
9806,15.625000
9807,11.718750
9808,11.718750
9809,7.812500
9810,3.906250
9811,3.906250
9812,0.000000
9813,0.000000
9814,-3.906250
9815,-3.906250
9816,-7.812500
9817,-11.718750
9818,-11.718750
9819,-15.625000
9820,-15.625000
9821,-19.531250
9822,-23.437500
9823,-23.437500
9824,-27.343750
9825,-27.343750
9826,-31.250000
9827,-31.250000
9828,-35.156250
9829,-39.062500
9830,-39.062500
9831,-42.968750
9832,-46.875000
9833,-46.875000
9834,-50.781250
9835,-50.781250
9836,-54.687500
9837,-54.687500
9838,-58.593750
9839,-62.500000
9840,-62.500000
9841,-66.406250
9842,-66.406250
9843,-70.312500
9844,-74.218750
9845,-74.218750
9846,-78.125000
9847,-78.125000
9848,-82.031250
9849,-82.031250
9850,-85.937500
9851,-89.843750
9852,-89.843750
9853,-93.750000
9854,-93.750000
9855,-93.750000
9856,-97.656250
9857,-101.562500
9858,-101.562500
9859,-105.468750
9860,-105.468750
9861,-109.375000
9862,-109.375000
9863,-113.281250
9864,-117.187500
9865,-117.187500
9866,-117.187500
9867,-121.093750
9868,-121.093750
9869,-125.000000
9870,-125.000000
9871,-128.906250
9872,-128.906250
9873,-132.812500
9874,-132.812500
9875,-136.718750
9876,-136.718750
9877,-136.718750
9878,-140.625000
9879,-140.625000
9880,-144.531250
9881,-144.531250
9882,-144.531250
9883,-148.437500
9884,-148.437500
9885,-148.437500
9886,-148.437500
9887,-152.343750
9888,-152.343750
9889,-152.343750
9890,-156.250000
9891,-156.250000
9892,-156.250000
9893,-160.156250
9894,-160.156250
9895,-160.156250
9896,-160.156250
9897,-164.062500
9898,-164.062500
9899,-164.062500
9900,-164.062500
9901,-164.062500
9902,-164.062500
9903,-167.968750
9904,-167.968750
9905,-167.968750
9906,-167.968750
9907,-167.968750
9908,-167.968750
9909,-171.875000
9910,-167.968750
9911,-171.875000
9912,-171.875000
9913,-171.875000
9914,-171.875000
9915,-171.875000
9916,-171.875000
9917,-171.875000
9918,-171.875000
9919,-171.875000
9920,-171.875000
9921,-171.875000
9922,-171.875000
9923,-171.875000
9924,-171.875000
9925,-171.875000
9926,-171.875000
9927,-171.875000
9928,-167.968750
9929,-171.875000
9930,-167.968750
9931,-167.968750
9932,-167.968750
9933,-167.968750
9934,-167.968750
9935,-167.968750
9936,-167.968750
9937,-167.968750
9938,-164.062500
9939,-164.062500
9940,-164.062500
9941,-164.062500
9942,-164.062500
9943,-160.156250
9944,-160.156250
9945,-160.156250
9946,-156.250000
9947,-156.250000
9948,-156.250000
9949,-156.250000
9950,-156.250000
9951,-152.343750
9952,-152.343750
9953,-152.343750
9954,-148.437500
9955,-148.437500
9956,-148.437500
9957,-144.531250
9958,-144.531250
9959,-144.531250
9960,-140.625000
9961,-140.625000
9962,-136.718750
9963,-136.718750
9964,-136.718750
9965,-132.812500
9966,-132.812500
9967,-128.906250
9968,-128.906250
9969,-125.000000
9970,-125.000000
9971,-125.000000
9972,-121.093750
9973,-121.093750
9974,-117.187500
9975,-117.187500
9976,-113.281250
9977,-113.281250
9978,-109.375000
9979,-109.375000
9980,-105.468750
9981,-105.468750
9982,-101.562500
9983,-101.562500
9984,-97.656250
9985,-97.656250
9986,-93.750000
9987,-93.750000
9988,-89.843750
9989,-89.843750
9990,-85.937500
9991,-85.937500
9992,-82.031250
9993,-78.125000
9994,-78.125000
9995,-74.218750
9996,-74.218750
9997,-70.312500
9998,-70.312500
9999,-66.406250
10000,-62.500000
