Channel              :,CH1
Frequency            :,1.200kHz
Period               :,0.833ms
PK-PK                :,304.7mV
Probe attenuation    :,1X
Voltage per ADC value:,0.244141mV
Time interval        :,2.00000us

index,CH1_Voltage(mV)
1,-58.593750
2,-58.593750
3,-54.687500
4,-50.781250
5,-50.781250
6,-46.875000
7,-46.875000
8,-42.968750
9,-42.968750
10,-39.062500
11,-35.156250
12,-35.156250
13,-31.250000
14,-31.250000
15,-27.343750
16,-27.343750
17,-23.437500
18,-19.531250
19,-19.531250
20,-15.625000
21,-15.625000
22,-11.718750
23,-11.718750
24,-7.812500
25,-3.906250
26,-3.906250
27,0.000000
28,0.000000
29,3.906250
30,3.906250
31,7.812500
32,7.812500
33,11.718750
34,11.718750
35,15.625000
36,15.625000
37,19.531250
38,19.531250
39,23.437500
40,23.437500
41,27.343750
42,27.343750
43,31.250000
44,35.156250
45,35.156250
46,35.156250
47,39.062500
48,39.062500
49,42.968750
50,42.968750
51,46.875000
52,46.875000
53,46.875000
54,50.781250
55,50.781250
56,54.687500
57,54.687500
58,58.593750
59,58.593750
60,58.593750
61,62.500000
62,62.500000
63,62.500000
64,62.500000
65,66.406250
66,70.312500
67,70.312500
68,70.312500
69,74.218750
70,74.218750
71,74.218750
72,78.125000
73,78.125000
74,78.125000
75,82.031250
76,82.031250
77,82.031250
78,82.031250
79,85.937500
80,85.937500
81,85.937500
82,85.937500
83,89.843750
84,89.843750
85,89.843750
86,93.750000
87,93.750000
88,93.750000
89,93.750000
90,93.750000
91,93.750000
92,97.656250
93,97.656250
94,97.656250
95,97.656250
96,101.562500
97,97.656250
98,101.562500
99,101.562500
100,101.562500
101,101.562500
102,101.562500
103,101.562500
104,105.468750
105,105.468750
106,105.468750
107,105.468750
108,105.468750
109,105.468750
110,105.468750
111,105.468750
112,105.468750
113,105.468750
114,105.468750
115,109.375000
116,105.468750
117,109.375000
118,109.375000
119,109.375000
120,109.375000
121,105.468750
122,109.375000
123,109.375000
124,109.375000
125,109.375000
126,109.375000
127,109.375000
128,109.375000
129,109.375000
130,105.468750
131,105.468750
132,105.468750
133,105.468750
134,105.468750
135,105.468750
136,105.468750
137,105.468750
138,105.468750
139,105.468750
140,101.562500
141,101.562500
142,101.562500
143,101.562500
144,101.562500
145,101.562500
146,97.656250
147,97.656250
148,97.656250
149,97.656250
150,97.656250
151,97.656250
152,93.750000
153,93.750000
154,93.750000
155,93.750000
156,93.750000
157,89.843750
158,89.843750
159,89.843750
160,89.843750
161,85.937500
162,85.937500
163,85.937500
164,85.937500
165,82.031250
166,82.031250
167,82.031250
168,82.031250
169,78.125000
170,78.125000
171,74.218750
172,74.218750
173,74.218750
174,74.218750
175,70.312500
176,70.312500
177,70.312500
178,66.406250
179,66.406250
180,62.500000
181,62.500000
182,62.500000
183,62.500000
184,58.593750
185,54.687500
186,54.687500
187,54.687500
188,50.781250
189,50.781250
190,46.875000
191,46.875000
192,42.968750
193,42.968750
194,39.062500
195,39.062500
196,35.156250
197,35.156250
198,35.156250
199,31.250000
200,27.343750
201,27.343750
202,23.437500
203,23.437500
204,19.531250
205,19.531250
206,15.625000
207,15.625000
208,11.718750
209,11.718750
210,7.812500
211,7.812500
212,3.906250
213,0.000000
214,0.000000
215,0.000000
216,-3.906250
217,-7.812500
218,-7.812500
219,-11.718750
220,-11.718750
221,-15.625000
222,-19.531250
223,-19.531250
224,-19.531250
225,-23.437500
226,-27.343750
227,-27.343750
228,-31.250000
229,-31.250000
230,-35.156250
231,-39.062500
232,-39.062500
233,-42.968750
234,-42.968750
235,-46.875000
236,-50.781250
237,-50.781250
238,-54.687500
239,-54.687500
240,-58.593750
241,-62.500000
242,-62.500000
243,-66.406250
244,-66.406250
245,-70.312500
246,-70.312500
247,-74.218750
248,-78.125000
249,-78.125000
250,-82.031250
251,-82.031250
252,-85.937500
253,-85.937500
254,-89.843750
255,-93.750000
256,-93.750000
257,-97.656250
258,-101.562500
259,-101.562500
260,-105.468750
261,-105.468750
262,-109.375000
263,-109.375000
264,-113.281250
265,-113.281250
266,-117.187500
267,-117.187500
268,-121.093750
269,-125.000000
270,-125.000000
271,-128.906250
272,-128.906250
273,-128.906250
274,-132.812500
275,-132.812500
276,-136.718750
277,-136.718750
278,-140.625000
279,-140.625000
280,-144.531250
281,-144.531250
282,-144.531250
283,-148.437500
284,-148.437500
285,-152.343750
286,-152.343750
287,-152.343750
288,-156.250000
289,-156.250000
290,-160.156250
291,-160.156250
292,-160.156250
293,-164.062500
294,-164.062500
295,-164.062500
296,-167.968750
297,-167.968750
298,-167.968750
299,-171.875000
300,-171.875000
301,-171.875000
302,-171.875000
303,-175.781250
304,-175.781250
305,-175.781250
306,-175.781250
307,-179.687500
308,-179.687500
309,-179.687500
310,-179.687500
311,-179.687500
312,-183.593750
313,-183.593750
314,-179.687500
315,-183.593750
316,-183.593750
317,-183.593750
318,-187.500000
319,-187.500000
320,-187.500000
321,-187.500000
322,-187.500000
323,-187.500000
324,-187.500000
325,-187.500000
326,-191.406250
327,-187.500000
328,-187.500000
329,-187.500000
330,-187.500000
331,-187.500000
332,-187.500000
333,-187.500000
334,-187.500000
335,-187.500000
336,-187.500000
337,-187.500000
338,-183.593750
339,-187.500000
340,-183.593750
341,-183.593750
342,-183.593750
343,-183.593750
344,-183.593750
345,-183.593750
346,-183.593750
347,-183.593750
348,-179.687500
349,-179.687500
350,-179.687500
351,-179.687500
352,-175.781250
353,-175.781250
354,-179.687500
355,-175.781250
356,-175.781250
357,-171.875000
358,-171.875000
359,-167.968750
360,-167.968750
361,-167.968750
362,-164.062500
363,-167.968750
364,-164.062500
365,-164.062500
366,-160.156250
367,-160.156250
368,-156.250000
369,-156.250000
370,-156.250000
371,-152.343750
372,-152.343750
373,-152.343750
374,-148.437500
375,-148.437500
376,-148.437500
377,-144.531250
378,-140.625000
379,-140.625000
380,-140.625000
381,-136.718750
382,-136.718750
383,-132.812500
384,-132.812500
385,-128.906250
386,-128.906250
387,-125.000000
388,-125.000000
389,-125.000000
390,-121.093750
391,-117.187500
392,-117.187500
393,-113.281250
394,-113.281250
395,-109.375000
396,-109.375000
397,-105.468750
398,-105.468750
399,-101.562500
400,-101.562500
401,-97.656250
402,-93.750000
403,-93.750000
404,-93.750000
405,-89.843750
406,-85.937500
407,-85.937500
408,-82.031250
409,-78.125000
410,-78.125000
411,-74.218750
412,-74.218750
413,-70.312500
414,-66.406250
415,-66.406250
416,-66.406250
417,-62.500000
418,-58.593750
419,-58.593750
420,-54.687500
421,-50.781250
422,-50.781250
423,-46.875000
424,-46.875000
425,-42.968750
426,-42.968750
427,-39.062500
428,-35.156250
429,-35.156250
430,-31.250000
431,-31.250000
432,-27.343750
433,-27.343750
434,-23.437500
435,-19.531250
436,-19.531250
437,-15.625000
438,-15.625000
439,-11.718750
440,-7.812500
441,-7.812500
442,-3.906250
443,-3.906250
444,0.000000
445,0.000000
446,3.906250
447,3.906250
448,7.812500
449,11.718750
450,11.718750
451,15.625000
452,15.625000
453,15.625000
454,19.531250
455,19.531250
456,23.437500
457,23.437500
458,27.343750
459,31.250000
460,31.250000
461,31.250000
462,35.156250
463,35.156250
464,39.062500
465,39.062500
466,42.968750
467,42.968750
468,46.875000
469,46.875000
470,46.875000
471,50.781250
472,54.687500
473,54.687500
474,54.687500
475,58.593750
476,58.593750
477,58.593750
478,62.500000
479,62.500000
480,62.500000
481,66.406250
482,66.406250
483,70.312500
484,70.312500
485,70.312500
486,74.218750
487,74.218750
488,74.218750
489,78.125000
490,78.125000
491,78.125000
492,82.031250
493,82.031250
494,82.031250
495,85.937500
496,85.937500
497,85.937500
498,85.937500
499,85.937500
500,89.843750
501,89.843750
502,89.843750
503,93.750000
504,93.750000
505,93.750000
506,93.750000
507,93.750000
508,97.656250
509,97.656250
510,97.656250
511,97.656250
512,97.656250
513,101.562500
514,101.562500
515,101.562500
516,101.562500
517,101.562500
518,101.562500
519,101.562500
520,101.562500
521,105.468750
522,105.468750
523,105.468750
524,105.468750
525,105.468750
526,105.468750
527,105.468750
528,105.468750
529,105.468750
530,105.468750
531,105.468750
532,105.468750
533,109.375000
534,105.468750
535,105.468750
536,105.468750
537,109.375000
538,105.468750
539,105.468750
540,109.375000
541,109.375000
542,105.468750
543,105.468750
544,105.468750
545,105.468750
546,105.468750
547,105.468750
548,105.468750
549,105.468750
550,105.468750
551,105.468750
552,105.468750
553,105.468750
554,105.468750
555,101.562500
556,105.468750
557,101.562500
558,101.562500
559,101.562500
560,101.562500
561,101.562500
562,101.562500
563,101.562500
564,101.562500
565,97.656250
566,97.656250
567,97.656250
568,97.656250
569,97.656250
570,93.750000
571,93.750000
572,93.750000
573,93.750000
574,93.750000
575,89.843750
576,89.843750
577,89.843750
578,85.937500
579,85.937500
580,85.937500
581,82.031250
582,82.031250
583,82.031250
584,82.031250
585,78.125000
586,78.125000
587,78.125000
588,74.218750
589,74.218750
590,74.218750
591,70.312500
592,70.312500
593,70.312500
594,66.406250
595,66.406250
596,62.500000
597,62.500000
598,62.500000
599,58.593750
600,58.593750
601,54.687500
602,54.687500
603,54.687500
604,50.781250
605,50.781250
606,46.875000
607,46.875000
608,46.875000
609,42.968750
610,42.968750
611,39.062500
612,39.062500
613,35.156250
614,35.156250
615,31.250000
616,31.250000
617,27.343750
618,27.343750
619,23.437500
620,23.437500
621,19.531250
622,19.531250
623,15.625000
624,15.625000
625,11.718750
626,11.718750
627,7.812500
628,7.812500
629,3.906250
630,3.906250
631,0.000000
632,-3.906250
633,-3.906250
634,-7.812500
635,-7.812500
636,-11.718750
637,-11.718750
638,-15.625000
639,-19.531250
640,-19.531250
641,-23.437500
642,-23.437500
643,-27.343750
644,-27.343750
645,-31.250000
646,-35.156250
647,-35.156250
648,-39.062500
649,-39.062500
650,-42.968750
651,-46.875000
652,-46.875000
653,-50.781250
654,-50.781250
655,-54.687500
656,-58.593750
657,-58.593750
658,-62.500000
659,-66.406250
660,-66.406250
661,-70.312500
662,-70.312500
663,-74.218750
664,-74.218750
665,-78.125000
666,-78.125000
667,-82.031250
668,-85.937500
669,-85.937500
670,-89.843750
671,-89.843750
672,-93.750000
673,-97.656250
674,-97.656250
675,-101.562500
676,-101.562500
677,-105.468750
678,-105.468750
679,-109.375000
680,-109.375000
681,-113.281250
682,-113.281250
683,-117.187500
684,-117.187500
685,-121.093750
686,-125.000000
687,-125.000000
688,-125.000000
689,-128.906250
690,-128.906250
691,-132.812500
692,-132.812500
693,-136.718750
694,-136.718750
695,-140.625000
696,-140.625000
697,-144.531250
698,-144.531250
699,-144.531250
700,-148.437500
701,-148.437500
702,-152.343750
703,-152.343750
704,-156.250000
705,-156.250000
706,-156.250000
707,-160.156250
708,-160.156250
709,-160.156250
710,-164.062500
711,-164.062500
712,-164.062500
713,-167.968750
714,-167.968750
715,-167.968750
716,-171.875000
717,-171.875000
718,-171.875000
719,-171.875000
720,-175.781250
721,-175.781250
722,-175.781250
723,-175.781250
724,-179.687500
725,-179.687500
726,-179.687500
727,-179.687500
728,-183.593750
729,-183.593750
730,-183.593750
731,-183.593750
732,-183.593750
733,-183.593750
734,-183.593750
735,-187.500000
736,-183.593750
737,-183.593750
738,-187.500000
739,-187.500000
740,-187.500000
741,-187.500000
742,-187.500000
743,-187.500000
744,-187.500000
745,-187.500000
746,-187.500000
747,-187.500000
748,-187.500000
749,-187.500000
750,-187.500000
751,-187.500000
752,-187.500000
753,-187.500000
754,-187.500000
755,-183.593750
756,-183.593750
757,-183.593750
758,-183.593750
759,-183.593750
760,-183.593750
761,-183.593750
762,-179.687500
763,-179.687500
764,-183.593750
765,-179.687500
766,-179.687500
767,-179.687500
768,-175.781250
769,-175.781250
770,-175.781250
771,-171.875000
772,-171.875000
773,-171.875000
774,-171.875000
775,-167.968750
776,-167.968750
777,-167.968750
778,-167.968750
779,-164.062500
780,-164.062500
781,-164.062500
782,-160.156250
783,-160.156250
784,-160.156250
785,-156.250000
786,-156.250000
787,-156.250000
788,-152.343750
789,-152.343750
790,-148.437500
791,-148.437500
792,-144.531250
793,-144.531250
794,-144.531250
795,-140.625000
796,-140.625000
797,-136.718750
798,-136.718750
799,-132.812500
800,-132.812500
801,-132.812500
802,-128.906250
803,-128.906250
804,-125.000000
805,-125.000000
806,-121.093750
807,-121.093750
808,-117.187500
809,-117.187500
810,-113.281250
811,-113.281250
812,-109.375000
813,-105.468750
814,-105.468750
815,-101.562500
816,-101.562500
817,-97.656250
818,-97.656250
819,-93.750000
820,-93.750000
821,-89.843750
822,-89.843750
823,-85.937500
824,-82.031250
825,-82.031250
826,-78.125000
827,-78.125000
828,-74.218750
829,-70.312500
830,-70.312500
831,-66.406250
832,-66.406250
833,-62.500000
834,-62.500000
835,-58.593750
836,-54.687500
837,-54.687500
838,-50.781250
839,-50.781250
840,-46.875000
841,-46.875000
842,-42.968750
843,-39.062500
844,-39.062500
845,-35.156250
846,-35.156250
847,-31.250000
848,-27.343750
849,-27.343750
850,-23.437500
851,-23.437500
852,-19.531250
853,-15.625000
854,-15.625000
855,-11.718750
856,-11.718750
857,-7.812500
858,-7.812500
859,-3.906250
860,-3.906250
861,0.000000
862,3.906250
863,3.906250
864,3.906250
865,7.812500
866,7.812500
867,11.718750
868,15.625000
869,15.625000
870,19.531250
871,19.531250
872,23.437500
873,23.437500
874,27.343750
875,27.343750
876,31.250000
877,31.250000
878,35.156250
879,35.156250
880,35.156250
881,39.062500
882,42.968750
883,42.968750
884,42.968750
885,46.875000
886,46.875000
887,50.781250
888,50.781250
889,54.687500
890,54.687500
891,54.687500
892,58.593750
893,58.593750
894,62.500000
895,62.500000
896,62.500000
897,66.406250
898,66.406250
899,66.406250
900,70.312500
901,70.312500
902,74.218750
903,74.218750
904,74.218750
905,78.125000
906,78.125000
907,78.125000
908,78.125000
909,82.031250
910,82.031250
911,82.031250
912,85.937500
913,85.937500
914,85.937500
915,85.937500
916,89.843750
917,89.843750
918,89.843750
919,93.750000
920,93.750000
921,93.750000
922,93.750000
923,93.750000
924,97.656250
925,97.656250
926,97.656250
927,97.656250
928,97.656250
929,97.656250
930,97.656250
931,101.562500
932,101.562500
933,101.562500
934,101.562500
935,101.562500
936,101.562500
937,101.562500
938,101.562500
939,105.468750
940,105.468750
941,105.468750
942,105.468750
943,105.468750
944,105.468750
945,105.468750
946,105.468750
947,105.468750
948,105.468750
949,105.468750
950,109.375000
951,105.468750
952,109.375000
953,105.468750
954,109.375000
955,109.375000
956,109.375000
957,105.468750
958,109.375000
959,109.375000
960,109.375000
961,105.468750
962,105.468750
963,105.468750
964,105.468750
965,105.468750
966,105.468750
967,105.468750
968,105.468750
969,105.468750
970,105.468750
971,105.468750
972,105.468750
973,105.468750
974,101.562500
975,101.562500
976,101.562500
977,101.562500
978,101.562500
979,101.562500
980,97.656250
981,97.656250
982,97.656250
983,97.656250
984,97.656250
985,93.750000
986,93.750000
987,93.750000
988,93.750000
989,93.750000
990,89.843750
991,89.843750
992,89.843750
993,89.843750
994,85.937500
995,85.937500
996,85.937500
997,85.937500
998,82.031250
999,82.031250
1000,82.031250
1001,78.125000
1002,78.125000
1003,78.125000
1004,74.218750
1005,74.218750
1006,74.218750
1007,74.218750
1008,70.312500
1009,70.312500
1010,70.312500
1011,66.406250
1012,66.406250
1013,62.500000
1014,62.500000
1015,58.593750
1016,58.593750
1017,58.593750
1018,54.687500
1019,54.687500
1020,54.687500
1021,50.781250
1022,50.781250
1023,46.875000
1024,46.875000
1025,42.968750
1026,42.968750
1027,42.968750
1028,39.062500
1029,39.062500
1030,35.156250
1031,35.156250
1032,31.250000
1033,31.250000
1034,27.343750
1035,27.343750
1036,23.437500
1037,19.531250
1038,19.531250
1039,19.531250
1040,15.625000
1041,11.718750
1042,11.718750
1043,7.812500
1044,7.812500
1045,3.906250
1046,3.906250
1047,0.000000
1048,0.000000
1049,-3.906250
1050,-3.906250
1051,-7.812500
1052,-11.718750
1053,-11.718750
1054,-11.718750
1055,-15.625000
1056,-19.531250
1057,-23.437500
1058,-23.437500
1059,-27.343750
1060,-27.343750
1061,-31.250000
1062,-31.250000
1063,-35.156250
1064,-39.062500
1065,-39.062500
1066,-42.968750
1067,-42.968750
1068,-46.875000
1069,-46.875000
1070,-50.781250
1071,-54.687500
1072,-54.687500
1073,-58.593750
1074,-58.593750
1075,-62.500000
1076,-66.406250
1077,-66.406250
1078,-70.312500
1079,-74.218750
1080,-74.218750
1081,-78.125000
1082,-78.125000
1083,-82.031250
1084,-82.031250
1085,-85.937500
1086,-89.843750
1087,-89.843750
1088,-93.750000
1089,-93.750000
1090,-97.656250
1091,-97.656250
1092,-101.562500
1093,-101.562500
1094,-105.468750
1095,-105.468750
1096,-109.375000
1097,-109.375000
1098,-113.281250
1099,-117.187500
1100,-117.187500
1101,-121.093750
1102,-121.093750
1103,-125.000000
1104,-125.000000
1105,-125.000000
1106,-128.906250
1107,-132.812500
1108,-132.812500
1109,-136.718750
1110,-136.718750
1111,-140.625000
1112,-140.625000
1113,-144.531250
1114,-144.531250
1115,-148.437500
1116,-148.437500
1117,-148.437500
1118,-152.343750
1119,-152.343750
1120,-156.250000
1121,-156.250000
1122,-156.250000
1123,-160.156250
1124,-160.156250
1125,-160.156250
1126,-160.156250
1127,-164.062500
1128,-164.062500
1129,-167.968750
1130,-167.968750
1131,-167.968750
1132,-171.875000
1133,-171.875000
1134,-171.875000
1135,-171.875000
1136,-175.781250
1137,-175.781250
1138,-175.781250
1139,-175.781250
1140,-179.687500
1141,-179.687500
1142,-179.687500
1143,-179.687500
1144,-183.593750
1145,-179.687500
1146,-179.687500
1147,-183.593750
1148,-183.593750
1149,-183.593750
1150,-183.593750
1151,-183.593750
1152,-187.500000
1153,-187.500000
1154,-183.593750
1155,-187.500000
1156,-187.500000
1157,-187.500000
1158,-187.500000
1159,-187.500000
1160,-187.500000
1161,-187.500000
1162,-187.500000
1163,-187.500000
1164,-187.500000
1165,-187.500000
1166,-187.500000
1167,-187.500000
1168,-187.500000
1169,-187.500000
1170,-187.500000
1171,-187.500000
1172,-183.593750
1173,-187.500000
1174,-183.593750
1175,-183.593750
1176,-183.593750
1177,-183.593750
1178,-183.593750
1179,-183.593750
1180,-179.687500
1181,-179.687500
1182,-179.687500
1183,-179.687500
1184,-179.687500
1185,-179.687500
1186,-175.781250
1187,-175.781250
1188,-175.781250
1189,-171.875000
1190,-171.875000
1191,-171.875000
1192,-167.968750
1193,-167.968750
1194,-167.968750
1195,-167.968750
1196,-167.968750
1197,-164.062500
1198,-164.062500
1199,-164.062500
1200,-160.156250
1201,-160.156250
1202,-156.250000
1203,-156.250000
1204,-156.250000
1205,-152.343750
1206,-152.343750
1207,-148.437500
1208,-148.437500
1209,-148.437500
1210,-144.531250
1211,-144.531250
1212,-140.625000
1213,-140.625000
1214,-136.718750
1215,-136.718750
1216,-136.718750
1217,-132.812500
1218,-128.906250
1219,-128.906250
1220,-128.906250
1221,-125.000000
1222,-121.093750
1223,-121.093750
1224,-121.093750
1225,-117.187500
1226,-113.281250
1227,-113.281250
1228,-109.375000
1229,-109.375000
1230,-105.468750
1231,-105.468750
1232,-105.468750
1233,-101.562500
1234,-97.656250
1235,-97.656250
1236,-93.750000
1237,-93.750000
1238,-89.843750
1239,-85.937500
1240,-85.937500
1241,-82.031250
1242,-82.031250
1243,-78.125000
1244,-74.218750
1245,-74.218750
1246,-70.312500
1247,-70.312500
1248,-66.406250
1249,-66.406250
1250,-62.500000
1251,-62.500000
1252,-58.593750
1253,-54.687500
1254,-54.687500
1255,-50.781250
1256,-46.875000
1257,-46.875000
1258,-42.968750
1259,-42.968750
1260,-39.062500
1261,-39.062500
1262,-35.156250
1263,-31.250000
1264,-31.250000
1265,-27.343750
1266,-27.343750
1267,-23.437500
1268,-19.531250
1269,-19.531250
1270,-15.625000
1271,-15.625000
1272,-11.718750
1273,-11.718750
1274,-7.812500
1275,-7.812500
1276,-3.906250
1277,0.000000
1278,0.000000
1279,3.906250
1280,3.906250
1281,7.812500
1282,7.812500
1283,11.718750
1284,15.625000
1285,15.625000
1286,15.625000
1287,19.531250
1288,19.531250
1289,23.437500
1290,27.343750
1291,27.343750
1292,27.343750
1293,31.250000
1294,31.250000
1295,35.156250
1296,35.156250
1297,39.062500
1298,39.062500
1299,42.968750
1300,42.968750
1301,42.968750
1302,46.875000
1303,46.875000
1304,50.781250
1305,50.781250
1306,54.687500
1307,54.687500
1308,54.687500
1309,58.593750
1310,58.593750
1311,62.500000
1312,62.500000
1313,62.500000
1314,66.406250
1315,66.406250
1316,70.312500
1317,70.312500
1318,70.312500
1319,74.218750
1320,74.218750
1321,74.218750
1322,78.125000
1323,78.125000
1324,78.125000
1325,82.031250
1326,82.031250
1327,82.031250
1328,85.937500
1329,85.937500
1330,85.937500
1331,85.937500
1332,85.937500
1333,89.843750
1334,89.843750
1335,89.843750
1336,89.843750
1337,93.750000
1338,93.750000
1339,93.750000
1340,93.750000
1341,97.656250
1342,97.656250
1343,93.750000
1344,97.656250
1345,101.562500
1346,101.562500
1347,101.562500
1348,101.562500
1349,101.562500
1350,101.562500
1351,101.562500
1352,101.562500
1353,101.562500
1354,105.468750
1355,105.468750
1356,105.468750
1357,105.468750
1358,105.468750
1359,105.468750
1360,105.468750
1361,105.468750
1362,105.468750
1363,105.468750
1364,109.375000
1365,109.375000
1366,105.468750
1367,105.468750
1368,109.375000
1369,105.468750
1370,109.375000
1371,109.375000
1372,105.468750
1373,109.375000
1374,109.375000
1375,105.468750
1376,105.468750
1377,105.468750
1378,105.468750
1379,105.468750
1380,105.468750
1381,105.468750
1382,105.468750
1383,105.468750
1384,105.468750
1385,105.468750
1386,105.468750
1387,105.468750
1388,101.562500
1389,105.468750
1390,101.562500
1391,101.562500
1392,101.562500
1393,101.562500
1394,101.562500
1395,101.562500
1396,101.562500
1397,97.656250
1398,97.656250
1399,97.656250
1400,97.656250
1401,97.656250
1402,93.750000
1403,93.750000
1404,93.750000
1405,93.750000
1406,93.750000
1407,93.750000
1408,89.843750
1409,89.843750
1410,89.843750
1411,85.937500
1412,85.937500
1413,85.937500
1414,85.937500
1415,82.031250
1416,82.031250
1417,82.031250
1418,78.125000
1419,78.125000
1420,78.125000
1421,78.125000
1422,74.218750
1423,74.218750
1424,70.312500
1425,70.312500
1426,70.312500
1427,66.406250
1428,66.406250
1429,66.406250
1430,62.500000
1431,62.500000
1432,58.593750
1433,58.593750
1434,58.593750
1435,58.593750
1436,54.687500
1437,50.781250
1438,50.781250
1439,50.781250
1440,46.875000
1441,46.875000
1442,42.968750
1443,42.968750
1444,39.062500
1445,39.062500
1446,39.062500
1447,35.156250
1448,31.250000
1449,31.250000
1450,27.343750
1451,27.343750
1452,27.343750
1453,23.437500
1454,19.531250
1455,19.531250
1456,15.625000
1457,11.718750
1458,11.718750
1459,11.718750
1460,7.812500
1461,7.812500
1462,3.906250
1463,3.906250
1464,0.000000
1465,0.000000
1466,-3.906250
1467,-7.812500
1468,-7.812500
1469,-7.812500
1470,-11.718750
1471,-15.625000
1472,-15.625000
1473,-19.531250
1474,-19.531250
1475,-23.437500
1476,-27.343750
1477,-27.343750
1478,-31.250000
1479,-31.250000
1480,-35.156250
1481,-39.062500
1482,-39.062500
1483,-42.968750
1484,-42.968750
1485,-42.968750
1486,-50.781250
1487,-50.781250
1488,-54.687500
1489,-54.687500
1490,-58.593750
1491,-62.500000
1492,-62.500000
1493,-66.406250
1494,-66.406250
1495,-70.312500
1496,-74.218750
1497,-74.218750
1498,-78.125000
1499,-78.125000
1500,-78.125000
1501,-82.031250
1502,-85.937500
1503,-89.843750
1504,-89.843750
1505,-93.750000
1506,-93.750000
1507,-97.656250
1508,-97.656250
1509,-101.562500
1510,-101.562500
1511,-105.468750
1512,-109.375000
1513,-109.375000
1514,-113.281250
1515,-113.281250
1516,-117.187500
1517,-117.187500
1518,-121.093750
1519,-121.093750
1520,-125.000000
1521,-125.000000
1522,-128.906250
1523,-128.906250
1524,-132.812500
1525,-132.812500
1526,-140.625000
1527,-136.718750
1528,-140.625000
1529,-140.625000
1530,-140.625000
1531,-144.531250
1532,-144.531250
1533,-144.531250
1534,-148.437500
1535,-152.343750
1536,-152.343750
1537,-152.343750
1538,-156.250000
1539,-156.250000
1540,-156.250000
1541,-160.156250
1542,-160.156250
1543,-164.062500
1544,-164.062500
1545,-164.062500
1546,-167.968750
1547,-167.968750
1548,-167.968750
1549,-167.968750
1550,-171.875000
1551,-171.875000
1552,-171.875000
1553,-175.781250
1554,-175.781250
1555,-175.781250
1556,-175.781250
1557,-175.781250
1558,-179.687500
1559,-179.687500
1560,-179.687500
1561,-179.687500
1562,-183.593750
1563,-183.593750
1564,-183.593750
1565,-183.593750
1566,-183.593750
1567,-183.593750
1568,-183.593750
1569,-183.593750
1570,-187.500000
1571,-187.500000
1572,-187.500000
1573,-187.500000
1574,-187.500000
1575,-187.500000
1576,-187.500000
1577,-187.500000
1578,-187.500000
1579,-187.500000
1580,-187.500000
1581,-187.500000
1582,-187.500000
1583,-187.500000
1584,-187.500000
1585,-187.500000
1586,-187.500000
1587,-187.500000
1588,-187.500000
1589,-183.593750
1590,-183.593750
1591,-183.593750
1592,-183.593750
1593,-183.593750
1594,-183.593750
1595,-183.593750
1596,-183.593750
1597,-179.687500
1598,-179.687500
1599,-179.687500
1600,-179.687500
1601,-179.687500
1602,-175.781250
1603,-175.781250
1604,-175.781250
1605,-175.781250
1606,-171.875000
1607,-171.875000
1608,-171.875000
1609,-171.875000
1610,-167.968750
1611,-167.968750
1612,-167.968750
1613,-164.062500
1614,-164.062500
1615,-160.156250
1616,-160.156250
1617,-160.156250
1618,-160.156250
1619,-156.250000
1620,-156.250000
1621,-152.343750
1622,-152.343750
1623,-152.343750
1624,-148.437500
1625,-148.437500
1626,-144.531250
1627,-144.531250
1628,-144.531250
1629,-140.625000
1630,-140.625000
1631,-136.718750
1632,-136.718750
1633,-132.812500
1634,-132.812500
1635,-128.906250
1636,-128.906250
1637,-125.000000
1638,-125.000000
1639,-121.093750
1640,-121.093750
1641,-117.187500
1642,-117.187500
1643,-113.281250
1644,-113.281250
1645,-109.375000
1646,-109.375000
1647,-105.468750
1648,-105.468750
1649,-101.562500
1650,-97.656250
1651,-97.656250
1652,-93.750000
1653,-93.750000
1654,-89.843750
1655,-89.843750
1656,-85.937500
1657,-85.937500
1658,-82.031250
1659,-78.125000
1660,-78.125000
1661,-74.218750
1662,-74.218750
1663,-70.312500
1664,-70.312500
1665,-66.406250
1666,-62.500000
1667,-62.500000
1668,-58.593750
1669,-54.687500
1670,-54.687500
1671,-50.781250
1672,-50.781250
1673,-46.875000
1674,-46.875000
1675,-42.968750
1676,-39.062500
1677,-39.062500
1678,-35.156250
1679,-35.156250
1680,-31.250000
1681,-31.250000
1682,-27.343750
1683,-23.437500
1684,-23.437500
1685,-19.531250
1686,-19.531250
1687,-15.625000
1688,-15.625000
1689,-11.718750
1690,-11.718750
1691,-7.812500
1692,-3.906250
1693,-3.906250
1694,0.000000
1695,0.000000
1696,3.906250
1697,3.906250
1698,7.812500
1699,7.812500
1700,11.718750
1701,11.718750
1702,15.625000
1703,15.625000
1704,19.531250
1705,19.531250
1706,23.437500
1707,23.437500
1708,27.343750
1709,27.343750
1710,31.250000
1711,31.250000
1712,35.156250
1713,35.156250
1714,39.062500
1715,39.062500
1716,42.968750
1717,42.968750
1718,46.875000
1719,46.875000
1720,46.875000
1721,50.781250
1722,50.781250
1723,54.687500
1724,54.687500
1725,54.687500
1726,58.593750
1727,58.593750
1728,62.500000
1729,62.500000
1730,66.406250
1731,66.406250
1732,66.406250
1733,70.312500
1734,70.312500
1735,70.312500
1736,74.218750
1737,74.218750
1738,74.218750
1739,78.125000
1740,78.125000
1741,78.125000
1742,82.031250
1743,82.031250
1744,82.031250
1745,82.031250
1746,85.937500
1747,85.937500
1748,85.937500
1749,85.937500
1750,89.843750
1751,89.843750
1752,89.843750
1753,93.750000
1754,93.750000
1755,93.750000
1756,93.750000
1757,93.750000
1758,93.750000
1759,97.656250
1760,97.656250
1761,97.656250
1762,97.656250
1763,97.656250
1764,97.656250
1765,101.562500
1766,101.562500
1767,101.562500
1768,101.562500
1769,101.562500
1770,101.562500
1771,101.562500
1772,105.468750
1773,105.468750
1774,105.468750
1775,105.468750
1776,105.468750
1777,105.468750
1778,105.468750
1779,105.468750
1780,105.468750
1781,105.468750
1782,105.468750
1783,105.468750
1784,109.375000
1785,105.468750
1786,105.468750
1787,109.375000
1788,109.375000
1789,109.375000
1790,109.375000
1791,109.375000
1792,109.375000
1793,105.468750
1794,105.468750
1795,105.468750
1796,105.468750
1797,105.468750
1798,105.468750
1799,105.468750
1800,105.468750
1801,105.468750
1802,105.468750
1803,105.468750
1804,101.562500
1805,105.468750
1806,105.468750
1807,101.562500
1808,101.562500
1809,101.562500
1810,101.562500
1811,101.562500
1812,101.562500
1813,101.562500
1814,97.656250
1815,97.656250
1816,97.656250
1817,97.656250
1818,93.750000
1819,93.750000
1820,93.750000
1821,93.750000
1822,93.750000
1823,89.843750
1824,89.843750
1825,89.843750
1826,89.843750
1827,89.843750
1828,85.937500
1829,85.937500
1830,85.937500
1831,82.031250
1832,82.031250
1833,82.031250
1834,82.031250
1835,78.125000
1836,78.125000
1837,78.125000
1838,74.218750
1839,74.218750
1840,74.218750
1841,70.312500
1842,70.312500
1843,70.312500
1844,66.406250
1845,66.406250
1846,66.406250
1847,62.500000
1848,62.500000
1849,62.500000
1850,58.593750
1851,54.687500
1852,54.687500
1853,54.687500
1854,50.781250
1855,50.781250
1856,46.875000
1857,46.875000
1858,46.875000
1859,42.968750
1860,42.968750
1861,39.062500
1862,39.062500
1863,35.156250
1864,35.156250
1865,31.250000
1866,31.250000
1867,27.343750
1868,27.343750
1869,23.437500
1870,23.437500
1871,19.531250
1872,19.531250
1873,15.625000
1874,15.625000
1875,11.718750
1876,11.718750
1877,7.812500
1878,7.812500
1879,7.812500
1880,0.000000
1881,0.000000
1882,-3.906250
1883,-3.906250
1884,-7.812500
1885,-7.812500
1886,-11.718750
1887,-15.625000
1888,-15.625000
1889,-19.531250
1890,-19.531250
1891,-23.437500
1892,-23.437500
1893,-27.343750
1894,-27.343750
1895,-31.250000
1896,-35.156250
1897,-35.156250
1898,-39.062500
1899,-42.968750
1900,-42.968750
1901,-46.875000
1902,-46.875000
1903,-50.781250
1904,-50.781250
1905,-54.687500
1906,-58.593750
1907,-58.593750
1908,-62.500000
1909,-62.500000
1910,-66.406250
1911,-66.406250
1912,-70.312500
1913,-74.218750
1914,-74.218750
1915,-78.125000
1916,-78.125000
1917,-82.031250
1918,-85.937500
1919,-85.937500
1920,-89.843750
1921,-93.750000
1922,-93.750000
1923,-93.750000
1924,-97.656250
1925,-101.562500
1926,-101.562500
1927,-105.468750
1928,-105.468750
1929,-109.375000
1930,-109.375000
1931,-113.281250
1932,-113.281250
1933,-117.187500
1934,-117.187500
1935,-121.093750
1936,-121.093750
1937,-125.000000
1938,-125.000000
1939,-128.906250
1940,-128.906250
1941,-132.812500
1942,-132.812500
1943,-136.718750
1944,-136.718750
1945,-140.625000
1946,-140.625000
1947,-144.531250
1948,-144.531250
1949,-148.437500
1950,-148.437500
1951,-148.437500
1952,-152.343750
1953,-152.343750
1954,-156.250000
1955,-152.343750
1956,-156.250000
1957,-160.156250
1958,-160.156250
1959,-160.156250
1960,-164.062500
1961,-164.062500
1962,-167.968750
1963,-167.968750
1964,-167.968750
1965,-171.875000
1966,-171.875000
1967,-171.875000
1968,-171.875000
1969,-175.781250
1970,-175.781250
1971,-175.781250
1972,-175.781250
1973,-179.687500
1974,-179.687500
1975,-179.687500
1976,-179.687500
1977,-183.593750
1978,-183.593750
1979,-183.593750
1980,-183.593750
1981,-183.593750
1982,-183.593750
1983,-183.593750
1984,-183.593750
1985,-187.500000
1986,-183.593750
1987,-187.500000
1988,-187.500000
1989,-187.500000
1990,-187.500000
1991,-187.500000
1992,-187.500000
1993,-187.500000
1994,-187.500000
1995,-187.500000
1996,-187.500000
1997,-187.500000
1998,-187.500000
1999,-187.500000
2000,-187.500000
2001,-187.500000
2002,-183.593750
2003,-187.500000
2004,-187.500000
2005,-187.500000
2006,-183.593750
2007,-183.593750
2008,-183.593750
2009,-183.593750
2010,-183.593750
2011,-183.593750
2012,-183.593750
2013,-183.593750
2014,-179.687500
2015,-179.687500
2016,-179.687500
2017,-179.687500
2018,-179.687500
2019,-175.781250
2020,-175.781250
2021,-175.781250
2022,-175.781250
2023,-171.875000
2024,-171.875000
2025,-171.875000
2026,-171.875000
2027,-167.968750
2028,-167.968750
2029,-167.968750
2030,-164.062500
2031,-164.062500
2032,-160.156250
2033,-160.156250
2034,-160.156250
2035,-156.250000
2036,-156.250000
2037,-156.250000
2038,-152.343750
2039,-152.343750
2040,-148.437500
2041,-148.437500
2042,-144.531250
2043,-144.531250
2044,-144.531250
2045,-140.625000
2046,-148.437500
2047,-136.718750
2048,-136.718750
2049,-136.718750
2050,-132.812500
2051,-128.906250
2052,-128.906250
2053,-128.906250
2054,-125.000000
2055,-125.000000
2056,-121.093750
2057,-117.187500
2058,-117.187500
2059,-117.187500
2060,-113.281250
2061,-109.375000
2062,-109.375000
2063,-105.468750
2064,-105.468750
2065,-101.562500
2066,-101.562500
2067,-97.656250
2068,-97.656250
2069,-93.750000
2070,-93.750000
2071,-89.843750
2072,-89.843750
2073,-85.937500
2074,-82.031250
2075,-82.031250
2076,-78.125000
2077,-74.218750
2078,-74.218750
2079,-70.312500
2080,-70.312500
2081,-70.312500
2082,-66.406250
2083,-62.500000
2084,-62.500000
2085,-58.593750
2086,-54.687500
2087,-54.687500
2088,-54.687500
2089,-50.781250
2090,-46.875000
2091,-42.968750
2092,-42.968750
2093,-39.062500
2094,-39.062500
2095,-35.156250
2096,-35.156250
2097,-31.250000
2098,-27.343750
2099,-27.343750
2100,-23.437500
2101,-23.437500
2102,-19.531250
2103,-19.531250
2104,-15.625000
2105,-11.718750
2106,-11.718750
2107,-3.906250
2108,-7.812500
2109,-3.906250
2110,0.000000
2111,0.000000
2112,0.000000
2113,3.906250
2114,3.906250
2115,7.812500
2116,11.718750
2117,11.718750
2118,15.625000
2119,15.625000
2120,19.531250
2121,23.437500
2122,23.437500
2123,23.437500
2124,27.343750
2125,27.343750
2126,31.250000
2127,31.250000
2128,31.250000
2129,35.156250
2130,39.062500
2131,39.062500
2132,42.968750
2133,42.968750
2134,42.968750
2135,46.875000
2136,46.875000
2137,50.781250
2138,50.781250
2139,54.687500
2140,54.687500
2141,54.687500
2142,62.500000
2143,58.593750
2144,58.593750
2145,62.500000
2146,62.500000
2147,66.406250
2148,66.406250
2149,66.406250
2150,70.312500
2151,70.312500
2152,70.312500
2153,74.218750
2154,74.218750
2155,74.218750
2156,78.125000
2157,78.125000
2158,78.125000
2159,82.031250
2160,82.031250
2161,82.031250
2162,85.937500
2163,85.937500
2164,85.937500
2165,85.937500
2166,89.843750
2167,89.843750
2168,89.843750
2169,89.843750
2170,93.750000
2171,93.750000
2172,93.750000
2173,93.750000
2174,93.750000
2175,97.656250
2176,97.656250
2177,97.656250
2178,97.656250
2179,97.656250
2180,101.562500
2181,101.562500
2182,101.562500
2183,101.562500
2184,101.562500
2185,101.562500
2186,101.562500
2187,101.562500
2188,105.468750
2189,105.468750
2190,105.468750
2191,105.468750
2192,105.468750
2193,105.468750
2194,105.468750
2195,105.468750
2196,105.468750
2197,105.468750
2198,109.375000
2199,105.468750
2200,105.468750
2201,109.375000
2202,109.375000
2203,105.468750
2204,109.375000
2205,105.468750
2206,109.375000
2207,105.468750
2208,109.375000
2209,105.468750
2210,105.468750
2211,105.468750
2212,105.468750
2213,105.468750
2214,105.468750
2215,105.468750
2216,105.468750
2217,105.468750
2218,105.468750
2219,105.468750
2220,105.468750
2221,105.468750
2222,101.562500
2223,105.468750
2224,101.562500
2225,101.562500
2226,101.562500
2227,101.562500
2228,101.562500
2229,101.562500
2230,97.656250
2231,97.656250
2232,97.656250
2233,97.656250
2234,97.656250
2235,93.750000
2236,93.750000
2237,93.750000
2238,93.750000
2239,93.750000
2240,93.750000
2241,89.843750
2242,89.843750
2243,89.843750
2244,89.843750
2245,85.937500
2246,85.937500
2247,85.937500
2248,82.031250
2249,82.031250
2250,82.031250
2251,78.125000
2252,78.125000
2253,78.125000
2254,74.218750
2255,74.218750
2256,74.218750
2257,74.218750
2258,70.312500
2259,70.312500
2260,70.312500
2261,66.406250
2262,66.406250
2263,62.500000
2264,62.500000
2265,62.500000
2266,58.593750
2267,58.593750
2268,58.593750
2269,54.687500
2270,54.687500
2271,50.781250
2272,50.781250
2273,46.875000
2274,46.875000
2275,42.968750
2276,42.968750
2277,42.968750
2278,39.062500
2279,39.062500
2280,35.156250
2281,35.156250
2282,31.250000
2283,27.343750
2284,27.343750
2285,27.343750
2286,23.437500
2287,23.437500
2288,19.531250
2289,19.531250
2290,15.625000
2291,11.718750
2292,11.718750
2293,11.718750
2294,7.812500
2295,3.906250
2296,3.906250
2297,0.000000
2298,0.000000
2299,-3.906250
2300,-7.812500
2301,-7.812500
2302,-7.812500
2303,-11.718750
2304,-15.625000
2305,-15.625000
2306,-19.531250
2307,-19.531250
2308,-23.437500
2309,-27.343750
2310,-27.343750
2311,-27.343750
2312,-35.156250
2313,-35.156250
2314,-35.156250
2315,-39.062500
2316,-42.968750
2317,-42.968750
2318,-50.781250
2319,-46.875000
2320,-50.781250
2321,-50.781250
2322,-54.687500
2323,-58.593750
2324,-58.593750
2325,-62.500000
2326,-66.406250
2327,-66.406250
2328,-70.312500
2329,-70.312500
2330,-74.218750
2331,-78.125000
2332,-78.125000
2333,-82.031250
2334,-85.937500
2335,-85.937500
2336,-85.937500
2337,-89.843750
2338,-93.750000
2339,-93.750000
2340,-97.656250
2341,-97.656250
2342,-101.562500
2343,-101.562500
2344,-105.468750
2345,-105.468750
2346,-109.375000
2347,-113.281250
2348,-113.281250
2349,-117.187500
2350,-117.187500
2351,-117.187500
2352,-121.093750
2353,-125.000000
2354,-125.000000
2355,-128.906250
2356,-128.906250
2357,-128.906250
2358,-132.812500
2359,-136.718750
2360,-136.718750
2361,-140.625000
2362,-140.625000
2363,-140.625000
2364,-144.531250
2365,-144.531250
2366,-148.437500
2367,-148.437500
2368,-152.343750
2369,-152.343750
2370,-152.343750
2371,-156.250000
2372,-156.250000
2373,-156.250000
2374,-160.156250
2375,-160.156250
2376,-164.062500
2377,-164.062500
2378,-164.062500
2379,-167.968750
2380,-167.968750
2381,-167.968750
2382,-171.875000
2383,-171.875000
2384,-171.875000
2385,-171.875000
2386,-171.875000
2387,-175.781250
2388,-175.781250
2389,-175.781250
2390,-175.781250
2391,-179.687500
2392,-179.687500
2393,-179.687500
2394,-179.687500
2395,-183.593750
2396,-183.593750
2397,-183.593750
2398,-183.593750
2399,-183.593750
2400,-183.593750
2401,-183.593750
2402,-187.500000
2403,-187.500000
2404,-187.500000
2405,-187.500000
2406,-187.500000
2407,-187.500000
2408,-187.500000
2409,-187.500000
2410,-187.500000
2411,-187.500000
2412,-187.500000
2413,-187.500000
2414,-187.500000
2415,-187.500000
2416,-187.500000
2417,-187.500000
2418,-187.500000
2419,-187.500000
2420,-187.500000
2421,-187.500000
2422,-187.500000
2423,-183.593750
2424,-183.593750
2425,-183.593750
2426,-183.593750
2427,-183.593750
2428,-183.593750
2429,-183.593750
2430,-179.687500
2431,-179.687500
2432,-179.687500
2433,-179.687500
2434,-175.781250
2435,-179.687500
2436,-175.781250
2437,-175.781250
2438,-175.781250
2439,-175.781250
2440,-171.875000
2441,-171.875000
2442,-171.875000
2443,-167.968750
2444,-167.968750
2445,-167.968750
2446,-164.062500
2447,-164.062500
2448,-164.062500
2449,-164.062500
2450,-160.156250
2451,-160.156250
2452,-156.250000
2453,-156.250000
2454,-156.250000
2455,-152.343750
2456,-152.343750
2457,-148.437500
2458,-148.437500
2459,-144.531250
2460,-144.531250
2461,-144.531250
2462,-140.625000
2463,-140.625000
2464,-136.718750
2465,-136.718750
2466,-132.812500
2467,-128.906250
2468,-128.906250
2469,-128.906250
2470,-128.906250
2471,-125.000000
2472,-121.093750
2473,-121.093750
2474,-121.093750
2475,-117.187500
2476,-117.187500
2477,-113.281250
2478,-109.375000
2479,-109.375000
2480,-105.468750
2481,-105.468750
2482,-101.562500
2483,-101.562500
2484,-97.656250
2485,-97.656250
2486,-93.750000
2487,-93.750000
2488,-89.843750
2489,-85.937500
2490,-85.937500
2491,-82.031250
2492,-82.031250
2493,-74.218750
2494,-78.125000
2495,-74.218750
2496,-74.218750
2497,-70.312500
2498,-66.406250
2499,-66.406250
2500,-62.500000
2501,-58.593750
2502,-58.593750
2503,-54.687500
2504,-54.687500
2505,-50.781250
2506,-50.781250
2507,-46.875000
2508,-46.875000
2509,-42.968750
2510,-39.062500
2511,-39.062500
2512,-35.156250
2513,-31.250000
2514,-31.250000
2515,-27.343750
2516,-27.343750
2517,-23.437500
2518,-23.437500
2519,-19.531250
2520,-15.625000
2521,-15.625000
2522,-15.625000
2523,-11.718750
2524,-7.812500
2525,-7.812500
2526,-3.906250
2527,-3.906250
2528,0.000000
2529,3.906250
2530,3.906250
2531,7.812500
2532,7.812500
2533,7.812500
2534,11.718750
2535,15.625000
2536,15.625000
2537,19.531250
2538,19.531250
2539,23.437500
2540,23.437500
2541,27.343750
2542,27.343750
2543,31.250000
2544,31.250000
2545,35.156250
2546,35.156250
2547,39.062500
2548,39.062500
2549,42.968750
2550,42.968750
2551,42.968750
2552,42.968750
2553,50.781250
2554,50.781250
2555,50.781250
2556,54.687500
2557,54.687500
2558,54.687500
2559,58.593750
2560,58.593750
2561,62.500000
2562,62.500000
2563,66.406250
2564,66.406250
2565,66.406250
2566,70.312500
2567,70.312500
2568,70.312500
2569,70.312500
2570,74.218750
2571,74.218750
2572,78.125000
2573,78.125000
2574,78.125000
2575,82.031250
2576,82.031250
2577,82.031250
2578,82.031250
2579,85.937500
2580,85.937500
2581,85.937500
2582,85.937500
2583,89.843750
2584,89.843750
2585,89.843750
2586,93.750000
2587,93.750000
2588,93.750000
2589,93.750000
2590,93.750000
2591,93.750000
2592,97.656250
2593,97.656250
2594,97.656250
2595,97.656250
2596,97.656250
2597,97.656250
2598,101.562500
2599,101.562500
2600,101.562500
2601,101.562500
2602,101.562500
2603,101.562500
2604,101.562500
2605,105.468750
2606,105.468750
2607,101.562500
2608,105.468750
2609,105.468750
2610,105.468750
2611,105.468750
2612,105.468750
2613,105.468750
2614,105.468750
2615,105.468750
2616,105.468750
2617,105.468750
2618,105.468750
2619,101.562500
2620,105.468750
2621,105.468750
2622,109.375000
2623,109.375000
2624,105.468750
2625,109.375000
2626,105.468750
2627,105.468750
2628,105.468750
2629,105.468750
2630,105.468750
2631,105.468750
2632,105.468750
2633,105.468750
2634,105.468750
2635,105.468750
2636,105.468750
2637,105.468750
2638,101.562500
2639,101.562500
2640,101.562500
2641,101.562500
2642,101.562500
2643,101.562500
2644,101.562500
2645,101.562500
2646,101.562500
2647,97.656250
2648,97.656250
2649,97.656250
2650,97.656250
2651,97.656250
2652,97.656250
2653,93.750000
2654,93.750000
2655,93.750000
2656,93.750000
2657,89.843750
2658,89.843750
2659,89.843750
2660,89.843750
2661,85.937500
2662,85.937500
2663,85.937500
2664,85.937500
2665,82.031250
2666,82.031250
2667,82.031250
2668,78.125000
2669,78.125000
2670,78.125000
2671,74.218750
2672,74.218750
2673,74.218750
2674,74.218750
2675,70.312500
2676,70.312500
2677,66.406250
2678,66.406250
2679,66.406250
2680,62.500000
2681,62.500000
2682,58.593750
2683,58.593750
2684,58.593750
2685,54.687500
2686,54.687500
2687,50.781250
2688,50.781250
2689,50.781250
2690,46.875000
2691,46.875000
2692,42.968750
2693,42.968750
2694,39.062500
2695,39.062500
2696,39.062500
2697,35.156250
2698,31.250000
2699,31.250000
2700,27.343750
2701,27.343750
2702,23.437500
2703,27.343750
2704,19.531250
2705,19.531250
2706,15.625000
2707,15.625000
2708,11.718750
2709,11.718750
2710,7.812500
2711,7.812500
2712,3.906250
2713,3.906250
2714,0.000000
2715,0.000000
2716,-3.906250
2717,-7.812500
2718,-7.812500
2719,-11.718750
2720,-11.718750
2721,-15.625000
2722,-15.625000
2723,-19.531250
2724,-23.437500
2725,-23.437500
2726,-27.343750
2727,-27.343750
2728,-31.250000
2729,-35.156250
2730,-35.156250
2731,-39.062500
2732,-39.062500
2733,-42.968750
2734,-46.875000
2735,-46.875000
2736,-50.781250
2737,-50.781250
2738,-54.687500
2739,-58.593750
2740,-58.593750
2741,-62.500000
2742,-62.500000
2743,-66.406250
2744,-66.406250
2745,-70.312500
2746,-74.218750
2747,-74.218750
2748,-78.125000
2749,-82.031250
2750,-82.031250
2751,-82.031250
2752,-85.937500
2753,-85.937500
2754,-89.843750
2755,-93.750000
2756,-93.750000
2757,-97.656250
2758,-97.656250
2759,-101.562500
2760,-105.468750
2761,-105.468750
2762,-109.375000
2763,-109.375000
2764,-113.281250
2765,-113.281250
2766,-117.187500
2767,-117.187500
2768,-121.093750
2769,-121.093750
2770,-125.000000
2771,-125.000000
2772,-128.906250
2773,-132.812500
2774,-132.812500
2775,-132.812500
2776,-136.718750
2777,-136.718750
2778,-140.625000
2779,-140.625000
2780,-140.625000
2781,-144.531250
2782,-144.531250
2783,-148.437500
2784,-148.437500
2785,-152.343750
2786,-152.343750
2787,-152.343750
2788,-156.250000
2789,-156.250000
2790,-160.156250
2791,-160.156250
2792,-160.156250
2793,-164.062500
2794,-164.062500
2795,-164.062500
2796,-167.968750
2797,-167.968750
2798,-167.968750
2799,-171.875000
2800,-171.875000
2801,-171.875000
2802,-175.781250
2803,-175.781250
2804,-175.781250
2805,-175.781250
2806,-179.687500
2807,-179.687500
2808,-179.687500
2809,-179.687500
2810,-179.687500
2811,-179.687500
2812,-183.593750
2813,-183.593750
2814,-183.593750
2815,-183.593750
2816,-183.593750
2817,-183.593750
2818,-183.593750
2819,-187.500000
2820,-183.593750
2821,-187.500000
2822,-183.593750
2823,-187.500000
2824,-187.500000
2825,-187.500000
2826,-187.500000
2827,-187.500000
2828,-187.500000
2829,-187.500000
2830,-187.500000
2831,-187.500000
2832,-187.500000
2833,-187.500000
2834,-187.500000
2835,-187.500000
2836,-183.593750
2837,-187.500000
2838,-187.500000
2839,-183.593750
2840,-183.593750
2841,-183.593750
2842,-183.593750
2843,-183.593750
2844,-183.593750
2845,-183.593750
2846,-179.687500
2847,-179.687500
2848,-179.687500
2849,-179.687500
2850,-179.687500
2851,-179.687500
2852,-175.781250
2853,-175.781250
2854,-175.781250
2855,-175.781250
2856,-171.875000
2857,-171.875000
2858,-171.875000
2859,-167.968750
2860,-167.968750
2861,-167.968750
2862,-164.062500
2863,-164.062500
2864,-164.062500
2865,-160.156250
2866,-160.156250
2867,-160.156250
2868,-160.156250
2869,-156.250000
2870,-156.250000
2871,-152.343750
2872,-152.343750
2873,-152.343750
2874,-148.437500
2875,-148.437500
2876,-148.437500
2877,-144.531250
2878,-140.625000
2879,-140.625000
2880,-136.718750
2881,-136.718750
2882,-136.718750
2883,-132.812500
2884,-132.812500
2885,-128.906250
2886,-128.906250
2887,-125.000000
2888,-125.000000
2889,-121.093750
2890,-121.093750
2891,-117.187500
2892,-117.187500
2893,-113.281250
2894,-109.375000
2895,-113.281250
2896,-105.468750
2897,-105.468750
2898,-101.562500
2899,-101.562500
2900,-97.656250
2901,-97.656250
2902,-93.750000
2903,-93.750000
2904,-89.843750
2905,-85.937500
2906,-85.937500
2907,-85.937500
2908,-82.031250
2909,-78.125000
2910,-78.125000
2911,-74.218750
2912,-74.218750
2913,-70.312500
2914,-66.406250
2915,-66.406250
2916,-62.500000
2917,-62.500000
2918,-58.593750
2919,-58.593750
2920,-50.781250
2921,-50.781250
2922,-50.781250
2923,-46.875000
2924,-46.875000
2925,-42.968750
2926,-39.062500
2927,-39.062500
2928,-35.156250
2929,-35.156250
2930,-31.250000
2931,-31.250000
2932,-27.343750
2933,-23.437500
2934,-23.437500
2935,-19.531250
2936,-19.531250
2937,-15.625000
2938,-15.625000
2939,-11.718750
2940,-7.812500
2941,-7.812500
2942,-3.906250
2943,-3.906250
2944,0.000000
2945,0.000000
2946,3.906250
2947,3.906250
2948,7.812500
2949,11.718750
2950,11.718750
2951,15.625000
2952,15.625000
2953,19.531250
2954,19.531250
2955,23.437500
2956,23.437500
2957,27.343750
2958,27.343750
2959,31.250000
2960,31.250000
2961,31.250000
2962,35.156250
2963,39.062500
2964,39.062500
2965,39.062500
2966,42.968750
2967,42.968750
2968,46.875000
2969,46.875000
2970,50.781250
2971,50.781250
2972,50.781250
2973,54.687500
2974,54.687500
2975,58.593750
2976,58.593750
2977,58.593750
2978,62.500000
2979,62.500000
2980,66.406250
2981,66.406250
2982,66.406250
2983,70.312500
2984,70.312500
2985,70.312500
2986,74.218750
2987,74.218750
2988,74.218750
2989,78.125000
2990,78.125000
2991,78.125000
2992,82.031250
2993,82.031250
2994,82.031250
2995,82.031250
2996,85.937500
2997,85.937500
2998,85.937500
2999,89.843750
3000,89.843750
3001,89.843750
3002,89.843750
3003,93.750000
3004,93.750000
3005,93.750000
3006,93.750000
3007,93.750000
3008,93.750000
3009,97.656250
3010,97.656250
3011,97.656250
3012,97.656250
3013,97.656250
3014,101.562500
3015,101.562500
3016,101.562500
3017,101.562500
3018,101.562500
3019,105.468750
3020,105.468750
3021,105.468750
3022,105.468750
3023,105.468750
3024,105.468750
3025,105.468750
3026,105.468750
3027,105.468750
3028,109.375000
3029,105.468750
3030,109.375000
3031,109.375000
3032,105.468750
3033,109.375000
3034,105.468750
3035,109.375000
3036,105.468750
3037,109.375000
3038,109.375000
3039,109.375000
3040,109.375000
3041,109.375000
3042,109.375000
3043,109.375000
3044,109.375000
3045,105.468750
3046,109.375000
3047,105.468750
3048,105.468750
3049,105.468750
3050,105.468750
3051,105.468750
3052,105.468750
3053,105.468750
3054,105.468750
3055,105.468750
3056,105.468750
3057,101.562500
3058,101.562500
3059,101.562500
3060,101.562500
3061,101.562500
3062,101.562500
3063,101.562500
3064,97.656250
3065,97.656250
3066,97.656250
3067,93.750000
3068,97.656250
3069,97.656250
3070,93.750000
3071,93.750000
3072,93.750000
3073,93.750000
3074,89.843750
3075,89.843750
3076,89.843750
3077,89.843750
3078,85.937500
3079,85.937500
3080,85.937500
3081,85.937500
3082,82.031250
3083,82.031250
3084,82.031250
3085,78.125000
3086,78.125000
3087,78.125000
3088,78.125000
3089,74.218750
3090,74.218750
3091,70.312500
3092,70.312500
3093,70.312500
3094,66.406250
3095,66.406250
3096,66.406250
3097,62.500000
3098,58.593750
3099,62.500000
3100,58.593750
3101,54.687500
3102,54.687500
3103,54.687500
3104,54.687500
3105,50.781250
3106,50.781250
3107,46.875000
3108,46.875000
3109,42.968750
3110,42.968750
3111,39.062500
3112,39.062500
3113,35.156250
3114,35.156250
3115,31.250000
3116,31.250000
3117,31.250000
3118,27.343750
3119,23.437500
3120,23.437500
3121,19.531250
3122,19.531250
3123,15.625000
3124,15.625000
3125,11.718750
3126,11.718750
3127,7.812500
3128,7.812500
3129,3.906250
3130,0.000000
3131,0.000000
3132,0.000000
3133,-3.906250
3134,-7.812500
3135,-7.812500
3136,-11.718750
3137,-15.625000
3138,-15.625000
3139,-19.531250
3140,-19.531250
3141,-23.437500
3142,-23.437500
3143,-27.343750
3144,-31.250000
3145,-31.250000
3146,-35.156250
3147,-39.062500
3148,-39.062500
3149,-39.062500
3150,-42.968750
3151,-46.875000
3152,-46.875000
3153,-50.781250
3154,-50.781250
3155,-54.687500
3156,-58.593750
3157,-58.593750
3158,-62.500000
3159,-62.500000
3160,-66.406250
3161,-66.406250
3162,-70.312500
3163,-74.218750
3164,-78.125000
3165,-78.125000
3166,-82.031250
3167,-82.031250
3168,-85.937500
3169,-85.937500
3170,-89.843750
3171,-89.843750
3172,-93.750000
3173,-93.750000
3174,-97.656250
3175,-101.562500
3176,-101.562500
3177,-105.468750
3178,-105.468750
3179,-109.375000
3180,-109.375000
3181,-113.281250
3182,-113.281250
3183,-117.187500
3184,-117.187500
3185,-121.093750
3186,-121.093750
3187,-125.000000
3188,-125.000000
3189,-128.906250
3190,-128.906250
3191,-132.812500
3192,-132.812500
3193,-136.718750
3194,-136.718750
3195,-140.625000
3196,-140.625000
3197,-144.531250
3198,-144.531250
3199,-144.531250
3200,-148.437500
3201,-148.437500
3202,-152.343750
3203,-152.343750
3204,-152.343750
3205,-156.250000
3206,-156.250000
3207,-160.156250
3208,-160.156250
3209,-160.156250
3210,-164.062500
3211,-164.062500
3212,-164.062500
3213,-167.968750
3214,-167.968750
3215,-167.968750
3216,-171.875000
3217,-171.875000
3218,-171.875000
3219,-171.875000
3220,-175.781250
3221,-175.781250
3222,-175.781250
3223,-175.781250
3224,-179.687500
3225,-179.687500
3226,-179.687500
3227,-179.687500
3228,-179.687500
3229,-179.687500
3230,-183.593750
3231,-183.593750
3232,-183.593750
3233,-183.593750
3234,-183.593750
3235,-187.500000
3236,-187.500000
3237,-187.500000
3238,-187.500000
3239,-187.500000
3240,-187.500000
3241,-187.500000
3242,-187.500000
3243,-187.500000
3244,-187.500000
3245,-187.500000
3246,-187.500000
3247,-187.500000
3248,-187.500000
3249,-187.500000
3250,-187.500000
3251,-187.500000
3252,-187.500000
3253,-187.500000
3254,-187.500000
3255,-187.500000
3256,-187.500000
3257,-183.593750
3258,-183.593750
3259,-183.593750
3260,-183.593750
3261,-183.593750
3262,-183.593750
3263,-179.687500
3264,-179.687500
3265,-179.687500
3266,-179.687500
3267,-179.687500
3268,-179.687500
3269,-175.781250
3270,-175.781250
3271,-175.781250
3272,-175.781250
3273,-171.875000
3274,-171.875000
3275,-167.968750
3276,-167.968750
3277,-167.968750
3278,-167.968750
3279,-164.062500
3280,-164.062500
3281,-164.062500
3282,-160.156250
3283,-160.156250
3284,-160.156250
3285,-156.250000
3286,-156.250000
3287,-156.250000
3288,-152.343750
3289,-152.343750
3290,-148.437500
3291,-148.437500
3292,-148.437500
3293,-144.531250
3294,-144.531250
3295,-140.625000
3296,-140.625000
3297,-136.718750
3298,-136.718750
3299,-132.812500
3300,-132.812500
3301,-128.906250
3302,-128.906250
3303,-125.000000
3304,-125.000000
3305,-125.000000
3306,-121.093750
3307,-121.093750
3308,-117.187500
3309,-117.187500
3310,-113.281250
3311,-113.281250
3312,-109.375000
3313,-109.375000
3314,-105.468750
3315,-101.562500
3316,-101.562500
3317,-97.656250
3318,-97.656250
3319,-93.750000
3320,-93.750000
3321,-89.843750
3322,-85.937500
3323,-85.937500
3324,-85.937500
3325,-82.031250
3326,-78.125000
3327,-78.125000
3328,-74.218750
3329,-70.312500
3330,-70.312500
3331,-66.406250
3332,-66.406250
3333,-62.500000
3334,-62.500000
3335,-58.593750
3336,-54.687500
3337,-54.687500
3338,-50.781250
3339,-50.781250
3340,-46.875000
3341,-42.968750
3342,-42.968750
3343,-39.062500
3344,-39.062500
3345,-35.156250
3346,-35.156250
3347,-31.250000
3348,-27.343750
3349,-27.343750
3350,-23.437500
3351,-23.437500
3352,-19.531250
3353,-15.625000
3354,-15.625000
3355,-11.718750
3356,-11.718750
3357,-7.812500
3358,-7.812500
3359,-3.906250
3360,-3.906250
3361,0.000000
3362,0.000000
3363,3.906250
3364,7.812500
3365,7.812500
3366,11.718750
3367,11.718750
3368,15.625000
3369,15.625000
3370,19.531250
3371,19.531250
3372,23.437500
3373,23.437500
3374,19.531250
3375,27.343750
3376,31.250000
3377,31.250000
3378,35.156250
3379,35.156250
3380,35.156250
3381,39.062500
3382,39.062500
3383,42.968750
3384,46.875000
3385,46.875000
3386,46.875000
3387,50.781250
3388,50.781250
3389,50.781250
3390,54.687500
3391,54.687500
3392,58.593750
3393,58.593750
3394,62.500000
3395,62.500000
3396,62.500000
3397,66.406250
3398,66.406250
3399,66.406250
3400,70.312500
3401,70.312500
3402,70.312500
3403,74.218750
3404,74.218750
3405,78.125000
3406,78.125000
3407,78.125000
3408,82.031250
3409,82.031250
3410,82.031250
3411,82.031250
3412,85.937500
3413,85.937500
3414,85.937500
3415,85.937500
3416,89.843750
3417,89.843750
3418,89.843750
3419,89.843750
3420,93.750000
3421,93.750000
3422,93.750000
3423,93.750000
3424,93.750000
3425,97.656250
3426,97.656250
3427,97.656250
3428,97.656250
3429,97.656250
3430,97.656250
3431,101.562500
3432,101.562500
3433,101.562500
3434,101.562500
3435,101.562500
3436,101.562500
3437,101.562500
3438,105.468750
3439,105.468750
3440,105.468750
3441,105.468750
3442,105.468750
3443,105.468750
3444,105.468750
3445,105.468750
3446,105.468750
3447,105.468750
3448,105.468750
3449,105.468750
3450,109.375000
3451,109.375000
3452,105.468750
3453,105.468750
3454,109.375000
3455,109.375000
3456,109.375000
3457,109.375000
3458,109.375000
3459,105.468750
3460,105.468750
3461,105.468750
3462,105.468750
3463,105.468750
3464,105.468750
3465,105.468750
3466,105.468750
3467,105.468750
3468,105.468750
3469,105.468750
3470,105.468750
3471,101.562500
3472,105.468750
3473,101.562500
3474,101.562500
3475,101.562500
3476,101.562500
3477,101.562500
3478,101.562500
3479,101.562500
3480,97.656250
3481,101.562500
3482,97.656250
3483,97.656250
3484,97.656250
3485,97.656250
3486,97.656250
3487,93.750000
3488,93.750000
3489,93.750000
3490,93.750000
3491,89.843750
3492,89.843750
3493,89.843750
3494,89.843750
3495,85.937500
3496,85.937500
3497,85.937500
3498,82.031250
3499,82.031250
3500,82.031250
3501,78.125000
3502,78.125000
3503,78.125000
3504,78.125000
3505,74.218750
3506,74.218750
3507,74.218750
3508,70.312500
3509,70.312500
3510,66.406250
3511,66.406250
3512,66.406250
3513,62.500000
3514,62.500000
3515,62.500000
3516,58.593750
3517,58.593750
3518,54.687500
3519,54.687500
3520,50.781250
3521,50.781250
3522,50.781250
3523,46.875000
3524,46.875000
3525,42.968750
3526,42.968750
3527,39.062500
3528,39.062500
3529,39.062500
3530,35.156250
3531,35.156250
3532,31.250000
3533,31.250000
3534,27.343750
3535,27.343750
3536,23.437500
3537,23.437500
3538,19.531250
3539,19.531250
3540,15.625000
3541,15.625000
3542,11.718750
3543,7.812500
3544,7.812500
3545,7.812500
3546,3.906250
3547,0.000000
3548,0.000000
3549,-3.906250
3550,-3.906250
3551,-7.812500
3552,-7.812500
3553,-11.718750
3554,-11.718750
3555,-15.625000
3556,-19.531250
3557,-19.531250
3558,-23.437500
3559,-23.437500
3560,-27.343750
3561,-31.250000
3562,-31.250000
3563,-35.156250
3564,-35.156250
3565,-39.062500
3566,-39.062500
3567,-42.968750
3568,-46.875000
3569,-46.875000
3570,-50.781250
3571,-54.687500
3572,-54.687500
3573,-58.593750
3574,-58.593750
3575,-62.500000
3576,-66.406250
3577,-66.406250
3578,-70.312500
3579,-70.312500
3580,-74.218750
3581,-78.125000
3582,-78.125000
3583,-82.031250
3584,-82.031250
3585,-85.937500
3586,-89.843750
3587,-89.843750
3588,-93.750000
3589,-93.750000
3590,-97.656250
3591,-97.656250
3592,-101.562500
3593,-101.562500
3594,-105.468750
3595,-105.468750
3596,-109.375000
3597,-109.375000
3598,-113.281250
3599,-113.281250
3600,-117.187500
3601,-117.187500
3602,-121.093750
3603,-125.000000
3604,-125.000000
3605,-128.906250
3606,-128.906250
3607,-128.906250
3608,-132.812500
3609,-136.718750
3610,-136.718750
3611,-136.718750
3612,-140.625000
3613,-140.625000
3614,-144.531250
3615,-144.531250
3616,-148.437500
3617,-148.437500
3618,-152.343750
3619,-152.343750
3620,-152.343750
3621,-156.250000
3622,-156.250000
3623,-156.250000
3624,-160.156250
3625,-160.156250
3626,-164.062500
3627,-164.062500
3628,-164.062500
3629,-167.968750
3630,-167.968750
3631,-167.968750
3632,-167.968750
3633,-171.875000
3634,-167.968750
3635,-171.875000
3636,-175.781250
3637,-175.781250
3638,-175.781250
3639,-175.781250
3640,-179.687500
3641,-179.687500
3642,-179.687500
3643,-179.687500
3644,-179.687500
3645,-179.687500
3646,-183.593750
3647,-183.593750
3648,-183.593750
3649,-183.593750
3650,-183.593750
3651,-183.593750
3652,-183.593750
3653,-183.593750
3654,-187.500000
3655,-187.500000
3656,-187.500000
3657,-187.500000
3658,-187.500000
3659,-187.500000
3660,-187.500000
3661,-187.500000
3662,-187.500000
3663,-187.500000
3664,-187.500000
3665,-187.500000
3666,-187.500000
3667,-187.500000
3668,-187.500000
3669,-183.593750
3670,-183.593750
3671,-183.593750
3672,-183.593750
3673,-183.593750
3674,-183.593750
3675,-183.593750
3676,-183.593750
3677,-183.593750
3678,-183.593750
3679,-179.687500
3680,-179.687500
3681,-179.687500
3682,-179.687500
3683,-179.687500
3684,-179.687500
3685,-175.781250
3686,-175.781250
3687,-175.781250
3688,-175.781250
3689,-171.875000
3690,-171.875000
3691,-171.875000
3692,-167.968750
3693,-167.968750
3694,-164.062500
3695,-167.968750
3696,-164.062500
3697,-164.062500
3698,-164.062500
3699,-160.156250
3700,-160.156250
3701,-160.156250
3702,-160.156250
3703,-156.250000
3704,-156.250000
3705,-152.343750
3706,-152.343750
3707,-148.437500
3708,-148.437500
3709,-148.437500
3710,-144.531250
3711,-144.531250
3712,-140.625000
3713,-140.625000
3714,-136.718750
3715,-136.718750
3716,-132.812500
3717,-132.812500
3718,-128.906250
3719,-128.906250
3720,-125.000000
3721,-125.000000
3722,-121.093750
3723,-121.093750
3724,-121.093750
3725,-117.187500
3726,-113.281250
3727,-113.281250
3728,-109.375000
3729,-109.375000
3730,-105.468750
3731,-105.468750
3732,-101.562500
3733,-101.562500
3734,-97.656250
3735,-93.750000
3736,-93.750000
3737,-89.843750
3738,-89.843750
3739,-85.937500
3740,-85.937500
3741,-82.031250
3742,-78.125000
3743,-78.125000
3744,-74.218750
3745,-74.218750
3746,-70.312500
3747,-66.406250
3748,-66.406250
3749,-62.500000
3750,-62.500000
3751,-58.593750
3752,-58.593750
3753,-54.687500
3754,-50.781250
3755,-50.781250
3756,-46.875000
3757,-46.875000
3758,-42.968750
3759,-42.968750
3760,-39.062500
3761,-35.156250
3762,-35.156250
3763,-31.250000
3764,-31.250000
3765,-27.343750
3766,-27.343750
3767,-23.437500
3768,-19.531250
3769,-19.531250
3770,-15.625000
3771,-15.625000
3772,-11.718750
3773,-11.718750
3774,-7.812500
3775,-3.906250
3776,-3.906250
3777,0.000000
3778,0.000000
3779,3.906250
3780,3.906250
3781,7.812500
3782,7.812500
3783,11.718750
3784,11.718750
3785,15.625000
3786,19.531250
3787,19.531250
3788,19.531250
3789,23.437500
3790,23.437500
3791,27.343750
3792,27.343750
3793,31.250000
3794,35.156250
3795,35.156250
3796,35.156250
3797,39.062500
3798,39.062500
3799,42.968750
3800,42.968750
3801,46.875000
3802,46.875000
3803,50.781250
3804,50.781250
3805,50.781250
3806,54.687500
3807,54.687500
3808,58.593750
3809,58.593750
3810,62.500000
3811,62.500000
3812,62.500000
3813,66.406250
3814,66.406250
3815,66.406250
3816,70.312500
3817,70.312500
3818,70.312500
3819,70.312500
3820,74.218750
3821,74.218750
3822,78.125000
3823,78.125000
3824,78.125000
3825,82.031250
3826,82.031250
3827,82.031250
3828,85.937500
3829,85.937500
3830,89.843750
3831,85.937500
3832,89.843750
3833,89.843750
3834,89.843750
3835,89.843750
3836,93.750000
3837,93.750000
3838,93.750000
3839,93.750000
3840,93.750000
3841,93.750000
3842,97.656250
3843,97.656250
3844,97.656250
3845,97.656250
3846,97.656250
3847,101.562500
3848,101.562500
3849,101.562500
3850,101.562500
3851,101.562500
3852,101.562500
3853,101.562500
3854,105.468750
3855,105.468750
3856,101.562500
3857,105.468750
3858,105.468750
3859,105.468750
3860,105.468750
3861,105.468750
3862,105.468750
3863,105.468750
3864,105.468750
3865,109.375000
3866,105.468750
3867,109.375000
3868,109.375000
3869,109.375000
3870,109.375000
3871,105.468750
3872,109.375000
3873,109.375000
3874,109.375000
3875,109.375000
3876,109.375000
3877,109.375000
3878,105.468750
3879,105.468750
3880,105.468750
3881,109.375000
3882,105.468750
3883,105.468750
3884,105.468750
3885,105.468750
3886,105.468750
3887,105.468750
3888,105.468750
3889,101.562500
3890,105.468750
3891,101.562500
3892,101.562500
3893,101.562500
3894,101.562500
3895,101.562500
3896,97.656250
3897,101.562500
3898,97.656250
3899,97.656250
3900,97.656250
3901,97.656250
3902,97.656250
3903,93.750000
3904,93.750000
3905,93.750000
3906,93.750000
3907,89.843750
3908,89.843750
3909,89.843750
3910,85.937500
3911,85.937500
3912,85.937500
3913,85.937500
3914,85.937500
3915,82.031250
3916,82.031250
3917,82.031250
3918,78.125000
3919,78.125000
3920,78.125000
3921,78.125000
3922,74.218750
3923,74.218750
3924,70.312500
3925,70.312500
3926,70.312500
3927,66.406250
3928,66.406250
3929,66.406250
3930,66.406250
3931,62.500000
3932,62.500000
3933,58.593750
3934,58.593750
3935,54.687500
3936,54.687500
3937,50.781250
3938,50.781250
3939,50.781250
3940,46.875000
3941,46.875000
3942,42.968750
3943,42.968750
3944,39.062500
3945,39.062500
3946,35.156250
3947,35.156250
3948,35.156250
3949,31.250000
3950,31.250000
3951,27.343750
3952,23.437500
3953,23.437500
3954,19.531250
3955,19.531250
3956,19.531250
3957,15.625000
3958,11.718750
3959,11.718750
3960,7.812500
3961,7.812500
3962,3.906250
3963,3.906250
3964,0.000000
3965,0.000000
3966,-3.906250
3967,-7.812500
3968,-7.812500
3969,-11.718750
3970,-11.718750
3971,-15.625000
3972,-15.625000
3973,-19.531250
3974,-23.437500
3975,-23.437500
3976,-27.343750
3977,-27.343750
3978,-31.250000
3979,-31.250000
3980,-35.156250
3981,-39.062500
3982,-39.062500
3983,-42.968750
3984,-42.968750
3985,-46.875000
3986,-50.781250
3987,-50.781250
3988,-54.687500
3989,-54.687500
3990,-58.593750
3991,-62.500000
3992,-62.500000
3993,-66.406250
3994,-66.406250
3995,-70.312500
3996,-74.218750
3997,-74.218750
3998,-82.031250
3999,-78.125000
4000,-82.031250
4001,-82.031250
4002,-85.937500
4003,-89.843750
4004,-89.843750
4005,-93.750000
4006,-93.750000
4007,-97.656250
4008,-101.562500
4009,-101.562500
4010,-105.468750
4011,-105.468750
4012,-109.375000
4013,-109.375000
4014,-113.281250
4015,-113.281250
4016,-117.187500
4017,-117.187500
4018,-121.093750
4019,-121.093750
4020,-125.000000
4021,-125.000000
4022,-128.906250
4023,-128.906250
4024,-132.812500
4025,-132.812500
4026,-136.718750
4027,-136.718750
4028,-140.625000
4029,-140.625000
4030,-140.625000
4031,-144.531250
4032,-144.531250
4033,-148.437500
4034,-148.437500
4035,-152.343750
4036,-152.343750
4037,-156.250000
4038,-156.250000
4039,-156.250000
4040,-160.156250
4041,-160.156250
4042,-160.156250
4043,-164.062500
4044,-164.062500
4045,-164.062500
4046,-167.968750
4047,-167.968750
4048,-167.968750
4049,-171.875000
4050,-171.875000
4051,-171.875000
4052,-171.875000
4053,-175.781250
4054,-175.781250
4055,-175.781250
4056,-175.781250
4057,-179.687500
4058,-179.687500
4059,-179.687500
4060,-179.687500
4061,-179.687500
4062,-179.687500
4063,-183.593750
4064,-183.593750
4065,-183.593750
4066,-183.593750
4067,-183.593750
4068,-183.593750
4069,-187.500000
4070,-187.500000
4071,-187.500000
4072,-187.500000
4073,-187.500000
4074,-187.500000
4075,-187.500000
4076,-187.500000
4077,-187.500000
4078,-187.500000
4079,-187.500000
4080,-187.500000
4081,-187.500000
4082,-187.500000
4083,-187.500000
4084,-187.500000
4085,-187.500000
4086,-187.500000
4087,-187.500000
4088,-187.500000
4089,-187.500000
4090,-183.593750
4091,-183.593750
4092,-183.593750
4093,-183.593750
4094,-183.593750
4095,-183.593750
4096,-183.593750
4097,-179.687500
4098,-179.687500
4099,-179.687500
4100,-179.687500
4101,-179.687500
4102,-179.687500
4103,-175.781250
4104,-175.781250
4105,-175.781250
4106,-171.875000
4107,-171.875000
4108,-171.875000
4109,-171.875000
4110,-167.968750
4111,-167.968750
4112,-167.968750
4113,-164.062500
4114,-164.062500
4115,-164.062500
4116,-164.062500
4117,-160.156250
4118,-156.250000
4119,-156.250000
4120,-156.250000
4121,-152.343750
4122,-152.343750
4123,-152.343750
4124,-148.437500
4125,-148.437500
4126,-144.531250
4127,-144.531250
4128,-144.531250
4129,-140.625000
4130,-140.625000
4131,-136.718750
4132,-136.718750
4133,-132.812500
4134,-132.812500
4135,-128.906250
4136,-128.906250
4137,-125.000000
4138,-125.000000
4139,-125.000000
4140,-121.093750
4141,-117.187500
4142,-117.187500
4143,-113.281250
4144,-113.281250
4145,-109.375000
4146,-109.375000
4147,-105.468750
4148,-105.468750
4149,-101.562500
4150,-101.562500
4151,-97.656250
4152,-97.656250
4153,-93.750000
4154,-89.843750
4155,-89.843750
4156,-89.843750
4157,-85.937500
4158,-82.031250
4159,-78.125000
4160,-78.125000
4161,-74.218750
4162,-74.218750
4163,-70.312500
4164,-66.406250
4165,-66.406250
4166,-62.500000
4167,-62.500000
4168,-58.593750
4169,-58.593750
4170,-54.687500
4171,-50.781250
4172,-50.781250
4173,-46.875000
4174,-46.875000
4175,-42.968750
4176,-39.062500
4177,-39.062500
4178,-35.156250
4179,-35.156250
4180,-31.250000
4181,-31.250000
4182,-27.343750
4183,-23.437500
4184,-23.437500
4185,-19.531250
4186,-19.531250
4187,-15.625000
4188,-11.718750
4189,-11.718750
4190,-7.812500
4191,-7.812500
4192,-3.906250
4193,-3.906250
4194,0.000000
4195,0.000000
4196,3.906250
4197,3.906250
4198,7.812500
4199,11.718750
4200,11.718750
4201,15.625000
4202,15.625000
4203,15.625000
4204,19.531250
4205,23.437500
4206,23.437500
4207,27.343750
4208,27.343750
4209,31.250000
4210,31.250000
4211,31.250000
4212,35.156250
4213,35.156250
4214,39.062500
4215,39.062500
4216,42.968750
4217,42.968750
4218,46.875000
4219,46.875000
4220,50.781250
4221,50.781250
4222,50.781250
4223,54.687500
4224,54.687500
4225,58.593750
4226,58.593750
4227,62.500000
4228,62.500000
4229,62.500000
4230,66.406250
4231,66.406250
4232,66.406250
4233,70.312500
4234,74.218750
4235,70.312500
4236,74.218750
4237,74.218750
4238,78.125000
4239,78.125000
4240,78.125000
4241,78.125000
4242,82.031250
4243,82.031250
4244,82.031250
4245,82.031250
4246,85.937500
4247,85.937500
4248,89.843750
4249,89.843750
4250,89.843750
4251,89.843750
4252,93.750000
4253,93.750000
4254,93.750000
4255,93.750000
4256,93.750000
4257,97.656250
4258,97.656250
4259,97.656250
4260,97.656250
4261,97.656250
4262,97.656250
4263,97.656250
4264,101.562500
4265,101.562500
4266,101.562500
4267,101.562500
4268,101.562500
4269,101.562500
4270,101.562500
4271,105.468750
4272,105.468750
4273,105.468750
4274,105.468750
4275,105.468750
4276,105.468750
4277,105.468750
4278,105.468750
4279,105.468750
4280,105.468750
4281,105.468750
4282,109.375000
4283,109.375000
4284,105.468750
4285,105.468750
4286,109.375000
4287,109.375000
4288,105.468750
4289,105.468750
4290,109.375000
4291,105.468750
4292,109.375000
4293,105.468750
4294,105.468750
4295,105.468750
4296,105.468750
4297,105.468750
4298,105.468750
4299,109.375000
4300,105.468750
4301,105.468750
4302,105.468750
4303,105.468750
4304,105.468750
4305,105.468750
4306,105.468750
4307,101.562500
4308,101.562500
4309,101.562500
4310,101.562500
4311,101.562500
4312,101.562500
4313,101.562500
4314,97.656250
4315,97.656250
4316,97.656250
4317,97.656250
4318,97.656250
4319,97.656250
4320,93.750000
4321,93.750000
4322,93.750000
4323,93.750000
4324,89.843750
4325,89.843750
4326,89.843750
4327,89.843750
4328,85.937500
4329,85.937500
4330,85.937500
4331,85.937500
4332,82.031250
4333,82.031250
4334,82.031250
4335,82.031250
4336,78.125000
4337,78.125000
4338,78.125000
4339,74.218750
4340,74.218750
4341,74.218750
4342,70.312500
4343,70.312500
4344,66.406250
4345,66.406250
4346,66.406250
4347,62.500000
4348,62.500000
4349,62.500000
4350,58.593750
4351,58.593750
4352,54.687500
4353,54.687500
4354,50.781250
4355,50.781250
4356,50.781250
4357,46.875000
4358,46.875000
4359,42.968750
4360,42.968750
4361,39.062500
4362,39.062500
4363,35.156250
4364,35.156250
4365,35.156250
4366,31.250000
4367,27.343750
4368,27.343750
4369,23.437500
4370,23.437500
4371,19.531250
4372,19.531250
4373,15.625000
4374,15.625000
4375,15.625000
4376,11.718750
4377,7.812500
4378,7.812500
4379,3.906250
4380,3.906250
4381,0.000000
4382,0.000000
4383,-3.906250
4384,-7.812500
4385,-7.812500
4386,-11.718750
4387,-11.718750
4388,-15.625000
4389,-15.625000
4390,-19.531250
4391,-23.437500
4392,-23.437500
4393,-27.343750
4394,-27.343750
4395,-31.250000
4396,-31.250000
4397,-35.156250
4398,-39.062500
4399,-39.062500
4400,-42.968750
4401,-42.968750
4402,-46.875000
4403,-50.781250
4404,-50.781250
4405,-54.687500
4406,-58.593750
4407,-58.593750
4408,-62.500000
4409,-62.500000
4410,-66.406250
4411,-70.312500
4412,-70.312500
4413,-74.218750
4414,-74.218750
4415,-78.125000
4416,-82.031250
4417,-82.031250
4418,-85.937500
4419,-85.937500
4420,-89.843750
4421,-89.843750
4422,-93.750000
4423,-97.656250
4424,-97.656250
4425,-97.656250
4426,-101.562500
4427,-105.468750
4428,-105.468750
4429,-109.375000
4430,-109.375000
4431,-113.281250
4432,-113.281250
4433,-117.187500
4434,-117.187500
4435,-121.093750
4436,-121.093750
4437,-125.000000
4438,-125.000000
4439,-128.906250
4440,-128.906250
4441,-132.812500
4442,-132.812500
4443,-136.718750
4444,-136.718750
4445,-140.625000
4446,-140.625000
4447,-144.531250
4448,-144.531250
4449,-144.531250
4450,-144.531250
4451,-148.437500
4452,-152.343750
4453,-152.343750
4454,-152.343750
4455,-156.250000
4456,-156.250000
4457,-160.156250
4458,-160.156250
4459,-160.156250
4460,-164.062500
4461,-164.062500
4462,-164.062500
4463,-164.062500
4464,-167.968750
4465,-167.968750
4466,-171.875000
4467,-171.875000
4468,-171.875000
4469,-175.781250
4470,-175.781250
4471,-175.781250
4472,-175.781250
4473,-175.781250
4474,-179.687500
4475,-179.687500
4476,-179.687500
4477,-183.593750
4478,-183.593750
4479,-183.593750
4480,-183.593750
4481,-183.593750
4482,-183.593750
4483,-183.593750
4484,-183.593750
4485,-183.593750
4486,-187.500000
4487,-183.593750
4488,-187.500000
4489,-187.500000
4490,-187.500000
4491,-187.500000
4492,-187.500000
4493,-187.500000
4494,-187.500000
4495,-187.500000
4496,-187.500000
4497,-187.500000
4498,-187.500000
4499,-187.500000
4500,-187.500000
4501,-187.500000
4502,-187.500000
4503,-183.593750
4504,-183.593750
4505,-183.593750
4506,-183.593750
4507,-183.593750
4508,-183.593750
4509,-183.593750
4510,-183.593750
4511,-183.593750
4512,-183.593750
4513,-179.687500
4514,-179.687500
4515,-179.687500
4516,-175.781250
4517,-179.687500
4518,-179.687500
4519,-175.781250
4520,-175.781250
4521,-175.781250
4522,-175.781250
4523,-171.875000
4524,-171.875000
4525,-171.875000
4526,-167.968750
4527,-167.968750
4528,-167.968750
4529,-164.062500
4530,-164.062500
4531,-164.062500
4532,-160.156250
4533,-160.156250
4534,-160.156250
4535,-156.250000
4536,-156.250000
4537,-156.250000
4538,-152.343750
4539,-152.343750
4540,-148.437500
4541,-148.437500
4542,-148.437500
4543,-144.531250
4544,-144.531250
4545,-140.625000
4546,-140.625000
4547,-140.625000
4548,-136.718750
4549,-136.718750
4550,-132.812500
4551,-132.812500
4552,-128.906250
4553,-128.906250
4554,-125.000000
4555,-121.093750
4556,-121.093750
4557,-121.093750
4558,-117.187500
4559,-113.281250
4560,-113.281250
4561,-113.281250
4562,-109.375000
4563,-105.468750
4564,-105.468750
4565,-101.562500
4566,-101.562500
4567,-97.656250
4568,-97.656250
4569,-93.750000
4570,-93.750000
4571,-89.843750
4572,-85.937500
4573,-85.937500
4574,-82.031250
4575,-78.125000
4576,-78.125000
4577,-78.125000
4578,-74.218750
4579,-74.218750
4580,-70.312500
4581,-66.406250
4582,-66.406250
4583,-62.500000
4584,-62.500000
4585,-58.593750
4586,-54.687500
4587,-54.687500
4588,-50.781250
4589,-46.875000
4590,-46.875000
4591,-42.968750
4592,-42.968750
4593,-39.062500
4594,-39.062500
4595,-31.250000
4596,-31.250000
4597,-31.250000
4598,-27.343750
4599,-27.343750
4600,-23.437500
4601,-23.437500
4602,-19.531250
4603,-19.531250
4604,-15.625000
4605,-11.718750
4606,-11.718750
4607,-7.812500
4608,-7.812500
4609,-3.906250
4610,-3.906250
4611,0.000000
4612,3.906250
4613,3.906250
4614,7.812500
4615,7.812500
4616,7.812500
4617,11.718750
4618,15.625000
4619,15.625000
4620,19.531250
4621,19.531250
4622,23.437500
4623,23.437500
4624,27.343750
4625,27.343750
4626,31.250000
4627,31.250000
4628,35.156250
4629,35.156250
4630,39.062500
4631,39.062500
4632,42.968750
4633,42.968750
4634,42.968750
4635,46.875000
4636,50.781250
4637,50.781250
4638,50.781250
4639,54.687500
4640,54.687500
4641,54.687500
4642,58.593750
4643,58.593750
4644,62.500000
4645,62.500000
4646,62.500000
4647,66.406250
4648,66.406250
4649,70.312500
4650,70.312500
4651,70.312500
4652,74.218750
4653,74.218750
4654,74.218750
4655,74.218750
4656,78.125000
4657,78.125000
4658,78.125000
4659,82.031250
4660,82.031250
4661,82.031250
4662,85.937500
4663,89.843750
4664,85.937500
4665,85.937500
4666,89.843750
4667,89.843750
4668,89.843750
4669,93.750000
4670,93.750000
4671,93.750000
4672,93.750000
4673,93.750000
4674,93.750000
4675,97.656250
4676,97.656250
4677,97.656250
4678,97.656250
4679,101.562500
4680,101.562500
4681,101.562500
4682,101.562500
4683,101.562500
4684,105.468750
4685,101.562500
4686,101.562500
4687,105.468750
4688,105.468750
4689,105.468750
4690,105.468750
4691,105.468750
4692,105.468750
4693,105.468750
4694,105.468750
4695,105.468750
4696,105.468750
4697,105.468750
4698,105.468750
4699,109.375000
4700,109.375000
4701,109.375000
4702,109.375000
4703,105.468750
4704,109.375000
4705,109.375000
4706,105.468750
4707,109.375000
4708,109.375000
4709,109.375000
4710,105.468750
4711,105.468750
4712,105.468750
4713,105.468750
4714,105.468750
4715,105.468750
4716,105.468750
4717,105.468750
4718,105.468750
4719,109.375000
4720,105.468750
4721,105.468750
4722,105.468750
4723,101.562500
4724,101.562500
4725,101.562500
4726,101.562500
4727,101.562500
4728,101.562500
4729,101.562500
4730,97.656250
4731,97.656250
4732,97.656250
4733,97.656250
4734,97.656250
4735,97.656250
4736,93.750000
4737,93.750000
4738,93.750000
4739,93.750000
4740,93.750000
4741,89.843750
4742,89.843750
4743,89.843750
4744,89.843750
4745,85.937500
4746,85.937500
4747,85.937500
4748,82.031250
4749,82.031250
4750,82.031250
4751,82.031250
4752,78.125000
4753,78.125000
4754,78.125000
4755,74.218750
4756,74.218750
4757,74.218750
4758,70.312500
4759,70.312500
4760,70.312500
4761,66.406250
4762,66.406250
4763,62.500000
4764,62.500000
4765,62.500000
4766,58.593750
4767,58.593750
4768,54.687500
4769,54.687500
4770,54.687500
4771,50.781250
4772,50.781250
4773,50.781250
4774,46.875000
4775,46.875000
4776,42.968750
4777,42.968750
4778,39.062500
4779,39.062500
4780,35.156250
4781,35.156250
4782,31.250000
4783,31.250000
4784,27.343750
4785,27.343750
4786,23.437500
4787,23.437500
4788,19.531250
4789,15.625000
4790,19.531250
4791,15.625000
4792,11.718750
4793,7.812500
4794,7.812500
4795,3.906250
4796,3.906250
4797,0.000000
4798,0.000000
4799,-3.906250
4800,-3.906250
4801,-7.812500
4802,-11.718750
4803,-11.718750
4804,-15.625000
4805,-15.625000
4806,-19.531250
4807,-19.531250
4808,-23.437500
4809,-27.343750
4810,-27.343750
4811,-31.250000
4812,-31.250000
4813,-35.156250
4814,-35.156250
4815,-39.062500
4816,-39.062500
4817,-42.968750
4818,-46.875000
4819,-46.875000
4820,-50.781250
4821,-54.687500
4822,-54.687500
4823,-58.593750
4824,-58.593750
4825,-62.500000
4826,-66.406250
4827,-66.406250
4828,-70.312500
4829,-70.312500
4830,-74.218750
4831,-78.125000
4832,-78.125000
4833,-82.031250
4834,-82.031250
4835,-85.937500
4836,-85.937500
4837,-89.843750
4838,-93.750000
4839,-93.750000
4840,-97.656250
4841,-97.656250
4842,-101.562500
4843,-101.562500
4844,-105.468750
4845,-105.468750
4846,-109.375000
4847,-113.281250
4848,-113.281250
4849,-117.187500
4850,-117.187500
4851,-121.093750
4852,-121.093750
4853,-125.000000
4854,-125.000000
4855,-128.906250
4856,-128.906250
4857,-132.812500
4858,-132.812500
4859,-136.718750
4860,-136.718750
4861,-140.625000
4862,-140.625000
4863,-144.531250
4864,-144.531250
4865,-144.531250
4866,-148.437500
4867,-148.437500
4868,-152.343750
4869,-152.343750
4870,-156.250000
4871,-156.250000
4872,-156.250000
4873,-160.156250
4874,-160.156250
4875,-160.156250
4876,-164.062500
4877,-164.062500
4878,-164.062500
4879,-167.968750
4880,-167.968750
4881,-167.968750
4882,-171.875000
4883,-171.875000
4884,-171.875000
4885,-175.781250
4886,-175.781250
4887,-171.875000
4888,-175.781250
4889,-179.687500
4890,-179.687500
4891,-179.687500
4892,-179.687500
4893,-179.687500
4894,-179.687500
4895,-183.593750
4896,-183.593750
4897,-183.593750
4898,-183.593750
4899,-183.593750
4900,-183.593750
4901,-183.593750
4902,-183.593750
4903,-187.500000
4904,-187.500000
4905,-187.500000
4906,-187.500000
4907,-187.500000
4908,-187.500000
4909,-187.500000
4910,-187.500000
4911,-187.500000
4912,-187.500000
4913,-187.500000
4914,-187.500000
4915,-187.500000
4916,-187.500000
4917,-187.500000
4918,-187.500000
4919,-187.500000
4920,-187.500000
4921,-187.500000
4922,-187.500000
4923,-183.593750
4924,-183.593750
4925,-183.593750
4926,-183.593750
4927,-183.593750
4928,-183.593750
4929,-183.593750
4930,-183.593750
4931,-179.687500
4932,-179.687500
4933,-179.687500
4934,-175.781250
4935,-179.687500
4936,-175.781250
4937,-175.781250
4938,-175.781250
4939,-175.781250
4940,-171.875000
4941,-171.875000
4942,-171.875000
4943,-167.968750
4944,-167.968750
4945,-167.968750
4946,-167.968750
4947,-164.062500
4948,-160.156250
4949,-160.156250
4950,-160.156250
4951,-160.156250
4952,-160.156250
4953,-156.250000
4954,-156.250000
4955,-152.343750
4956,-152.343750
4957,-148.437500
4958,-148.437500
4959,-144.531250
4960,-144.531250
4961,-144.531250
4962,-140.625000
4963,-140.625000
4964,-136.718750
4965,-136.718750
4966,-136.718750
4967,-132.812500
4968,-132.812500
4969,-128.906250
4970,-128.906250
4971,-125.000000
4972,-121.093750
4973,-121.093750
4974,-117.187500
4975,-117.187500
4976,-113.281250
4977,-113.281250
4978,-109.375000
4979,-109.375000
4980,-105.468750
4981,-105.468750
4982,-101.562500
4983,-101.562500
4984,-97.656250
4985,-97.656250
4986,-93.750000
4987,-93.750000
4988,-89.843750
4989,-85.937500
4990,-85.937500
4991,-82.031250
4992,-82.031250
4993,-78.125000
4994,-74.218750
4995,-74.218750
4996,-70.312500
4997,-70.312500
4998,-66.406250
4999,-66.406250
5000,-62.500000
5001,-58.593750
5002,-58.593750
5003,-54.687500
5004,-54.687500
5005,-50.781250
5006,-46.875000
5007,-46.875000
5008,-42.968750
5009,-42.968750
5010,-39.062500
5011,-35.156250
5012,-35.156250
5013,-35.156250
5014,-31.250000
5015,-27.343750
5016,-27.343750
5017,-23.437500
5018,-19.531250
5019,-19.531250
5020,-15.625000
5021,-15.625000
5022,-11.718750
5023,-11.718750
5024,-7.812500
5025,-7.812500
5026,-3.906250
5027,0.000000
5028,0.000000
5029,3.906250
5030,3.906250
5031,7.812500
5032,7.812500
5033,11.718750
5034,11.718750
5035,15.625000
5036,15.625000
5037,19.531250
5038,19.531250
5039,23.437500
5040,23.437500
5041,27.343750
5042,31.250000
5043,31.250000
5044,31.250000
5045,35.156250
5046,35.156250
5047,39.062500
5048,39.062500
5049,42.968750
5050,42.968750
5051,46.875000
5052,46.875000
5053,46.875000
5054,50.781250
5055,50.781250
5056,54.687500
5057,58.593750
5058,58.593750
5059,58.593750
5060,58.593750
5061,62.500000
5062,62.500000
5063,62.500000
5064,66.406250
5065,66.406250
5066,70.312500
5067,70.312500
5068,70.312500
5069,70.312500
5070,74.218750
5071,74.218750
5072,78.125000
5073,78.125000
5074,82.031250
5075,82.031250
5076,82.031250
5077,82.031250
5078,82.031250
5079,85.937500
5080,85.937500
5081,85.937500
5082,89.843750
5083,89.843750
5084,89.843750
5085,89.843750
5086,93.750000
5087,93.750000
5088,93.750000
5089,93.750000
5090,93.750000
5091,97.656250
5092,97.656250
5093,97.656250
5094,97.656250
5095,97.656250
5096,97.656250
5097,101.562500
5098,101.562500
5099,101.562500
5100,101.562500
5101,101.562500
5102,101.562500
5103,105.468750
5104,105.468750
5105,105.468750
5106,105.468750
5107,105.468750
5108,105.468750
5109,105.468750
5110,105.468750
5111,105.468750
5112,105.468750
5113,105.468750
5114,109.375000
5115,105.468750
5116,105.468750
5117,109.375000
5118,109.375000
5119,109.375000
5120,105.468750
5121,105.468750
5122,109.375000
5123,109.375000
5124,105.468750
5125,105.468750
5126,105.468750
5127,109.375000
5128,105.468750
5129,105.468750
5130,105.468750
5131,105.468750
5132,105.468750
5133,105.468750
5134,105.468750
5135,105.468750
5136,105.468750
5137,105.468750
5138,105.468750
5139,105.468750
5140,105.468750
5141,101.562500
5142,101.562500
5143,101.562500
5144,101.562500
5145,101.562500
5146,97.656250
5147,97.656250
5148,97.656250
5149,97.656250
5150,97.656250
5151,97.656250
5152,93.750000
5153,97.656250
5154,93.750000
5155,93.750000
5156,93.750000
5157,93.750000
5158,89.843750
5159,89.843750
5160,89.843750
5161,85.937500
5162,85.937500
5163,85.937500
5164,85.937500
5165,82.031250
5166,82.031250
5167,82.031250
5168,82.031250
5169,78.125000
5170,78.125000
5171,78.125000
5172,74.218750
5173,74.218750
5174,74.218750
5175,70.312500
5176,70.312500
5177,70.312500
5178,66.406250
5179,66.406250
5180,62.500000
5181,62.500000
5182,62.500000
5183,58.593750
5184,58.593750
5185,54.687500
5186,54.687500
5187,54.687500
5188,50.781250
5189,50.781250
5190,46.875000
5191,46.875000
5192,42.968750
5193,42.968750
5194,42.968750
5195,39.062500
5196,35.156250
5197,35.156250
5198,35.156250
5199,31.250000
5200,31.250000
5201,27.343750
5202,27.343750
5203,23.437500
5204,19.531250
5205,19.531250
5206,15.625000
5207,15.625000
5208,11.718750
5209,11.718750
5210,7.812500
5211,7.812500
5212,3.906250
5213,3.906250
5214,0.000000
5215,0.000000
5216,-3.906250
5217,-7.812500
5218,-7.812500
5219,-11.718750
5220,-11.718750
5221,-15.625000
5222,-15.625000
5223,-19.531250
5224,-19.531250
5225,-23.437500
5226,-23.437500
5227,-27.343750
5228,-31.250000
5229,-31.250000
5230,-35.156250
5231,-35.156250
5232,-39.062500
5233,-42.968750
5234,-42.968750
5235,-46.875000
5236,-46.875000
5237,-50.781250
5238,-54.687500
5239,-54.687500
5240,-58.593750
5241,-62.500000
5242,-62.500000
5243,-66.406250
5244,-66.406250
5245,-70.312500
5246,-74.218750
5247,-74.218750
5248,-78.125000
5249,-78.125000
5250,-82.031250
5251,-82.031250
5252,-85.937500
5253,-89.843750
5254,-89.843750
5255,-93.750000
5256,-93.750000
5257,-97.656250
5258,-97.656250
5259,-101.562500
5260,-101.562500
5261,-105.468750
5262,-109.375000
5263,-109.375000
5264,-113.281250
5265,-113.281250
5266,-117.187500
5267,-117.187500
5268,-121.093750
5269,-121.093750
5270,-125.000000
5271,-125.000000
5272,-128.906250
5273,-128.906250
5274,-132.812500
5275,-132.812500
5276,-136.718750
5277,-140.625000
5278,-140.625000
5279,-140.625000
5280,-144.531250
5281,-144.531250
5282,-148.437500
5283,-148.437500
5284,-148.437500
5285,-152.343750
5286,-152.343750
5287,-156.250000
5288,-156.250000
5289,-156.250000
5290,-156.250000
5291,-160.156250
5292,-160.156250
5293,-164.062500
5294,-164.062500
5295,-164.062500
5296,-167.968750
5297,-167.968750
5298,-167.968750
5299,-167.968750
5300,-171.875000
5301,-171.875000
5302,-171.875000
5303,-175.781250
5304,-175.781250
5305,-175.781250
5306,-175.781250
5307,-179.687500
5308,-179.687500
5309,-179.687500
5310,-179.687500
5311,-179.687500
5312,-183.593750
5313,-179.687500
5314,-183.593750
5315,-183.593750
5316,-183.593750
5317,-183.593750
5318,-187.500000
5319,-187.500000
5320,-187.500000
5321,-187.500000
5322,-187.500000
5323,-187.500000
5324,-187.500000
5325,-187.500000
5326,-187.500000
5327,-187.500000
5328,-187.500000
5329,-187.500000
5330,-187.500000
5331,-187.500000
5332,-187.500000
5333,-187.500000
5334,-187.500000
5335,-187.500000
5336,-187.500000
5337,-187.500000
5338,-187.500000
5339,-183.593750
5340,-187.500000
5341,-183.593750
5342,-183.593750
5343,-183.593750
5344,-183.593750
5345,-183.593750
5346,-179.687500
5347,-179.687500
5348,-179.687500
5349,-179.687500
5350,-179.687500
5351,-175.781250
5352,-175.781250
5353,-175.781250
5354,-175.781250
5355,-171.875000
5356,-171.875000
5357,-171.875000
5358,-171.875000
5359,-167.968750
5360,-167.968750
5361,-167.968750
5362,-167.968750
5363,-164.062500
5364,-164.062500
5365,-164.062500
5366,-160.156250
5367,-160.156250
5368,-160.156250
5369,-156.250000
5370,-156.250000
5371,-156.250000
5372,-152.343750
5373,-152.343750
5374,-148.437500
5375,-148.437500
5376,-144.531250
5377,-144.531250
5378,-144.531250
5379,-140.625000
5380,-140.625000
5381,-136.718750
5382,-136.718750
5383,-132.812500
5384,-132.812500
5385,-128.906250
5386,-128.906250
5387,-125.000000
5388,-125.000000
5389,-121.093750
5390,-121.093750
5391,-117.187500
5392,-117.187500
5393,-113.281250
5394,-113.281250
5395,-109.375000
5396,-109.375000
5397,-105.468750
5398,-105.468750
5399,-101.562500
5400,-101.562500
5401,-97.656250
5402,-93.750000
5403,-93.750000
5404,-89.843750
5405,-89.843750
5406,-85.937500
5407,-85.937500
5408,-82.031250
5409,-78.125000
5410,-78.125000
5411,-74.218750
5412,-74.218750
5413,-70.312500
5414,-66.406250
5415,-66.406250
5416,-62.500000
5417,-62.500000
5418,-58.593750
5419,-58.593750
5420,-54.687500
5421,-50.781250
5422,-50.781250
5423,-46.875000
5424,-46.875000
5425,-42.968750
5426,-39.062500
5427,-39.062500
5428,-35.156250
5429,-35.156250
5430,-31.250000
5431,-31.250000
5432,-27.343750
5433,-23.437500
5434,-23.437500
5435,-23.437500
5436,-19.531250
5437,-15.625000
5438,-15.625000
5439,-11.718750
5440,-11.718750
5441,-7.812500
5442,-3.906250
5443,-3.906250
5444,0.000000
5445,0.000000
5446,3.906250
5447,3.906250
5448,7.812500
5449,7.812500
5450,11.718750
5451,11.718750
5452,15.625000
5453,15.625000
5454,19.531250
5455,23.437500
5456,23.437500
5457,27.343750
5458,27.343750
5459,31.250000
5460,31.250000
5461,31.250000
5462,35.156250
5463,35.156250
5464,39.062500
5465,39.062500
5466,42.968750
5467,42.968750
5468,46.875000
5469,46.875000
5470,46.875000
5471,50.781250
5472,54.687500
5473,54.687500
5474,54.687500
5475,58.593750
5476,58.593750
5477,58.593750
5478,62.500000
5479,62.500000
5480,66.406250
5481,66.406250
5482,66.406250
5483,70.312500
5484,70.312500
5485,70.312500
5486,74.218750
5487,74.218750
5488,74.218750
5489,78.125000
5490,78.125000
5491,82.031250
5492,82.031250
5493,82.031250
5494,82.031250
5495,82.031250
5496,85.937500
5497,85.937500
5498,85.937500
5499,89.843750
5500,89.843750
5501,89.843750
5502,89.843750
5503,89.843750
5504,93.750000
5505,93.750000
5506,93.750000
5507,93.750000
5508,97.656250
5509,97.656250
5510,97.656250
5511,97.656250
5512,97.656250
5513,97.656250
5514,101.562500
5515,101.562500
5516,101.562500
5517,101.562500
5518,101.562500
5519,105.468750
5520,101.562500
5521,105.468750
5522,105.468750
5523,105.468750
5524,105.468750
5525,105.468750
5526,105.468750
5527,105.468750
5528,105.468750
5529,105.468750
5530,105.468750
5531,105.468750
5532,105.468750
5533,105.468750
5534,105.468750
5535,105.468750
5536,109.375000
5537,105.468750
5538,105.468750
5539,109.375000
5540,109.375000
5541,109.375000
5542,109.375000
5543,105.468750
5544,109.375000
5545,105.468750
5546,105.468750
5547,105.468750
5548,105.468750
5549,105.468750
5550,105.468750
5551,105.468750
5552,105.468750
5553,105.468750
5554,105.468750
5555,105.468750
5556,101.562500
5557,101.562500
5558,101.562500
5559,101.562500
5560,101.562500
5561,101.562500
5562,101.562500
5563,101.562500
5564,101.562500
5565,97.656250
5566,97.656250
5567,97.656250
5568,97.656250
5569,93.750000
5570,93.750000
5571,93.750000
5572,93.750000
5573,93.750000
5574,89.843750
5575,89.843750
5576,89.843750
5577,89.843750
5578,89.843750
5579,85.937500
5580,85.937500
5581,85.937500
5582,82.031250
5583,82.031250
5584,82.031250
5585,78.125000
5586,78.125000
5587,78.125000
5588,74.218750
5589,74.218750
5590,74.218750
5591,70.312500
5592,70.312500
5593,70.312500
5594,70.312500
5595,66.406250
5596,66.406250
5597,62.500000
5598,62.500000
5599,58.593750
5600,58.593750
5601,58.593750
5602,54.687500
5603,54.687500
5604,50.781250
5605,50.781250
5606,46.875000
5607,46.875000
5608,46.875000
5609,42.968750
5610,42.968750
5611,39.062500
5612,39.062500
5613,39.062500
5614,35.156250
5615,31.250000
5616,31.250000
5617,27.343750
5618,27.343750
5619,23.437500
5620,23.437500
5621,19.531250
5622,19.531250
5623,15.625000
5624,15.625000
5625,11.718750
5626,11.718750
5627,7.812500
5628,7.812500
5629,3.906250
5630,0.000000
5631,0.000000
5632,-3.906250
5633,-3.906250
5634,-7.812500
5635,-7.812500
5636,-11.718750
5637,-11.718750
5638,-15.625000
5639,-19.531250
5640,-19.531250
5641,-23.437500
5642,-23.437500
5643,-27.343750
5644,-31.250000
5645,-31.250000
5646,-35.156250
5647,-35.156250
5648,-39.062500
5649,-42.968750
5650,-42.968750
5651,-46.875000
5652,-46.875000
5653,-50.781250
5654,-54.687500
5655,-54.687500
5656,-58.593750
5657,-58.593750
5658,-62.500000
5659,-62.500000
5660,-66.406250
5661,-70.312500
5662,-70.312500
5663,-74.218750
5664,-74.218750
5665,-78.125000
5666,-82.031250
5667,-82.031250
5668,-85.937500
5669,-85.937500
5670,-89.843750
5671,-89.843750
5672,-93.750000
5673,-97.656250
5674,-97.656250
5675,-101.562500
5676,-101.562500
5677,-105.468750
5678,-105.468750
5679,-109.375000
5680,-109.375000
5681,-113.281250
5682,-117.187500
5683,-117.187500
5684,-117.187500
5685,-121.093750
5686,-121.093750
5687,-125.000000
5688,-128.906250
5689,-128.906250
5690,-128.906250
5691,-132.812500
5692,-132.812500
5693,-136.718750
5694,-140.625000
5695,-140.625000
5696,-140.625000
5697,-144.531250
5698,-144.531250
5699,-148.437500
5700,-148.437500
5701,-148.437500
5702,-152.343750
5703,-152.343750
5704,-156.250000
5705,-156.250000
5706,-156.250000
5707,-160.156250
5708,-160.156250
5709,-164.062500
5710,-164.062500
5711,-164.062500
5712,-164.062500
5713,-167.968750
5714,-167.968750
5715,-171.875000
5716,-171.875000
5717,-171.875000
5718,-171.875000
5719,-175.781250
5720,-175.781250
5721,-175.781250
5722,-175.781250
5723,-175.781250
5724,-179.687500
5725,-179.687500
5726,-179.687500
5727,-179.687500
5728,-179.687500
5729,-183.593750
5730,-183.593750
5731,-183.593750
5732,-183.593750
5733,-183.593750
5734,-187.500000
5735,-187.500000
5736,-187.500000
5737,-187.500000
5738,-187.500000
5739,-187.500000
5740,-187.500000
5741,-187.500000
5742,-187.500000
5743,-187.500000
5744,-187.500000
5745,-187.500000
5746,-187.500000
5747,-187.500000
5748,-187.500000
5749,-187.500000
5750,-187.500000
5751,-187.500000
5752,-187.500000
5753,-187.500000
5754,-187.500000
5755,-187.500000
5756,-183.593750
5757,-187.500000
5758,-183.593750
5759,-183.593750
5760,-183.593750
5761,-183.593750
5762,-183.593750
5763,-179.687500
5764,-179.687500
5765,-179.687500
5766,-179.687500
5767,-179.687500
5768,-175.781250
5769,-175.781250
5770,-175.781250
5771,-175.781250
5772,-175.781250
5773,-171.875000
5774,-171.875000
5775,-171.875000
5776,-167.968750
5777,-167.968750
5778,-167.968750
5779,-167.968750
5780,-164.062500
5781,-164.062500
5782,-164.062500
5783,-160.156250
5784,-160.156250
5785,-160.156250
5786,-156.250000
5787,-156.250000
5788,-152.343750
5789,-148.437500
5790,-148.437500
5791,-148.437500
5792,-148.437500
5793,-144.531250
5794,-144.531250
5795,-144.531250
5796,-140.625000
5797,-140.625000
5798,-136.718750
5799,-136.718750
5800,-132.812500
5801,-132.812500
5802,-128.906250
5803,-132.812500
5804,-125.000000
5805,-125.000000
5806,-121.093750
5807,-113.281250
5808,-117.187500
5809,-117.187500
5810,-113.281250
5811,-113.281250
5812,-109.375000
5813,-105.468750
5814,-105.468750
5815,-101.562500
5816,-101.562500
5817,-97.656250
5818,-97.656250
5819,-93.750000
5820,-93.750000
5821,-89.843750
5822,-89.843750
5823,-85.937500
5824,-82.031250
5825,-82.031250
5826,-78.125000
5827,-74.218750
5828,-74.218750
5829,-74.218750
5830,-70.312500
5831,-70.312500
5832,-66.406250
5833,-62.500000
5834,-62.500000
5835,-58.593750
5836,-54.687500
5837,-54.687500
5838,-50.781250
5839,-46.875000
5840,-46.875000
5841,-46.875000
5842,-42.968750
5843,-39.062500
5844,-39.062500
5845,-39.062500
5846,-35.156250
5847,-31.250000
5848,-31.250000
5849,-27.343750
5850,-23.437500
5851,-23.437500
5852,-19.531250
5853,-19.531250
5854,-15.625000
5855,-11.718750
5856,-11.718750
5857,-7.812500
5858,-7.812500
5859,-3.906250
5860,-3.906250
5861,0.000000
5862,3.906250
5863,3.906250
5864,3.906250
5865,7.812500
5866,11.718750
5867,11.718750
5868,15.625000
5869,15.625000
5870,19.531250
5871,19.531250
5872,23.437500
5873,23.437500
5874,27.343750
5875,27.343750
5876,31.250000
5877,31.250000
5878,35.156250
5879,35.156250
5880,39.062500
5881,39.062500
5882,39.062500
5883,42.968750
5884,42.968750
5885,46.875000
5886,46.875000
5887,50.781250
5888,50.781250
5889,54.687500
5890,54.687500
5891,54.687500
5892,58.593750
5893,58.593750
5894,62.500000
5895,62.500000
5896,62.500000
5897,66.406250
5898,66.406250
5899,66.406250
5900,70.312500
5901,70.312500
5902,74.218750
5903,74.218750
5904,74.218750
5905,74.218750
5906,78.125000
5907,78.125000
5908,78.125000
5909,82.031250
5910,82.031250
5911,82.031250
5912,85.937500
5913,85.937500
5914,85.937500
5915,85.937500
5916,89.843750
5917,89.843750
5918,89.843750
5919,89.843750
5920,93.750000
5921,93.750000
5922,93.750000
5923,93.750000
5924,97.656250
5925,97.656250
5926,97.656250
5927,97.656250
5928,97.656250
5929,97.656250
5930,101.562500
5931,101.562500
5932,101.562500
5933,101.562500
5934,101.562500
5935,105.468750
5936,105.468750
5937,101.562500
5938,105.468750
5939,105.468750
5940,105.468750
5941,105.468750
5942,105.468750
5943,105.468750
5944,105.468750
5945,105.468750
5946,109.375000
5947,105.468750
5948,109.375000
5949,109.375000
5950,109.375000
5951,109.375000
5952,109.375000
5953,109.375000
5954,109.375000
5955,109.375000
5956,109.375000
5957,109.375000
5958,105.468750
5959,105.468750
5960,109.375000
5961,105.468750
5962,105.468750
5963,105.468750
5964,105.468750
5965,105.468750
5966,101.562500
5967,105.468750
5968,105.468750
5969,105.468750
5970,105.468750
5971,105.468750
5972,105.468750
5973,101.562500
5974,101.562500
5975,101.562500
5976,101.562500
5977,101.562500
5978,101.562500
5979,101.562500
5980,101.562500
5981,97.656250
5982,97.656250
5983,97.656250
5984,97.656250
5985,97.656250
5986,93.750000
5987,93.750000
5988,93.750000
5989,93.750000
5990,93.750000
5991,93.750000
5992,89.843750
5993,89.843750
5994,89.843750
5995,85.937500
5996,85.937500
5997,85.937500
5998,85.937500
5999,82.031250
6000,82.031250
6001,82.031250
6002,82.031250
6003,78.125000
6004,78.125000
6005,74.218750
6006,74.218750
6007,74.218750
6008,70.312500
6009,70.312500
6010,70.312500
6011,66.406250
6012,66.406250
6013,62.500000
6014,62.500000
6015,62.500000
6016,58.593750
6017,58.593750
6018,54.687500
6019,54.687500
6020,54.687500
6021,50.781250
6022,50.781250
6023,46.875000
6024,46.875000
6025,46.875000
6026,42.968750
6027,42.968750
6028,39.062500
6029,35.156250
6030,35.156250
6031,35.156250
6032,31.250000
6033,31.250000
6034,27.343750
6035,23.437500
6036,23.437500
6037,23.437500
6038,19.531250
6039,19.531250
6040,15.625000
6041,15.625000
6042,11.718750
6043,11.718750
6044,7.812500
6045,3.906250
6046,3.906250
6047,0.000000
6048,0.000000
6049,-3.906250
6050,-3.906250
6051,-7.812500
6052,-7.812500
6053,-11.718750
6054,-15.625000
6055,-15.625000
6056,-19.531250
6057,-23.437500
6058,-23.437500
6059,-27.343750
6060,-27.343750
6061,-31.250000
6062,-31.250000
6063,-35.156250
6064,-35.156250
6065,-39.062500
6066,-39.062500
6067,-42.968750
6068,-46.875000
6069,-46.875000
6070,-50.781250
6071,-54.687500
6072,-54.687500
6073,-58.593750
6074,-58.593750
6075,-62.500000
6076,-62.500000
6077,-66.406250
6078,-70.312500
6079,-70.312500
6080,-74.218750
6081,-74.218750
6082,-78.125000
6083,-82.031250
6084,-82.031250
6085,-85.937500
6086,-89.843750
6087,-89.843750
6088,-93.750000
6089,-93.750000
6090,-97.656250
6091,-97.656250
6092,-101.562500
6093,-101.562500
6094,-105.468750
6095,-109.375000
6096,-109.375000
6097,-109.375000
6098,-113.281250
6099,-117.187500
6100,-117.187500
6101,-121.093750
6102,-121.093750
6103,-125.000000
6104,-125.000000
6105,-128.906250
6106,-128.906250
6107,-132.812500
6108,-132.812500
6109,-136.718750
6110,-136.718750
6111,-140.625000
6112,-140.625000
6113,-144.531250
6114,-144.531250
6115,-144.531250
6116,-148.437500
6117,-148.437500
6118,-152.343750
6119,-152.343750
6120,-152.343750
6121,-156.250000
6122,-156.250000
6123,-156.250000
6124,-160.156250
6125,-160.156250
6126,-164.062500
6127,-164.062500
6128,-164.062500
6129,-167.968750
6130,-167.968750
6131,-167.968750
6132,-171.875000
6133,-171.875000
6134,-171.875000
6135,-171.875000
6136,-171.875000
6137,-175.781250
6138,-175.781250
6139,-175.781250
6140,-179.687500
6141,-179.687500
6142,-179.687500
6143,-179.687500
6144,-179.687500
6145,-183.593750
6146,-183.593750
6147,-183.593750
6148,-183.593750
6149,-183.593750
6150,-183.593750
6151,-183.593750
6152,-183.593750
6153,-187.500000
6154,-187.500000
6155,-187.500000
6156,-187.500000
6157,-187.500000
6158,-187.500000
6159,-187.500000
6160,-187.500000
6161,-187.500000
6162,-187.500000
6163,-187.500000
6164,-187.500000
6165,-187.500000
6166,-187.500000
6167,-187.500000
6168,-187.500000
6169,-187.500000
6170,-187.500000
6171,-187.500000
6172,-187.500000
6173,-187.500000
6174,-183.593750
6175,-183.593750
6176,-183.593750
6177,-183.593750
6178,-183.593750
6179,-183.593750
6180,-179.687500
6181,-179.687500
6182,-179.687500
6183,-179.687500
6184,-179.687500
6185,-179.687500
6186,-175.781250
6187,-175.781250
6188,-175.781250
6189,-175.781250
6190,-171.875000
6191,-171.875000
6192,-171.875000
6193,-167.968750
6194,-167.968750
6195,-167.968750
6196,-167.968750
6197,-164.062500
6198,-164.062500
6199,-164.062500
6200,-160.156250
6201,-160.156250
6202,-156.250000
6203,-156.250000
6204,-156.250000
6205,-152.343750
6206,-152.343750
6207,-148.437500
6208,-148.437500
6209,-148.437500
6210,-144.531250
6211,-144.531250
6212,-140.625000
6213,-140.625000
6214,-136.718750
6215,-136.718750
6216,-136.718750
6217,-132.812500
6218,-132.812500
6219,-128.906250
6220,-125.000000
6221,-125.000000
6222,-125.000000
6223,-121.093750
6224,-121.093750
6225,-117.187500
6226,-113.281250
6227,-113.281250
6228,-113.281250
6229,-109.375000
6230,-109.375000
6231,-105.468750
6232,-101.562500
6233,-101.562500
6234,-97.656250
6235,-97.656250
6236,-93.750000
6237,-93.750000
6238,-89.843750
6239,-85.937500
6240,-85.937500
6241,-82.031250
6242,-82.031250
6243,-78.125000
6244,-78.125000
6245,-74.218750
6246,-70.312500
6247,-70.312500
6248,-66.406250
6249,-66.406250
6250,-62.500000
6251,-58.593750
6252,-58.593750
6253,-54.687500
6254,-54.687500
6255,-50.781250
6256,-50.781250
6257,-46.875000
6258,-42.968750
6259,-42.968750
6260,-39.062500
6261,-35.156250
6262,-35.156250
6263,-35.156250
6264,-31.250000
6265,-27.343750
6266,-27.343750
6267,-23.437500
6268,-19.531250
6269,-19.531250
6270,-15.625000
6271,-15.625000
6272,-11.718750
6273,-11.718750
6274,-7.812500
6275,-7.812500
6276,-3.906250
6277,-3.906250
6278,0.000000
6279,3.906250
6280,3.906250
6281,7.812500
6282,7.812500
6283,7.812500
6284,11.718750
6285,15.625000
6286,15.625000
6287,19.531250
6288,19.531250
6289,23.437500
6290,23.437500
6291,27.343750
6292,27.343750
6293,31.250000
6294,31.250000
6295,35.156250
6296,35.156250
6297,39.062500
6298,39.062500
6299,42.968750
6300,42.968750
6301,46.875000
6302,46.875000
6303,46.875000
6304,50.781250
6305,50.781250
6306,54.687500
6307,54.687500
6308,54.687500
6309,58.593750
6310,58.593750
6311,62.500000
6312,62.500000
6313,62.500000
6314,66.406250
6315,66.406250
6316,66.406250
6317,70.312500
6318,70.312500
6319,70.312500
6320,74.218750
6321,74.218750
6322,78.125000
6323,78.125000
6324,78.125000
6325,78.125000
6326,82.031250
6327,82.031250
6328,82.031250
6329,85.937500
6330,85.937500
6331,85.937500
6332,85.937500
6333,89.843750
6334,89.843750
6335,89.843750
6336,93.750000
6337,93.750000
6338,93.750000
6339,93.750000
6340,93.750000
6341,97.656250
6342,97.656250
6343,97.656250
6344,97.656250
6345,97.656250
6346,97.656250
6347,101.562500
6348,101.562500
6349,101.562500
6350,101.562500
6351,101.562500
6352,101.562500
6353,101.562500
6354,101.562500
6355,105.468750
6356,105.468750
6357,105.468750
6358,105.468750
6359,105.468750
6360,105.468750
6361,105.468750
6362,105.468750
6363,105.468750
6364,105.468750
6365,105.468750
6366,109.375000
6367,109.375000
6368,109.375000
6369,109.375000
6370,109.375000
6371,105.468750
6372,105.468750
6373,109.375000
6374,109.375000
6375,109.375000
6376,109.375000
6377,105.468750
6378,109.375000
6379,109.375000
6380,105.468750
6381,105.468750
6382,109.375000
6383,105.468750
6384,105.468750
6385,105.468750
6386,105.468750
6387,105.468750
6388,105.468750
6389,105.468750
6390,105.468750
6391,101.562500
6392,105.468750
6393,101.562500
6394,101.562500
6395,101.562500
6396,101.562500
6397,97.656250
6398,97.656250
6399,97.656250
6400,97.656250
6401,97.656250
6402,97.656250
6403,93.750000
6404,93.750000
6405,93.750000
6406,93.750000
6407,93.750000
6408,93.750000
6409,89.843750
6410,89.843750
6411,85.937500
6412,85.937500
6413,85.937500
6414,82.031250
6415,85.937500
6416,82.031250
6417,82.031250
6418,78.125000
6419,78.125000
6420,78.125000
6421,74.218750
6422,74.218750
6423,74.218750
6424,70.312500
6425,70.312500
6426,66.406250
6427,66.406250
6428,66.406250
6429,66.406250
6430,62.500000
6431,62.500000
6432,62.500000
6433,58.593750
6434,58.593750
6435,54.687500
6436,54.687500
6437,54.687500
6438,50.781250
6439,50.781250
6440,46.875000
6441,46.875000
6442,42.968750
6443,42.968750
6444,39.062500
6445,39.062500
6446,35.156250
6447,35.156250
6448,31.250000
6449,31.250000
6450,31.250000
6451,27.343750
6452,27.343750
6453,23.437500
6454,23.437500
6455,19.531250
6456,15.625000
6457,15.625000
6458,11.718750
6459,11.718750
6460,7.812500
6461,7.812500
6462,3.906250
6463,3.906250
6464,0.000000
6465,0.000000
6466,-3.906250
6467,-7.812500
6468,-7.812500
6469,-11.718750
6470,-11.718750
6471,-15.625000
6472,-15.625000
6473,-19.531250
6474,-19.531250
6475,-23.437500
6476,-23.437500
6477,-27.343750
6478,-31.250000
6479,-35.156250
6480,-35.156250
6481,-39.062500
6482,-39.062500
6483,-42.968750
6484,-42.968750
6485,-46.875000
6486,-50.781250
6487,-50.781250
6488,-54.687500
6489,-54.687500
6490,-58.593750
6491,-62.500000
6492,-62.500000
6493,-66.406250
6494,-66.406250
6495,-70.312500
6496,-74.218750
6497,-74.218750
6498,-78.125000
6499,-78.125000
6500,-82.031250
6501,-82.031250
6502,-85.937500
6503,-89.843750
6504,-89.843750
6505,-93.750000
6506,-93.750000
6507,-97.656250
6508,-97.656250
6509,-101.562500
6510,-101.562500
6511,-105.468750
6512,-105.468750
6513,-109.375000
6514,-113.281250
6515,-113.281250
6516,-117.187500
6517,-117.187500
6518,-121.093750
6519,-121.093750
6520,-125.000000
6521,-125.000000
6522,-128.906250
6523,-128.906250
6524,-132.812500
6525,-132.812500
6526,-136.718750
6527,-136.718750
6528,-136.718750
6529,-140.625000
6530,-144.531250
6531,-144.531250
6532,-144.531250
6533,-148.437500
6534,-148.437500
6535,-152.343750
6536,-152.343750
6537,-152.343750
6538,-156.250000
6539,-156.250000
6540,-160.156250
6541,-160.156250
6542,-160.156250
6543,-164.062500
6544,-164.062500
6545,-164.062500
6546,-167.968750
6547,-167.968750
6548,-167.968750
6549,-171.875000
6550,-171.875000
6551,-171.875000
6552,-171.875000
6553,-175.781250
6554,-175.781250
6555,-175.781250
6556,-175.781250
6557,-179.687500
6558,-179.687500
6559,-179.687500
6560,-179.687500
6561,-179.687500
6562,-183.593750
6563,-183.593750
6564,-183.593750
6565,-183.593750
6566,-183.593750
6567,-183.593750
6568,-183.593750
6569,-187.500000
6570,-187.500000
6571,-183.593750
6572,-187.500000
6573,-187.500000
6574,-187.500000
6575,-187.500000
6576,-187.500000
6577,-187.500000
6578,-187.500000
6579,-187.500000
6580,-187.500000
6581,-187.500000
6582,-187.500000
6583,-187.500000
6584,-187.500000
6585,-187.500000
6586,-187.500000
6587,-187.500000
6588,-187.500000
6589,-183.593750
6590,-183.593750
6591,-183.593750
6592,-183.593750
6593,-183.593750
6594,-183.593750
6595,-183.593750
6596,-179.687500
6597,-179.687500
6598,-179.687500
6599,-179.687500
6600,-179.687500
6601,-179.687500
6602,-175.781250
6603,-175.781250
6604,-175.781250
6605,-171.875000
6606,-171.875000
6607,-171.875000
6608,-171.875000
6609,-171.875000
6610,-167.968750
6611,-167.968750
6612,-167.968750
6613,-164.062500
6614,-164.062500
6615,-164.062500
6616,-160.156250
6617,-160.156250
6618,-160.156250
6619,-156.250000
6620,-156.250000
6621,-156.250000
6622,-152.343750
6623,-152.343750
6624,-148.437500
6625,-148.437500
6626,-144.531250
6627,-144.531250
6628,-144.531250
6629,-140.625000
6630,-140.625000
6631,-136.718750
6632,-136.718750
6633,-132.812500
6634,-132.812500
6635,-128.906250
6636,-128.906250
6637,-125.000000
6638,-125.000000
6639,-121.093750
6640,-121.093750
6641,-117.187500
6642,-117.187500
6643,-113.281250
6644,-113.281250
6645,-109.375000
6646,-109.375000
6647,-105.468750
6648,-105.468750
6649,-101.562500
6650,-97.656250
6651,-97.656250
6652,-93.750000
6653,-93.750000
6654,-89.843750
6655,-89.843750
6656,-85.937500
6657,-82.031250
6658,-82.031250
6659,-78.125000
6660,-78.125000
6661,-74.218750
6662,-70.312500
6663,-70.312500
6664,-70.312500
6665,-66.406250
6666,-62.500000
6667,-62.500000
6668,-58.593750
6669,-58.593750
6670,-54.687500
6671,-50.781250
6672,-50.781250
6673,-46.875000
6674,-46.875000
6675,-42.968750
6676,-42.968750
6677,-39.062500
6678,-35.156250
6679,-35.156250
6680,-31.250000
6681,-31.250000
6682,-27.343750
6683,-27.343750
6684,-23.437500
6685,-19.531250
6686,-19.531250
6687,-15.625000
6688,-15.625000
6689,-11.718750
6690,-11.718750
6691,-7.812500
6692,-3.906250
6693,-3.906250
6694,0.000000
6695,0.000000
6696,3.906250
6697,3.906250
6698,7.812500
6699,7.812500
6700,11.718750
6701,15.625000
6702,15.625000
6703,19.531250
6704,19.531250
6705,23.437500
6706,23.437500
6707,27.343750
6708,27.343750
6709,27.343750
6710,31.250000
6711,35.156250
6712,35.156250
6713,39.062500
6714,39.062500
6715,42.968750
6716,42.968750
6717,46.875000
6718,46.875000
6719,46.875000
6720,50.781250
6721,50.781250
6722,50.781250
6723,54.687500
6724,54.687500
6725,58.593750
6726,58.593750
6727,62.500000
6728,62.500000
6729,62.500000
6730,62.500000
6731,66.406250
6732,66.406250
6733,70.312500
6734,70.312500
6735,70.312500
6736,74.218750
6737,74.218750
6738,74.218750
6739,78.125000
6740,78.125000
6741,78.125000
6742,78.125000
6743,82.031250
6744,82.031250
6745,82.031250
6746,85.937500
6747,85.937500
6748,85.937500
6749,89.843750
6750,89.843750
6751,89.843750
6752,89.843750
6753,93.750000
6754,93.750000
6755,93.750000
6756,93.750000
6757,93.750000
6758,97.656250
6759,97.656250
6760,97.656250
6761,97.656250
6762,97.656250
6763,97.656250
6764,101.562500
6765,101.562500
6766,101.562500
6767,101.562500
6768,101.562500
6769,101.562500
6770,105.468750
6771,105.468750
6772,105.468750
6773,105.468750
6774,105.468750
6775,105.468750
6776,105.468750
6777,105.468750
6778,105.468750
6779,109.375000
6780,105.468750
6781,105.468750
6782,109.375000
6783,105.468750
6784,109.375000
6785,109.375000
6786,109.375000
6787,105.468750
6788,109.375000
6789,109.375000
6790,109.375000
6791,109.375000
6792,105.468750
6793,109.375000
6794,105.468750
6795,105.468750
6796,105.468750
6797,105.468750
6798,105.468750
6799,105.468750
6800,105.468750
6801,105.468750
6802,105.468750
6803,105.468750
6804,105.468750
6805,105.468750
6806,105.468750
6807,101.562500
6808,101.562500
6809,101.562500
6810,101.562500
6811,101.562500
6812,101.562500
6813,97.656250
6814,97.656250
6815,97.656250
6816,97.656250
6817,97.656250
6818,93.750000
6819,93.750000
6820,93.750000
6821,93.750000
6822,93.750000
6823,89.843750
6824,89.843750
6825,89.843750
6826,89.843750
6827,89.843750
6828,85.937500
6829,85.937500
6830,85.937500
6831,85.937500
6832,82.031250
6833,82.031250
6834,82.031250
6835,78.125000
6836,78.125000
6837,78.125000
6838,78.125000
6839,74.218750
6840,74.218750
6841,74.218750
6842,70.312500
6843,70.312500
6844,66.406250
6845,66.406250
6846,62.500000
6847,62.500000
6848,62.500000
6849,62.500000
6850,58.593750
6851,58.593750
6852,54.687500
6853,54.687500
6854,50.781250
6855,50.781250
6856,50.781250
6857,46.875000
6858,46.875000
6859,42.968750
6860,42.968750
6861,39.062500
6862,39.062500
6863,35.156250
6864,35.156250
6865,31.250000
6866,31.250000
6867,27.343750
6868,27.343750
6869,23.437500
6870,23.437500
6871,19.531250
6872,19.531250
6873,15.625000
6874,15.625000
6875,11.718750
6876,11.718750
6877,7.812500
6878,3.906250
6879,3.906250
6880,0.000000
6881,0.000000
6882,-3.906250
6883,-3.906250
6884,-7.812500
6885,-7.812500
6886,-11.718750
6887,-11.718750
6888,-15.625000
6889,-19.531250
6890,-19.531250
6891,-23.437500
6892,-27.343750
6893,-27.343750
6894,-27.343750
6895,-31.250000
6896,-35.156250
6897,-35.156250
6898,-39.062500
6899,-42.968750
6900,-42.968750
6901,-46.875000
6902,-46.875000
6903,-50.781250
6904,-54.687500
6905,-54.687500
6906,-58.593750
6907,-58.593750
6908,-62.500000
6909,-62.500000
6910,-66.406250
6911,-70.312500
6912,-70.312500
6913,-74.218750
6914,-74.218750
6915,-78.125000
6916,-82.031250
6917,-82.031250
6918,-85.937500
6919,-85.937500
6920,-89.843750
6921,-89.843750
6922,-93.750000
6923,-97.656250
6924,-97.656250
6925,-101.562500
6926,-101.562500
6927,-105.468750
6928,-105.468750
6929,-109.375000
6930,-109.375000
6931,-113.281250
6932,-117.187500
6933,-117.187500
6934,-121.093750
6935,-121.093750
6936,-125.000000
6937,-125.000000
6938,-125.000000
6939,-128.906250
6940,-132.812500
6941,-132.812500
6942,-136.718750
6943,-136.718750
6944,-136.718750
6945,-140.625000
6946,-140.625000
6947,-144.531250
6948,-144.531250
6949,-148.437500
6950,-148.437500
6951,-148.437500
6952,-152.343750
6953,-152.343750
6954,-156.250000
6955,-156.250000
6956,-156.250000
6957,-160.156250
6958,-160.156250
6959,-160.156250
6960,-164.062500
6961,-164.062500
6962,-164.062500
6963,-167.968750
6964,-167.968750
6965,-167.968750
6966,-171.875000
6967,-171.875000
6968,-171.875000
6969,-171.875000
6970,-175.781250
6971,-175.781250
6972,-175.781250
6973,-179.687500
6974,-179.687500
6975,-179.687500
6976,-179.687500
6977,-179.687500
6978,-179.687500
6979,-183.593750
6980,-183.593750
6981,-183.593750
6982,-183.593750
6983,-183.593750
6984,-183.593750
6985,-183.593750
6986,-187.500000
6987,-187.500000
6988,-187.500000
6989,-187.500000
6990,-187.500000
6991,-187.500000
6992,-187.500000
6993,-187.500000
6994,-187.500000
6995,-187.500000
6996,-187.500000
6997,-187.500000
6998,-187.500000
6999,-187.500000
7000,-187.500000
7001,-187.500000
7002,-187.500000
7003,-187.500000
7004,-187.500000
7005,-187.500000
7006,-187.500000
7007,-183.593750
7008,-183.593750
7009,-183.593750
7010,-183.593750
7011,-183.593750
7012,-183.593750
7013,-183.593750
7014,-179.687500
7015,-179.687500
7016,-179.687500
7017,-179.687500
7018,-179.687500
7019,-175.781250
7020,-175.781250
7021,-175.781250
7022,-175.781250
7023,-171.875000
7024,-171.875000
7025,-171.875000
7026,-171.875000
7027,-167.968750
7028,-167.968750
7029,-167.968750
7030,-164.062500
7031,-164.062500
7032,-164.062500
7033,-160.156250
7034,-160.156250
7035,-156.250000
7036,-156.250000
7037,-156.250000
7038,-152.343750
7039,-152.343750
7040,-152.343750
7041,-148.437500
7042,-148.437500
7043,-144.531250
7044,-144.531250
7045,-140.625000
7046,-140.625000
7047,-140.625000
7048,-136.718750
7049,-136.718750
7050,-132.812500
7051,-128.906250
7052,-128.906250
7053,-128.906250
7054,-125.000000
7055,-125.000000
7056,-121.093750
7057,-121.093750
7058,-117.187500
7059,-117.187500
7060,-113.281250
7061,-113.281250
7062,-109.375000
7063,-109.375000
7064,-105.468750
7065,-105.468750
7066,-101.562500
7067,-97.656250
7068,-97.656250
7069,-93.750000
7070,-93.750000
7071,-89.843750
7072,-89.843750
7073,-85.937500
7074,-82.031250
7075,-82.031250
7076,-78.125000
7077,-74.218750
7078,-74.218750
7079,-74.218750
7080,-70.312500
7081,-66.406250
7082,-66.406250
7083,-62.500000
7084,-58.593750
7085,-58.593750
7086,-58.593750
7087,-54.687500
7088,-50.781250
7089,-50.781250
7090,-46.875000
7091,-46.875000
7092,-42.968750
7093,-39.062500
7094,-39.062500
7095,-35.156250
7096,-35.156250
7097,-31.250000
7098,-27.343750
7099,-27.343750
7100,-23.437500
7101,-23.437500
7102,-19.531250
7103,-19.531250
7104,-15.625000
7105,-11.718750
7106,-11.718750
7107,-7.812500
7108,-7.812500
7109,-3.906250
7110,-3.906250
7111,0.000000
7112,3.906250
7113,3.906250
7114,3.906250
7115,7.812500
7116,11.718750
7117,11.718750
7118,15.625000
7119,15.625000
7120,19.531250
7121,19.531250
7122,23.437500
7123,23.437500
7124,23.437500
7125,27.343750
7126,31.250000
7127,31.250000
7128,35.156250
7129,35.156250
7130,39.062500
7131,39.062500
7132,39.062500
7133,42.968750
7134,42.968750
7135,46.875000
7136,46.875000
7137,50.781250
7138,50.781250
7139,50.781250
7140,54.687500
7141,54.687500
7142,58.593750
7143,58.593750
7144,62.500000
7145,62.500000
7146,62.500000
7147,66.406250
7148,66.406250
7149,70.312500
7150,70.312500
7151,70.312500
7152,74.218750
7153,74.218750
7154,82.031250
7155,78.125000
7156,78.125000
7157,78.125000
7158,78.125000
7159,82.031250
7160,82.031250
7161,82.031250
7162,85.937500
7163,85.937500
7164,85.937500
7165,82.031250
7166,89.843750
7167,89.843750
7168,89.843750
7169,93.750000
7170,93.750000
7171,93.750000
7172,93.750000
7173,93.750000
7174,97.656250
7175,97.656250
7176,97.656250
7177,97.656250
7178,97.656250
7179,97.656250
7180,101.562500
7181,101.562500
7182,101.562500
7183,101.562500
7184,101.562500
7185,101.562500
7186,101.562500
7187,101.562500
7188,105.468750
7189,105.468750
7190,105.468750
7191,105.468750
7192,105.468750
7193,105.468750
7194,105.468750
7195,105.468750
7196,105.468750
7197,105.468750
7198,105.468750
7199,105.468750
7200,105.468750
7201,105.468750
7202,105.468750
7203,109.375000
7204,109.375000
7205,109.375000
7206,105.468750
7207,105.468750
7208,109.375000
7209,109.375000
7210,109.375000
7211,105.468750
7212,105.468750
7213,105.468750
7214,105.468750
7215,105.468750
7216,105.468750
7217,105.468750
7218,105.468750
7219,105.468750
7220,105.468750
7221,105.468750
7222,105.468750
7223,105.468750
7224,101.562500
7225,101.562500
7226,101.562500
7227,101.562500
7228,101.562500
7229,101.562500
7230,97.656250
7231,101.562500
7232,97.656250
7233,97.656250
7234,105.468750
7235,97.656250
7236,93.750000
7237,93.750000
7238,93.750000
7239,93.750000
7240,93.750000
7241,89.843750
7242,89.843750
7243,89.843750
7244,89.843750
7245,85.937500
7246,85.937500
7247,85.937500
7248,85.937500
7249,82.031250
7250,82.031250
7251,82.031250
7252,78.125000
7253,78.125000
7254,78.125000
7255,74.218750
7256,74.218750
7257,70.312500
7258,70.312500
7259,70.312500
7260,70.312500
7261,66.406250
7262,66.406250
7263,62.500000
7264,62.500000
7265,62.500000
7266,58.593750
7267,58.593750
7268,58.593750
7269,54.687500
7270,54.687500
7271,50.781250
7272,50.781250
7273,46.875000
7274,46.875000
7275,46.875000
7276,42.968750
7277,42.968750
7278,39.062500
7279,39.062500
7280,35.156250
7281,35.156250
7282,31.250000
7283,31.250000
7284,27.343750
7285,27.343750
7286,23.437500
7287,23.437500
7288,19.531250
7289,19.531250
7290,15.625000
7291,15.625000
7292,11.718750
7293,11.718750
7294,7.812500
7295,7.812500
7296,3.906250
7297,0.000000
7298,0.000000
7299,-3.906250
7300,-3.906250
7301,-7.812500
7302,-7.812500
7303,-11.718750
7304,-15.625000
7305,-15.625000
7306,-19.531250
7307,-19.531250
7308,-23.437500
7309,-27.343750
7310,-27.343750
7311,-31.250000
7312,-31.250000
7313,-35.156250
7314,-35.156250
7315,-39.062500
7316,-42.968750
7317,-42.968750
7318,-46.875000
7319,-46.875000
7320,-50.781250
7321,-54.687500
7322,-54.687500
7323,-58.593750
7324,-58.593750
7325,-62.500000
7326,-66.406250
7327,-70.312500
7328,-70.312500
7329,-70.312500
7330,-74.218750
7331,-78.125000
7332,-78.125000
7333,-82.031250
7334,-82.031250
7335,-85.937500
7336,-85.937500
7337,-89.843750
7338,-93.750000
7339,-93.750000
7340,-97.656250
7341,-97.656250
7342,-101.562500
7343,-105.468750
7344,-105.468750
7345,-105.468750
7346,-109.375000
7347,-113.281250
7348,-113.281250
7349,-113.281250
7350,-117.187500
7351,-121.093750
7352,-121.093750
7353,-125.000000
7354,-125.000000
7355,-128.906250
7356,-128.906250
7357,-132.812500
7358,-132.812500
7359,-136.718750
7360,-136.718750
7361,-140.625000
7362,-140.625000
7363,-140.625000
7364,-144.531250
7365,-144.531250
7366,-148.437500
7367,-148.437500
7368,-152.343750
7369,-152.343750
7370,-152.343750
7371,-156.250000
7372,-156.250000
7373,-156.250000
7374,-160.156250
7375,-160.156250
7376,-160.156250
7377,-164.062500
7378,-164.062500
7379,-167.968750
7380,-167.968750
7381,-167.968750
7382,-167.968750
7383,-171.875000
7384,-171.875000
7385,-171.875000
7386,-175.781250
7387,-175.781250
7388,-175.781250
7389,-175.781250
7390,-179.687500
7391,-179.687500
7392,-179.687500
7393,-179.687500
7394,-179.687500
7395,-183.593750
7396,-183.593750
7397,-183.593750
7398,-183.593750
7399,-183.593750
7400,-183.593750
7401,-183.593750
7402,-183.593750
7403,-187.500000
7404,-187.500000
7405,-187.500000
7406,-187.500000
7407,-187.500000
7408,-187.500000
7409,-187.500000
7410,-187.500000
7411,-187.500000
7412,-187.500000
7413,-187.500000
7414,-187.500000
7415,-187.500000
7416,-187.500000
7417,-187.500000
7418,-187.500000
7419,-187.500000
7420,-187.500000
7421,-187.500000
7422,-183.593750
7423,-183.593750
7424,-183.593750
7425,-183.593750
7426,-187.500000
7427,-183.593750
7428,-183.593750
7429,-183.593750
7430,-179.687500
7431,-183.593750
7432,-179.687500
7433,-179.687500
7434,-179.687500
7435,-179.687500
7436,-175.781250
7437,-175.781250
7438,-175.781250
7439,-171.875000
7440,-171.875000
7441,-171.875000
7442,-171.875000
7443,-167.968750
7444,-167.968750
7445,-167.968750
7446,-167.968750
7447,-164.062500
7448,-164.062500
7449,-160.156250
7450,-160.156250
7451,-160.156250
7452,-156.250000
7453,-156.250000
7454,-156.250000
7455,-152.343750
7456,-152.343750
7457,-148.437500
7458,-148.437500
7459,-148.437500
7460,-144.531250
7461,-144.531250
7462,-140.625000
7463,-140.625000
7464,-136.718750
7465,-136.718750
7466,-132.812500
7467,-132.812500
7468,-128.906250
7469,-128.906250
7470,-128.906250
7471,-125.000000
7472,-121.093750
7473,-121.093750
7474,-121.093750
7475,-117.187500
7476,-113.281250
7477,-113.281250
7478,-109.375000
7479,-109.375000
7480,-105.468750
7481,-105.468750
7482,-105.468750
7483,-97.656250
7484,-97.656250
7485,-97.656250
7486,-93.750000
7487,-89.843750
7488,-89.843750
7489,-85.937500
7490,-85.937500
7491,-82.031250
7492,-78.125000
7493,-82.031250
7494,-74.218750
7495,-74.218750
7496,-70.312500
7497,-70.312500
7498,-66.406250
7499,-66.406250
7500,-62.500000
7501,-58.593750
7502,-58.593750
7503,-54.687500
7504,-54.687500
7505,-50.781250
7506,-50.781250
7507,-46.875000
7508,-42.968750
7509,-42.968750
7510,-39.062500
7511,-39.062500
7512,-35.156250
7513,-31.250000
7514,-31.250000
7515,-27.343750
7516,-27.343750
7517,-23.437500
7518,-19.531250
7519,-19.531250
7520,-15.625000
7521,-15.625000
7522,-11.718750
7523,-11.718750
7524,-7.812500
7525,-7.812500
7526,-3.906250
7527,-3.906250
7528,0.000000
7529,3.906250
7530,3.906250
7531,7.812500
7532,7.812500
7533,11.718750
7534,11.718750
7535,15.625000
7536,15.625000
7537,19.531250
7538,23.437500
7539,23.437500
7540,23.437500
7541,27.343750
7542,27.343750
7543,27.343750
7544,35.156250
7545,35.156250
7546,31.250000
7547,39.062500
7548,39.062500
7549,42.968750
7550,42.968750
7551,46.875000
7552,46.875000
7553,46.875000
7554,50.781250
7555,50.781250
7556,54.687500
7557,54.687500
7558,54.687500
7559,58.593750
7560,58.593750
7561,62.500000
7562,62.500000
7563,66.406250
7564,66.406250
7565,66.406250
7566,70.312500
7567,70.312500
7568,70.312500
7569,70.312500
7570,74.218750
7571,74.218750
7572,78.125000
7573,78.125000
7574,78.125000
7575,82.031250
7576,82.031250
7577,85.937500
7578,82.031250
7579,85.937500
7580,85.937500
7581,85.937500
7582,85.937500
7583,89.843750
7584,89.843750
7585,89.843750
7586,89.843750
7587,93.750000
7588,93.750000
7589,93.750000
7590,93.750000
7591,97.656250
7592,97.656250
7593,97.656250
7594,97.656250
7595,97.656250
7596,97.656250
7597,101.562500
7598,101.562500
7599,101.562500
7600,101.562500
7601,101.562500
7602,101.562500
7603,105.468750
7604,101.562500
7605,105.468750
7606,105.468750
7607,105.468750
7608,105.468750
7609,105.468750
7610,105.468750
7611,105.468750
7612,105.468750
7613,105.468750
7614,105.468750
7615,105.468750
7616,105.468750
7617,109.375000
7618,109.375000
7619,105.468750
7620,105.468750
7621,109.375000
7622,109.375000
7623,109.375000
7624,105.468750
7625,109.375000
7626,109.375000
7627,109.375000
7628,105.468750
7629,105.468750
7630,105.468750
7631,105.468750
7632,105.468750
7633,105.468750
7634,105.468750
7635,105.468750
7636,105.468750
7637,105.468750
7638,101.562500
7639,101.562500
7640,105.468750
7641,101.562500
7642,101.562500
7643,101.562500
7644,101.562500
7645,101.562500
7646,97.656250
7647,97.656250
7648,97.656250
7649,97.656250
7650,97.656250
7651,97.656250
7652,97.656250
7653,93.750000
7654,93.750000
7655,93.750000
7656,93.750000
7657,89.843750
7658,89.843750
7659,89.843750
7660,89.843750
7661,85.937500
7662,85.937500
7663,85.937500
7664,85.937500
7665,82.031250
7666,82.031250
7667,82.031250
7668,78.125000
7669,78.125000
7670,78.125000
7671,78.125000
7672,74.218750
7673,74.218750
7674,70.312500
7675,70.312500
7676,70.312500
7677,70.312500
7678,66.406250
7679,66.406250
7680,62.500000
7681,62.500000
7682,62.500000
7683,58.593750
7684,58.593750
7685,54.687500
7686,54.687500
7687,54.687500
7688,50.781250
7689,50.781250
7690,46.875000
7691,46.875000
7692,42.968750
7693,42.968750
7694,42.968750
7695,39.062500
7696,35.156250
7697,35.156250
7698,31.250000
7699,31.250000
7700,31.250000
7701,27.343750
7702,23.437500
7703,23.437500
7704,19.531250
7705,19.531250
7706,15.625000
7707,15.625000
7708,11.718750
7709,11.718750
7710,7.812500
7711,7.812500
7712,3.906250
7713,3.906250
7714,0.000000
7715,0.000000
7716,-3.906250
7717,-7.812500
7718,-7.812500
7719,-11.718750
7720,-11.718750
7721,-15.625000
7722,-15.625000
7723,-19.531250
7724,-23.437500
7725,-23.437500
7726,-27.343750
7727,-27.343750
7728,-31.250000
7729,-31.250000
7730,-35.156250
7731,-39.062500
7732,-39.062500
7733,-42.968750
7734,-46.875000
7735,-46.875000
7736,-50.781250
7737,-50.781250
7738,-54.687500
7739,-54.687500
7740,-58.593750
7741,-62.500000
7742,-66.406250
7743,-66.406250
7744,-70.312500
7745,-70.312500
7746,-74.218750
7747,-74.218750
7748,-78.125000
7749,-78.125000
7750,-82.031250
7751,-85.937500
7752,-85.937500
7753,-85.937500
7754,-89.843750
7755,-93.750000
7756,-93.750000
7757,-97.656250
7758,-97.656250
7759,-101.562500
7760,-101.562500
7761,-105.468750
7762,-109.375000
7763,-109.375000
7764,-113.281250
7765,-113.281250
7766,-117.187500
7767,-117.187500
7768,-121.093750
7769,-121.093750
7770,-125.000000
7771,-128.906250
7772,-128.906250
7773,-128.906250
7774,-128.906250
7775,-136.718750
7776,-136.718750
7777,-136.718750
7778,-140.625000
7779,-140.625000
7780,-144.531250
7781,-144.531250
7782,-148.437500
7783,-148.437500
7784,-148.437500
7785,-152.343750
7786,-152.343750
7787,-156.250000
7788,-156.250000
7789,-156.250000
7790,-160.156250
7791,-160.156250
7792,-160.156250
7793,-164.062500
7794,-164.062500
7795,-164.062500
7796,-167.968750
7797,-167.968750
7798,-167.968750
7799,-171.875000
7800,-171.875000
7801,-171.875000
7802,-175.781250
7803,-171.875000
7804,-175.781250
7805,-175.781250
7806,-179.687500
7807,-179.687500
7808,-179.687500
7809,-179.687500
7810,-179.687500
7811,-179.687500
7812,-183.593750
7813,-183.593750
7814,-183.593750
7815,-183.593750
7816,-183.593750
7817,-183.593750
7818,-187.500000
7819,-183.593750
7820,-187.500000
7821,-187.500000
7822,-187.500000
7823,-187.500000
7824,-187.500000
7825,-187.500000
7826,-187.500000
7827,-187.500000
7828,-187.500000
7829,-187.500000
7830,-187.500000
7831,-187.500000
7832,-187.500000
7833,-187.500000
7834,-187.500000
7835,-187.500000
7836,-187.500000
7837,-187.500000
7838,-187.500000
7839,-183.593750
7840,-183.593750
7841,-183.593750
7842,-183.593750
7843,-183.593750
7844,-183.593750
7845,-183.593750
7846,-179.687500
7847,-179.687500
7848,-179.687500
7849,-179.687500
7850,-179.687500
7851,-179.687500
7852,-175.781250
7853,-175.781250
7854,-175.781250
7855,-175.781250
7856,-171.875000
7857,-171.875000
7858,-171.875000
7859,-171.875000
7860,-167.968750
7861,-167.968750
7862,-167.968750
7863,-164.062500
7864,-164.062500
7865,-164.062500
7866,-160.156250
7867,-160.156250
7868,-160.156250
7869,-156.250000
7870,-156.250000
7871,-156.250000
7872,-152.343750
7873,-152.343750
7874,-148.437500
7875,-148.437500
7876,-148.437500
7877,-144.531250
7878,-144.531250
7879,-140.625000
7880,-140.625000
7881,-136.718750
7882,-136.718750
7883,-132.812500
7884,-132.812500
7885,-128.906250
7886,-128.906250
7887,-125.000000
7888,-125.000000
7889,-121.093750
7890,-121.093750
7891,-117.187500
7892,-117.187500
7893,-113.281250
7894,-113.281250
7895,-109.375000
7896,-109.375000
7897,-105.468750
7898,-105.468750
7899,-101.562500
7900,-97.656250
7901,-97.656250
7902,-93.750000
7903,-93.750000
7904,-89.843750
7905,-89.843750
7906,-85.937500
7907,-85.937500
7908,-82.031250
7909,-78.125000
7910,-78.125000
7911,-74.218750
7912,-74.218750
7913,-70.312500
7914,-70.312500
7915,-66.406250
7916,-66.406250
7917,-62.500000
7918,-58.593750
7919,-58.593750
7920,-54.687500
7921,-50.781250
7922,-50.781250
7923,-46.875000
7924,-46.875000
7925,-42.968750
7926,-42.968750
7927,-39.062500
7928,-35.156250
7929,-35.156250
7930,-31.250000
7931,-31.250000
7932,-27.343750
7933,-23.437500
7934,-23.437500
7935,-19.531250
7936,-19.531250
7937,-15.625000
7938,-15.625000
7939,-11.718750
7940,-7.812500
7941,-7.812500
7942,-3.906250
7943,-3.906250
7944,0.000000
7945,0.000000
7946,3.906250
7947,3.906250
7948,7.812500
7949,11.718750
7950,11.718750
7951,15.625000
7952,15.625000
7953,19.531250
7954,19.531250
7955,23.437500
7956,23.437500
7957,27.343750
7958,27.343750
7959,31.250000
7960,31.250000
7961,31.250000
7962,35.156250
7963,35.156250
7964,39.062500
7965,39.062500
7966,42.968750
7967,42.968750
7968,46.875000
7969,46.875000
7970,46.875000
7971,50.781250
7972,50.781250
7973,54.687500
7974,54.687500
7975,58.593750
7976,58.593750
7977,58.593750
7978,62.500000
7979,62.500000
7980,66.406250
7981,66.406250
7982,66.406250
7983,70.312500
7984,70.312500
7985,70.312500
7986,74.218750
7987,74.218750
7988,74.218750
7989,78.125000
7990,78.125000
7991,78.125000
7992,82.031250
7993,82.031250
7994,82.031250
7995,85.937500
7996,85.937500
7997,85.937500
7998,85.937500
7999,89.843750
8000,89.843750
8001,89.843750
8002,89.843750
8003,93.750000
8004,93.750000
8005,93.750000
8006,93.750000
8007,97.656250
8008,97.656250
8009,97.656250
8010,97.656250
8011,97.656250
8012,97.656250
8013,101.562500
8014,101.562500
8015,101.562500
8016,101.562500
8017,101.562500
8018,101.562500
8019,101.562500
8020,105.468750
8021,105.468750
8022,105.468750
8023,105.468750
8024,105.468750
8025,105.468750
8026,105.468750
8027,105.468750
8028,105.468750
8029,105.468750
8030,105.468750
8031,105.468750
8032,105.468750
8033,109.375000
8034,105.468750
8035,109.375000
8036,109.375000
8037,109.375000
8038,105.468750
8039,109.375000
8040,109.375000
8041,105.468750
8042,109.375000
8043,105.468750
8044,105.468750
8045,105.468750
8046,105.468750
8047,105.468750
8048,105.468750
8049,105.468750
8050,105.468750
8051,105.468750
8052,105.468750
8053,105.468750
8054,105.468750
8055,105.468750
8056,105.468750
8057,101.562500
8058,101.562500
8059,101.562500
8060,101.562500
8061,101.562500
8062,101.562500
8063,97.656250
8064,101.562500
8065,97.656250
8066,97.656250
8067,97.656250
8068,97.656250
8069,97.656250
8070,97.656250
8071,93.750000
8072,93.750000
8073,93.750000
8074,89.843750
8075,89.843750
8076,89.843750
8077,89.843750
8078,85.937500
8079,85.937500
8080,85.937500
8081,82.031250
8082,82.031250
8083,82.031250
8084,82.031250
8085,78.125000
8086,78.125000
8087,78.125000
8088,74.218750
8089,74.218750
8090,74.218750
8091,70.312500
8092,70.312500
8093,70.312500
8094,66.406250
8095,66.406250
8096,62.500000
8097,62.500000
8098,62.500000
8099,58.593750
8100,58.593750
8101,58.593750
8102,54.687500
8103,54.687500
8104,54.687500
8105,50.781250
8106,46.875000
8107,46.875000
8108,46.875000
8109,42.968750
8110,42.968750
8111,39.062500
8112,39.062500
8113,35.156250
8114,35.156250
8115,35.156250
8116,31.250000
8117,27.343750
8118,27.343750
8119,23.437500
8120,23.437500
8121,19.531250
8122,19.531250
8123,15.625000
8124,15.625000
8125,11.718750
8126,11.718750
8127,7.812500
8128,7.812500
8129,3.906250
8130,3.906250
8131,0.000000
8132,-3.906250
8133,-3.906250
8134,-7.812500
8135,-7.812500
8136,-11.718750
8137,-11.718750
8138,-15.625000
8139,-19.531250
8140,-19.531250
8141,-23.437500
8142,-23.437500
8143,-27.343750
8144,-27.343750
8145,-31.250000
8146,-35.156250
8147,-35.156250
8148,-39.062500
8149,-39.062500
8150,-42.968750
8151,-46.875000
8152,-46.875000
8153,-50.781250
8154,-50.781250
8155,-54.687500
8156,-58.593750
8157,-58.593750
8158,-62.500000
8159,-62.500000
8160,-66.406250
8161,-70.312500
8162,-70.312500
8163,-74.218750
8164,-78.125000
8165,-78.125000
8166,-78.125000
8167,-82.031250
8168,-85.937500
8169,-85.937500
8170,-89.843750
8171,-93.750000
8172,-93.750000
8173,-97.656250
8174,-97.656250
8175,-101.562500
8176,-101.562500
8177,-105.468750
8178,-105.468750
8179,-109.375000
8180,-109.375000
8181,-113.281250
8182,-113.281250
8183,-117.187500
8184,-117.187500
8185,-121.093750
8186,-125.000000
8187,-125.000000
8188,-125.000000
8189,-128.906250
8190,-132.812500
8191,-132.812500
8192,-132.812500
8193,-136.718750
8194,-136.718750
8195,-140.625000
8196,-140.625000
8197,-144.531250
8198,-144.531250
8199,-148.437500
8200,-148.437500
8201,-148.437500
8202,-152.343750
8203,-156.250000
8204,-152.343750
8205,-156.250000
8206,-160.156250
8207,-160.156250
8208,-160.156250
8209,-164.062500
8210,-164.062500
8211,-164.062500
8212,-167.968750
8213,-167.968750
8214,-167.968750
8215,-171.875000
8216,-171.875000
8217,-171.875000
8218,-171.875000
8219,-175.781250
8220,-175.781250
8221,-175.781250
8222,-175.781250
8223,-179.687500
8224,-179.687500
8225,-179.687500
8226,-179.687500
8227,-179.687500
8228,-179.687500
8229,-183.593750
8230,-183.593750
8231,-183.593750
8232,-183.593750
8233,-183.593750
8234,-187.500000
8235,-183.593750
8236,-187.500000
8237,-187.500000
8238,-187.500000
8239,-187.500000
8240,-187.500000
8241,-187.500000
8242,-187.500000
8243,-187.500000
8244,-187.500000
8245,-187.500000
8246,-187.500000
8247,-187.500000
8248,-187.500000
8249,-187.500000
8250,-187.500000
8251,-187.500000
8252,-187.500000
8253,-187.500000
8254,-187.500000
8255,-187.500000
8256,-187.500000
8257,-183.593750
8258,-183.593750
8259,-183.593750
8260,-179.687500
8261,-183.593750
8262,-183.593750
8263,-183.593750
8264,-179.687500
8265,-179.687500
8266,-179.687500
8267,-179.687500
8268,-175.781250
8269,-175.781250
8270,-175.781250
8271,-175.781250
8272,-171.875000
8273,-171.875000
8274,-171.875000
8275,-171.875000
8276,-167.968750
8277,-167.968750
8278,-167.968750
8279,-167.968750
8280,-164.062500
8281,-160.156250
8282,-160.156250
8283,-160.156250
8284,-160.156250
8285,-156.250000
8286,-156.250000
8287,-156.250000
8288,-152.343750
8289,-152.343750
8290,-152.343750
8291,-148.437500
8292,-148.437500
8293,-144.531250
8294,-144.531250
8295,-140.625000
8296,-140.625000
8297,-132.812500
8298,-136.718750
8299,-136.718750
8300,-136.718750
8301,-132.812500
8302,-128.906250
8303,-128.906250
8304,-125.000000
8305,-125.000000
8306,-121.093750
8307,-121.093750
8308,-117.187500
8309,-117.187500
8310,-113.281250
8311,-113.281250
8312,-109.375000
8313,-109.375000
8314,-105.468750
8315,-101.562500
8316,-97.656250
8317,-97.656250
8318,-97.656250
8319,-93.750000
8320,-93.750000
8321,-89.843750
8322,-85.937500
8323,-85.937500
8324,-82.031250
8325,-78.125000
8326,-78.125000
8327,-78.125000
8328,-74.218750
8329,-70.312500
8330,-70.312500
8331,-66.406250
8332,-66.406250
8333,-62.500000
8334,-58.593750
8335,-58.593750
8336,-54.687500
8337,-54.687500
8338,-50.781250
8339,-50.781250
8340,-46.875000
8341,-42.968750
8342,-42.968750
8343,-39.062500
8344,-39.062500
8345,-35.156250
8346,-35.156250
8347,-31.250000
8348,-27.343750
8349,-27.343750
8350,-23.437500
8351,-23.437500
8352,-19.531250
8353,-15.625000
8354,-15.625000
8355,-11.718750
8356,-11.718750
8357,-7.812500
8358,-7.812500
8359,-3.906250
8360,-3.906250
8361,0.000000
8362,0.000000
8363,3.906250
8364,3.906250
8365,7.812500
8366,11.718750
8367,11.718750
8368,15.625000
8369,15.625000
8370,19.531250
8371,19.531250
8372,23.437500
8373,23.437500
8374,27.343750
8375,27.343750
8376,31.250000
8377,31.250000
8378,35.156250
8379,35.156250
8380,39.062500
8381,39.062500
8382,39.062500
8383,42.968750
8384,42.968750
8385,46.875000
8386,46.875000
8387,50.781250
8388,50.781250
8389,50.781250
8390,54.687500
8391,58.593750
8392,58.593750
8393,58.593750
8394,62.500000
8395,62.500000
8396,62.500000
8397,66.406250
8398,66.406250
8399,66.406250
8400,70.312500
8401,70.312500
8402,70.312500
8403,74.218750
8404,74.218750
8405,74.218750
8406,78.125000
8407,78.125000
8408,78.125000
8409,82.031250
8410,82.031250
8411,82.031250
8412,85.937500
8413,85.937500
8414,85.937500
8415,85.937500
8416,89.843750
8417,89.843750
8418,89.843750
8419,89.843750
8420,89.843750
8421,93.750000
8422,93.750000
8423,93.750000
8424,93.750000
8425,97.656250
8426,97.656250
8427,97.656250
8428,97.656250
8429,97.656250
8430,97.656250
8431,101.562500
8432,101.562500
8433,101.562500
8434,101.562500
8435,101.562500
8436,101.562500
8437,101.562500
8438,105.468750
8439,105.468750
8440,105.468750
8441,105.468750
8442,105.468750
8443,105.468750
8444,105.468750
8445,105.468750
8446,105.468750
8447,105.468750
8448,105.468750
8449,109.375000
8450,109.375000
8451,105.468750
8452,105.468750
8453,105.468750
8454,109.375000
8455,109.375000
8456,109.375000
8457,109.375000
8458,109.375000
8459,109.375000
8460,105.468750
8461,105.468750
8462,109.375000
8463,109.375000
8464,105.468750
8465,105.468750
8466,105.468750
8467,105.468750
8468,105.468750
8469,105.468750
8470,105.468750
8471,105.468750
8472,105.468750
8473,101.562500
8474,101.562500
8475,101.562500
8476,101.562500
8477,101.562500
8478,101.562500
8479,101.562500
8480,101.562500
8481,97.656250
8482,97.656250
8483,97.656250
8484,97.656250
8485,97.656250
8486,93.750000
8487,93.750000
8488,93.750000
8489,93.750000
8490,89.843750
8491,89.843750
8492,89.843750
8493,89.843750
8494,89.843750
8495,85.937500
8496,85.937500
8497,85.937500
8498,82.031250
8499,82.031250
8500,82.031250
8501,82.031250
8502,78.125000
8503,78.125000
8504,78.125000
8505,74.218750
8506,74.218750
8507,74.218750
8508,70.312500
8509,70.312500
8510,70.312500
8511,66.406250
8512,62.500000
8513,66.406250
8514,62.500000
8515,62.500000
8516,58.593750
8517,58.593750
8518,54.687500
8519,54.687500
8520,54.687500
8521,50.781250
8522,50.781250
8523,46.875000
8524,46.875000
8525,46.875000
8526,42.968750
8527,42.968750
8528,39.062500
8529,39.062500
8530,35.156250
8531,35.156250
8532,31.250000
8533,31.250000
8534,27.343750
8535,27.343750
8536,23.437500
8537,23.437500
8538,19.531250
8539,19.531250
8540,15.625000
8541,11.718750
8542,11.718750
8543,7.812500
8544,7.812500
8545,3.906250
8546,3.906250
8547,0.000000
8548,0.000000
8549,-3.906250
8550,-3.906250
8551,-7.812500
8552,-11.718750
8553,-11.718750
8554,-15.625000
8555,-15.625000
8556,-19.531250
8557,-19.531250
8558,-23.437500
8559,-27.343750
8560,-27.343750
8561,-31.250000
8562,-31.250000
8563,-35.156250
8564,-39.062500
8565,-39.062500
8566,-42.968750
8567,-42.968750
8568,-46.875000
8569,-46.875000
8570,-50.781250
8571,-54.687500
8572,-54.687500
8573,-58.593750
8574,-62.500000
8575,-62.500000
8576,-62.500000
8577,-66.406250
8578,-70.312500
8579,-70.312500
8580,-74.218750
8581,-78.125000
8582,-78.125000
8583,-82.031250
8584,-82.031250
8585,-85.937500
8586,-85.937500
8587,-89.843750
8588,-89.843750
8589,-93.750000
8590,-97.656250
8591,-97.656250
8592,-101.562500
8593,-101.562500
8594,-105.468750
8595,-109.375000
8596,-109.375000
8597,-113.281250
8598,-113.281250
8599,-117.187500
8600,-117.187500
8601,-121.093750
8602,-121.093750
8603,-121.093750
8604,-125.000000
8605,-128.906250
8606,-128.906250
8607,-132.812500
8608,-132.812500
8609,-136.718750
8610,-136.718750
8611,-140.625000
8612,-140.625000
8613,-140.625000
8614,-144.531250
8615,-148.437500
8616,-148.437500
8617,-148.437500
8618,-152.343750
8619,-152.343750
8620,-152.343750
8621,-156.250000
8622,-156.250000
8623,-156.250000
8624,-160.156250
8625,-160.156250
8626,-164.062500
8627,-164.062500
8628,-164.062500
8629,-164.062500
8630,-167.968750
8631,-167.968750
8632,-171.875000
8633,-171.875000
8634,-171.875000
8635,-175.781250
8636,-175.781250
8637,-175.781250
8638,-175.781250
8639,-175.781250
8640,-175.781250
8641,-179.687500
8642,-179.687500
8643,-179.687500
8644,-179.687500
8645,-183.593750
8646,-183.593750
8647,-183.593750
8648,-183.593750
8649,-183.593750
8650,-183.593750
8651,-183.593750
8652,-187.500000
8653,-187.500000
8654,-187.500000
8655,-187.500000
8656,-187.500000
8657,-187.500000
8658,-187.500000
8659,-187.500000
8660,-187.500000
8661,-187.500000
8662,-187.500000
8663,-187.500000
8664,-187.500000
8665,-187.500000
8666,-187.500000
8667,-187.500000
8668,-187.500000
8669,-187.500000
8670,-187.500000
8671,-187.500000
8672,-187.500000
8673,-187.500000
8674,-183.593750
8675,-183.593750
8676,-183.593750
8677,-183.593750
8678,-183.593750
8679,-183.593750
8680,-183.593750
8681,-179.687500
8682,-179.687500
8683,-179.687500
8684,-179.687500
8685,-179.687500
8686,-175.781250
8687,-175.781250
8688,-175.781250
8689,-175.781250
8690,-171.875000
8691,-171.875000
8692,-171.875000
8693,-167.968750
8694,-167.968750
8695,-167.968750
8696,-167.968750
8697,-164.062500
8698,-164.062500
8699,-164.062500
8700,-160.156250
8701,-160.156250
8702,-156.250000
8703,-156.250000
8704,-156.250000
8705,-152.343750
8706,-152.343750
8707,-148.437500
8708,-148.437500
8709,-144.531250
8710,-144.531250
8711,-144.531250
8712,-140.625000
8713,-140.625000
8714,-136.718750
8715,-136.718750
8716,-132.812500
8717,-132.812500
8718,-128.906250
8719,-128.906250
8720,-125.000000
8721,-125.000000
8722,-121.093750
8723,-121.093750
8724,-117.187500
8725,-113.281250
8726,-113.281250
8727,-113.281250
8728,-109.375000
8729,-109.375000
8730,-105.468750
8731,-105.468750
8732,-101.562500
8733,-101.562500
8734,-97.656250
8735,-93.750000
8736,-93.750000
8737,-93.750000
8738,-89.843750
8739,-85.937500
8740,-85.937500
8741,-82.031250
8742,-82.031250
8743,-78.125000
8744,-74.218750
8745,-74.218750
8746,-70.312500
8747,-70.312500
8748,-66.406250
8749,-66.406250
8750,-62.500000
8751,-58.593750
8752,-58.593750
8753,-54.687500
8754,-54.687500
8755,-50.781250
8756,-46.875000
8757,-46.875000
8758,-42.968750
8759,-42.968750
8760,-39.062500
8761,-39.062500
8762,-35.156250
8763,-31.250000
8764,-31.250000
8765,-27.343750
8766,-27.343750
8767,-23.437500
8768,-19.531250
8769,-19.531250
8770,-15.625000
8771,-15.625000
8772,-11.718750
8773,-11.718750
8774,-7.812500
8775,-7.812500
8776,-3.906250
8777,0.000000
8778,0.000000
8779,3.906250
8780,3.906250
8781,7.812500
8782,11.718750
8783,11.718750
8784,11.718750
8785,15.625000
8786,15.625000
8787,19.531250
8788,23.437500
8789,23.437500
8790,23.437500
8791,27.343750
8792,31.250000
8793,31.250000
8794,31.250000
8795,35.156250
8796,35.156250
8797,39.062500
8798,39.062500
8799,42.968750
8800,42.968750
8801,42.968750
8802,46.875000
8803,46.875000
8804,50.781250
8805,50.781250
8806,54.687500
8807,54.687500
8808,58.593750
8809,58.593750
8810,58.593750
8811,62.500000
8812,66.406250
8813,62.500000
8814,66.406250
8815,66.406250
8816,66.406250
8817,70.312500
8818,70.312500
8819,74.218750
8820,74.218750
8821,74.218750
8822,78.125000
8823,78.125000
8824,78.125000
8825,78.125000
8826,82.031250
8827,82.031250
8828,82.031250
8829,85.937500
8830,85.937500
8831,85.937500
8832,85.937500
8833,89.843750
8834,89.843750
8835,89.843750
8836,89.843750
8837,93.750000
8838,93.750000
8839,93.750000
8840,93.750000
8841,97.656250
8842,97.656250
8843,97.656250
8844,97.656250
8845,97.656250
8846,97.656250
8847,97.656250
8848,101.562500
8849,101.562500
8850,101.562500
8851,101.562500
8852,101.562500
8853,105.468750
8854,101.562500
8855,105.468750
8856,105.468750
8857,105.468750
8858,105.468750
8859,105.468750
8860,105.468750
8861,105.468750
8862,105.468750
8863,105.468750
8864,105.468750
8865,105.468750
8866,105.468750
8867,105.468750
8868,105.468750
8869,109.375000
8870,109.375000
8871,109.375000
8872,109.375000
8873,109.375000
8874,105.468750
8875,109.375000
8876,105.468750
8877,105.468750
8878,109.375000
8879,109.375000
8880,105.468750
8881,105.468750
8882,105.468750
8883,105.468750
8884,105.468750
8885,105.468750
8886,105.468750
8887,105.468750
8888,105.468750
8889,105.468750
8890,101.562500
8891,101.562500
8892,101.562500
8893,101.562500
8894,101.562500
8895,101.562500
8896,101.562500
8897,101.562500
8898,97.656250
8899,97.656250
8900,97.656250
8901,97.656250
8902,97.656250
8903,93.750000
8904,93.750000
8905,93.750000
8906,93.750000
8907,93.750000
8908,89.843750
8909,89.843750
8910,89.843750
8911,89.843750
8912,85.937500
8913,85.937500
8914,85.937500
8915,82.031250
8916,82.031250
8917,82.031250
8918,78.125000
8919,78.125000
8920,78.125000
8921,78.125000
8922,78.125000
8923,74.218750
8924,74.218750
8925,70.312500
8926,70.312500
8927,66.406250
8928,66.406250
8929,66.406250
8930,62.500000
8931,62.500000
8932,62.500000
8933,58.593750
8934,58.593750
8935,58.593750
8936,54.687500
8937,54.687500
8938,50.781250
8939,50.781250
8940,46.875000
8941,42.968750
8942,42.968750
8943,42.968750
8944,39.062500
8945,39.062500
8946,35.156250
8947,35.156250
8948,35.156250
8949,31.250000
8950,27.343750
8951,27.343750
8952,27.343750
8953,23.437500
8954,19.531250
8955,19.531250
8956,19.531250
8957,15.625000
8958,15.625000
8959,11.718750
8960,7.812500
8961,7.812500
8962,3.906250
8963,3.906250
8964,0.000000
8965,0.000000
8966,-3.906250
8967,-7.812500
8968,-7.812500
8969,-11.718750
8970,-11.718750
8971,-15.625000
8972,-15.625000
8973,-19.531250
8974,-23.437500
8975,-23.437500
8976,-27.343750
8977,-27.343750
8978,-31.250000
8979,-31.250000
8980,-35.156250
8981,-39.062500
8982,-39.062500
8983,-42.968750
8984,-46.875000
8985,-46.875000
8986,-50.781250
8987,-50.781250
8988,-54.687500
8989,-58.593750
8990,-58.593750
8991,-58.593750
8992,-62.500000
8993,-66.406250
8994,-66.406250
8995,-70.312500
8996,-70.312500
8997,-74.218750
8998,-78.125000
8999,-78.125000
9000,-82.031250
9001,-82.031250
9002,-85.937500
9003,-89.843750
9004,-89.843750
9005,-93.750000
9006,-93.750000
9007,-97.656250
9008,-101.562500
9009,-101.562500
9010,-105.468750
9011,-105.468750
9012,-109.375000
9013,-109.375000
9014,-113.281250
9015,-113.281250
9016,-117.187500
9017,-121.093750
9018,-121.093750
9019,-121.093750
9020,-125.000000
9021,-125.000000
9022,-128.906250
9023,-128.906250
9024,-132.812500
9025,-132.812500
9026,-136.718750
9027,-136.718750
9028,-140.625000
9029,-140.625000
9030,-140.625000
9031,-144.531250
9032,-144.531250
9033,-148.437500
9034,-148.437500
9035,-152.343750
9036,-152.343750
9037,-152.343750
9038,-156.250000
9039,-156.250000
9040,-160.156250
9041,-160.156250
9042,-160.156250
9043,-164.062500
9044,-164.062500
9045,-164.062500
9046,-167.968750
9047,-167.968750
9048,-167.968750
9049,-171.875000
9050,-171.875000
9051,-171.875000
9052,-171.875000
9053,-175.781250
9054,-175.781250
9055,-175.781250
9056,-175.781250
9057,-179.687500
9058,-179.687500
9059,-179.687500
9060,-179.687500
9061,-179.687500
9062,-183.593750
9063,-183.593750
9064,-183.593750
9065,-183.593750
9066,-183.593750
9067,-183.593750
9068,-183.593750
9069,-187.500000
9070,-187.500000
9071,-187.500000
9072,-187.500000
9073,-187.500000
9074,-187.500000
9075,-187.500000
9076,-187.500000
9077,-187.500000
9078,-187.500000
9079,-187.500000
9080,-187.500000
9081,-187.500000
9082,-187.500000
9083,-187.500000
9084,-187.500000
9085,-187.500000
9086,-187.500000
9087,-187.500000
9088,-187.500000
9089,-187.500000
9090,-183.593750
9091,-183.593750
9092,-183.593750
9093,-183.593750
9094,-183.593750
9095,-183.593750
9096,-179.687500
9097,-179.687500
9098,-179.687500
9099,-179.687500
9100,-179.687500
9101,-179.687500
9102,-175.781250
9103,-175.781250
9104,-175.781250
9105,-175.781250
9106,-171.875000
9107,-171.875000
9108,-171.875000
9109,-171.875000
9110,-167.968750
9111,-167.968750
9112,-167.968750
9113,-164.062500
9114,-164.062500
9115,-164.062500
9116,-160.156250
9117,-160.156250
9118,-160.156250
9119,-156.250000
9120,-156.250000
9121,-152.343750
9122,-152.343750
9123,-152.343750
9124,-148.437500
9125,-148.437500
9126,-144.531250
9127,-144.531250
9128,-144.531250
9129,-140.625000
9130,-140.625000
9131,-136.718750
9132,-136.718750
9133,-132.812500
9134,-132.812500
9135,-128.906250
9136,-128.906250
9137,-125.000000
9138,-125.000000
9139,-125.000000
9140,-121.093750
9141,-121.093750
9142,-117.187500
9143,-113.281250
9144,-113.281250
9145,-109.375000
9146,-109.375000
9147,-105.468750
9148,-105.468750
9149,-101.562500
9150,-101.562500
9151,-97.656250
9152,-93.750000
9153,-93.750000
9154,-89.843750
9155,-89.843750
9156,-85.937500
9157,-85.937500
9158,-82.031250
9159,-78.125000
9160,-78.125000
9161,-74.218750
9162,-74.218750
9163,-70.312500
9164,-66.406250
9165,-66.406250
9166,-62.500000
9167,-62.500000
9168,-58.593750
9169,-58.593750
9170,-54.687500
9171,-50.781250
9172,-50.781250
9173,-46.875000
9174,-46.875000
9175,-42.968750
9176,-42.968750
9177,-39.062500
9178,-35.156250
9179,-35.156250
9180,-31.250000
9181,-31.250000
9182,-27.343750
9183,-27.343750
9184,-23.437500
9185,-19.531250
9186,-19.531250
9187,-15.625000
9188,-15.625000
9189,-11.718750
9190,-11.718750
9191,-7.812500
9192,-3.906250
9193,-3.906250
9194,0.000000
9195,0.000000
9196,3.906250
9197,3.906250
9198,7.812500
9199,7.812500
9200,11.718750
9201,15.625000
9202,15.625000
9203,15.625000
9204,19.531250
9205,19.531250
9206,23.437500
9207,27.343750
9208,27.343750
9209,31.250000
9210,31.250000
9211,31.250000
9212,35.156250
9213,35.156250
9214,39.062500
9215,39.062500
9216,42.968750
9217,42.968750
9218,46.875000
9219,46.875000
9220,50.781250
9221,50.781250
9222,54.687500
9223,54.687500
9224,54.687500
9225,58.593750
9226,58.593750
9227,62.500000
9228,62.500000
9229,62.500000
9230,66.406250
9231,66.406250
9232,66.406250
9233,70.312500
9234,70.312500
9235,70.312500
9236,74.218750
9237,74.218750
9238,74.218750
9239,78.125000
9240,78.125000
9241,78.125000
9242,82.031250
9243,82.031250
9244,82.031250
9245,82.031250
9246,85.937500
9247,85.937500
9248,85.937500
9249,89.843750
9250,89.843750
9251,89.843750
9252,89.843750
9253,89.843750
9254,93.750000
9255,93.750000
9256,93.750000
9257,93.750000
9258,97.656250
9259,97.656250
9260,97.656250
9261,97.656250
9262,97.656250
9263,97.656250
9264,101.562500
9265,101.562500
9266,101.562500
9267,101.562500
9268,101.562500
9269,101.562500
9270,101.562500
9271,101.562500
9272,105.468750
9273,105.468750
9274,105.468750
9275,105.468750
9276,105.468750
9277,105.468750
9278,105.468750
9279,105.468750
9280,105.468750
9281,105.468750
9282,105.468750
9283,105.468750
9284,105.468750
9285,105.468750
9286,109.375000
9287,105.468750
9288,105.468750
9289,105.468750
9290,109.375000
9291,105.468750
9292,109.375000
9293,109.375000
9294,105.468750
9295,105.468750
9296,105.468750
9297,105.468750
9298,105.468750
9299,105.468750
9300,105.468750
9301,105.468750
9302,105.468750
9303,105.468750
9304,105.468750
9305,105.468750
9306,105.468750
9307,105.468750
9308,101.562500
9309,101.562500
9310,101.562500
9311,101.562500
9312,101.562500
9313,101.562500
9314,97.656250
9315,97.656250
9316,97.656250
9317,97.656250
9318,97.656250
9319,97.656250
9320,97.656250
9321,93.750000
9322,93.750000
9323,93.750000
9324,89.843750
9325,89.843750
9326,89.843750
9327,89.843750
9328,85.937500
9329,85.937500
9330,85.937500
9331,82.031250
9332,82.031250
9333,82.031250
9334,82.031250
9335,78.125000
9336,78.125000
9337,78.125000
9338,74.218750
9339,74.218750
9340,70.312500
9341,70.312500
9342,70.312500
9343,70.312500
9344,66.406250
9345,66.406250
9346,62.500000
9347,62.500000
9348,62.500000
9349,58.593750
9350,58.593750
9351,54.687500
9352,54.687500
9353,54.687500
9354,50.781250
9355,50.781250
9356,50.781250
9357,46.875000
9358,46.875000
9359,42.968750
9360,42.968750
9361,39.062500
9362,39.062500
9363,39.062500
9364,35.156250
9365,31.250000
9366,31.250000
9367,27.343750
9368,27.343750
9369,23.437500
9370,23.437500
9371,19.531250
9372,19.531250
9373,15.625000
9374,15.625000
9375,11.718750
9376,11.718750
9377,7.812500
9378,7.812500
9379,3.906250
9380,3.906250
9381,0.000000
9382,-3.906250
9383,-3.906250
9384,-7.812500
9385,-11.718750
9386,-11.718750
9387,-11.718750
9388,-15.625000
9389,-19.531250
9390,-19.531250
9391,-23.437500
9392,-23.437500
9393,-27.343750
9394,-31.250000
9395,-31.250000
9396,-35.156250
9397,-35.156250
9398,-39.062500
9399,-42.968750
9400,-42.968750
9401,-46.875000
9402,-46.875000
9403,-50.781250
9404,-50.781250
9405,-54.687500
9406,-58.593750
9407,-58.593750
9408,-62.500000
9409,-62.500000
9410,-66.406250
9411,-70.312500
9412,-70.312500
9413,-74.218750
9414,-74.218750
9415,-78.125000
9416,-82.031250
9417,-82.031250
9418,-85.937500
9419,-85.937500
9420,-89.843750
9421,-93.750000
9422,-93.750000
9423,-93.750000
9424,-97.656250
9425,-101.562500
9426,-101.562500
9427,-105.468750
9428,-105.468750
9429,-109.375000
9430,-109.375000
9431,-113.281250
9432,-113.281250
9433,-117.187500
9434,-117.187500
9435,-121.093750
9436,-125.000000
9437,-125.000000
9438,-125.000000
9439,-128.906250
9440,-132.812500
9441,-132.812500
9442,-136.718750
9443,-136.718750
9444,-136.718750
9445,-140.625000
9446,-140.625000
9447,-144.531250
9448,-144.531250
9449,-148.437500
9450,-148.437500
9451,-148.437500
9452,-152.343750
9453,-152.343750
9454,-156.250000
9455,-156.250000
9456,-156.250000
9457,-160.156250
9458,-160.156250
9459,-164.062500
9460,-164.062500
9461,-164.062500
9462,-167.968750
9463,-167.968750
9464,-167.968750
9465,-167.968750
9466,-171.875000
9467,-171.875000
9468,-171.875000
9469,-171.875000
9470,-175.781250
9471,-175.781250
9472,-175.781250
9473,-175.781250
9474,-179.687500
9475,-179.687500
9476,-179.687500
9477,-179.687500
9478,-179.687500
9479,-183.593750
9480,-183.593750
9481,-183.593750
9482,-183.593750
9483,-183.593750
9484,-183.593750
9485,-187.500000
9486,-187.500000
9487,-187.500000
9488,-187.500000
9489,-187.500000
9490,-187.500000
9491,-187.500000
9492,-187.500000
9493,-187.500000
9494,-187.500000
9495,-187.500000
9496,-187.500000
9497,-187.500000
9498,-187.500000
9499,-187.500000
9500,-187.500000
9501,-187.500000
9502,-187.500000
9503,-187.500000
9504,-187.500000
9505,-187.500000
9506,-183.593750
9507,-183.593750
9508,-183.593750
9509,-187.500000
9510,-183.593750
9511,-183.593750
9512,-183.593750
9513,-179.687500
9514,-179.687500
9515,-179.687500
9516,-179.687500
9517,-179.687500
9518,-175.781250
9519,-175.781250
9520,-171.875000
9521,-175.781250
9522,-175.781250
9523,-171.875000
9524,-171.875000
9525,-167.968750
9526,-167.968750
9527,-167.968750
9528,-167.968750
9529,-167.968750
9530,-167.968750
9531,-164.062500
9532,-160.156250
9533,-160.156250
9534,-160.156250
9535,-160.156250
9536,-156.250000
9537,-156.250000
9538,-152.343750
9539,-152.343750
9540,-148.437500
9541,-148.437500
9542,-148.437500
9543,-144.531250
9544,-144.531250
9545,-140.625000
9546,-140.625000
9547,-140.625000
9548,-136.718750
9549,-132.812500
9550,-132.812500
9551,-132.812500
9552,-128.906250
9553,-125.000000
9554,-125.000000
9555,-125.000000
9556,-121.093750
9557,-121.093750
9558,-117.187500
9559,-117.187500
9560,-113.281250
9561,-113.281250
9562,-109.375000
9563,-109.375000
9564,-105.468750
9565,-101.562500
9566,-101.562500
9567,-97.656250
9568,-97.656250
9569,-93.750000
9570,-89.843750
9571,-89.843750
9572,-85.937500
9573,-85.937500
9574,-82.031250
9575,-82.031250
9576,-78.125000
9577,-78.125000
9578,-74.218750
9579,-70.312500
9580,-70.312500
9581,-66.406250
9582,-66.406250
9583,-62.500000
9584,-58.593750
9585,-58.593750
9586,-54.687500
9587,-54.687500
9588,-50.781250
9589,-50.781250
9590,-46.875000
9591,-42.968750
9592,-42.968750
9593,-39.062500
9594,-39.062500
9595,-35.156250
9596,-31.250000
9597,-31.250000
9598,-27.343750
9599,-27.343750
9600,-23.437500
9601,-19.531250
9602,-19.531250
9603,-15.625000
9604,-15.625000
9605,-11.718750
9606,-11.718750
9607,-7.812500
9608,-7.812500
9609,-3.906250
9610,0.000000
9611,0.000000
9612,0.000000
9613,3.906250
9614,7.812500
9615,7.812500
9616,7.812500
9617,11.718750
9618,15.625000
9619,15.625000
9620,19.531250
9621,19.531250
9622,23.437500
9623,23.437500
9624,27.343750
9625,27.343750
9626,31.250000
9627,31.250000
9628,35.156250
9629,35.156250
9630,39.062500
9631,39.062500
9632,42.968750
9633,42.968750
9634,42.968750
9635,46.875000
9636,46.875000
9637,50.781250
9638,50.781250
9639,54.687500
9640,54.687500
9641,54.687500
9642,58.593750
9643,58.593750
9644,62.500000
9645,62.500000
9646,62.500000
9647,66.406250
9648,66.406250
9649,66.406250
9650,70.312500
9651,70.312500
9652,74.218750
9653,74.218750
9654,74.218750
9655,78.125000
9656,78.125000
9657,78.125000
9658,78.125000
9659,82.031250
9660,82.031250
9661,85.937500
9662,85.937500
9663,85.937500
9664,85.937500
9665,85.937500
9666,89.843750
9667,89.843750
9668,89.843750
9669,93.750000
9670,93.750000
9671,93.750000
9672,93.750000
9673,93.750000
9674,97.656250
9675,97.656250
9676,97.656250
9677,97.656250
9678,97.656250
9679,97.656250
9680,97.656250
9681,101.562500
9682,101.562500
9683,101.562500
9684,101.562500
9685,101.562500
9686,105.468750
9687,105.468750
9688,105.468750
9689,105.468750
9690,105.468750
9691,105.468750
9692,105.468750
9693,105.468750
9694,105.468750
9695,105.468750
9696,105.468750
9697,105.468750
9698,105.468750
9699,109.375000
9700,109.375000
9701,109.375000
9702,105.468750
9703,109.375000
9704,105.468750
9705,109.375000
9706,109.375000
9707,105.468750
9708,109.375000
9709,105.468750
9710,109.375000
9711,105.468750
9712,105.468750
9713,105.468750
9714,105.468750
9715,105.468750
9716,105.468750
9717,105.468750
9718,105.468750
9719,105.468750
9720,105.468750
9721,105.468750
9722,105.468750
9723,101.562500
9724,101.562500
9725,101.562500
9726,101.562500
9727,101.562500
9728,101.562500
9729,101.562500
9730,101.562500
9731,97.656250
9732,97.656250
9733,97.656250
9734,97.656250
9735,97.656250
9736,93.750000
9737,93.750000
9738,93.750000
9739,93.750000
9740,93.750000
9741,89.843750
9742,89.843750
9743,89.843750
9744,89.843750
9745,85.937500
9746,85.937500
9747,85.937500
9748,82.031250
9749,82.031250
9750,82.031250
9751,82.031250
9752,78.125000
9753,78.125000
9754,78.125000
9755,74.218750
9756,74.218750
9757,74.218750
9758,70.312500
9759,70.312500
9760,70.312500
9761,66.406250
9762,66.406250
9763,62.500000
9764,62.500000
9765,62.500000
9766,58.593750
9767,58.593750
9768,54.687500
9769,54.687500
9770,50.781250
9771,50.781250
9772,50.781250
9773,46.875000
9774,46.875000
9775,46.875000
9776,42.968750
9777,42.968750
9778,39.062500
9779,35.156250
9780,35.156250
9781,35.156250
9782,31.250000
9783,31.250000
9784,27.343750
9785,27.343750
9786,23.437500
9787,23.437500
9788,19.531250
9789,19.531250
9790,15.625000
9791,11.718750
9792,11.718750
9793,7.812500
9794,7.812500
9795,3.906250
9796,3.906250
9797,0.000000
9798,0.000000
9799,-3.906250
9800,-3.906250
9801,-7.812500
9802,-7.812500
9803,-11.718750
9804,-11.718750
9805,-15.625000
9806,-19.531250
9807,-19.531250
9808,-23.437500
9809,-23.437500
9810,-27.343750
9811,-31.250000
9812,-31.250000
9813,-35.156250
9814,-35.156250
9815,-39.062500
9816,-42.968750
9817,-42.968750
9818,-46.875000
9819,-46.875000
9820,-50.781250
9821,-54.687500
9822,-54.687500
9823,-58.593750
9824,-62.500000
9825,-62.500000
9826,-66.406250
9827,-66.406250
9828,-70.312500
9829,-70.312500
9830,-74.218750
9831,-74.218750
9832,-78.125000
9833,-82.031250
9834,-82.031250
9835,-85.937500
9836,-89.843750
9837,-89.843750
9838,-93.750000
9839,-93.750000
9840,-97.656250
9841,-101.562500
9842,-101.562500
9843,-105.468750
9844,-105.468750
9845,-109.375000
9846,-109.375000
9847,-113.281250
9848,-113.281250
9849,-117.187500
9850,-117.187500
9851,-121.093750
9852,-121.093750
9853,-125.000000
9854,-125.000000
9855,-128.906250
9856,-128.906250
9857,-132.812500
9858,-132.812500
9859,-136.718750
9860,-136.718750
9861,-140.625000
9862,-140.625000
9863,-144.531250
9864,-144.531250
9865,-148.437500
9866,-148.437500
9867,-148.437500
9868,-152.343750
9869,-152.343750
9870,-156.250000
9871,-156.250000
9872,-156.250000
9873,-156.250000
9874,-160.156250
9875,-160.156250
9876,-164.062500
9877,-164.062500
9878,-164.062500
9879,-167.968750
9880,-167.968750
9881,-167.968750
9882,-167.968750
9883,-171.875000
9884,-171.875000
9885,-171.875000
9886,-175.781250
9887,-175.781250
9888,-175.781250
9889,-175.781250
9890,-175.781250
9891,-179.687500
9892,-179.687500
9893,-179.687500
9894,-179.687500
9895,-183.593750
9896,-183.593750
9897,-183.593750
9898,-183.593750
9899,-183.593750
9900,-183.593750
9901,-187.500000
9902,-187.500000
9903,-187.500000
9904,-187.500000
9905,-187.500000
9906,-187.500000
9907,-187.500000
9908,-187.500000
9909,-187.500000
9910,-187.500000
9911,-187.500000
9912,-187.500000
9913,-187.500000
9914,-187.500000
9915,-187.500000
9916,-187.500000
9917,-187.500000
9918,-187.500000
9919,-187.500000
9920,-187.500000
9921,-187.500000
9922,-187.500000
9923,-187.500000
9924,-187.500000
9925,-183.593750
9926,-183.593750
9927,-183.593750
9928,-183.593750
9929,-183.593750
9930,-183.593750
9931,-183.593750
9932,-179.687500
9933,-179.687500
9934,-179.687500
9935,-179.687500
9936,-175.781250
9937,-175.781250
9938,-175.781250
9939,-171.875000
9940,-171.875000
9941,-171.875000
9942,-171.875000
9943,-167.968750
9944,-167.968750
9945,-167.968750
9946,-164.062500
9947,-164.062500
9948,-164.062500
9949,-164.062500
9950,-160.156250
9951,-160.156250
9952,-160.156250
9953,-156.250000
9954,-156.250000
9955,-152.343750
9956,-152.343750
9957,-152.343750
9958,-148.437500
9959,-148.437500
9960,-144.531250
9961,-144.531250
9962,-140.625000
9963,-140.625000
9964,-136.718750
9965,-136.718750
9966,-136.718750
9967,-132.812500
9968,-132.812500
9969,-128.906250
9970,-128.906250
9971,-125.000000
9972,-125.000000
9973,-121.093750
9974,-117.187500
9975,-117.187500
9976,-113.281250
9977,-113.281250
9978,-113.281250
9979,-109.375000
9980,-109.375000
9981,-105.468750
9982,-101.562500
9983,-101.562500
9984,-97.656250
9985,-93.750000
9986,-93.750000
9987,-89.843750
9988,-89.843750
9989,-85.937500
9990,-85.937500
9991,-82.031250
9992,-82.031250
9993,-78.125000
9994,-78.125000
9995,-74.218750
9996,-70.312500
9997,-70.312500
9998,-66.406250
9999,-66.406250
10000,-62.500000
