Channel              :,CH1
Frequency            :,1.199kHz
Period               :,0.834ms
PK-PK                :,85.94mV
Probe attenuation    :,1X
Voltage per ADC value:,0.244141mV
Time interval        :,2.00000us

index,CH1_Voltage(mV)
1,-58.593750
2,-58.593750
3,-58.593750
4,-58.593750
5,-58.593750
6,-58.593750
7,-58.593750
8,-58.593750
9,-58.593750
10,-58.593750
11,-58.593750
12,-58.593750
13,-58.593750
14,-58.593750
15,-58.593750
16,-58.593750
17,-58.593750
18,-54.687500
19,-58.593750
20,-58.593750
21,-54.687500
22,-54.687500
23,-54.687500
24,-58.593750
25,-54.687500
26,-54.687500
27,-54.687500
28,-54.687500
29,-54.687500
30,-54.687500
31,-54.687500
32,-54.687500
33,-54.687500
34,-54.687500
35,-54.687500
36,-54.687500
37,-54.687500
38,-50.781250
39,-50.781250
40,-50.781250
41,-50.781250
42,-50.781250
43,-50.781250
44,-50.781250
45,-50.781250
46,-50.781250
47,-50.781250
48,-46.875000
49,-46.875000
50,-46.875000
51,-46.875000
52,-46.875000
53,-46.875000
54,-46.875000
55,-46.875000
56,-46.875000
57,-42.968750
58,-42.968750
59,-42.968750
60,-42.968750
61,-42.968750
62,-42.968750
63,-42.968750
64,-42.968750
65,-42.968750
66,-39.062500
67,-39.062500
68,-39.062500
69,-39.062500
70,-39.062500
71,-39.062500
72,-39.062500
73,-39.062500
74,-39.062500
75,-35.156250
76,-35.156250
77,-35.156250
78,-35.156250
79,-35.156250
80,-35.156250
81,-35.156250
82,-35.156250
83,-35.156250
84,-31.250000
85,-31.250000
86,-31.250000
87,-31.250000
88,-31.250000
89,-31.250000
90,-31.250000
91,-27.343750
92,-27.343750
93,-27.343750
94,-27.343750
95,-27.343750
96,-27.343750
97,-27.343750
98,-27.343750
99,-27.343750
100,-27.343750
101,-23.437500
102,-23.437500
103,-23.437500
104,-23.437500
105,-23.437500
106,-23.437500
107,-23.437500
108,-19.531250
109,-19.531250
110,-19.531250
111,-19.531250
112,-19.531250
113,-19.531250
114,-15.625000
115,-15.625000
116,-15.625000
117,-15.625000
118,-15.625000
119,-15.625000
120,-15.625000
121,-11.718750
122,-11.718750
123,-11.718750
124,-11.718750
125,-11.718750
126,-11.718750
127,-11.718750
128,-11.718750
129,-7.812500
130,-7.812500
131,-7.812500
132,-7.812500
133,-7.812500
134,-7.812500
135,-7.812500
136,-7.812500
137,-3.906250
138,-3.906250
139,-3.906250
140,-3.906250
141,-3.906250
142,-3.906250
143,-3.906250
144,0.000000
145,0.000000
146,0.000000
147,0.000000
148,0.000000
149,0.000000
150,0.000000
151,0.000000
152,0.000000
153,0.000000
154,3.906250
155,3.906250
156,3.906250
157,3.906250
158,3.906250
159,3.906250
160,3.906250
161,3.906250
162,3.906250
163,3.906250
164,3.906250
165,7.812500
166,7.812500
167,7.812500
168,7.812500
169,7.812500
170,7.812500
171,7.812500
172,7.812500
173,7.812500
174,11.718750
175,11.718750
176,11.718750
177,11.718750
178,11.718750
179,11.718750
180,11.718750
181,11.718750
182,11.718750
183,11.718750
184,11.718750
185,15.625000
186,11.718750
187,15.625000
188,11.718750
189,15.625000
190,15.625000
191,15.625000
192,15.625000
193,15.625000
194,15.625000
195,15.625000
196,15.625000
197,15.625000
198,15.625000
199,15.625000
200,15.625000
201,15.625000
202,15.625000
203,11.718750
204,15.625000
205,15.625000
206,15.625000
207,15.625000
208,19.531250
209,15.625000
210,15.625000
211,15.625000
212,15.625000
213,15.625000
214,15.625000
215,15.625000
216,15.625000
217,15.625000
218,15.625000
219,15.625000
220,15.625000
221,15.625000
222,15.625000
223,15.625000
224,15.625000
225,15.625000
226,15.625000
227,15.625000
228,15.625000
229,15.625000
230,15.625000
231,15.625000
232,15.625000
233,15.625000
234,15.625000
235,15.625000
236,15.625000
237,15.625000
238,15.625000
239,15.625000
240,15.625000
241,15.625000
242,15.625000
243,15.625000
244,15.625000
245,15.625000
246,15.625000
247,11.718750
248,15.625000
249,11.718750
250,11.718750
251,11.718750
252,11.718750
253,11.718750
254,11.718750
255,11.718750
256,11.718750
257,11.718750
258,11.718750
259,11.718750
260,11.718750
261,11.718750
262,7.812500
263,7.812500
264,7.812500
265,7.812500
266,7.812500
267,7.812500
268,7.812500
269,7.812500
270,7.812500
271,7.812500
272,3.906250
273,3.906250
274,3.906250
275,3.906250
276,3.906250
277,3.906250
278,3.906250
279,0.000000
280,7.812500
281,0.000000
282,0.000000
283,0.000000
284,0.000000
285,0.000000
286,0.000000
287,0.000000
288,-3.906250
289,-3.906250
290,-3.906250
291,-3.906250
292,-3.906250
293,-3.906250
294,-3.906250
295,-3.906250
296,-7.812500
297,-7.812500
298,-7.812500
299,-7.812500
300,-7.812500
301,-7.812500
302,-7.812500
303,-11.718750
304,-11.718750
305,-11.718750
306,-11.718750
307,-11.718750
308,-11.718750
309,-11.718750
310,-11.718750
311,-15.625000
312,-15.625000
313,-15.625000
314,-15.625000
315,-15.625000
316,-15.625000
317,-15.625000
318,-19.531250
319,-19.531250
320,-19.531250
321,-19.531250
322,-19.531250
323,-23.437500
324,-23.437500
325,-23.437500
326,-23.437500
327,-23.437500
328,-23.437500
329,-23.437500
330,-27.343750
331,-27.343750
332,-27.343750
333,-27.343750
334,-27.343750
335,-27.343750
336,-27.343750
337,-31.250000
338,-31.250000
339,-31.250000
340,-31.250000
341,-31.250000
342,-35.156250
343,-35.156250
344,-35.156250
345,-35.156250
346,-35.156250
347,-35.156250
348,-35.156250
349,-39.062500
350,-39.062500
351,-39.062500
352,-39.062500
353,-39.062500
354,-39.062500
355,-42.968750
356,-39.062500
357,-42.968750
358,-42.968750
359,-42.968750
360,-42.968750
361,-42.968750
362,-42.968750
363,-42.968750
364,-46.875000
365,-46.875000
366,-46.875000
367,-46.875000
368,-46.875000
369,-46.875000
370,-46.875000
371,-46.875000
372,-46.875000
373,-46.875000
374,-50.781250
375,-50.781250
376,-50.781250
377,-50.781250
378,-50.781250
379,-50.781250
380,-50.781250
381,-50.781250
382,-50.781250
383,-50.781250
384,-50.781250
385,-50.781250
386,-54.687500
387,-54.687500
388,-50.781250
389,-54.687500
390,-54.687500
391,-54.687500
392,-54.687500
393,-54.687500
394,-54.687500
395,-54.687500
396,-54.687500
397,-54.687500
398,-54.687500
399,-54.687500
400,-54.687500
401,-54.687500
402,-58.593750
403,-58.593750
404,-58.593750
405,-58.593750
406,-58.593750
407,-58.593750
408,-58.593750
409,-58.593750
410,-58.593750
411,-58.593750
412,-58.593750
413,-58.593750
414,-58.593750
415,-58.593750
416,-58.593750
417,-58.593750
418,-58.593750
419,-58.593750
420,-58.593750
421,-58.593750
422,-58.593750
423,-58.593750
424,-58.593750
425,-58.593750
426,-58.593750
427,-58.593750
428,-58.593750
429,-58.593750
430,-58.593750
431,-58.593750
432,-58.593750
433,-58.593750
434,-58.593750
435,-54.687500
436,-54.687500
437,-58.593750
438,-58.593750
439,-58.593750
440,-54.687500
441,-54.687500
442,-54.687500
443,-54.687500
444,-54.687500
445,-54.687500
446,-54.687500
447,-54.687500
448,-54.687500
449,-54.687500
450,-54.687500
451,-54.687500
452,-54.687500
453,-54.687500
454,-50.781250
455,-50.781250
456,-50.781250
457,-50.781250
458,-50.781250
459,-50.781250
460,-50.781250
461,-50.781250
462,-50.781250
463,-50.781250
464,-50.781250
465,-50.781250
466,-46.875000
467,-46.875000
468,-46.875000
469,-46.875000
470,-46.875000
471,-46.875000
472,-46.875000
473,-46.875000
474,-46.875000
475,-46.875000
476,-42.968750
477,-42.968750
478,-42.968750
479,-42.968750
480,-42.968750
481,-42.968750
482,-42.968750
483,-42.968750
484,-39.062500
485,-42.968750
486,-39.062500
487,-39.062500
488,-39.062500
489,-39.062500
490,-39.062500
491,-39.062500
492,-39.062500
493,-35.156250
494,-35.156250
495,-35.156250
496,-35.156250
497,-35.156250
498,-35.156250
499,-35.156250
500,-31.250000
501,-31.250000
502,-31.250000
503,-31.250000
504,-31.250000
505,-31.250000
506,-31.250000
507,-31.250000
508,-27.343750
509,-27.343750
510,-27.343750
511,-27.343750
512,-27.343750
513,-27.343750
514,-27.343750
515,-27.343750
516,-23.437500
517,-23.437500
518,-23.437500
519,-23.437500
520,-23.437500
521,-23.437500
522,-23.437500
523,-19.531250
524,-19.531250
525,-19.531250
526,-19.531250
527,-19.531250
528,-19.531250
529,-19.531250
530,-15.625000
531,-15.625000
532,-15.625000
533,-15.625000
534,-15.625000
535,-15.625000
536,-15.625000
537,-15.625000
538,-11.718750
539,-15.625000
540,-11.718750
541,-11.718750
542,-11.718750
543,-11.718750
544,-11.718750
545,-11.718750
546,-11.718750
547,-7.812500
548,-7.812500
549,-7.812500
550,-7.812500
551,-7.812500
552,-3.906250
553,-3.906250
554,-3.906250
555,-3.906250
556,-3.906250
557,-3.906250
558,-3.906250
559,-3.906250
560,-3.906250
561,-3.906250
562,0.000000
563,-3.906250
564,0.000000
565,0.000000
566,0.000000
567,0.000000
568,0.000000
569,0.000000
570,3.906250
571,3.906250
572,3.906250
573,3.906250
574,3.906250
575,3.906250
576,3.906250
577,3.906250
578,3.906250
579,3.906250
580,3.906250
581,7.812500
582,7.812500
583,7.812500
584,7.812500
585,3.906250
586,7.812500
587,7.812500
588,7.812500
589,7.812500
590,7.812500
591,7.812500
592,11.718750
593,11.718750
594,11.718750
595,11.718750
596,11.718750
597,11.718750
598,11.718750
599,11.718750
600,11.718750
601,11.718750
602,11.718750
603,11.718750
604,11.718750
605,15.625000
606,15.625000
607,11.718750
608,15.625000
609,15.625000
610,15.625000
611,15.625000
612,15.625000
613,15.625000
614,15.625000
615,15.625000
616,15.625000
617,15.625000
618,15.625000
619,15.625000
620,15.625000
621,15.625000
622,15.625000
623,15.625000
624,15.625000
625,15.625000
626,15.625000
627,19.531250
628,15.625000
629,15.625000
630,19.531250
631,19.531250
632,15.625000
633,15.625000
634,15.625000
635,15.625000
636,15.625000
637,15.625000
638,19.531250
639,15.625000
640,15.625000
641,15.625000
642,15.625000
643,15.625000
644,15.625000
645,15.625000
646,15.625000
647,15.625000
648,15.625000
649,15.625000
650,15.625000
651,15.625000
652,15.625000
653,15.625000
654,15.625000
655,15.625000
656,15.625000
657,15.625000
658,15.625000
659,15.625000
660,15.625000
661,15.625000
662,11.718750
663,11.718750
664,11.718750
665,11.718750
666,11.718750
667,11.718750
668,11.718750
669,11.718750
670,11.718750
671,11.718750
672,11.718750
673,11.718750
674,11.718750
675,11.718750
676,11.718750
677,7.812500
678,7.812500
679,7.812500
680,7.812500
681,7.812500
682,7.812500
683,7.812500
684,7.812500
685,7.812500
686,7.812500
687,3.906250
688,3.906250
689,3.906250
690,3.906250
691,3.906250
692,3.906250
693,3.906250
694,3.906250
695,3.906250
696,3.906250
697,3.906250
698,0.000000
699,0.000000
700,0.000000
701,0.000000
702,0.000000
703,0.000000
704,0.000000
705,0.000000
706,-3.906250
707,-3.906250
708,-3.906250
709,-3.906250
710,-3.906250
711,-3.906250
712,-3.906250
713,-7.812500
714,-7.812500
715,-7.812500
716,-7.812500
717,-7.812500
718,-7.812500
719,-7.812500
720,-11.718750
721,-11.718750
722,-11.718750
723,-11.718750
724,-15.625000
725,-11.718750
726,-11.718750
727,-15.625000
728,-15.625000
729,-15.625000
730,-15.625000
731,-15.625000
732,-19.531250
733,-19.531250
734,-19.531250
735,-19.531250
736,-19.531250
737,-19.531250
738,-19.531250
739,-23.437500
740,-23.437500
741,-23.437500
742,-23.437500
743,-23.437500
744,-23.437500
745,-23.437500
746,-27.343750
747,-27.343750
748,-27.343750
749,-27.343750
750,-27.343750
751,-31.250000
752,-27.343750
753,-31.250000
754,-31.250000
755,-31.250000
756,-31.250000
757,-31.250000
758,-31.250000
759,-31.250000
760,-35.156250
761,-35.156250
762,-35.156250
763,-35.156250
764,-35.156250
765,-35.156250
766,-39.062500
767,-42.968750
768,-39.062500
769,-39.062500
770,-39.062500
771,-39.062500
772,-39.062500
773,-42.968750
774,-42.968750
775,-42.968750
776,-42.968750
777,-42.968750
778,-42.968750
779,-42.968750
780,-42.968750
781,-42.968750
782,-46.875000
783,-46.875000
784,-46.875000
785,-46.875000
786,-46.875000
787,-46.875000
788,-46.875000
789,-46.875000
790,-46.875000
791,-46.875000
792,-46.875000
793,-50.781250
794,-50.781250
795,-50.781250
796,-50.781250
797,-50.781250
798,-54.687500
799,-50.781250
800,-50.781250
801,-50.781250
802,-54.687500
803,-54.687500
804,-54.687500
805,-54.687500
806,-54.687500
807,-54.687500
808,-54.687500
809,-54.687500
810,-54.687500
811,-54.687500
812,-54.687500
813,-54.687500
814,-54.687500
815,-54.687500
816,-54.687500
817,-50.781250
818,-54.687500
819,-54.687500
820,-58.593750
821,-58.593750
822,-58.593750
823,-58.593750
824,-58.593750
825,-58.593750
826,-58.593750
827,-58.593750
828,-58.593750
829,-58.593750
830,-58.593750
831,-58.593750
832,-58.593750
833,-58.593750
834,-58.593750
835,-58.593750
836,-58.593750
837,-58.593750
838,-58.593750
839,-58.593750
840,-58.593750
841,-58.593750
842,-58.593750
843,-58.593750
844,-58.593750
845,-58.593750
846,-58.593750
847,-54.687500
848,-54.687500
849,-58.593750
850,-58.593750
851,-58.593750
852,-58.593750
853,-58.593750
854,-58.593750
855,-54.687500
856,-54.687500
857,-54.687500
858,-54.687500
859,-54.687500
860,-54.687500
861,-54.687500
862,-54.687500
863,-54.687500
864,-54.687500
865,-54.687500
866,-54.687500
867,-54.687500
868,-54.687500
869,-54.687500
870,-50.781250
871,-54.687500
872,-50.781250
873,-50.781250
874,-50.781250
875,-50.781250
876,-50.781250
877,-50.781250
878,-50.781250
879,-50.781250
880,-50.781250
881,-46.875000
882,-50.781250
883,-46.875000
884,-46.875000
885,-46.875000
886,-46.875000
887,-46.875000
888,-46.875000
889,-46.875000
890,-46.875000
891,-46.875000
892,-46.875000
893,-42.968750
894,-42.968750
895,-42.968750
896,-42.968750
897,-42.968750
898,-42.968750
899,-42.968750
900,-42.968750
901,-39.062500
902,-39.062500
903,-39.062500
904,-39.062500
905,-39.062500
906,-39.062500
907,-39.062500
908,-39.062500
909,-39.062500
910,-35.156250
911,-35.156250
912,-35.156250
913,-35.156250
914,-35.156250
915,-35.156250
916,-35.156250
917,-35.156250
918,-31.250000
919,-31.250000
920,-31.250000
921,-31.250000
922,-31.250000
923,-31.250000
924,-31.250000
925,-31.250000
926,-27.343750
927,-27.343750
928,-27.343750
929,-27.343750
930,-27.343750
931,-27.343750
932,-27.343750
933,-23.437500
934,-23.437500
935,-23.437500
936,-23.437500
937,-23.437500
938,-23.437500
939,-19.531250
940,-19.531250
941,-19.531250
942,-19.531250
943,-19.531250
944,-19.531250
945,-19.531250
946,-19.531250
947,-15.625000
948,-15.625000
949,-15.625000
950,-15.625000
951,-15.625000
952,-15.625000
953,-15.625000
954,-15.625000
955,-11.718750
956,-11.718750
957,-11.718750
958,-11.718750
959,-11.718750
960,-11.718750
961,-7.812500
962,-7.812500
963,-7.812500
964,-7.812500
965,-3.906250
966,-7.812500
967,-7.812500
968,-7.812500
969,-3.906250
970,-3.906250
971,-3.906250
972,-3.906250
973,-3.906250
974,-3.906250
975,-3.906250
976,-3.906250
977,-3.906250
978,0.000000
979,0.000000
980,0.000000
981,0.000000
982,0.000000
983,0.000000
984,0.000000
985,0.000000
986,3.906250
987,3.906250
988,0.000000
989,3.906250
990,3.906250
991,3.906250
992,3.906250
993,3.906250
994,3.906250
995,3.906250
996,3.906250
997,3.906250
998,7.812500
999,7.812500
1000,7.812500
1001,7.812500
1002,7.812500
1003,7.812500
1004,7.812500
1005,7.812500
1006,7.812500
1007,7.812500
1008,7.812500
1009,7.812500
1010,11.718750
1011,11.718750
1012,11.718750
1013,11.718750
1014,11.718750
1015,11.718750
1016,11.718750
1017,11.718750
1018,11.718750
1019,11.718750
1020,15.625000
1021,15.625000
1022,15.625000
1023,15.625000
1024,15.625000
1025,15.625000
1026,15.625000
1027,15.625000
1028,15.625000
1029,15.625000
1030,15.625000
1031,15.625000
1032,15.625000
1033,15.625000
1034,15.625000
1035,15.625000
1036,15.625000
1037,15.625000
1038,15.625000
1039,15.625000
1040,15.625000
1041,15.625000
1042,15.625000
1043,19.531250
1044,15.625000
1045,15.625000
1046,19.531250
1047,15.625000
1048,19.531250
1049,15.625000
1050,15.625000
1051,15.625000
1052,15.625000
1053,15.625000
1054,19.531250
1055,15.625000
1056,15.625000
1057,15.625000
1058,15.625000
1059,15.625000
1060,15.625000
1061,15.625000
1062,19.531250
1063,15.625000
1064,15.625000
1065,15.625000
1066,15.625000
1067,15.625000
1068,15.625000
1069,15.625000
1070,15.625000
1071,15.625000
1072,15.625000
1073,15.625000
1074,15.625000
1075,15.625000
1076,15.625000
1077,15.625000
1078,15.625000
1079,15.625000
1080,15.625000
1081,15.625000
1082,11.718750
1083,11.718750
1084,11.718750
1085,11.718750
1086,11.718750
1087,11.718750
1088,11.718750
1089,11.718750
1090,11.718750
1091,11.718750
1092,11.718750
1093,11.718750
1094,11.718750
1095,7.812500
1096,11.718750
1097,7.812500
1098,7.812500
1099,7.812500
1100,7.812500
1101,7.812500
1102,7.812500
1103,7.812500
1104,3.906250
1105,7.812500
1106,3.906250
1107,3.906250
1108,3.906250
1109,3.906250
1110,3.906250
1111,3.906250
1112,3.906250
1113,3.906250
1114,0.000000
1115,0.000000
1116,0.000000
1117,0.000000
1118,0.000000
1119,0.000000
1120,0.000000
1121,-3.906250
1122,-3.906250
1123,-3.906250
1124,-3.906250
1125,-3.906250
1126,-3.906250
1127,-3.906250
1128,-7.812500
1129,-7.812500
1130,-7.812500
1131,-7.812500
1132,-7.812500
1133,-7.812500
1134,-7.812500
1135,-7.812500
1136,-11.718750
1137,-11.718750
1138,-11.718750
1139,-11.718750
1140,-11.718750
1141,-11.718750
1142,-15.625000
1143,-15.625000
1144,-15.625000
1145,-15.625000
1146,-15.625000
1147,-15.625000
1148,-15.625000
1149,-19.531250
1150,-19.531250
1151,-19.531250
1152,-19.531250
1153,-19.531250
1154,-19.531250
1155,-19.531250
1156,-23.437500
1157,-23.437500
1158,-23.437500
1159,-23.437500
1160,-23.437500
1161,-23.437500
1162,-23.437500
1163,-27.343750
1164,-27.343750
1165,-31.250000
1166,-27.343750
1167,-27.343750
1168,-27.343750
1169,-31.250000
1170,-31.250000
1171,-31.250000
1172,-31.250000
1173,-35.156250
1174,-31.250000
1175,-35.156250
1176,-35.156250
1177,-35.156250
1178,-35.156250
1179,-35.156250
1180,-35.156250
1181,-35.156250
1182,-35.156250
1183,-39.062500
1184,-39.062500
1185,-39.062500
1186,-39.062500
1187,-39.062500
1188,-39.062500
1189,-39.062500
1190,-42.968750
1191,-42.968750
1192,-42.968750
1193,-42.968750
1194,-42.968750
1195,-42.968750
1196,-42.968750
1197,-42.968750
1198,-46.875000
1199,-46.875000
1200,-46.875000
1201,-46.875000
1202,-46.875000
1203,-46.875000
1204,-46.875000
1205,-46.875000
1206,-46.875000
1207,-46.875000
1208,-50.781250
1209,-50.781250
1210,-50.781250
1211,-50.781250
1212,-50.781250
1213,-50.781250
1214,-50.781250
1215,-50.781250
1216,-50.781250
1217,-50.781250
1218,-50.781250
1219,-54.687500
1220,-54.687500
1221,-54.687500
1222,-54.687500
1223,-54.687500
1224,-54.687500
1225,-54.687500
1226,-54.687500
1227,-54.687500
1228,-54.687500
1229,-54.687500
1230,-54.687500
1231,-58.593750
1232,-54.687500
1233,-58.593750
1234,-58.593750
1235,-58.593750
1236,-58.593750
1237,-58.593750
1238,-58.593750
1239,-58.593750
1240,-58.593750
1241,-58.593750
1242,-58.593750
1243,-58.593750
1244,-58.593750
1245,-58.593750
1246,-58.593750
1247,-58.593750
1248,-58.593750
1249,-58.593750
1250,-58.593750
1251,-58.593750
1252,-58.593750
1253,-58.593750
1254,-58.593750
1255,-58.593750
1256,-58.593750
1257,-58.593750
1258,-58.593750
1259,-58.593750
1260,-58.593750
1261,-58.593750
1262,-58.593750
1263,-58.593750
1264,-58.593750
1265,-58.593750
1266,-58.593750
1267,-58.593750
1268,-58.593750
1269,-54.687500
1270,-58.593750
1271,-54.687500
1272,-54.687500
1273,-54.687500
1274,-54.687500
1275,-54.687500
1276,-54.687500
1277,-54.687500
1278,-54.687500
1279,-54.687500
1280,-54.687500
1281,-54.687500
1282,-54.687500
1283,-50.781250
1284,-54.687500
1285,-54.687500
1286,-54.687500
1287,-50.781250
1288,-50.781250
1289,-50.781250
1290,-50.781250
1291,-50.781250
1292,-50.781250
1293,-50.781250
1294,-50.781250
1295,-50.781250
1296,-50.781250
1297,-50.781250
1298,-50.781250
1299,-46.875000
1300,-46.875000
1301,-46.875000
1302,-46.875000
1303,-46.875000
1304,-46.875000
1305,-46.875000
1306,-46.875000
1307,-46.875000
1308,-46.875000
1309,-42.968750
1310,-42.968750
1311,-42.968750
1312,-42.968750
1313,-42.968750
1314,-42.968750
1315,-42.968750
1316,-42.968750
1317,-42.968750
1318,-42.968750
1319,-39.062500
1320,-39.062500
1321,-39.062500
1322,-39.062500
1323,-39.062500
1324,-39.062500
1325,-39.062500
1326,-35.156250
1327,-35.156250
1328,-35.156250
1329,-35.156250
1330,-35.156250
1331,-35.156250
1332,-35.156250
1333,-35.156250
1334,-35.156250
1335,-31.250000
1336,-31.250000
1337,-31.250000
1338,-31.250000
1339,-31.250000
1340,-31.250000
1341,-31.250000
1342,-31.250000
1343,-31.250000
1344,-27.343750
1345,-27.343750
1346,-27.343750
1347,-27.343750
1348,-27.343750
1349,-23.437500
1350,-23.437500
1351,-23.437500
1352,-23.437500
1353,-23.437500
1354,-23.437500
1355,-23.437500
1356,-23.437500
1357,-19.531250
1358,-19.531250
1359,-19.531250
1360,-19.531250
1361,-19.531250
1362,-19.531250
1363,-19.531250
1364,-15.625000
1365,-15.625000
1366,-15.625000
1367,-15.625000
1368,-15.625000
1369,-15.625000
1370,-15.625000
1371,-15.625000
1372,-15.625000
1373,-11.718750
1374,-11.718750
1375,-11.718750
1376,-11.718750
1377,-11.718750
1378,-11.718750
1379,-7.812500
1380,-7.812500
1381,-7.812500
1382,-7.812500
1383,-7.812500
1384,-7.812500
1385,-3.906250
1386,-7.812500
1387,-7.812500
1388,-3.906250
1389,-3.906250
1390,-3.906250
1391,-3.906250
1392,-3.906250
1393,-3.906250
1394,-3.906250
1395,-3.906250
1396,-3.906250
1397,0.000000
1398,0.000000
1399,0.000000
1400,0.000000
1401,0.000000
1402,-3.906250
1403,0.000000
1404,0.000000
1405,0.000000
1406,3.906250
1407,3.906250
1408,3.906250
1409,3.906250
1410,3.906250
1411,3.906250
1412,3.906250
1413,3.906250
1414,7.812500
1415,7.812500
1416,7.812500
1417,7.812500
1418,7.812500
1419,7.812500
1420,7.812500
1421,7.812500
1422,7.812500
1423,7.812500
1424,7.812500
1425,7.812500
1426,11.718750
1427,11.718750
1428,11.718750
1429,11.718750
1430,11.718750
1431,11.718750
1432,11.718750
1433,11.718750
1434,11.718750
1435,11.718750
1436,11.718750
1437,11.718750
1438,11.718750
1439,11.718750
1440,11.718750
1441,15.625000
1442,15.625000
1443,15.625000
1444,15.625000
1445,15.625000
1446,15.625000
1447,15.625000
1448,15.625000
1449,15.625000
1450,15.625000
1451,15.625000
1452,15.625000
1453,15.625000
1454,15.625000
1455,15.625000
1456,15.625000
1457,15.625000
1458,15.625000
1459,15.625000
1460,19.531250
1461,15.625000
1462,15.625000
1463,15.625000
1464,15.625000
1465,15.625000
1466,15.625000
1467,15.625000
1468,15.625000
1469,15.625000
1470,19.531250
1471,15.625000
1472,15.625000
1473,15.625000
1474,15.625000
1475,15.625000
1476,15.625000
1477,15.625000
1478,15.625000
1479,15.625000
1480,15.625000
1481,15.625000
1482,15.625000
1483,15.625000
1484,15.625000
1485,15.625000
1486,15.625000
1487,15.625000
1488,15.625000
1489,15.625000
1490,15.625000
1491,15.625000
1492,15.625000
1493,15.625000
1494,15.625000
1495,15.625000
1496,15.625000
1497,15.625000
1498,15.625000
1499,11.718750
1500,11.718750
1501,11.718750
1502,11.718750
1503,11.718750
1504,11.718750
1505,11.718750
1506,11.718750
1507,11.718750
1508,11.718750
1509,11.718750
1510,11.718750
1511,11.718750
1512,7.812500
1513,7.812500
1514,7.812500
1515,7.812500
1516,7.812500
1517,7.812500
1518,7.812500
1519,7.812500
1520,7.812500
1521,3.906250
1522,3.906250
1523,3.906250
1524,7.812500
1525,3.906250
1526,3.906250
1527,3.906250
1528,3.906250
1529,3.906250
1530,0.000000
1531,0.000000
1532,0.000000
1533,3.906250
1534,0.000000
1535,0.000000
1536,0.000000
1537,0.000000
1538,0.000000
1539,-3.906250
1540,-3.906250
1541,-3.906250
1542,-3.906250
1543,-3.906250
1544,-3.906250
1545,-3.906250
1546,-7.812500
1547,-7.812500
1548,-7.812500
1549,-7.812500
1550,-7.812500
1551,-7.812500
1552,-11.718750
1553,-11.718750
1554,-11.718750
1555,-11.718750
1556,-11.718750
1557,-11.718750
1558,-11.718750
1559,-11.718750
1560,-11.718750
1561,-15.625000
1562,-15.625000
1563,-15.625000
1564,-15.625000
1565,-15.625000
1566,-19.531250
1567,-19.531250
1568,-19.531250
1569,-19.531250
1570,-19.531250
1571,-19.531250
1572,-23.437500
1573,-23.437500
1574,-23.437500
1575,-23.437500
1576,-23.437500
1577,-23.437500
1578,-23.437500
1579,-23.437500
1580,-27.343750
1581,-27.343750
1582,-27.343750
1583,-27.343750
1584,-27.343750
1585,-23.437500
1586,-31.250000
1587,-31.250000
1588,-31.250000
1589,-31.250000
1590,-31.250000
1591,-31.250000
1592,-31.250000
1593,-35.156250
1594,-35.156250
1595,-35.156250
1596,-35.156250
1597,-35.156250
1598,-35.156250
1599,-35.156250
1600,-39.062500
1601,-39.062500
1602,-39.062500
1603,-39.062500
1604,-39.062500
1605,-39.062500
1606,-39.062500
1607,-42.968750
1608,-42.968750
1609,-42.968750
1610,-42.968750
1611,-42.968750
1612,-42.968750
1613,-42.968750
1614,-42.968750
1615,-46.875000
1616,-46.875000
1617,-46.875000
1618,-46.875000
1619,-46.875000
1620,-46.875000
1621,-46.875000
1622,-46.875000
1623,-46.875000
1624,-50.781250
1625,-50.781250
1626,-50.781250
1627,-50.781250
1628,-50.781250
1629,-50.781250
1630,-50.781250
1631,-50.781250
1632,-50.781250
1633,-50.781250
1634,-50.781250
1635,-50.781250
1636,-54.687500
1637,-54.687500
1638,-54.687500
1639,-54.687500
1640,-54.687500
1641,-54.687500
1642,-54.687500
1643,-54.687500
1644,-54.687500
1645,-54.687500
1646,-54.687500
1647,-54.687500
1648,-54.687500
1649,-54.687500
1650,-54.687500
1651,-54.687500
1652,-58.593750
1653,-58.593750
1654,-58.593750
1655,-58.593750
1656,-54.687500
1657,-58.593750
1658,-58.593750
1659,-58.593750
1660,-58.593750
1661,-58.593750
1662,-58.593750
1663,-58.593750
1664,-58.593750
1665,-58.593750
1666,-54.687500
1667,-58.593750
1668,-58.593750
1669,-58.593750
1670,-58.593750
1671,-58.593750
1672,-58.593750
1673,-58.593750
1674,-58.593750
1675,-58.593750
1676,-58.593750
1677,-58.593750
1678,-58.593750
1679,-58.593750
1680,-54.687500
1681,-58.593750
1682,-58.593750
1683,-54.687500
1684,-54.687500
1685,-58.593750
1686,-54.687500
1687,-54.687500
1688,-54.687500
1689,-54.687500
1690,-54.687500
1691,-54.687500
1692,-54.687500
1693,-54.687500
1694,-54.687500
1695,-54.687500
1696,-54.687500
1697,-54.687500
1698,-54.687500
1699,-54.687500
1700,-54.687500
1701,-54.687500
1702,-50.781250
1703,-54.687500
1704,-54.687500
1705,-50.781250
1706,-50.781250
1707,-50.781250
1708,-50.781250
1709,-50.781250
1710,-50.781250
1711,-50.781250
1712,-50.781250
1713,-50.781250
1714,-50.781250
1715,-50.781250
1716,-50.781250
1717,-46.875000
1718,-50.781250
1719,-46.875000
1720,-46.875000
1721,-46.875000
1722,-46.875000
1723,-46.875000
1724,-42.968750
1725,-42.968750
1726,-46.875000
1727,-42.968750
1728,-42.968750
1729,-42.968750
1730,-42.968750
1731,-42.968750
1732,-42.968750
1733,-42.968750
1734,-42.968750
1735,-39.062500
1736,-39.062500
1737,-42.968750
1738,-39.062500
1739,-35.156250
1740,-39.062500
1741,-39.062500
1742,-39.062500
1743,-35.156250
1744,-35.156250
1745,-35.156250
1746,-35.156250
1747,-35.156250
1748,-35.156250
1749,-35.156250
1750,-35.156250
1751,-31.250000
1752,-31.250000
1753,-31.250000
1754,-31.250000
1755,-31.250000
1756,-31.250000
1757,-31.250000
1758,-31.250000
1759,-27.343750
1760,-27.343750
1761,-27.343750
1762,-27.343750
1763,-27.343750
1764,-27.343750
1765,-27.343750
1766,-27.343750
1767,-27.343750
1768,-23.437500
1769,-23.437500
1770,-23.437500
1771,-19.531250
1772,-23.437500
1773,-23.437500
1774,-19.531250
1775,-19.531250
1776,-19.531250
1777,-19.531250
1778,-19.531250
1779,-19.531250
1780,-19.531250
1781,-15.625000
1782,-15.625000
1783,-15.625000
1784,-15.625000
1785,-15.625000
1786,-15.625000
1787,-15.625000
1788,-11.718750
1789,-11.718750
1790,-11.718750
1791,-11.718750
1792,-11.718750
1793,-11.718750
1794,-11.718750
1795,-11.718750
1796,-11.718750
1797,-7.812500
1798,-7.812500
1799,-7.812500
1800,-7.812500
1801,-7.812500
1802,-7.812500
1803,-3.906250
1804,-3.906250
1805,-3.906250
1806,-3.906250
1807,-3.906250
1808,-3.906250
1809,-3.906250
1810,0.000000
1811,0.000000
1812,0.000000
1813,0.000000
1814,0.000000
1815,0.000000
1816,0.000000
1817,0.000000
1818,0.000000
1819,0.000000
1820,3.906250
1821,3.906250
1822,3.906250
1823,3.906250
1824,3.906250
1825,3.906250
1826,3.906250
1827,3.906250
1828,7.812500
1829,3.906250
1830,7.812500
1831,7.812500
1832,7.812500
1833,7.812500
1834,7.812500
1835,7.812500
1836,7.812500
1837,7.812500
1838,7.812500
1839,7.812500
1840,11.718750
1841,7.812500
1842,11.718750
1843,11.718750
1844,11.718750
1845,11.718750
1846,11.718750
1847,11.718750
1848,11.718750
1849,11.718750
1850,11.718750
1851,11.718750
1852,11.718750
1853,11.718750
1854,15.625000
1855,15.625000
1856,15.625000
1857,15.625000
1858,15.625000
1859,15.625000
1860,15.625000
1861,15.625000
1862,15.625000
1863,15.625000
1864,15.625000
1865,15.625000
1866,15.625000
1867,15.625000
1868,15.625000
1869,15.625000
1870,15.625000
1871,15.625000
1872,15.625000
1873,15.625000
1874,19.531250
1875,15.625000
1876,15.625000
1877,19.531250
1878,15.625000
1879,15.625000
1880,15.625000
1881,11.718750
1882,19.531250
1883,15.625000
1884,19.531250
1885,19.531250
1886,19.531250
1887,15.625000
1888,15.625000
1889,15.625000
1890,15.625000
1891,15.625000
1892,15.625000
1893,19.531250
1894,15.625000
1895,15.625000
1896,15.625000
1897,15.625000
1898,15.625000
1899,15.625000
1900,15.625000
1901,15.625000
1902,15.625000
1903,15.625000
1904,15.625000
1905,15.625000
1906,15.625000
1907,15.625000
1908,15.625000
1909,15.625000
1910,15.625000
1911,15.625000
1912,15.625000
1913,15.625000
1914,15.625000
1915,15.625000
1916,15.625000
1917,15.625000
1918,11.718750
1919,11.718750
1920,11.718750
1921,11.718750
1922,11.718750
1923,11.718750
1924,11.718750
1925,11.718750
1926,11.718750
1927,11.718750
1928,11.718750
1929,11.718750
1930,7.812500
1931,7.812500
1932,7.812500
1933,7.812500
1934,7.812500
1935,7.812500
1936,7.812500
1937,7.812500
1938,3.906250
1939,7.812500
1940,7.812500
1941,3.906250
1942,7.812500
1943,3.906250
1944,3.906250
1945,3.906250
1946,3.906250
1947,3.906250
1948,3.906250
1949,0.000000
1950,0.000000
1951,0.000000
1952,0.000000
1953,0.000000
1954,0.000000
1955,0.000000
1956,-3.906250
1957,-3.906250
1958,-3.906250
1959,-3.906250
1960,-3.906250
1961,-3.906250
1962,-3.906250
1963,-7.812500
1964,-7.812500
1965,-7.812500
1966,-7.812500
1967,-7.812500
1968,-7.812500
1969,-7.812500
1970,-11.718750
1971,-11.718750
1972,-11.718750
1973,-11.718750
1974,-11.718750
1975,-15.625000
1976,-15.625000
1977,-15.625000
1978,-15.625000
1979,-15.625000
1980,-15.625000
1981,-15.625000
1982,-15.625000
1983,-19.531250
1984,-19.531250
1985,-19.531250
1986,-19.531250
1987,-19.531250
1988,-19.531250
1989,-19.531250
1990,-23.437500
1991,-23.437500
1992,-23.437500
1993,-23.437500
1994,-23.437500
1995,-23.437500
1996,-27.343750
1997,-27.343750
1998,-27.343750
1999,-27.343750
2000,-27.343750
2001,-27.343750
2002,-31.250000
2003,-31.250000
2004,-31.250000
2005,-31.250000
2006,-31.250000
2007,-31.250000
2008,-31.250000
2009,-35.156250
2010,-35.156250
2011,-35.156250
2012,-35.156250
2013,-35.156250
2014,-35.156250
2015,-39.062500
2016,-39.062500
2017,-39.062500
2018,-39.062500
2019,-39.062500
2020,-39.062500
2021,-39.062500
2022,-39.062500
2023,-42.968750
2024,-42.968750
2025,-42.968750
2026,-42.968750
2027,-42.968750
2028,-42.968750
2029,-42.968750
2030,-42.968750
2031,-42.968750
2032,-46.875000
2033,-46.875000
2034,-46.875000
2035,-46.875000
2036,-46.875000
2037,-46.875000
2038,-46.875000
2039,-46.875000
2040,-50.781250
2041,-46.875000
2042,-50.781250
2043,-50.781250
2044,-50.781250
2045,-50.781250
2046,-50.781250
2047,-50.781250
2048,-50.781250
2049,-50.781250
2050,-50.781250
2051,-50.781250
2052,-54.687500
2053,-54.687500
2054,-54.687500
2055,-54.687500
2056,-54.687500
2057,-58.593750
2058,-54.687500
2059,-54.687500
2060,-54.687500
2061,-54.687500
2062,-54.687500
2063,-54.687500
2064,-54.687500
2065,-54.687500
2066,-54.687500
2067,-54.687500
2068,-54.687500
2069,-54.687500
2070,-54.687500
2071,-58.593750
2072,-58.593750
2073,-58.593750
2074,-58.593750
2075,-58.593750
2076,-54.687500
2077,-58.593750
2078,-58.593750
2079,-58.593750
2080,-58.593750
2081,-58.593750
2082,-58.593750
2083,-58.593750
2084,-58.593750
2085,-58.593750
2086,-58.593750
2087,-58.593750
2088,-58.593750
2089,-58.593750
2090,-58.593750
2091,-58.593750
2092,-58.593750
2093,-58.593750
2094,-58.593750
2095,-58.593750
2096,-58.593750
2097,-58.593750
2098,-58.593750
2099,-58.593750
2100,-58.593750
2101,-58.593750
2102,-58.593750
2103,-58.593750
2104,-54.687500
2105,-54.687500
2106,-54.687500
2107,-54.687500
2108,-54.687500
2109,-58.593750
2110,-54.687500
2111,-54.687500
2112,-54.687500
2113,-54.687500
2114,-54.687500
2115,-54.687500
2116,-54.687500
2117,-54.687500
2118,-54.687500
2119,-50.781250
2120,-54.687500
2121,-50.781250
2122,-50.781250
2123,-50.781250
2124,-50.781250
2125,-50.781250
2126,-50.781250
2127,-50.781250
2128,-50.781250
2129,-50.781250
2130,-50.781250
2131,-46.875000
2132,-46.875000
2133,-46.875000
2134,-46.875000
2135,-46.875000
2136,-46.875000
2137,-46.875000
2138,-46.875000
2139,-46.875000
2140,-46.875000
2141,-46.875000
2142,-42.968750
2143,-42.968750
2144,-42.968750
2145,-42.968750
2146,-42.968750
2147,-42.968750
2148,-42.968750
2149,-42.968750
2150,-42.968750
2151,-42.968750
2152,-42.968750
2153,-39.062500
2154,-39.062500
2155,-39.062500
2156,-39.062500
2157,-39.062500
2158,-39.062500
2159,-39.062500
2160,-39.062500
2161,-35.156250
2162,-35.156250
2163,-35.156250
2164,-35.156250
2165,-35.156250
2166,-35.156250
2167,-35.156250
2168,-35.156250
2169,-31.250000
2170,-31.250000
2171,-31.250000
2172,-31.250000
2173,-31.250000
2174,-31.250000
2175,-27.343750
2176,-27.343750
2177,-27.343750
2178,-27.343750
2179,-27.343750
2180,-27.343750
2181,-27.343750
2182,-27.343750
2183,-23.437500
2184,-23.437500
2185,-23.437500
2186,-23.437500
2187,-23.437500
2188,-23.437500
2189,-23.437500
2190,-19.531250
2191,-19.531250
2192,-19.531250
2193,-19.531250
2194,-19.531250
2195,-19.531250
2196,-19.531250
2197,-19.531250
2198,-15.625000
2199,-15.625000
2200,-15.625000
2201,-15.625000
2202,-15.625000
2203,-11.718750
2204,-11.718750
2205,-11.718750
2206,-11.718750
2207,-11.718750
2208,-11.718750
2209,-11.718750
2210,-11.718750
2211,-11.718750
2212,-7.812500
2213,-7.812500
2214,-7.812500
2215,-7.812500
2216,-7.812500
2217,-7.812500
2218,-7.812500
2219,-7.812500
2220,-3.906250
2221,-3.906250
2222,-3.906250
2223,-3.906250
2224,-3.906250
2225,-3.906250
2226,-3.906250
2227,-3.906250
2228,0.000000
2229,0.000000
2230,0.000000
2231,0.000000
2232,0.000000
2233,0.000000
2234,0.000000
2235,0.000000
2236,0.000000
2237,0.000000
2238,3.906250
2239,3.906250
2240,3.906250
2241,3.906250
2242,3.906250
2243,3.906250
2244,3.906250
2245,3.906250
2246,7.812500
2247,7.812500
2248,7.812500
2249,7.812500
2250,7.812500
2251,7.812500
2252,7.812500
2253,7.812500
2254,7.812500
2255,11.718750
2256,7.812500
2257,11.718750
2258,11.718750
2259,11.718750
2260,11.718750
2261,11.718750
2262,11.718750
2263,11.718750
2264,11.718750
2265,11.718750
2266,11.718750
2267,11.718750
2268,11.718750
2269,11.718750
2270,15.625000
2271,11.718750
2272,11.718750
2273,15.625000
2274,15.625000
2275,15.625000
2276,15.625000
2277,15.625000
2278,15.625000
2279,15.625000
2280,15.625000
2281,15.625000
2282,15.625000
2283,15.625000
2284,15.625000
2285,15.625000
2286,15.625000
2287,15.625000
2288,15.625000
2289,15.625000
2290,15.625000
2291,15.625000
2292,15.625000
2293,15.625000
2294,15.625000
2295,15.625000
2296,19.531250
2297,15.625000
2298,15.625000
2299,19.531250
2300,15.625000
2301,15.625000
2302,15.625000
2303,19.531250
2304,15.625000
2305,19.531250
2306,19.531250
2307,15.625000
2308,19.531250
2309,15.625000
2310,15.625000
2311,19.531250
2312,15.625000
2313,15.625000
2314,15.625000
2315,19.531250
2316,15.625000
2317,15.625000
2318,15.625000
2319,15.625000
2320,15.625000
2321,15.625000
2322,15.625000
2323,15.625000
2324,15.625000
2325,15.625000
2326,15.625000
2327,15.625000
2328,15.625000
2329,15.625000
2330,15.625000
2331,15.625000
2332,11.718750
2333,15.625000
2334,11.718750
2335,11.718750
2336,11.718750
2337,11.718750
2338,11.718750
2339,11.718750
2340,11.718750
2341,11.718750
2342,11.718750
2343,11.718750
2344,11.718750
2345,7.812500
2346,7.812500
2347,7.812500
2348,7.812500
2349,7.812500
2350,7.812500
2351,7.812500
2352,7.812500
2353,7.812500
2354,7.812500
2355,3.906250
2356,3.906250
2357,3.906250
2358,3.906250
2359,3.906250
2360,3.906250
2361,3.906250
2362,3.906250
2363,3.906250
2364,3.906250
2365,0.000000
2366,0.000000
2367,0.000000
2368,0.000000
2369,0.000000
2370,0.000000
2371,0.000000
2372,0.000000
2373,-3.906250
2374,-3.906250
2375,-3.906250
2376,-3.906250
2377,-3.906250
2378,-3.906250
2379,-3.906250
2380,-3.906250
2381,-7.812500
2382,-7.812500
2383,-7.812500
2384,-7.812500
2385,-7.812500
2386,-7.812500
2387,-11.718750
2388,-11.718750
2389,-11.718750
2390,-11.718750
2391,-11.718750
2392,-11.718750
2393,-11.718750
2394,-15.625000
2395,-15.625000
2396,-15.625000
2397,-15.625000
2398,-15.625000
2399,-19.531250
2400,-19.531250
2401,-19.531250
2402,-19.531250
2403,-19.531250
2404,-19.531250
2405,-19.531250
2406,-23.437500
2407,-23.437500
2408,-23.437500
2409,-23.437500
2410,-23.437500
2411,-23.437500
2412,-23.437500
2413,-27.343750
2414,-27.343750
2415,-27.343750
2416,-27.343750
2417,-27.343750
2418,-27.343750
2419,-31.250000
2420,-27.343750
2421,-31.250000
2422,-31.250000
2423,-31.250000
2424,-31.250000
2425,-31.250000
2426,-35.156250
2427,-35.156250
2428,-35.156250
2429,-35.156250
2430,-35.156250
2431,-35.156250
2432,-35.156250
2433,-35.156250
2434,-39.062500
2435,-39.062500
2436,-39.062500
2437,-39.062500
2438,-39.062500
2439,-42.968750
2440,-42.968750
2441,-39.062500
2442,-42.968750
2443,-42.968750
2444,-42.968750
2445,-42.968750
2446,-42.968750
2447,-42.968750
2448,-42.968750
2449,-46.875000
2450,-42.968750
2451,-46.875000
2452,-46.875000
2453,-46.875000
2454,-46.875000
2455,-46.875000
2456,-46.875000
2457,-46.875000
2458,-50.781250
2459,-46.875000
2460,-46.875000
2461,-50.781250
2462,-50.781250
2463,-50.781250
2464,-50.781250
2465,-50.781250
2466,-50.781250
2467,-54.687500
2468,-50.781250
2469,-54.687500
2470,-54.687500
2471,-54.687500
2472,-54.687500
2473,-54.687500
2474,-54.687500
2475,-54.687500
2476,-54.687500
2477,-54.687500
2478,-54.687500
2479,-54.687500
2480,-54.687500
2481,-54.687500
2482,-54.687500
2483,-54.687500
2484,-54.687500
2485,-54.687500
2486,-54.687500
2487,-58.593750
2488,-54.687500
2489,-58.593750
2490,-58.593750
2491,-58.593750
2492,-58.593750
2493,-58.593750
2494,-58.593750
2495,-58.593750
2496,-58.593750
2497,-58.593750
2498,-58.593750
2499,-58.593750
2500,-58.593750
2501,-58.593750
2502,-58.593750
2503,-58.593750
2504,-58.593750
2505,-58.593750
2506,-58.593750
2507,-58.593750
2508,-54.687500
2509,-54.687500
2510,-54.687500
2511,-58.593750
2512,-58.593750
2513,-58.593750
2514,-54.687500
2515,-54.687500
2516,-54.687500
2517,-58.593750
2518,-58.593750
2519,-54.687500
2520,-54.687500
2521,-54.687500
2522,-54.687500
2523,-54.687500
2524,-54.687500
2525,-54.687500
2526,-54.687500
2527,-54.687500
2528,-54.687500
2529,-54.687500
2530,-54.687500
2531,-54.687500
2532,-54.687500
2533,-54.687500
2534,-54.687500
2535,-50.781250
2536,-50.781250
2537,-54.687500
2538,-50.781250
2539,-50.781250
2540,-50.781250
2541,-50.781250
2542,-50.781250
2543,-50.781250
2544,-50.781250
2545,-50.781250
2546,-50.781250
2547,-50.781250
2548,-50.781250
2549,-46.875000
2550,-46.875000
2551,-46.875000
2552,-46.875000
2553,-46.875000
2554,-46.875000
2555,-46.875000
2556,-46.875000
2557,-46.875000
2558,-42.968750
2559,-42.968750
2560,-42.968750
2561,-42.968750
2562,-42.968750
2563,-42.968750
2564,-42.968750
2565,-42.968750
2566,-42.968750
2567,-42.968750
2568,-39.062500
2569,-39.062500
2570,-39.062500
2571,-39.062500
2572,-39.062500
2573,-39.062500
2574,-39.062500
2575,-39.062500
2576,-39.062500
2577,-35.156250
2578,-35.156250
2579,-35.156250
2580,-35.156250
2581,-35.156250
2582,-35.156250
2583,-35.156250
2584,-31.250000
2585,-31.250000
2586,-31.250000
2587,-31.250000
2588,-31.250000
2589,-31.250000
2590,-31.250000
2591,-31.250000
2592,-27.343750
2593,-27.343750
2594,-27.343750
2595,-27.343750
2596,-27.343750
2597,-27.343750
2598,-27.343750
2599,-27.343750
2600,-23.437500
2601,-23.437500
2602,-23.437500
2603,-23.437500
2604,-23.437500
2605,-23.437500
2606,-19.531250
2607,-19.531250
2608,-19.531250
2609,-19.531250
2610,-19.531250
2611,-19.531250
2612,-19.531250
2613,-19.531250
2614,-19.531250
2615,-19.531250
2616,-15.625000
2617,-15.625000
2618,-15.625000
2619,-15.625000
2620,-15.625000
2621,-15.625000
2622,-11.718750
2623,-11.718750
2624,-11.718750
2625,-11.718750
2626,-11.718750
2627,-11.718750
2628,-11.718750
2629,-7.812500
2630,-7.812500
2631,-7.812500
2632,-7.812500
2633,-7.812500
2634,-7.812500
2635,-7.812500
2636,-7.812500
2637,-7.812500
2638,-7.812500
2639,-3.906250
2640,-3.906250
2641,-3.906250
2642,-3.906250
2643,-3.906250
2644,0.000000
2645,-3.906250
2646,0.000000
2647,0.000000
2648,0.000000
2649,0.000000
2650,0.000000
2651,0.000000
2652,0.000000
2653,0.000000
2654,3.906250
2655,3.906250
2656,3.906250
2657,3.906250
2658,3.906250
2659,3.906250
2660,3.906250
2661,3.906250
2662,3.906250
2663,7.812500
2664,7.812500
2665,7.812500
2666,7.812500
2667,7.812500
2668,7.812500
2669,7.812500
2670,7.812500
2671,7.812500
2672,7.812500
2673,7.812500
2674,7.812500
2675,7.812500
2676,7.812500
2677,11.718750
2678,11.718750
2679,11.718750
2680,11.718750
2681,11.718750
2682,11.718750
2683,11.718750
2684,11.718750
2685,11.718750
2686,11.718750
2687,11.718750
2688,11.718750
2689,11.718750
2690,15.625000
2691,15.625000
2692,15.625000
2693,15.625000
2694,15.625000
2695,15.625000
2696,15.625000
2697,15.625000
2698,15.625000
2699,15.625000
2700,15.625000
2701,15.625000
2702,15.625000
2703,15.625000
2704,15.625000
2705,15.625000
2706,15.625000
2707,15.625000
2708,19.531250
2709,15.625000
2710,15.625000
2711,15.625000
2712,15.625000
2713,15.625000
2714,15.625000
2715,15.625000
2716,15.625000
2717,19.531250
2718,19.531250
2719,19.531250
2720,15.625000
2721,15.625000
2722,19.531250
2723,15.625000
2724,15.625000
2725,15.625000
2726,15.625000
2727,15.625000
2728,15.625000
2729,15.625000
2730,15.625000
2731,15.625000
2732,19.531250
2733,15.625000
2734,15.625000
2735,15.625000
2736,15.625000
2737,15.625000
2738,15.625000
2739,15.625000
2740,15.625000
2741,15.625000
2742,15.625000
2743,15.625000
2744,15.625000
2745,11.718750
2746,15.625000
2747,15.625000
2748,15.625000
2749,11.718750
2750,11.718750
2751,11.718750
2752,11.718750
2753,11.718750
2754,11.718750
2755,11.718750
2756,11.718750
2757,11.718750
2758,11.718750
2759,11.718750
2760,11.718750
2761,11.718750
2762,7.812500
2763,7.812500
2764,7.812500
2765,7.812500
2766,7.812500
2767,7.812500
2768,7.812500
2769,7.812500
2770,7.812500
2771,7.812500
2772,7.812500
2773,7.812500
2774,3.906250
2775,3.906250
2776,3.906250
2777,3.906250
2778,3.906250
2779,3.906250
2780,3.906250
2781,3.906250
2782,0.000000
2783,0.000000
2784,0.000000
2785,0.000000
2786,0.000000
2787,0.000000
2788,0.000000
2789,-3.906250
2790,-3.906250
2791,-3.906250
2792,-3.906250
2793,-3.906250
2794,-3.906250
2795,-3.906250
2796,-3.906250
2797,-7.812500
2798,-7.812500
2799,-7.812500
2800,-7.812500
2801,-7.812500
2802,-7.812500
2803,-11.718750
2804,-11.718750
2805,-11.718750
2806,-11.718750
2807,-11.718750
2808,-11.718750
2809,-15.625000
2810,-15.625000
2811,-15.625000
2812,-15.625000
2813,-15.625000
2814,-15.625000
2815,-15.625000
2816,-19.531250
2817,-19.531250
2818,-19.531250
2819,-19.531250
2820,-19.531250
2821,-19.531250
2822,-23.437500
2823,-23.437500
2824,-19.531250
2825,-23.437500
2826,-23.437500
2827,-23.437500
2828,-23.437500
2829,-23.437500
2830,-27.343750
2831,-27.343750
2832,-27.343750
2833,-27.343750
2834,-27.343750
2835,-27.343750
2836,-31.250000
2837,-31.250000
2838,-31.250000
2839,-31.250000
2840,-31.250000
2841,-31.250000
2842,-31.250000
2843,-35.156250
2844,-35.156250
2845,-35.156250
2846,-35.156250
2847,-35.156250
2848,-35.156250
2849,-35.156250
2850,-39.062500
2851,-39.062500
2852,-39.062500
2853,-39.062500
2854,-39.062500
2855,-39.062500
2856,-39.062500
2857,-42.968750
2858,-42.968750
2859,-42.968750
2860,-42.968750
2861,-42.968750
2862,-42.968750
2863,-42.968750
2864,-46.875000
2865,-46.875000
2866,-46.875000
2867,-46.875000
2868,-46.875000
2869,-46.875000
2870,-46.875000
2871,-46.875000
2872,-50.781250
2873,-46.875000
2874,-50.781250
2875,-50.781250
2876,-50.781250
2877,-50.781250
2878,-50.781250
2879,-50.781250
2880,-50.781250
2881,-50.781250
2882,-50.781250
2883,-50.781250
2884,-50.781250
2885,-54.687500
2886,-54.687500
2887,-54.687500
2888,-54.687500
2889,-54.687500
2890,-54.687500
2891,-54.687500
2892,-54.687500
2893,-54.687500
2894,-54.687500
2895,-54.687500
2896,-54.687500
2897,-54.687500
2898,-54.687500
2899,-54.687500
2900,-54.687500
2901,-54.687500
2902,-58.593750
2903,-58.593750
2904,-58.593750
2905,-58.593750
2906,-58.593750
2907,-54.687500
2908,-58.593750
2909,-54.687500
2910,-58.593750
2911,-58.593750
2912,-58.593750
2913,-58.593750
2914,-58.593750
2915,-58.593750
2916,-58.593750
2917,-58.593750
2918,-58.593750
2919,-58.593750
2920,-58.593750
2921,-58.593750
2922,-58.593750
2923,-58.593750
2924,-58.593750
2925,-58.593750
2926,-58.593750
2927,-58.593750
2928,-58.593750
2929,-58.593750
2930,-58.593750
2931,-58.593750
2932,-58.593750
2933,-58.593750
2934,-58.593750
2935,-58.593750
2936,-58.593750
2937,-54.687500
2938,-54.687500
2939,-54.687500
2940,-54.687500
2941,-54.687500
2942,-54.687500
2943,-54.687500
2944,-54.687500
2945,-54.687500
2946,-54.687500
2947,-54.687500
2948,-54.687500
2949,-54.687500
2950,-54.687500
2951,-54.687500
2952,-54.687500
2953,-54.687500
2954,-54.687500
2955,-50.781250
2956,-50.781250
2957,-50.781250
2958,-50.781250
2959,-50.781250
2960,-50.781250
2961,-50.781250
2962,-50.781250
2963,-50.781250
2964,-50.781250
2965,-50.781250
2966,-46.875000
2967,-46.875000
2968,-46.875000
2969,-46.875000
2970,-46.875000
2971,-46.875000
2972,-46.875000
2973,-46.875000
2974,-46.875000
2975,-46.875000
2976,-46.875000
2977,-46.875000
2978,-42.968750
2979,-42.968750
2980,-42.968750
2981,-42.968750
2982,-42.968750
2983,-42.968750
2984,-42.968750
2985,-39.062500
2986,-39.062500
2987,-39.062500
2988,-39.062500
2989,-39.062500
2990,-39.062500
2991,-39.062500
2992,-39.062500
2993,-39.062500
2994,-35.156250
2995,-35.156250
2996,-35.156250
2997,-35.156250
2998,-35.156250
2999,-35.156250
3000,-35.156250
3001,-31.250000
3002,-31.250000
3003,-31.250000
3004,-31.250000
3005,-31.250000
3006,-31.250000
3007,-31.250000
3008,-31.250000
3009,-27.343750
3010,-27.343750
3011,-27.343750
3012,-27.343750
3013,-27.343750
3014,-27.343750
3015,-27.343750
3016,-23.437500
3017,-23.437500
3018,-23.437500
3019,-23.437500
3020,-23.437500
3021,-23.437500
3022,-23.437500
3023,-19.531250
3024,-19.531250
3025,-19.531250
3026,-19.531250
3027,-19.531250
3028,-19.531250
3029,-15.625000
3030,-15.625000
3031,-15.625000
3032,-15.625000
3033,-15.625000
3034,-15.625000
3035,-15.625000
3036,-15.625000
3037,-15.625000
3038,-11.718750
3039,-11.718750
3040,-11.718750
3041,-11.718750
3042,-11.718750
3043,-11.718750
3044,-11.718750
3045,-7.812500
3046,-11.718750
3047,-7.812500
3048,-7.812500
3049,-7.812500
3050,-7.812500
3051,-7.812500
3052,-7.812500
3053,-3.906250
3054,-3.906250
3055,-3.906250
3056,-3.906250
3057,-3.906250
3058,-3.906250
3059,-3.906250
3060,-3.906250
3061,-3.906250
3062,0.000000
3063,0.000000
3064,0.000000
3065,0.000000
3066,0.000000
3067,0.000000
3068,0.000000
3069,0.000000
3070,3.906250
3071,3.906250
3072,3.906250
3073,3.906250
3074,3.906250
3075,3.906250
3076,3.906250
3077,3.906250
3078,3.906250
3079,3.906250
3080,7.812500
3081,7.812500
3082,7.812500
3083,7.812500
3084,7.812500
3085,7.812500
3086,7.812500
3087,7.812500
3088,7.812500
3089,7.812500
3090,11.718750
3091,11.718750
3092,11.718750
3093,11.718750
3094,11.718750
3095,11.718750
3096,11.718750
3097,11.718750
3098,11.718750
3099,11.718750
3100,11.718750
3101,15.625000
3102,11.718750
3103,11.718750
3104,15.625000
3105,15.625000
3106,15.625000
3107,15.625000
3108,15.625000
3109,15.625000
3110,15.625000
3111,15.625000
3112,15.625000
3113,15.625000
3114,15.625000
3115,15.625000
3116,15.625000
3117,15.625000
3118,15.625000
3119,15.625000
3120,15.625000
3121,15.625000
3122,15.625000
3123,15.625000
3124,15.625000
3125,15.625000
3126,15.625000
3127,15.625000
3128,15.625000
3129,15.625000
3130,15.625000
3131,19.531250
3132,15.625000
3133,15.625000
3134,15.625000
3135,15.625000
3136,15.625000
3137,19.531250
3138,15.625000
3139,15.625000
3140,15.625000
3141,15.625000
3142,15.625000
3143,19.531250
3144,19.531250
3145,15.625000
3146,19.531250
3147,15.625000
3148,15.625000
3149,15.625000
3150,15.625000
3151,15.625000
3152,15.625000
3153,15.625000
3154,15.625000
3155,15.625000
3156,15.625000
3157,15.625000
3158,15.625000
3159,15.625000
3160,15.625000
3161,15.625000
3162,15.625000
3163,15.625000
3164,15.625000
3165,11.718750
3166,11.718750
3167,11.718750
3168,11.718750
3169,11.718750
3170,11.718750
3171,11.718750
3172,11.718750
3173,11.718750
3174,11.718750
3175,11.718750
3176,11.718750
3177,11.718750
3178,11.718750
3179,7.812500
3180,7.812500
3181,7.812500
3182,7.812500
3183,7.812500
3184,7.812500
3185,7.812500
3186,7.812500
3187,3.906250
3188,7.812500
3189,3.906250
3190,3.906250
3191,3.906250
3192,7.812500
3193,3.906250
3194,3.906250
3195,3.906250
3196,0.000000
3197,3.906250
3198,0.000000
3199,0.000000
3200,0.000000
3201,0.000000
3202,0.000000
3203,0.000000
3204,0.000000
3205,-3.906250
3206,-3.906250
3207,0.000000
3208,-3.906250
3209,-3.906250
3210,-3.906250
3211,-3.906250
3212,-3.906250
3213,-7.812500
3214,-7.812500
3215,-7.812500
3216,-7.812500
3217,-7.812500
3218,-7.812500
3219,-7.812500
3220,-7.812500
3221,-11.718750
3222,-11.718750
3223,-11.718750
3224,-11.718750
3225,-11.718750
3226,-11.718750
3227,-15.625000
3228,-15.625000
3229,-15.625000
3230,-15.625000
3231,-15.625000
3232,-15.625000
3233,-19.531250
3234,-19.531250
3235,-19.531250
3236,-19.531250
3237,-19.531250
3238,-19.531250
3239,-19.531250
3240,-23.437500
3241,-23.437500
3242,-23.437500
3243,-23.437500
3244,-23.437500
3245,-23.437500
3246,-27.343750
3247,-27.343750
3248,-27.343750
3249,-27.343750
3250,-27.343750
3251,-31.250000
3252,-31.250000
3253,-31.250000
3254,-31.250000
3255,-31.250000
3256,-31.250000
3257,-31.250000
3258,-31.250000
3259,-35.156250
3260,-35.156250
3261,-35.156250
3262,-35.156250
3263,-35.156250
3264,-35.156250
3265,-35.156250
3266,-39.062500
3267,-35.156250
3268,-39.062500
3269,-39.062500
3270,-39.062500
3271,-39.062500
3272,-39.062500
3273,-42.968750
3274,-42.968750
3275,-42.968750
3276,-42.968750
3277,-42.968750
3278,-42.968750
3279,-42.968750
3280,-42.968750
3281,-42.968750
3282,-42.968750
3283,-46.875000
3284,-46.875000
3285,-46.875000
3286,-46.875000
3287,-46.875000
3288,-46.875000
3289,-46.875000
3290,-50.781250
3291,-50.781250
3292,-50.781250
3293,-50.781250
3294,-50.781250
3295,-50.781250
3296,-50.781250
3297,-50.781250
3298,-50.781250
3299,-50.781250
3300,-50.781250
3301,-54.687500
3302,-50.781250
3303,-54.687500
3304,-54.687500
3305,-54.687500
3306,-54.687500
3307,-54.687500
3308,-54.687500
3309,-54.687500
3310,-54.687500
3311,-54.687500
3312,-54.687500
3313,-54.687500
3314,-54.687500
3315,-58.593750
3316,-54.687500
3317,-54.687500
3318,-54.687500
3319,-58.593750
3320,-58.593750
3321,-58.593750
3322,-58.593750
3323,-58.593750
3324,-58.593750
3325,-58.593750
3326,-58.593750
3327,-58.593750
3328,-58.593750
3329,-58.593750
3330,-58.593750
3331,-58.593750
3332,-58.593750
3333,-58.593750
3334,-58.593750
3335,-58.593750
3336,-58.593750
3337,-58.593750
3338,-58.593750
3339,-58.593750
3340,-58.593750
3341,-58.593750
3342,-58.593750
3343,-58.593750
3344,-58.593750
3345,-58.593750
3346,-58.593750
3347,-58.593750
3348,-58.593750
3349,-58.593750
3350,-58.593750
3351,-58.593750
3352,-54.687500
3353,-54.687500
3354,-54.687500
3355,-54.687500
3356,-54.687500
3357,-54.687500
3358,-54.687500
3359,-54.687500
3360,-54.687500
3361,-54.687500
3362,-54.687500
3363,-54.687500
3364,-54.687500
3365,-54.687500
3366,-54.687500
3367,-54.687500
3368,-50.781250
3369,-50.781250
3370,-54.687500
3371,-50.781250
3372,-50.781250
3373,-50.781250
3374,-50.781250
3375,-50.781250
3376,-50.781250
3377,-50.781250
3378,-50.781250
3379,-50.781250
3380,-50.781250
3381,-50.781250
3382,-46.875000
3383,-46.875000
3384,-50.781250
3385,-46.875000
3386,-46.875000
3387,-46.875000
3388,-46.875000
3389,-46.875000
3390,-46.875000
3391,-46.875000
3392,-46.875000
3393,-46.875000
3394,-42.968750
3395,-42.968750
3396,-42.968750
3397,-42.968750
3398,-42.968750
3399,-42.968750
3400,-42.968750
3401,-39.062500
3402,-39.062500
3403,-39.062500
3404,-39.062500
3405,-39.062500
3406,-39.062500
3407,-39.062500
3408,-39.062500
3409,-39.062500
3410,-35.156250
3411,-35.156250
3412,-35.156250
3413,-35.156250
3414,-35.156250
3415,-35.156250
3416,-31.250000
3417,-35.156250
3418,-31.250000
3419,-31.250000
3420,-31.250000
3421,-31.250000
3422,-31.250000
3423,-31.250000
3424,-31.250000
3425,-27.343750
3426,-27.343750
3427,-27.343750
3428,-27.343750
3429,-27.343750
3430,-27.343750
3431,-27.343750
3432,-27.343750
3433,-23.437500
3434,-23.437500
3435,-23.437500
3436,-23.437500
3437,-23.437500
3438,-23.437500
3439,-19.531250
3440,-19.531250
3441,-19.531250
3442,-19.531250
3443,-19.531250
3444,-19.531250
3445,-19.531250
3446,-19.531250
3447,-19.531250
3448,-15.625000
3449,-15.625000
3450,-15.625000
3451,-15.625000
3452,-15.625000
3453,-15.625000
3454,-15.625000
3455,-15.625000
3456,-11.718750
3457,-11.718750
3458,-11.718750
3459,-15.625000
3460,-11.718750
3461,-11.718750
3462,-7.812500
3463,-7.812500
3464,-11.718750
3465,-7.812500
3466,-7.812500
3467,-7.812500
3468,-7.812500
3469,-7.812500
3470,-7.812500
3471,-3.906250
3472,-3.906250
3473,-7.812500
3474,-3.906250
3475,-3.906250
3476,-3.906250
3477,-3.906250
3478,-3.906250
3479,-3.906250
3480,0.000000
3481,-3.906250
3482,0.000000
3483,0.000000
3484,0.000000
3485,0.000000
3486,0.000000
3487,0.000000
3488,0.000000
3489,3.906250
3490,0.000000
3491,3.906250
3492,3.906250
3493,3.906250
3494,3.906250
3495,3.906250
3496,3.906250
3497,7.812500
3498,7.812500
3499,7.812500
3500,11.718750
3501,7.812500
3502,7.812500
3503,7.812500
3504,7.812500
3505,7.812500
3506,7.812500
3507,7.812500
3508,7.812500
3509,11.718750
3510,11.718750
3511,11.718750
3512,11.718750
3513,11.718750
3514,11.718750
3515,11.718750
3516,11.718750
3517,11.718750
3518,11.718750
3519,11.718750
3520,11.718750
3521,11.718750
3522,11.718750
3523,15.625000
3524,11.718750
3525,11.718750
3526,11.718750
3527,15.625000
3528,15.625000
3529,15.625000
3530,11.718750
3531,15.625000
3532,15.625000
3533,15.625000
3534,15.625000
3535,15.625000
3536,15.625000
3537,15.625000
3538,15.625000
3539,15.625000
3540,15.625000
3541,19.531250
3542,15.625000
3543,15.625000
3544,15.625000
3545,15.625000
3546,15.625000
3547,15.625000
3548,19.531250
3549,15.625000
3550,15.625000
3551,15.625000
3552,15.625000
3553,15.625000
3554,15.625000
3555,15.625000
3556,19.531250
3557,19.531250
3558,15.625000
3559,15.625000
3560,15.625000
3561,15.625000
3562,15.625000
3563,15.625000
3564,15.625000
3565,15.625000
3566,15.625000
3567,15.625000
3568,15.625000
3569,15.625000
3570,15.625000
3571,15.625000
3572,15.625000
3573,15.625000
3574,15.625000
3575,15.625000
3576,15.625000
3577,15.625000
3578,15.625000
3579,15.625000
3580,15.625000
3581,15.625000
3582,15.625000
3583,11.718750
3584,11.718750
3585,11.718750
3586,11.718750
3587,11.718750
3588,11.718750
3589,11.718750
3590,11.718750
3591,11.718750
3592,11.718750
3593,11.718750
3594,11.718750
3595,7.812500
3596,11.718750
3597,7.812500
3598,11.718750
3599,7.812500
3600,7.812500
3601,7.812500
3602,7.812500
3603,7.812500
3604,7.812500
3605,7.812500
3606,3.906250
3607,3.906250
3608,3.906250
3609,3.906250
3610,3.906250
3611,3.906250
3612,3.906250
3613,3.906250
3614,3.906250
3615,0.000000
3616,0.000000
3617,0.000000
3618,0.000000
3619,0.000000
3620,0.000000
3621,0.000000
3622,-3.906250
3623,-3.906250
3624,-3.906250
3625,-3.906250
3626,-3.906250
3627,-3.906250
3628,-3.906250
3629,-7.812500
3630,-7.812500
3631,-7.812500
3632,-7.812500
3633,-7.812500
3634,-7.812500
3635,-7.812500
3636,-11.718750
3637,-11.718750
3638,-11.718750
3639,-11.718750
3640,-11.718750
3641,-11.718750
3642,-11.718750
3643,-11.718750
3644,-15.625000
3645,-15.625000
3646,-15.625000
3647,-15.625000
3648,-15.625000
3649,-15.625000
3650,-15.625000
3651,-19.531250
3652,-23.437500
3653,-19.531250
3654,-19.531250
3655,-19.531250
3656,-19.531250
3657,-23.437500
3658,-23.437500
3659,-23.437500
3660,-23.437500
3661,-23.437500
3662,-23.437500
3663,-27.343750
3664,-27.343750
3665,-27.343750
3666,-27.343750
3667,-27.343750
3668,-27.343750
3669,-27.343750
3670,-27.343750
3671,-31.250000
3672,-27.343750
3673,-31.250000
3674,-31.250000
3675,-31.250000
3676,-35.156250
3677,-35.156250
3678,-35.156250
3679,-35.156250
3680,-35.156250
3681,-35.156250
3682,-35.156250
3683,-39.062500
3684,-39.062500
3685,-35.156250
3686,-39.062500
3687,-39.062500
3688,-39.062500
3689,-42.968750
3690,-39.062500
3691,-42.968750
3692,-42.968750
3693,-42.968750
3694,-42.968750
3695,-42.968750
3696,-42.968750
3697,-42.968750
3698,-46.875000
3699,-46.875000
3700,-46.875000
3701,-46.875000
3702,-46.875000
3703,-46.875000
3704,-46.875000
3705,-46.875000
3706,-46.875000
3707,-46.875000
3708,-50.781250
3709,-46.875000
3710,-50.781250
3711,-50.781250
3712,-50.781250
3713,-50.781250
3714,-50.781250
3715,-50.781250
3716,-50.781250
3717,-50.781250
3718,-54.687500
3719,-54.687500
3720,-54.687500
3721,-54.687500
3722,-54.687500
3723,-54.687500
3724,-54.687500
3725,-54.687500
3726,-54.687500
3727,-54.687500
3728,-54.687500
3729,-54.687500
3730,-54.687500
3731,-54.687500
3732,-54.687500
3733,-54.687500
3734,-58.593750
3735,-54.687500
3736,-58.593750
3737,-54.687500
3738,-58.593750
3739,-58.593750
3740,-58.593750
3741,-58.593750
3742,-58.593750
3743,-58.593750
3744,-58.593750
3745,-58.593750
3746,-58.593750
3747,-58.593750
3748,-58.593750
3749,-58.593750
3750,-58.593750
3751,-58.593750
3752,-58.593750
3753,-58.593750
3754,-58.593750
3755,-58.593750
3756,-58.593750
3757,-58.593750
3758,-58.593750
3759,-58.593750
3760,-58.593750
3761,-58.593750
3762,-58.593750
3763,-58.593750
3764,-58.593750
3765,-58.593750
3766,-58.593750
3767,-58.593750
3768,-58.593750
3769,-54.687500
3770,-58.593750
3771,-58.593750
3772,-54.687500
3773,-54.687500
3774,-54.687500
3775,-54.687500
3776,-54.687500
3777,-54.687500
3778,-54.687500
3779,-54.687500
3780,-54.687500
3781,-54.687500
3782,-54.687500
3783,-54.687500
3784,-50.781250
3785,-54.687500
3786,-54.687500
3787,-50.781250
3788,-50.781250
3789,-50.781250
3790,-50.781250
3791,-50.781250
3792,-50.781250
3793,-50.781250
3794,-50.781250
3795,-50.781250
3796,-50.781250
3797,-50.781250
3798,-50.781250
3799,-46.875000
3800,-50.781250
3801,-46.875000
3802,-46.875000
3803,-46.875000
3804,-46.875000
3805,-46.875000
3806,-46.875000
3807,-46.875000
3808,-42.968750
3809,-42.968750
3810,-42.968750
3811,-42.968750
3812,-42.968750
3813,-42.968750
3814,-42.968750
3815,-42.968750
3816,-42.968750
3817,-42.968750
3818,-39.062500
3819,-39.062500
3820,-39.062500
3821,-39.062500
3822,-39.062500
3823,-39.062500
3824,-39.062500
3825,-39.062500
3826,-35.156250
3827,-35.156250
3828,-35.156250
3829,-35.156250
3830,-35.156250
3831,-35.156250
3832,-35.156250
3833,-35.156250
3834,-31.250000
3835,-31.250000
3836,-31.250000
3837,-31.250000
3838,-31.250000
3839,-31.250000
3840,-31.250000
3841,-27.343750
3842,-27.343750
3843,-27.343750
3844,-27.343750
3845,-27.343750
3846,-27.343750
3847,-27.343750
3848,-27.343750
3849,-23.437500
3850,-23.437500
3851,-23.437500
3852,-23.437500
3853,-23.437500
3854,-23.437500
3855,-23.437500
3856,-23.437500
3857,-23.437500
3858,-19.531250
3859,-19.531250
3860,-19.531250
3861,-19.531250
3862,-19.531250
3863,-19.531250
3864,-15.625000
3865,-15.625000
3866,-15.625000
3867,-15.625000
3868,-15.625000
3869,-11.718750
3870,-15.625000
3871,-15.625000
3872,-11.718750
3873,-11.718750
3874,-11.718750
3875,-11.718750
3876,-11.718750
3877,-11.718750
3878,-11.718750
3879,-7.812500
3880,-7.812500
3881,-7.812500
3882,-7.812500
3883,-3.906250
3884,-7.812500
3885,-7.812500
3886,-3.906250
3887,-3.906250
3888,-3.906250
3889,-3.906250
3890,-3.906250
3891,-3.906250
3892,-3.906250
3893,-3.906250
3894,-3.906250
3895,0.000000
3896,0.000000
3897,0.000000
3898,0.000000
3899,0.000000
3900,0.000000
3901,0.000000
3902,0.000000
3903,0.000000
3904,3.906250
3905,0.000000
3906,3.906250
3907,3.906250
3908,3.906250
3909,3.906250
3910,3.906250
3911,3.906250
3912,3.906250
3913,7.812500
3914,7.812500
3915,7.812500
3916,7.812500
3917,7.812500
3918,7.812500
3919,7.812500
3920,7.812500
3921,7.812500
3922,7.812500
3923,11.718750
3924,11.718750
3925,11.718750
3926,11.718750
3927,11.718750
3928,11.718750
3929,11.718750
3930,11.718750
3931,11.718750
3932,11.718750
3933,11.718750
3934,15.625000
3935,11.718750
3936,15.625000
3937,15.625000
3938,15.625000
3939,15.625000
3940,15.625000
3941,15.625000
3942,15.625000
3943,15.625000
3944,15.625000
3945,15.625000
3946,15.625000
3947,15.625000
3948,15.625000
3949,15.625000
3950,15.625000
3951,15.625000
3952,15.625000
3953,15.625000
3954,15.625000
3955,15.625000
3956,15.625000
3957,15.625000
3958,15.625000
3959,15.625000
3960,15.625000
3961,19.531250
3962,15.625000
3963,15.625000
3964,15.625000
3965,15.625000
3966,15.625000
3967,15.625000
3968,15.625000
3969,19.531250
3970,19.531250
3971,15.625000
3972,15.625000
3973,15.625000
3974,15.625000
3975,15.625000
3976,19.531250
3977,15.625000
3978,15.625000
3979,15.625000
3980,15.625000
3981,19.531250
3982,15.625000
3983,15.625000
3984,15.625000
3985,15.625000
3986,15.625000
3987,15.625000
3988,15.625000
3989,15.625000
3990,15.625000
3991,15.625000
3992,15.625000
3993,15.625000
3994,15.625000
3995,15.625000
3996,15.625000
3997,15.625000
3998,15.625000
3999,15.625000
4000,15.625000
4001,15.625000
4002,15.625000
4003,11.718750
4004,11.718750
4005,11.718750
4006,11.718750
4007,11.718750
4008,11.718750
4009,11.718750
4010,11.718750
4011,11.718750
4012,11.718750
4013,11.718750
4014,7.812500
4015,7.812500
4016,7.812500
4017,7.812500
4018,7.812500
4019,7.812500
4020,7.812500
4021,7.812500
4022,7.812500
4023,3.906250
4024,3.906250
4025,3.906250
4026,3.906250
4027,3.906250
4028,3.906250
4029,3.906250
4030,0.000000
4031,0.000000
4032,0.000000
4033,0.000000
4034,0.000000
4035,0.000000
4036,0.000000
4037,0.000000
4038,0.000000
4039,-3.906250
4040,-3.906250
4041,-3.906250
4042,-3.906250
4043,-3.906250
4044,-3.906250
4045,-3.906250
4046,-7.812500
4047,-7.812500
4048,-7.812500
4049,-7.812500
4050,-7.812500
4051,-7.812500
4052,-15.625000
4053,-11.718750
4054,-11.718750
4055,-11.718750
4056,-11.718750
4057,-11.718750
4058,-11.718750
4059,-11.718750
4060,-11.718750
4061,-15.625000
4062,-15.625000
4063,-15.625000
4064,-15.625000
4065,-15.625000
4066,-19.531250
4067,-19.531250
4068,-19.531250
4069,-19.531250
4070,-19.531250
4071,-19.531250
4072,-19.531250
4073,-23.437500
4074,-23.437500
4075,-23.437500
4076,-23.437500
4077,-23.437500
4078,-23.437500
4079,-23.437500
4080,-27.343750
4081,-23.437500
4082,-27.343750
4083,-27.343750
4084,-27.343750
4085,-27.343750
4086,-27.343750
4087,-31.250000
4088,-31.250000
4089,-31.250000
4090,-31.250000
4091,-31.250000
4092,-35.156250
4093,-31.250000
4094,-35.156250
4095,-35.156250
4096,-35.156250
4097,-35.156250
4098,-35.156250
4099,-35.156250
4100,-39.062500
4101,-39.062500
4102,-39.062500
4103,-39.062500
4104,-39.062500
4105,-39.062500
4106,-42.968750
4107,-42.968750
4108,-42.968750
4109,-42.968750
4110,-42.968750
4111,-42.968750
4112,-42.968750
4113,-42.968750
4114,-46.875000
4115,-46.875000
4116,-46.875000
4117,-46.875000
4118,-46.875000
4119,-46.875000
4120,-46.875000
4121,-46.875000
4122,-46.875000
4123,-46.875000
4124,-50.781250
4125,-50.781250
4126,-50.781250
4127,-50.781250
4128,-50.781250
4129,-50.781250
4130,-50.781250
4131,-50.781250
4132,-50.781250
4133,-50.781250
4134,-50.781250
4135,-54.687500
4136,-50.781250
4137,-54.687500
4138,-54.687500
4139,-54.687500
4140,-54.687500
4141,-54.687500
4142,-54.687500
4143,-54.687500
4144,-54.687500
4145,-54.687500
4146,-54.687500
4147,-54.687500
4148,-54.687500
4149,-54.687500
4150,-54.687500
4151,-58.593750
4152,-58.593750
4153,-54.687500
4154,-54.687500
4155,-58.593750
4156,-54.687500
4157,-58.593750
4158,-58.593750
4159,-58.593750
4160,-58.593750
4161,-58.593750
4162,-58.593750
4163,-58.593750
4164,-58.593750
4165,-58.593750
4166,-58.593750
4167,-58.593750
4168,-58.593750
4169,-58.593750
4170,-58.593750
4171,-58.593750
4172,-58.593750
4173,-58.593750
4174,-58.593750
4175,-58.593750
4176,-58.593750
4177,-58.593750
4178,-58.593750
4179,-58.593750
4180,-58.593750
4181,-54.687500
4182,-54.687500
4183,-54.687500
4184,-54.687500
4185,-54.687500
4186,-54.687500
4187,-54.687500
4188,-54.687500
4189,-54.687500
4190,-54.687500
4191,-54.687500
4192,-54.687500
4193,-54.687500
4194,-54.687500
4195,-54.687500
4196,-54.687500
4197,-54.687500
4198,-54.687500
4199,-54.687500
4200,-54.687500
4201,-54.687500
4202,-50.781250
4203,-50.781250
4204,-50.781250
4205,-50.781250
4206,-50.781250
4207,-50.781250
4208,-50.781250
4209,-50.781250
4210,-50.781250
4211,-50.781250
4212,-50.781250
4213,-50.781250
4214,-50.781250
4215,-46.875000
4216,-46.875000
4217,-46.875000
4218,-46.875000
4219,-46.875000
4220,-46.875000
4221,-46.875000
4222,-46.875000
4223,-46.875000
4224,-42.968750
4225,-42.968750
4226,-42.968750
4227,-42.968750
4228,-42.968750
4229,-42.968750
4230,-42.968750
4231,-42.968750
4232,-42.968750
4233,-42.968750
4234,-42.968750
4235,-39.062500
4236,-39.062500
4237,-39.062500
4238,-39.062500
4239,-39.062500
4240,-39.062500
4241,-39.062500
4242,-35.156250
4243,-39.062500
4244,-35.156250
4245,-35.156250
4246,-35.156250
4247,-35.156250
4248,-35.156250
4249,-35.156250
4250,-35.156250
4251,-31.250000
4252,-31.250000
4253,-31.250000
4254,-31.250000
4255,-31.250000
4256,-31.250000
4257,-31.250000
4258,-31.250000
4259,-27.343750
4260,-27.343750
4261,-27.343750
4262,-27.343750
4263,-27.343750
4264,-27.343750
4265,-27.343750
4266,-23.437500
4267,-23.437500
4268,-23.437500
4269,-23.437500
4270,-23.437500
4271,-23.437500
4272,-23.437500
4273,-23.437500
4274,-23.437500
4275,-19.531250
4276,-19.531250
4277,-19.531250
4278,-19.531250
4279,-19.531250
4280,-19.531250
4281,-19.531250
4282,-15.625000
4283,-15.625000
4284,-15.625000
4285,-15.625000
4286,-15.625000
4287,-15.625000
4288,-11.718750
4289,-11.718750
4290,-11.718750
4291,-11.718750
4292,-11.718750
4293,-11.718750
4294,-11.718750
4295,-11.718750
4296,-11.718750
4297,-7.812500
4298,-7.812500
4299,-7.812500
4300,-7.812500
4301,-7.812500
4302,-7.812500
4303,-3.906250
4304,-3.906250
4305,-3.906250
4306,-3.906250
4307,-3.906250
4308,-3.906250
4309,-3.906250
4310,-3.906250
4311,-3.906250
4312,-3.906250
4313,0.000000
4314,0.000000
4315,0.000000
4316,0.000000
4317,0.000000
4318,0.000000
4319,0.000000
4320,3.906250
4321,3.906250
4322,3.906250
4323,3.906250
4324,3.906250
4325,3.906250
4326,3.906250
4327,3.906250
4328,3.906250
4329,3.906250
4330,3.906250
4331,3.906250
4332,7.812500
4333,7.812500
4334,7.812500
4335,7.812500
4336,7.812500
4337,7.812500
4338,7.812500
4339,7.812500
4340,7.812500
4341,7.812500
4342,11.718750
4343,11.718750
4344,11.718750
4345,11.718750
4346,11.718750
4347,11.718750
4348,11.718750
4349,11.718750
4350,11.718750
4351,11.718750
4352,11.718750
4353,11.718750
4354,11.718750
4355,11.718750
4356,11.718750
4357,15.625000
4358,11.718750
4359,15.625000
4360,15.625000
4361,15.625000
4362,15.625000
4363,15.625000
4364,15.625000
4365,15.625000
4366,15.625000
4367,15.625000
4368,15.625000
4369,15.625000
4370,15.625000
4371,15.625000
4372,15.625000
4373,15.625000
4374,15.625000
4375,15.625000
4376,15.625000
4377,15.625000
4378,15.625000
4379,15.625000
4380,19.531250
4381,19.531250
4382,19.531250
4383,15.625000
4384,15.625000
4385,15.625000
4386,15.625000
4387,19.531250
4388,19.531250
4389,19.531250
4390,15.625000
4391,15.625000
4392,15.625000
4393,19.531250
4394,15.625000
4395,15.625000
4396,15.625000
4397,15.625000
4398,15.625000
4399,15.625000
4400,15.625000
4401,15.625000
4402,15.625000
4403,15.625000
4404,15.625000
4405,15.625000
4406,15.625000
4407,11.718750
4408,15.625000
4409,15.625000
4410,15.625000
4411,15.625000
4412,15.625000
4413,15.625000
4414,15.625000
4415,11.718750
4416,11.718750
4417,11.718750
4418,11.718750
4419,11.718750
4420,11.718750
4421,11.718750
4422,11.718750
4423,11.718750
4424,11.718750
4425,11.718750
4426,11.718750
4427,11.718750
4428,11.718750
4429,11.718750
4430,7.812500
4431,7.812500
4432,7.812500
4433,7.812500
4434,7.812500
4435,7.812500
4436,7.812500
4437,7.812500
4438,7.812500
4439,7.812500
4440,3.906250
4441,3.906250
4442,3.906250
4443,3.906250
4444,3.906250
4445,3.906250
4446,3.906250
4447,3.906250
4448,3.906250
4449,0.000000
4450,3.906250
4451,0.000000
4452,0.000000
4453,0.000000
4454,0.000000
4455,0.000000
4456,0.000000
4457,0.000000
4458,-3.906250
4459,-3.906250
4460,-3.906250
4461,-3.906250
4462,-3.906250
4463,-3.906250
4464,-7.812500
4465,-7.812500
4466,-7.812500
4467,-7.812500
4468,-7.812500
4469,-7.812500
4470,-7.812500
4471,-11.718750
4472,-11.718750
4473,-11.718750
4474,-11.718750
4475,-11.718750
4476,-15.625000
4477,-11.718750
4478,-15.625000
4479,-15.625000
4480,-15.625000
4481,-15.625000
4482,-15.625000
4483,-15.625000
4484,-19.531250
4485,-19.531250
4486,-19.531250
4487,-19.531250
4488,-23.437500
4489,-19.531250
4490,-23.437500
4491,-23.437500
4492,-23.437500
4493,-23.437500
4494,-23.437500
4495,-27.343750
4496,-27.343750
4497,-27.343750
4498,-27.343750
4499,-27.343750
4500,-27.343750
4501,-27.343750
4502,-27.343750
4503,-31.250000
4504,-31.250000
4505,-31.250000
4506,-31.250000
4507,-31.250000
4508,-31.250000
4509,-35.156250
4510,-35.156250
4511,-35.156250
4512,-35.156250
4513,-35.156250
4514,-35.156250
4515,-35.156250
4516,-35.156250
4517,-39.062500
4518,-39.062500
4519,-39.062500
4520,-39.062500
4521,-39.062500
4522,-39.062500
4523,-39.062500
4524,-39.062500
4525,-42.968750
4526,-42.968750
4527,-42.968750
4528,-42.968750
4529,-42.968750
4530,-42.968750
4531,-42.968750
4532,-46.875000
4533,-46.875000
4534,-46.875000
4535,-46.875000
4536,-39.062500
4537,-46.875000
4538,-46.875000
4539,-46.875000
4540,-50.781250
4541,-42.968750
4542,-50.781250
4543,-50.781250
4544,-50.781250
4545,-50.781250
4546,-46.875000
4547,-50.781250
4548,-50.781250
4549,-50.781250
4550,-54.687500
4551,-54.687500
4552,-50.781250
4553,-54.687500
4554,-54.687500
4555,-54.687500
4556,-54.687500
4557,-54.687500
4558,-54.687500
4559,-54.687500
4560,-54.687500
4561,-54.687500
4562,-54.687500
4563,-54.687500
4564,-54.687500
4565,-54.687500
4566,-54.687500
4567,-54.687500
4568,-54.687500
4569,-54.687500
4570,-54.687500
4571,-58.593750
4572,-58.593750
4573,-58.593750
4574,-58.593750
4575,-54.687500
4576,-58.593750
4577,-58.593750
4578,-58.593750
4579,-54.687500
4580,-58.593750
4581,-58.593750
4582,-58.593750
4583,-58.593750
4584,-58.593750
4585,-58.593750
4586,-58.593750
4587,-58.593750
4588,-58.593750
4589,-58.593750
4590,-58.593750
4591,-58.593750
4592,-58.593750
4593,-58.593750
4594,-58.593750
4595,-58.593750
4596,-58.593750
4597,-58.593750
4598,-58.593750
4599,-54.687500
4600,-54.687500
4601,-58.593750
4602,-58.593750
4603,-58.593750
4604,-58.593750
4605,-54.687500
4606,-54.687500
4607,-54.687500
4608,-54.687500
4609,-54.687500
4610,-54.687500
4611,-54.687500
4612,-54.687500
4613,-54.687500
4614,-54.687500
4615,-54.687500
4616,-54.687500
4617,-54.687500
4618,-54.687500
4619,-50.781250
4620,-54.687500
4621,-50.781250
4622,-54.687500
4623,-50.781250
4624,-50.781250
4625,-50.781250
4626,-50.781250
4627,-50.781250
4628,-50.781250
4629,-50.781250
4630,-50.781250
4631,-46.875000
4632,-50.781250
4633,-46.875000
4634,-46.875000
4635,-46.875000
4636,-46.875000
4637,-46.875000
4638,-46.875000
4639,-46.875000
4640,-46.875000
4641,-42.968750
4642,-42.968750
4643,-42.968750
4644,-42.968750
4645,-42.968750
4646,-42.968750
4647,-42.968750
4648,-42.968750
4649,-42.968750
4650,-42.968750
4651,-39.062500
4652,-39.062500
4653,-39.062500
4654,-39.062500
4655,-39.062500
4656,-39.062500
4657,-39.062500
4658,-39.062500
4659,-39.062500
4660,-39.062500
4661,-35.156250
4662,-35.156250
4663,-39.062500
4664,-35.156250
4665,-35.156250
4666,-35.156250
4667,-35.156250
4668,-31.250000
4669,-31.250000
4670,-31.250000
4671,-31.250000
4672,-31.250000
4673,-31.250000
4674,-31.250000
4675,-27.343750
4676,-27.343750
4677,-27.343750
4678,-27.343750
4679,-27.343750
4680,-27.343750
4681,-27.343750
4682,-27.343750
4683,-27.343750
4684,-23.437500
4685,-23.437500
4686,-23.437500
4687,-23.437500
4688,-23.437500
4689,-19.531250
4690,-19.531250
4691,-19.531250
4692,-19.531250
4693,-19.531250
4694,-19.531250
4695,-19.531250
4696,-19.531250
4697,-15.625000
4698,-15.625000
4699,-15.625000
4700,-15.625000
4701,-15.625000
4702,-15.625000
4703,-11.718750
4704,-11.718750
4705,-11.718750
4706,-11.718750
4707,-11.718750
4708,-11.718750
4709,-11.718750
4710,-11.718750
4711,-11.718750
4712,-11.718750
4713,-7.812500
4714,-7.812500
4715,-7.812500
4716,-7.812500
4717,-3.906250
4718,-7.812500
4719,-3.906250
4720,-3.906250
4721,-7.812500
4722,-3.906250
4723,-3.906250
4724,-3.906250
4725,-3.906250
4726,-3.906250
4727,0.000000
4728,0.000000
4729,0.000000
4730,-3.906250
4731,0.000000
4732,0.000000
4733,0.000000
4734,0.000000
4735,0.000000
4736,0.000000
4737,3.906250
4738,3.906250
4739,3.906250
4740,3.906250
4741,3.906250
4742,3.906250
4743,3.906250
4744,3.906250
4745,3.906250
4746,3.906250
4747,7.812500
4748,7.812500
4749,7.812500
4750,7.812500
4751,7.812500
4752,7.812500
4753,7.812500
4754,7.812500
4755,7.812500
4756,7.812500
4757,7.812500
4758,11.718750
4759,11.718750
4760,11.718750
4761,11.718750
4762,11.718750
4763,11.718750
4764,11.718750
4765,11.718750
4766,11.718750
4767,11.718750
4768,15.625000
4769,11.718750
4770,15.625000
4771,15.625000
4772,15.625000
4773,15.625000
4774,15.625000
4775,15.625000
4776,15.625000
4777,15.625000
4778,15.625000
4779,15.625000
4780,15.625000
4781,15.625000
4782,15.625000
4783,15.625000
4784,15.625000
4785,15.625000
4786,15.625000
4787,15.625000
4788,15.625000
4789,19.531250
4790,15.625000
4791,19.531250
4792,15.625000
4793,15.625000
4794,15.625000
4795,19.531250
4796,19.531250
4797,19.531250
4798,19.531250
4799,19.531250
4800,15.625000
4801,19.531250
4802,19.531250
4803,19.531250
4804,19.531250
4805,19.531250
4806,15.625000
4807,15.625000
4808,19.531250
4809,19.531250
4810,15.625000
4811,15.625000
4812,15.625000
4813,15.625000
4814,15.625000
4815,19.531250
4816,15.625000
4817,15.625000
4818,15.625000
4819,15.625000
4820,15.625000
4821,15.625000
4822,15.625000
4823,15.625000
4824,15.625000
4825,15.625000
4826,15.625000
4827,15.625000
4828,15.625000
4829,15.625000
4830,15.625000
4831,15.625000
4832,11.718750
4833,15.625000
4834,11.718750
4835,11.718750
4836,11.718750
4837,11.718750
4838,11.718750
4839,11.718750
4840,11.718750
4841,11.718750
4842,11.718750
4843,11.718750
4844,11.718750
4845,11.718750
4846,7.812500
4847,7.812500
4848,7.812500
4849,7.812500
4850,7.812500
4851,7.812500
4852,7.812500
4853,7.812500
4854,7.812500
4855,7.812500
4856,3.906250
4857,7.812500
4858,3.906250
4859,3.906250
4860,3.906250
4861,3.906250
4862,3.906250
4863,3.906250
4864,0.000000
4865,0.000000
4866,0.000000
4867,0.000000
4868,0.000000
4869,0.000000
4870,0.000000
4871,0.000000
4872,0.000000
4873,-3.906250
4874,-3.906250
4875,-3.906250
4876,-3.906250
4877,-3.906250
4878,-7.812500
4879,-3.906250
4880,-7.812500
4881,-7.812500
4882,-7.812500
4883,-7.812500
4884,-7.812500
4885,-7.812500
4886,-11.718750
4887,-7.812500
4888,-11.718750
4889,-11.718750
4890,-11.718750
4891,-11.718750
4892,-11.718750
4893,-11.718750
4894,-15.625000
4895,-15.625000
4896,-15.625000
4897,-15.625000
4898,-15.625000
4899,-19.531250
4900,-19.531250
4901,-19.531250
4902,-19.531250
4903,-19.531250
4904,-19.531250
4905,-19.531250
4906,-19.531250
4907,-23.437500
4908,-23.437500
4909,-23.437500
4910,-23.437500
4911,-23.437500
4912,-23.437500
4913,-27.343750
4914,-27.343750
4915,-27.343750
4916,-27.343750
4917,-27.343750
4918,-27.343750
4919,-27.343750
4920,-31.250000
4921,-31.250000
4922,-31.250000
4923,-31.250000
4924,-31.250000
4925,-31.250000
4926,-35.156250
4927,-35.156250
4928,-35.156250
4929,-35.156250
4930,-35.156250
4931,-35.156250
4932,-35.156250
4933,-39.062500
4934,-39.062500
4935,-39.062500
4936,-39.062500
4937,-39.062500
4938,-39.062500
4939,-39.062500
4940,-42.968750
4941,-42.968750
4942,-42.968750
4943,-42.968750
4944,-42.968750
4945,-42.968750
4946,-42.968750
4947,-46.875000
4948,-46.875000
4949,-42.968750
4950,-46.875000
4951,-46.875000
4952,-46.875000
4953,-46.875000
4954,-46.875000
4955,-46.875000
4956,-46.875000
4957,-46.875000
4958,-50.781250
4959,-50.781250
4960,-50.781250
4961,-50.781250
4962,-50.781250
4963,-50.781250
4964,-50.781250
4965,-50.781250
4966,-50.781250
4967,-50.781250
4968,-50.781250
4969,-50.781250
4970,-54.687500
4971,-54.687500
4972,-54.687500
4973,-54.687500
4974,-54.687500
4975,-54.687500
4976,-54.687500
4977,-54.687500
4978,-54.687500
4979,-54.687500
4980,-54.687500
4981,-54.687500
4982,-54.687500
4983,-54.687500
4984,-54.687500
4985,-54.687500
4986,-54.687500
4987,-58.593750
4988,-58.593750
4989,-58.593750
4990,-58.593750
4991,-58.593750
4992,-58.593750
4993,-58.593750
4994,-58.593750
4995,-58.593750
4996,-58.593750
4997,-58.593750
4998,-58.593750
4999,-58.593750
5000,-58.593750
5001,-58.593750
5002,-58.593750
5003,-58.593750
5004,-58.593750
5005,-58.593750
5006,-58.593750
5007,-58.593750
5008,-58.593750
5009,-58.593750
5010,-58.593750
5011,-58.593750
5012,-58.593750
5013,-58.593750
5014,-54.687500
5015,-54.687500
5016,-58.593750
5017,-54.687500
5018,-58.593750
5019,-54.687500
5020,-54.687500
5021,-54.687500
5022,-54.687500
5023,-54.687500
5024,-54.687500
5025,-54.687500
5026,-54.687500
5027,-54.687500
5028,-54.687500
5029,-54.687500
5030,-54.687500
5031,-54.687500
5032,-54.687500
5033,-54.687500
5034,-54.687500
5035,-50.781250
5036,-50.781250
5037,-50.781250
5038,-50.781250
5039,-50.781250
5040,-50.781250
5041,-50.781250
5042,-50.781250
5043,-50.781250
5044,-50.781250
5045,-50.781250
5046,-50.781250
5047,-46.875000
5048,-46.875000
5049,-46.875000
5050,-46.875000
5051,-46.875000
5052,-46.875000
5053,-46.875000
5054,-46.875000
5055,-46.875000
5056,-46.875000
5057,-46.875000
5058,-46.875000
5059,-42.968750
5060,-42.968750
5061,-42.968750
5062,-42.968750
5063,-42.968750
5064,-42.968750
5065,-42.968750
5066,-42.968750
5067,-42.968750
5068,-39.062500
5069,-39.062500
5070,-39.062500
5071,-39.062500
5072,-39.062500
5073,-39.062500
5074,-39.062500
5075,-35.156250
5076,-35.156250
5077,-35.156250
5078,-35.156250
5079,-35.156250
5080,-35.156250
5081,-35.156250
5082,-35.156250
5083,-31.250000
5084,-35.156250
5085,-31.250000
5086,-31.250000
5087,-31.250000
5088,-31.250000
5089,-31.250000
5090,-31.250000
5091,-31.250000
5092,-27.343750
5093,-27.343750
5094,-27.343750
5095,-27.343750
5096,-27.343750
5097,-27.343750
5098,-27.343750
5099,-23.437500
5100,-23.437500
5101,-23.437500
5102,-23.437500
5103,-23.437500
5104,-23.437500
5105,-23.437500
5106,-23.437500
5107,-23.437500
5108,-19.531250
5109,-19.531250
5110,-19.531250
5111,-19.531250
5112,-19.531250
5113,-19.531250
5114,-19.531250
5115,-15.625000
5116,-15.625000
5117,-15.625000
5118,-15.625000
5119,-15.625000
5120,-15.625000
5121,-15.625000
5122,-15.625000
5123,-11.718750
5124,-11.718750
5125,-11.718750
5126,-11.718750
5127,-11.718750
5128,-11.718750
5129,-11.718750
5130,-11.718750
5131,-7.812500
5132,-7.812500
5133,-7.812500
5134,-7.812500
5135,-7.812500
5136,-7.812500
5137,-3.906250
5138,-3.906250
5139,-3.906250
5140,-3.906250
5141,-3.906250
5142,-3.906250
5143,-3.906250
5144,-3.906250
5145,-3.906250
5146,0.000000
5147,0.000000
5148,0.000000
5149,0.000000
5150,0.000000
5151,0.000000
5152,0.000000
5153,0.000000
5154,3.906250
5155,3.906250
5156,3.906250
5157,3.906250
5158,11.718750
5159,3.906250
5160,3.906250
5161,3.906250
5162,3.906250
5163,3.906250
5164,3.906250
5165,7.812500
5166,7.812500
5167,7.812500
5168,7.812500
5169,7.812500
5170,7.812500
5171,7.812500
5172,7.812500
5173,7.812500
5174,7.812500
5175,11.718750
5176,11.718750
5177,11.718750
5178,11.718750
5179,11.718750
5180,11.718750
5181,11.718750
5182,11.718750
5183,11.718750
5184,11.718750
5185,11.718750
5186,11.718750
5187,11.718750
5188,11.718750
5189,15.625000
5190,15.625000
5191,15.625000
5192,15.625000
5193,15.625000
5194,15.625000
5195,15.625000
5196,15.625000
5197,15.625000
5198,15.625000
5199,15.625000
5200,15.625000
5201,15.625000
5202,15.625000
5203,15.625000
5204,15.625000
5205,15.625000
5206,15.625000
5207,15.625000
5208,15.625000
5209,15.625000
5210,15.625000
5211,15.625000
5212,15.625000
5213,15.625000
5214,15.625000
5215,15.625000
5216,19.531250
5217,15.625000
5218,15.625000
5219,15.625000
5220,19.531250
5221,15.625000
5222,15.625000
5223,19.531250
5224,19.531250
5225,15.625000
5226,15.625000
5227,15.625000
5228,19.531250
5229,19.531250
5230,15.625000
5231,15.625000
5232,15.625000
5233,15.625000
5234,15.625000
5235,15.625000
5236,19.531250
5237,15.625000
5238,15.625000
5239,15.625000
5240,15.625000
5241,15.625000
5242,15.625000
5243,15.625000
5244,15.625000
5245,15.625000
5246,15.625000
5247,15.625000
5248,15.625000
5249,15.625000
5250,15.625000
5251,11.718750
5252,11.718750
5253,11.718750
5254,11.718750
5255,11.718750
5256,11.718750
5257,11.718750
5258,11.718750
5259,11.718750
5260,11.718750
5261,11.718750
5262,11.718750
5263,7.812500
5264,7.812500
5265,7.812500
5266,7.812500
5267,7.812500
5268,7.812500
5269,7.812500
5270,7.812500
5271,7.812500
5272,7.812500
5273,3.906250
5274,3.906250
5275,3.906250
5276,3.906250
5277,3.906250
5278,3.906250
5279,3.906250
5280,3.906250
5281,3.906250
5282,0.000000
5283,0.000000
5284,0.000000
5285,0.000000
5286,0.000000
5287,0.000000
5288,0.000000
5289,0.000000
5290,-3.906250
5291,-3.906250
5292,-3.906250
5293,-3.906250
5294,-3.906250
5295,-3.906250
5296,-3.906250
5297,-3.906250
5298,-7.812500
5299,-7.812500
5300,-7.812500
5301,-7.812500
5302,-7.812500
5303,-7.812500
5304,-11.718750
5305,-11.718750
5306,-11.718750
5307,-11.718750
5308,-11.718750
5309,-11.718750
5310,-11.718750
5311,-15.625000
5312,-15.625000
5313,-15.625000
5314,-15.625000
5315,-15.625000
5316,-19.531250
5317,-19.531250
5318,-19.531250
5319,-19.531250
5320,-19.531250
5321,-19.531250
5322,-19.531250
5323,-23.437500
5324,-19.531250
5325,-23.437500
5326,-23.437500
5327,-23.437500
5328,-23.437500
5329,-23.437500
5330,-27.343750
5331,-27.343750
5332,-27.343750
5333,-27.343750
5334,-31.250000
5335,-27.343750
5336,-27.343750
5337,-31.250000
5338,-31.250000
5339,-31.250000
5340,-31.250000
5341,-31.250000
5342,-31.250000
5343,-31.250000
5344,-35.156250
5345,-35.156250
5346,-35.156250
5347,-35.156250
5348,-35.156250
5349,-35.156250
5350,-39.062500
5351,-39.062500
5352,-39.062500
5353,-39.062500
5354,-39.062500
5355,-39.062500
5356,-39.062500
5357,-42.968750
5358,-42.968750
5359,-42.968750
5360,-42.968750
5361,-42.968750
5362,-42.968750
5363,-42.968750
5364,-42.968750
5365,-42.968750
5366,-46.875000
5367,-46.875000
5368,-46.875000
5369,-46.875000
5370,-46.875000
5371,-46.875000
5372,-46.875000
5373,-46.875000
5374,-50.781250
5375,-50.781250
5376,-50.781250
5377,-50.781250
5378,-50.781250
5379,-50.781250
5380,-50.781250
5381,-50.781250
5382,-50.781250
5383,-50.781250
5384,-50.781250
5385,-54.687500
5386,-54.687500
5387,-54.687500
5388,-54.687500
5389,-54.687500
5390,-54.687500
5391,-54.687500
5392,-54.687500
5393,-54.687500
5394,-54.687500
5395,-54.687500
5396,-54.687500
5397,-54.687500
5398,-54.687500
5399,-54.687500
5400,-54.687500
5401,-54.687500
5402,-54.687500
5403,-58.593750
5404,-58.593750
5405,-58.593750
5406,-58.593750
5407,-58.593750
5408,-58.593750
5409,-58.593750
5410,-58.593750
5411,-58.593750
5412,-58.593750
5413,-58.593750
5414,-58.593750
5415,-58.593750
5416,-58.593750
5417,-54.687500
5418,-58.593750
5419,-58.593750
5420,-58.593750
5421,-58.593750
5422,-58.593750
5423,-58.593750
5424,-58.593750
5425,-58.593750
5426,-58.593750
5427,-58.593750
5428,-58.593750
5429,-58.593750
5430,-58.593750
5431,-58.593750
5432,-58.593750
5433,-58.593750
5434,-54.687500
5435,-54.687500
5436,-54.687500
5437,-54.687500
5438,-58.593750
5439,-54.687500
5440,-54.687500
5441,-54.687500
5442,-54.687500
5443,-54.687500
5444,-54.687500
5445,-54.687500
5446,-54.687500
5447,-54.687500
5448,-54.687500
5449,-54.687500
5450,-54.687500
5451,-54.687500
5452,-54.687500
5453,-54.687500
5454,-50.781250
5455,-50.781250
5456,-50.781250
5457,-50.781250
5458,-50.781250
5459,-50.781250
5460,-50.781250
5461,-50.781250
5462,-50.781250
5463,-50.781250
5464,-50.781250
5465,-50.781250
5466,-46.875000
5467,-46.875000
5468,-46.875000
5469,-46.875000
5470,-46.875000
5471,-46.875000
5472,-46.875000
5473,-46.875000
5474,-46.875000
5475,-42.968750
5476,-39.062500
5477,-42.968750
5478,-42.968750
5479,-42.968750
5480,-42.968750
5481,-42.968750
5482,-42.968750
5483,-42.968750
5484,-39.062500
5485,-42.968750
5486,-39.062500
5487,-39.062500
5488,-39.062500
5489,-39.062500
5490,-39.062500
5491,-39.062500
5492,-39.062500
5493,-39.062500
5494,-35.156250
5495,-35.156250
5496,-35.156250
5497,-35.156250
5498,-35.156250
5499,-35.156250
5500,-35.156250
5501,-31.250000
5502,-31.250000
5503,-31.250000
5504,-31.250000
5505,-27.343750
5506,-31.250000
5507,-31.250000
5508,-31.250000
5509,-27.343750
5510,-27.343750
5511,-27.343750
5512,-27.343750
5513,-27.343750
5514,-27.343750
5515,-27.343750
5516,-23.437500
5517,-23.437500
5518,-23.437500
5519,-23.437500
5520,-23.437500
5521,-23.437500
5522,-19.531250
5523,-19.531250
5524,-19.531250
5525,-19.531250
5526,-19.531250
5527,-19.531250
5528,-19.531250
5529,-19.531250
5530,-19.531250
5531,-15.625000
5532,-15.625000
5533,-15.625000
5534,-15.625000
5535,-15.625000
5536,-11.718750
5537,-15.625000
5538,-11.718750
5539,-11.718750
5540,-11.718750
5541,-11.718750
5542,-11.718750
5543,-11.718750
5544,-7.812500
5545,-7.812500
5546,-7.812500
5547,-7.812500
5548,-7.812500
5549,-7.812500
5550,-7.812500
5551,-7.812500
5552,-7.812500
5553,-3.906250
5554,-3.906250
5555,-3.906250
5556,-3.906250
5557,-3.906250
5558,-3.906250
5559,-3.906250
5560,-3.906250
5561,0.000000
5562,0.000000
5563,0.000000
5564,0.000000
5565,0.000000
5566,0.000000
5567,0.000000
5568,0.000000
5569,0.000000
5570,3.906250
5571,3.906250
5572,3.906250
5573,3.906250
5574,3.906250
5575,3.906250
5576,3.906250
5577,3.906250
5578,3.906250
5579,3.906250
5580,7.812500
5581,7.812500
5582,7.812500
5583,7.812500
5584,7.812500
5585,7.812500
5586,7.812500
5587,7.812500
5588,7.812500
5589,7.812500
5590,7.812500
5591,7.812500
5592,11.718750
5593,11.718750
5594,11.718750
5595,11.718750
5596,11.718750
5597,11.718750
5598,11.718750
5599,11.718750
5600,11.718750
5601,11.718750
5602,15.625000
5603,11.718750
5604,11.718750
5605,15.625000
5606,15.625000
5607,15.625000
5608,15.625000
5609,15.625000
5610,15.625000
5611,15.625000
5612,15.625000
5613,15.625000
5614,15.625000
5615,15.625000
5616,15.625000
5617,15.625000
5618,15.625000
5619,19.531250
5620,15.625000
5621,15.625000
5622,15.625000
5623,15.625000
5624,15.625000
5625,15.625000
5626,15.625000
5627,19.531250
5628,15.625000
5629,15.625000
5630,15.625000
5631,15.625000
5632,19.531250
5633,19.531250
5634,19.531250
5635,15.625000
5636,19.531250
5637,15.625000
5638,15.625000
5639,19.531250
5640,15.625000
5641,15.625000
5642,15.625000
5643,15.625000
5644,19.531250
5645,19.531250
5646,15.625000
5647,15.625000
5648,15.625000
5649,15.625000
5650,15.625000
5651,15.625000
5652,15.625000
5653,15.625000
5654,15.625000
5655,15.625000
5656,15.625000
5657,15.625000
5658,15.625000
5659,15.625000
5660,15.625000
5661,15.625000
5662,15.625000
5663,15.625000
5664,15.625000
5665,11.718750
5666,15.625000
5667,11.718750
5668,15.625000
5669,11.718750
5670,11.718750
5671,11.718750
5672,15.625000
5673,11.718750
5674,11.718750
5675,11.718750
5676,11.718750
5677,11.718750
5678,11.718750
5679,11.718750
5680,7.812500
5681,7.812500
5682,7.812500
5683,7.812500
5684,7.812500
5685,7.812500
5686,7.812500
5687,7.812500
5688,7.812500
5689,7.812500
5690,3.906250
5691,3.906250
5692,3.906250
5693,3.906250
5694,3.906250
5695,3.906250
5696,3.906250
5697,3.906250
5698,3.906250
5699,3.906250
5700,0.000000
5701,0.000000
5702,0.000000
5703,0.000000
5704,0.000000
5705,-3.906250
5706,-3.906250
5707,-3.906250
5708,-3.906250
5709,-3.906250
5710,-3.906250
5711,-3.906250
5712,-3.906250
5713,-7.812500
5714,-7.812500
5715,-7.812500
5716,-7.812500
5717,-7.812500
5718,-7.812500
5719,-7.812500
5720,-7.812500
5721,-11.718750
5722,-11.718750
5723,-11.718750
5724,-11.718750
5725,-11.718750
5726,-11.718750
5727,-11.718750
5728,-15.625000
5729,-15.625000
5730,-15.625000
5731,-15.625000
5732,-15.625000
5733,-15.625000
5734,-19.531250
5735,-19.531250
5736,-19.531250
5737,-19.531250
5738,-19.531250
5739,-23.437500
5740,-15.625000
5741,-23.437500
5742,-23.437500
5743,-23.437500
5744,-23.437500
5745,-23.437500
5746,-23.437500
5747,-27.343750
5748,-27.343750
5749,-27.343750
5750,-27.343750
5751,-27.343750
5752,-27.343750
5753,-31.250000
5754,-31.250000
5755,-31.250000
5756,-31.250000
5757,-31.250000
5758,-31.250000
5759,-35.156250
5760,-35.156250
5761,-35.156250
5762,-35.156250
5763,-35.156250
5764,-35.156250
5765,-39.062500
5766,-39.062500
5767,-39.062500
5768,-39.062500
5769,-39.062500
5770,-39.062500
5771,-39.062500
5772,-39.062500
5773,-39.062500
5774,-42.968750
5775,-42.968750
5776,-42.968750
5777,-42.968750
5778,-42.968750
5779,-42.968750
5780,-42.968750
5781,-42.968750
5782,-46.875000
5783,-46.875000
5784,-46.875000
5785,-46.875000
5786,-46.875000
5787,-46.875000
5788,-46.875000
5789,-46.875000
5790,-46.875000
5791,-50.781250
5792,-50.781250
5793,-50.781250
5794,-50.781250
5795,-50.781250
5796,-50.781250
5797,-50.781250
5798,-50.781250
5799,-50.781250
5800,-54.687500
5801,-54.687500
5802,-50.781250
5803,-54.687500
5804,-54.687500
5805,-54.687500
5806,-54.687500
5807,-54.687500
5808,-54.687500
5809,-54.687500
5810,-54.687500
5811,-54.687500
5812,-54.687500
5813,-54.687500
5814,-54.687500
5815,-54.687500
5816,-54.687500
5817,-58.593750
5818,-58.593750
5819,-58.593750
5820,-58.593750
5821,-54.687500
5822,-58.593750
5823,-58.593750
5824,-58.593750
5825,-58.593750
5826,-58.593750
5827,-58.593750
5828,-58.593750
5829,-58.593750
5830,-58.593750
5831,-58.593750
5832,-58.593750
5833,-58.593750
5834,-58.593750
5835,-58.593750
5836,-58.593750
5837,-58.593750
5838,-58.593750
5839,-58.593750
5840,-58.593750
5841,-58.593750
5842,-58.593750
5843,-58.593750
5844,-58.593750
5845,-58.593750
5846,-58.593750
5847,-58.593750
5848,-58.593750
5849,-54.687500
5850,-54.687500
5851,-58.593750
5852,-54.687500
5853,-54.687500
5854,-54.687500
5855,-54.687500
5856,-54.687500
5857,-54.687500
5858,-54.687500
5859,-54.687500
5860,-54.687500
5861,-54.687500
5862,-54.687500
5863,-54.687500
5864,-54.687500
5865,-54.687500
5866,-54.687500
5867,-54.687500
5868,-50.781250
5869,-54.687500
5870,-50.781250
5871,-50.781250
5872,-50.781250
5873,-50.781250
5874,-50.781250
5875,-50.781250
5876,-50.781250
5877,-50.781250
5878,-50.781250
5879,-50.781250
5880,-46.875000
5881,-50.781250
5882,-46.875000
5883,-46.875000
5884,-50.781250
5885,-50.781250
5886,-46.875000
5887,-46.875000
5888,-46.875000
5889,-46.875000
5890,-46.875000
5891,-42.968750
5892,-42.968750
5893,-42.968750
5894,-42.968750
5895,-42.968750
5896,-42.968750
5897,-42.968750
5898,-42.968750
5899,-39.062500
5900,-39.062500
5901,-39.062500
5902,-39.062500
5903,-39.062500
5904,-39.062500
5905,-39.062500
5906,-39.062500
5907,-39.062500
5908,-39.062500
5909,-35.156250
5910,-35.156250
5911,-35.156250
5912,-35.156250
5913,-35.156250
5914,-35.156250
5915,-35.156250
5916,-31.250000
5917,-31.250000
5918,-31.250000
5919,-31.250000
5920,-31.250000
5921,-31.250000
5922,-31.250000
5923,-31.250000
5924,-27.343750
5925,-27.343750
5926,-27.343750
5927,-27.343750
5928,-27.343750
5929,-27.343750
5930,-27.343750
5931,-23.437500
5932,-23.437500
5933,-23.437500
5934,-23.437500
5935,-23.437500
5936,-23.437500
5937,-23.437500
5938,-23.437500
5939,-19.531250
5940,-19.531250
5941,-19.531250
5942,-19.531250
5943,-19.531250
5944,-19.531250
5945,-19.531250
5946,-19.531250
5947,-15.625000
5948,-15.625000
5949,-15.625000
5950,-15.625000
5951,-15.625000
5952,-15.625000
5953,-11.718750
5954,-11.718750
5955,-11.718750
5956,-11.718750
5957,-11.718750
5958,-11.718750
5959,-11.718750
5960,-11.718750
5961,-7.812500
5962,-7.812500
5963,-7.812500
5964,-7.812500
5965,-7.812500
5966,-7.812500
5967,-7.812500
5968,-7.812500
5969,-7.812500
5970,-7.812500
5971,-3.906250
5972,-3.906250
5973,-3.906250
5974,-3.906250
5975,-3.906250
5976,-3.906250
5977,-3.906250
5978,-3.906250
5979,0.000000
5980,0.000000
5981,0.000000
5982,0.000000
5983,0.000000
5984,0.000000
5985,0.000000
5986,3.906250
5987,3.906250
5988,3.906250
5989,3.906250
5990,3.906250
5991,3.906250
5992,3.906250
5993,3.906250
5994,3.906250
5995,3.906250
5996,7.812500
5997,7.812500
5998,7.812500
5999,7.812500
6000,7.812500
6001,7.812500
6002,7.812500
6003,7.812500
6004,7.812500
6005,7.812500
6006,7.812500
6007,11.718750
6008,7.812500
6009,11.718750
6010,11.718750
6011,11.718750
6012,11.718750
6013,11.718750
6014,11.718750
6015,11.718750
6016,11.718750
6017,11.718750
6018,11.718750
6019,15.625000
6020,15.625000
6021,15.625000
6022,15.625000
6023,15.625000
6024,15.625000
6025,15.625000
6026,15.625000
6027,15.625000
6028,15.625000
6029,15.625000
6030,15.625000
6031,15.625000
6032,15.625000
6033,15.625000
6034,15.625000
6035,15.625000
6036,15.625000
6037,15.625000
6038,15.625000
6039,19.531250
6040,15.625000
6041,15.625000
6042,15.625000
6043,15.625000
6044,15.625000
6045,15.625000
6046,15.625000
6047,15.625000
6048,15.625000
6049,15.625000
6050,15.625000
6051,15.625000
6052,15.625000
6053,15.625000
6054,15.625000
6055,15.625000
6056,15.625000
6057,15.625000
6058,15.625000
6059,15.625000
6060,15.625000
6061,15.625000
6062,15.625000
6063,15.625000
6064,15.625000
6065,15.625000
6066,15.625000
6067,15.625000
6068,15.625000
6069,15.625000
6070,15.625000
6071,15.625000
6072,15.625000
6073,15.625000
6074,15.625000
6075,15.625000
6076,15.625000
6077,15.625000
6078,15.625000
6079,15.625000
6080,15.625000
6081,15.625000
6082,15.625000
6083,15.625000
6084,11.718750
6085,11.718750
6086,11.718750
6087,11.718750
6088,11.718750
6089,11.718750
6090,11.718750
6091,11.718750
6092,11.718750
6093,11.718750
6094,11.718750
6095,7.812500
6096,7.812500
6097,7.812500
6098,7.812500
6099,7.812500
6100,7.812500
6101,7.812500
6102,7.812500
6103,7.812500
6104,7.812500
6105,7.812500
6106,3.906250
6107,3.906250
6108,3.906250
6109,3.906250
6110,3.906250
6111,3.906250
6112,3.906250
6113,3.906250
6114,3.906250
6115,0.000000
6116,0.000000
6117,0.000000
6118,0.000000
6119,0.000000
6120,0.000000
6121,-3.906250
6122,-3.906250
6123,0.000000
6124,-3.906250
6125,-3.906250
6126,-3.906250
6127,-3.906250
6128,-3.906250
6129,-3.906250
6130,-3.906250
6131,-7.812500
6132,-7.812500
6133,-7.812500
6134,-7.812500
6135,-7.812500
6136,-7.812500
6137,-11.718750
6138,-11.718750
6139,-11.718750
6140,-7.812500
6141,-11.718750
6142,-11.718750
6143,-11.718750
6144,-15.625000
6145,-15.625000
6146,-15.625000
6147,-15.625000
6148,-15.625000
6149,-15.625000
6150,-15.625000
6151,-19.531250
6152,-23.437500
6153,-19.531250
6154,-19.531250
6155,-19.531250
6156,-23.437500
6157,-23.437500
6158,-23.437500
6159,-23.437500
6160,-23.437500
6161,-23.437500
6162,-27.343750
6163,-23.437500
6164,-27.343750
6165,-27.343750
6166,-27.343750
6167,-27.343750
6168,-27.343750
6169,-27.343750
6170,-31.250000
6171,-31.250000
6172,-35.156250
6173,-27.343750
6174,-31.250000
6175,-31.250000
6176,-31.250000
6177,-35.156250
6178,-35.156250
6179,-35.156250
6180,-35.156250
6181,-35.156250
6182,-35.156250
6183,-39.062500
6184,-39.062500
6185,-39.062500
6186,-39.062500
6187,-39.062500
6188,-39.062500
6189,-39.062500
6190,-39.062500
6191,-39.062500
6192,-42.968750
6193,-42.968750
6194,-42.968750
6195,-42.968750
6196,-42.968750
6197,-46.875000
6198,-42.968750
6199,-42.968750
6200,-46.875000
6201,-46.875000
6202,-46.875000
6203,-46.875000
6204,-46.875000
6205,-46.875000
6206,-46.875000
6207,-46.875000
6208,-50.781250
6209,-50.781250
6210,-50.781250
6211,-50.781250
6212,-50.781250
6213,-50.781250
6214,-50.781250
6215,-50.781250
6216,-50.781250
6217,-50.781250
6218,-54.687500
6219,-54.687500
6220,-54.687500
6221,-54.687500
6222,-54.687500
6223,-54.687500
6224,-54.687500
6225,-54.687500
6226,-54.687500
6227,-54.687500
6228,-54.687500
6229,-54.687500
6230,-54.687500
6231,-54.687500
6232,-54.687500
6233,-54.687500
6234,-58.593750
6235,-58.593750
6236,-58.593750
6237,-58.593750
6238,-58.593750
6239,-58.593750
6240,-58.593750
6241,-58.593750
6242,-58.593750
6243,-58.593750
6244,-58.593750
6245,-58.593750
6246,-58.593750
6247,-58.593750
6248,-58.593750
6249,-58.593750
6250,-58.593750
6251,-58.593750
6252,-58.593750
6253,-58.593750
6254,-58.593750
6255,-58.593750
6256,-54.687500
6257,-58.593750
6258,-58.593750
6259,-58.593750
6260,-58.593750
6261,-58.593750
6262,-58.593750
6263,-58.593750
6264,-58.593750
6265,-58.593750
6266,-54.687500
6267,-58.593750
6268,-58.593750
6269,-54.687500
6270,-58.593750
6271,-54.687500
6272,-58.593750
6273,-54.687500
6274,-54.687500
6275,-54.687500
6276,-54.687500
6277,-54.687500
6278,-54.687500
6279,-54.687500
6280,-54.687500
6281,-54.687500
6282,-54.687500
6283,-54.687500
6284,-54.687500
6285,-54.687500
6286,-54.687500
6287,-50.781250
6288,-50.781250
6289,-50.781250
6290,-54.687500
6291,-50.781250
6292,-50.781250
6293,-50.781250
6294,-50.781250
6295,-50.781250
6296,-50.781250
6297,-50.781250
6298,-50.781250
6299,-50.781250
6300,-46.875000
6301,-46.875000
6302,-46.875000
6303,-46.875000
6304,-46.875000
6305,-46.875000
6306,-46.875000
6307,-46.875000
6308,-46.875000
6309,-46.875000
6310,-42.968750
6311,-42.968750
6312,-42.968750
6313,-42.968750
6314,-42.968750
6315,-42.968750
6316,-42.968750
6317,-42.968750
6318,-39.062500
6319,-39.062500
6320,-39.062500
6321,-39.062500
6322,-39.062500
6323,-39.062500
6324,-39.062500
6325,-35.156250
6326,-35.156250
6327,-35.156250
6328,-35.156250
6329,-35.156250
6330,-35.156250
6331,-35.156250
6332,-35.156250
6333,-35.156250
6334,-31.250000
6335,-31.250000
6336,-31.250000
6337,-31.250000
6338,-31.250000
6339,-31.250000
6340,-31.250000
6341,-31.250000
6342,-31.250000
6343,-27.343750
6344,-27.343750
6345,-27.343750
6346,-27.343750
6347,-27.343750
6348,-27.343750
6349,-23.437500
6350,-23.437500
6351,-23.437500
6352,-23.437500
6353,-23.437500
6354,-23.437500
6355,-23.437500
6356,-23.437500
6357,-23.437500
6358,-19.531250
6359,-19.531250
6360,-19.531250
6361,-19.531250
6362,-19.531250
6363,-19.531250
6364,-15.625000
6365,-15.625000
6366,-15.625000
6367,-15.625000
6368,-15.625000
6369,-15.625000
6370,-15.625000
6371,-11.718750
6372,-11.718750
6373,-11.718750
6374,-11.718750
6375,-11.718750
6376,-11.718750
6377,-11.718750
6378,-11.718750
6379,-7.812500
6380,-7.812500
6381,-7.812500
6382,-7.812500
6383,-7.812500
6384,-7.812500
6385,-7.812500
6386,-7.812500
6387,-7.812500
6388,-7.812500
6389,-3.906250
6390,-3.906250
6391,-3.906250
6392,-3.906250
6393,-3.906250
6394,-3.906250
6395,0.000000
6396,0.000000
6397,0.000000
6398,0.000000
6399,0.000000
6400,0.000000
6401,0.000000
6402,0.000000
6403,0.000000
6404,3.906250
6405,3.906250
6406,3.906250
6407,3.906250
6408,3.906250
6409,3.906250
6410,3.906250
6411,3.906250
6412,7.812500
6413,3.906250
6414,7.812500
6415,7.812500
6416,7.812500
6417,7.812500
6418,7.812500
6419,7.812500
6420,7.812500
6421,7.812500
6422,7.812500
6423,7.812500
6424,7.812500
6425,7.812500
6426,7.812500
6427,11.718750
6428,11.718750
6429,11.718750
6430,11.718750
6431,11.718750
6432,11.718750
6433,11.718750
6434,11.718750
6435,11.718750
6436,11.718750
6437,11.718750
6438,11.718750
6439,15.625000
6440,15.625000
6441,15.625000
6442,15.625000
6443,15.625000
6444,15.625000
6445,15.625000
6446,15.625000
6447,15.625000
6448,15.625000
6449,15.625000
6450,15.625000
6451,15.625000
6452,15.625000
6453,15.625000
6454,19.531250
6455,15.625000
6456,15.625000
6457,15.625000
6458,15.625000
6459,15.625000
6460,15.625000
6461,15.625000
6462,15.625000
6463,15.625000
6464,15.625000
6465,15.625000
6466,15.625000
6467,19.531250
6468,19.531250
6469,15.625000
6470,15.625000
6471,15.625000
6472,19.531250
6473,15.625000
6474,15.625000
6475,15.625000
6476,15.625000
6477,15.625000
6478,15.625000
6479,15.625000
6480,15.625000
6481,15.625000
6482,15.625000
6483,15.625000
6484,15.625000
6485,15.625000
6486,15.625000
6487,15.625000
6488,15.625000
6489,15.625000
6490,15.625000
6491,15.625000
6492,15.625000
6493,15.625000
6494,15.625000
6495,15.625000
6496,15.625000
6497,15.625000
6498,11.718750
6499,11.718750
6500,11.718750
6501,11.718750
6502,11.718750
6503,11.718750
6504,11.718750
6505,11.718750
6506,11.718750
6507,11.718750
6508,11.718750
6509,11.718750
6510,11.718750
6511,11.718750
6512,11.718750
6513,7.812500
6514,7.812500
6515,7.812500
6516,7.812500
6517,7.812500
6518,7.812500
6519,7.812500
6520,7.812500
6521,7.812500
6522,7.812500
6523,3.906250
6524,3.906250
6525,3.906250
6526,3.906250
6527,3.906250
6528,3.906250
6529,3.906250
6530,3.906250
6531,3.906250
6532,-3.906250
6533,0.000000
6534,0.000000
6535,0.000000
6536,0.000000
6537,0.000000
6538,0.000000
6539,-3.906250
6540,-3.906250
6541,-3.906250
6542,-3.906250
6543,-7.812500
6544,-3.906250
6545,-3.906250
6546,-7.812500
6547,-7.812500
6548,-7.812500
6549,-7.812500
6550,-7.812500
6551,-7.812500
6552,-7.812500
6553,-7.812500
6554,-11.718750
6555,-11.718750
6556,-11.718750
6557,-11.718750
6558,-11.718750
6559,-15.625000
6560,-15.625000
6561,-15.625000
6562,-15.625000
6563,-15.625000
6564,-15.625000
6565,-19.531250
6566,-19.531250
6567,-19.531250
6568,-19.531250
6569,-19.531250
6570,-19.531250
6571,-19.531250
6572,-19.531250
6573,-23.437500
6574,-23.437500
6575,-23.437500
6576,-23.437500
6577,-23.437500
6578,-23.437500
6579,-27.343750
6580,-27.343750
6581,-27.343750
6582,-27.343750
6583,-27.343750
6584,-27.343750
6585,-27.343750
6586,-31.250000
6587,-31.250000
6588,-31.250000
6589,-31.250000
6590,-31.250000
6591,-35.156250
6592,-31.250000
6593,-35.156250
6594,-35.156250
6595,-35.156250
6596,-35.156250
6597,-35.156250
6598,-35.156250
6599,-39.062500
6600,-39.062500
6601,-39.062500
6602,-39.062500
6603,-42.968750
6604,-39.062500
6605,-39.062500
6606,-42.968750
6607,-42.968750
6608,-42.968750
6609,-42.968750
6610,-42.968750
6611,-42.968750
6612,-42.968750
6613,-42.968750
6614,-46.875000
6615,-46.875000
6616,-46.875000
6617,-46.875000
6618,-46.875000
6619,-46.875000
6620,-46.875000
6621,-46.875000
6622,-50.781250
6623,-46.875000
6624,-50.781250
6625,-50.781250
6626,-50.781250
6627,-50.781250
6628,-50.781250
6629,-50.781250
6630,-50.781250
6631,-50.781250
6632,-50.781250
6633,-54.687500
6634,-54.687500
6635,-54.687500
6636,-54.687500
6637,-54.687500
6638,-50.781250
6639,-54.687500
6640,-54.687500
6641,-54.687500
6642,-54.687500
6643,-54.687500
6644,-54.687500
6645,-54.687500
6646,-54.687500
6647,-54.687500
6648,-54.687500
6649,-58.593750
6650,-54.687500
6651,-54.687500
6652,-58.593750
6653,-54.687500
6654,-58.593750
6655,-58.593750
6656,-58.593750
6657,-58.593750
6658,-58.593750
6659,-58.593750
6660,-58.593750
6661,-58.593750
6662,-58.593750
6663,-58.593750
6664,-58.593750
6665,-58.593750
6666,-58.593750
6667,-58.593750
6668,-58.593750
6669,-58.593750
6670,-58.593750
6671,-58.593750
6672,-58.593750
6673,-58.593750
6674,-58.593750
6675,-58.593750
6676,-58.593750
6677,-58.593750
6678,-58.593750
6679,-58.593750
6680,-58.593750
6681,-58.593750
6682,-58.593750
6683,-58.593750
6684,-58.593750
6685,-58.593750
6686,-54.687500
6687,-54.687500
6688,-54.687500
6689,-54.687500
6690,-54.687500
6691,-54.687500
6692,-54.687500
6693,-54.687500
6694,-54.687500
6695,-54.687500
6696,-54.687500
6697,-54.687500
6698,-54.687500
6699,-54.687500
6700,-54.687500
6701,-54.687500
6702,-50.781250
6703,-54.687500
6704,-50.781250
6705,-50.781250
6706,-50.781250
6707,-50.781250
6708,-50.781250
6709,-50.781250
6710,-50.781250
6711,-50.781250
6712,-50.781250
6713,-50.781250
6714,-46.875000
6715,-50.781250
6716,-46.875000
6717,-46.875000
6718,-46.875000
6719,-46.875000
6720,-46.875000
6721,-46.875000
6722,-46.875000
6723,-46.875000
6724,-46.875000
6725,-42.968750
6726,-42.968750
6727,-42.968750
6728,-42.968750
6729,-42.968750
6730,-42.968750
6731,-42.968750
6732,-42.968750
6733,-42.968750
6734,-39.062500
6735,-39.062500
6736,-39.062500
6737,-39.062500
6738,-39.062500
6739,-39.062500
6740,-39.062500
6741,-39.062500
6742,-39.062500
6743,-39.062500
6744,-35.156250
6745,-35.156250
6746,-35.156250
6747,-35.156250
6748,-35.156250
6749,-35.156250
6750,-35.156250
6751,-31.250000
6752,-31.250000
6753,-31.250000
6754,-31.250000
6755,-31.250000
6756,-31.250000
6757,-27.343750
6758,-27.343750
6759,-27.343750
6760,-27.343750
6761,-27.343750
6762,-27.343750
6763,-27.343750
6764,-27.343750
6765,-27.343750
6766,-27.343750
6767,-23.437500
6768,-27.343750
6769,-23.437500
6770,-23.437500
6771,-23.437500
6772,-19.531250
6773,-23.437500
6774,-19.531250
6775,-19.531250
6776,-19.531250
6777,-19.531250
6778,-19.531250
6779,-19.531250
6780,-15.625000
6781,-15.625000
6782,-15.625000
6783,-15.625000
6784,-15.625000
6785,-15.625000
6786,-15.625000
6787,-15.625000
6788,-11.718750
6789,-11.718750
6790,-11.718750
6791,-11.718750
6792,-11.718750
6793,-7.812500
6794,-11.718750
6795,-7.812500
6796,-7.812500
6797,-7.812500
6798,-7.812500
6799,-7.812500
6800,-7.812500
6801,-7.812500
6802,-3.906250
6803,-3.906250
6804,-3.906250
6805,-3.906250
6806,-3.906250
6807,-3.906250
6808,-3.906250
6809,-3.906250
6810,-3.906250
6811,0.000000
6812,0.000000
6813,-3.906250
6814,0.000000
6815,0.000000
6816,0.000000
6817,0.000000
6818,0.000000
6819,0.000000
6820,3.906250
6821,3.906250
6822,3.906250
6823,3.906250
6824,3.906250
6825,3.906250
6826,3.906250
6827,3.906250
6828,3.906250
6829,7.812500
6830,7.812500
6831,7.812500
6832,7.812500
6833,7.812500
6834,7.812500
6835,7.812500
6836,7.812500
6837,7.812500
6838,7.812500
6839,7.812500
6840,7.812500
6841,7.812500
6842,11.718750
6843,11.718750
6844,11.718750
6845,11.718750
6846,11.718750
6847,11.718750
6848,11.718750
6849,11.718750
6850,11.718750
6851,11.718750
6852,11.718750
6853,11.718750
6854,15.625000
6855,11.718750
6856,15.625000
6857,15.625000
6858,15.625000
6859,15.625000
6860,15.625000
6861,15.625000
6862,15.625000
6863,15.625000
6864,15.625000
6865,15.625000
6866,15.625000
6867,15.625000
6868,15.625000
6869,15.625000
6870,15.625000
6871,15.625000
6872,15.625000
6873,15.625000
6874,15.625000
6875,15.625000
6876,15.625000
6877,15.625000
6878,15.625000
6879,15.625000
6880,19.531250
6881,15.625000
6882,15.625000
6883,15.625000
6884,15.625000
6885,15.625000
6886,15.625000
6887,15.625000
6888,15.625000
6889,19.531250
6890,19.531250
6891,15.625000
6892,15.625000
6893,15.625000
6894,15.625000
6895,15.625000
6896,15.625000
6897,15.625000
6898,15.625000
6899,15.625000
6900,15.625000
6901,15.625000
6902,15.625000
6903,15.625000
6904,15.625000
6905,15.625000
6906,15.625000
6907,15.625000
6908,15.625000
6909,15.625000
6910,15.625000
6911,15.625000
6912,15.625000
6913,11.718750
6914,11.718750
6915,11.718750
6916,15.625000
6917,11.718750
6918,11.718750
6919,11.718750
6920,15.625000
6921,11.718750
6922,11.718750
6923,11.718750
6924,11.718750
6925,11.718750
6926,11.718750
6927,11.718750
6928,7.812500
6929,7.812500
6930,7.812500
6931,7.812500
6932,7.812500
6933,7.812500
6934,7.812500
6935,7.812500
6936,7.812500
6937,7.812500
6938,7.812500
6939,3.906250
6940,3.906250
6941,3.906250
6942,3.906250
6943,3.906250
6944,3.906250
6945,3.906250
6946,0.000000
6947,0.000000
6948,0.000000
6949,0.000000
6950,0.000000
6951,0.000000
6952,0.000000
6953,0.000000
6954,0.000000
6955,0.000000
6956,0.000000
6957,-3.906250
6958,-3.906250
6959,-3.906250
6960,-3.906250
6961,-3.906250
6962,-7.812500
6963,-3.906250
6964,-3.906250
6965,-7.812500
6966,-7.812500
6967,-7.812500
6968,-7.812500
6969,-7.812500
6970,-11.718750
6971,-11.718750
6972,-11.718750
6973,-11.718750
6974,-11.718750
6975,-11.718750
6976,-11.718750
6977,-15.625000
6978,-15.625000
6979,-15.625000
6980,-15.625000
6981,-15.625000
6982,-15.625000
6983,-15.625000
6984,-19.531250
6985,-19.531250
6986,-19.531250
6987,-19.531250
6988,-19.531250
6989,-19.531250
6990,-23.437500
6991,-23.437500
6992,-23.437500
6993,-23.437500
6994,-23.437500
6995,-23.437500
6996,-27.343750
6997,-27.343750
6998,-27.343750
6999,-27.343750
7000,-27.343750
7001,-27.343750
7002,-31.250000
7003,-31.250000
7004,-31.250000
7005,-31.250000
7006,-35.156250
7007,-31.250000
7008,-31.250000
7009,-31.250000
7010,-35.156250
7011,-35.156250
7012,-35.156250
7013,-35.156250
7014,-35.156250
7015,-39.062500
7016,-35.156250
7017,-39.062500
7018,-39.062500
7019,-39.062500
7020,-39.062500
7021,-39.062500
7022,-39.062500
7023,-39.062500
7024,-42.968750
7025,-42.968750
7026,-42.968750
7027,-42.968750
7028,-42.968750
7029,-42.968750
7030,-42.968750
7031,-42.968750
7032,-42.968750
7033,-46.875000
7034,-46.875000
7035,-46.875000
7036,-46.875000
7037,-46.875000
7038,-46.875000
7039,-46.875000
7040,-46.875000
7041,-50.781250
7042,-50.781250
7043,-50.781250
7044,-50.781250
7045,-50.781250
7046,-50.781250
7047,-50.781250
7048,-50.781250
7049,-50.781250
7050,-50.781250
7051,-50.781250
7052,-50.781250
7053,-54.687500
7054,-54.687500
7055,-54.687500
7056,-54.687500
7057,-54.687500
7058,-54.687500
7059,-54.687500
7060,-54.687500
7061,-54.687500
7062,-58.593750
7063,-54.687500
7064,-54.687500
7065,-54.687500
7066,-54.687500
7067,-54.687500
7068,-58.593750
7069,-54.687500
7070,-58.593750
7071,-58.593750
7072,-58.593750
7073,-58.593750
7074,-58.593750
7075,-58.593750
7076,-58.593750
7077,-58.593750
7078,-58.593750
7079,-58.593750
7080,-58.593750
7081,-58.593750
7082,-58.593750
7083,-58.593750
7084,-58.593750
7085,-58.593750
7086,-58.593750
7087,-58.593750
7088,-58.593750
7089,-58.593750
7090,-58.593750
7091,-58.593750
7092,-58.593750
7093,-58.593750
7094,-58.593750
7095,-58.593750
7096,-54.687500
7097,-58.593750
7098,-58.593750
7099,-54.687500
7100,-54.687500
7101,-58.593750
7102,-54.687500
7103,-54.687500
7104,-58.593750
7105,-54.687500
7106,-54.687500
7107,-54.687500
7108,-54.687500
7109,-54.687500
7110,-54.687500
7111,-54.687500
7112,-54.687500
7113,-54.687500
7114,-54.687500
7115,-54.687500
7116,-54.687500
7117,-54.687500
7118,-54.687500
7119,-54.687500
7120,-54.687500
7121,-54.687500
7122,-50.781250
7123,-50.781250
7124,-54.687500
7125,-50.781250
7126,-50.781250
7127,-50.781250
7128,-50.781250
7129,-50.781250
7130,-50.781250
7131,-50.781250
7132,-50.781250
7133,-50.781250
7134,-50.781250
7135,-50.781250
7136,-46.875000
7137,-46.875000
7138,-46.875000
7139,-46.875000
7140,-46.875000
7141,-46.875000
7142,-46.875000
7143,-42.968750
7144,-42.968750
7145,-42.968750
7146,-42.968750
7147,-42.968750
7148,-42.968750
7149,-42.968750
7150,-42.968750
7151,-42.968750
7152,-39.062500
7153,-39.062500
7154,-42.968750
7155,-39.062500
7156,-39.062500
7157,-39.062500
7158,-39.062500
7159,-39.062500
7160,-39.062500
7161,-35.156250
7162,-35.156250
7163,-39.062500
7164,-35.156250
7165,-35.156250
7166,-35.156250
7167,-31.250000
7168,-31.250000
7169,-31.250000
7170,-31.250000
7171,-31.250000
7172,-31.250000
7173,-31.250000
7174,-31.250000
7175,-31.250000
7176,-27.343750
7177,-27.343750
7178,-27.343750
7179,-27.343750
7180,-27.343750
7181,-27.343750
7182,-23.437500
7183,-27.343750
7184,-23.437500
7185,-23.437500
7186,-23.437500
7187,-23.437500
7188,-23.437500
7189,-19.531250
7190,-23.437500
7191,-19.531250
7192,-19.531250
7193,-19.531250
7194,-19.531250
7195,-19.531250
7196,-19.531250
7197,-19.531250
7198,-19.531250
7199,-15.625000
7200,-15.625000
7201,-15.625000
7202,-15.625000
7203,-11.718750
7204,-15.625000
7205,-15.625000
7206,-11.718750
7207,-11.718750
7208,-11.718750
7209,-11.718750
7210,-11.718750
7211,-11.718750
7212,-11.718750
7213,-7.812500
7214,-7.812500
7215,-7.812500
7216,-7.812500
7217,-7.812500
7218,-7.812500
7219,-7.812500
7220,-3.906250
7221,-3.906250
7222,-3.906250
7223,-3.906250
7224,-3.906250
7225,-3.906250
7226,-3.906250
7227,0.000000
7228,-3.906250
7229,0.000000
7230,0.000000
7231,0.000000
7232,0.000000
7233,0.000000
7234,0.000000
7235,0.000000
7236,3.906250
7237,0.000000
7238,3.906250
7239,3.906250
7240,3.906250
7241,3.906250
7242,3.906250
7243,3.906250
7244,3.906250
7245,3.906250
7246,3.906250
7247,3.906250
7248,7.812500
7249,7.812500
7250,7.812500
7251,7.812500
7252,7.812500
7253,7.812500
7254,7.812500
7255,7.812500
7256,7.812500
7257,7.812500
7258,11.718750
7259,11.718750
7260,11.718750
7261,11.718750
7262,11.718750
7263,11.718750
7264,11.718750
7265,11.718750
7266,11.718750
7267,11.718750
7268,11.718750
7269,11.718750
7270,11.718750
7271,11.718750
7272,11.718750
7273,15.625000
7274,11.718750
7275,11.718750
7276,15.625000
7277,15.625000
7278,15.625000
7279,15.625000
7280,15.625000
7281,15.625000
7282,15.625000
7283,15.625000
7284,15.625000
7285,15.625000
7286,15.625000
7287,15.625000
7288,15.625000
7289,15.625000
7290,19.531250
7291,15.625000
7292,19.531250
7293,15.625000
7294,15.625000
7295,19.531250
7296,15.625000
7297,15.625000
7298,15.625000
7299,15.625000
7300,19.531250
7301,15.625000
7302,15.625000
7303,15.625000
7304,19.531250
7305,19.531250
7306,15.625000
7307,15.625000
7308,15.625000
7309,15.625000
7310,19.531250
7311,19.531250
7312,19.531250
7313,15.625000
7314,15.625000
7315,15.625000
7316,15.625000
7317,15.625000
7318,15.625000
7319,15.625000
7320,15.625000
7321,15.625000
7322,15.625000
7323,15.625000
7324,15.625000
7325,15.625000
7326,15.625000
7327,15.625000
7328,15.625000
7329,15.625000
7330,15.625000
7331,15.625000
7332,15.625000
7333,15.625000
7334,11.718750
7335,11.718750
7336,11.718750
7337,11.718750
7338,11.718750
7339,11.718750
7340,11.718750
7341,11.718750
7342,11.718750
7343,11.718750
7344,11.718750
7345,11.718750
7346,7.812500
7347,7.812500
7348,11.718750
7349,7.812500
7350,7.812500
7351,7.812500
7352,7.812500
7353,7.812500
7354,7.812500
7355,7.812500
7356,3.906250
7357,3.906250
7358,0.000000
7359,3.906250
7360,3.906250
7361,3.906250
7362,3.906250
7363,3.906250
7364,0.000000
7365,3.906250
7366,0.000000
7367,0.000000
7368,0.000000
7369,0.000000
7370,0.000000
7371,0.000000
7372,-3.906250
7373,-3.906250
7374,-3.906250
7375,-3.906250
7376,-3.906250
7377,-3.906250
7378,-3.906250
7379,-3.906250
7380,-3.906250
7381,-7.812500
7382,-7.812500
7383,-7.812500
7384,-7.812500
7385,-7.812500
7386,-7.812500
7387,-11.718750
7388,-11.718750
7389,-11.718750
7390,-11.718750
7391,-11.718750
7392,-11.718750
7393,-11.718750
7394,-15.625000
7395,-15.625000
7396,-15.625000
7397,-15.625000
7398,-15.625000
7399,-19.531250
7400,-15.625000
7401,-19.531250
7402,-19.531250
7403,-19.531250
7404,-19.531250
7405,-19.531250
7406,-23.437500
7407,-19.531250
7408,-23.437500
7409,-23.437500
7410,-23.437500
7411,-23.437500
7412,-23.437500
7413,-27.343750
7414,-27.343750
7415,-27.343750
7416,-27.343750
7417,-27.343750
7418,-27.343750
7419,-27.343750
7420,-27.343750
7421,-31.250000
7422,-31.250000
7423,-31.250000
7424,-31.250000
7425,-31.250000
7426,-31.250000
7427,-35.156250
7428,-35.156250
7429,-35.156250
7430,-35.156250
7431,-35.156250
7432,-35.156250
7433,-35.156250
7434,-39.062500
7435,-39.062500
7436,-39.062500
7437,-39.062500
7438,-39.062500
7439,-39.062500
7440,-39.062500
7441,-42.968750
7442,-42.968750
7443,-42.968750
7444,-42.968750
7445,-42.968750
7446,-42.968750
7447,-42.968750
7448,-46.875000
7449,-46.875000
7450,-42.968750
7451,-46.875000
7452,-46.875000
7453,-46.875000
7454,-46.875000
7455,-46.875000
7456,-46.875000
7457,-46.875000
7458,-50.781250
7459,-50.781250
7460,-50.781250
7461,-50.781250
7462,-50.781250
7463,-50.781250
7464,-50.781250
7465,-50.781250
7466,-50.781250
7467,-50.781250
7468,-50.781250
7469,-50.781250
7470,-50.781250
7471,-54.687500
7472,-54.687500
7473,-54.687500
7474,-54.687500
7475,-54.687500
7476,-54.687500
7477,-54.687500
7478,-54.687500
7479,-54.687500
7480,-54.687500
7481,-54.687500
7482,-54.687500
7483,-54.687500
7484,-54.687500
7485,-54.687500
7486,-54.687500
7487,-54.687500
7488,-54.687500
7489,-58.593750
7490,-58.593750
7491,-58.593750
7492,-58.593750
7493,-58.593750
7494,-54.687500
7495,-58.593750
7496,-58.593750
7497,-58.593750
7498,-58.593750
7499,-58.593750
7500,-58.593750
7501,-58.593750
7502,-58.593750
7503,-58.593750
7504,-58.593750
7505,-58.593750
7506,-58.593750
7507,-58.593750
7508,-62.500000
7509,-58.593750
7510,-58.593750
7511,-58.593750
7512,-58.593750
7513,-58.593750
7514,-58.593750
7515,-58.593750
7516,-54.687500
7517,-58.593750
7518,-54.687500
7519,-54.687500
7520,-58.593750
7521,-58.593750
7522,-54.687500
7523,-54.687500
7524,-54.687500
7525,-50.781250
7526,-54.687500
7527,-54.687500
7528,-54.687500
7529,-54.687500
7530,-54.687500
7531,-54.687500
7532,-54.687500
7533,-54.687500
7534,-54.687500
7535,-54.687500
7536,-50.781250
7537,-50.781250
7538,-50.781250
7539,-50.781250
7540,-50.781250
7541,-50.781250
7542,-50.781250
7543,-50.781250
7544,-50.781250
7545,-46.875000
7546,-50.781250
7547,-50.781250
7548,-46.875000
7549,-46.875000
7550,-46.875000
7551,-46.875000
7552,-46.875000
7553,-46.875000
7554,-46.875000
7555,-46.875000
7556,-46.875000
7557,-42.968750
7558,-46.875000
7559,-42.968750
7560,-42.968750
7561,-42.968750
7562,-42.968750
7563,-42.968750
7564,-42.968750
7565,-42.968750
7566,-42.968750
7567,-39.062500
7568,-39.062500
7569,-39.062500
7570,-39.062500
7571,-39.062500
7572,-39.062500
7573,-39.062500
7574,-39.062500
7575,-35.156250
7576,-35.156250
7577,-35.156250
7578,-35.156250
7579,-35.156250
7580,-35.156250
7581,-35.156250
7582,-35.156250
7583,-35.156250
7584,-31.250000
7585,-31.250000
7586,-31.250000
7587,-31.250000
7588,-31.250000
7589,-31.250000
7590,-31.250000
7591,-31.250000
7592,-27.343750
7593,-27.343750
7594,-27.343750
7595,-27.343750
7596,-27.343750
7597,-27.343750
7598,-27.343750
7599,-23.437500
7600,-23.437500
7601,-23.437500
7602,-23.437500
7603,-23.437500
7604,-23.437500
7605,-23.437500
7606,-19.531250
7607,-19.531250
7608,-19.531250
7609,-19.531250
7610,-19.531250
7611,-19.531250
7612,-19.531250
7613,-15.625000
7614,-15.625000
7615,-15.625000
7616,-15.625000
7617,-15.625000
7618,-15.625000
7619,-15.625000
7620,-15.625000
7621,-15.625000
7622,-11.718750
7623,-11.718750
7624,-11.718750
7625,-11.718750
7626,-11.718750
7627,-11.718750
7628,-7.812500
7629,-7.812500
7630,-7.812500
7631,-7.812500
7632,-7.812500
7633,-7.812500
7634,-7.812500
7635,-7.812500
7636,-3.906250
7637,-3.906250
7638,-3.906250
7639,-3.906250
7640,-3.906250
7641,-3.906250
7642,-3.906250
7643,-3.906250
7644,0.000000
7645,0.000000
7646,0.000000
7647,0.000000
7648,0.000000
7649,0.000000
7650,0.000000
7651,0.000000
7652,0.000000
7653,3.906250
7654,3.906250
7655,3.906250
7656,3.906250
7657,3.906250
7658,3.906250
7659,3.906250
7660,3.906250
7661,3.906250
7662,7.812500
7663,7.812500
7664,7.812500
7665,7.812500
7666,7.812500
7667,7.812500
7668,7.812500
7669,7.812500
7670,7.812500
7671,7.812500
7672,11.718750
7673,7.812500
7674,11.718750
7675,11.718750
7676,11.718750
7677,11.718750
7678,11.718750
7679,11.718750
7680,11.718750
7681,11.718750
7682,11.718750
7683,11.718750
7684,15.625000
7685,11.718750
7686,15.625000
7687,15.625000
7688,15.625000
7689,15.625000
7690,15.625000
7691,15.625000
7692,15.625000
7693,15.625000
7694,15.625000
7695,15.625000
7696,15.625000
7697,15.625000
7698,15.625000
7699,15.625000
7700,15.625000
7701,15.625000
7702,15.625000
7703,15.625000
7704,19.531250
7705,19.531250
7706,15.625000
7707,15.625000
7708,19.531250
7709,15.625000
7710,15.625000
7711,19.531250
7712,19.531250
7713,15.625000
7714,19.531250
7715,15.625000
7716,19.531250
7717,15.625000
7718,19.531250
7719,15.625000
7720,15.625000
7721,19.531250
7722,19.531250
7723,15.625000
7724,19.531250
7725,15.625000
7726,19.531250
7727,19.531250
7728,15.625000
7729,15.625000
7730,15.625000
7731,15.625000
7732,15.625000
7733,15.625000
7734,15.625000
7735,19.531250
7736,15.625000
7737,15.625000
7738,15.625000
7739,15.625000
7740,15.625000
7741,19.531250
7742,11.718750
7743,15.625000
7744,15.625000
7745,15.625000
7746,11.718750
7747,15.625000
7748,11.718750
7749,15.625000
7750,15.625000
7751,11.718750
7752,11.718750
7753,11.718750
7754,11.718750
7755,11.718750
7756,11.718750
7757,11.718750
7758,11.718750
7759,11.718750
7760,11.718750
7761,11.718750
7762,11.718750
7763,11.718750
7764,7.812500
7765,7.812500
7766,7.812500
7767,7.812500
7768,7.812500
7769,7.812500
7770,7.812500
7771,7.812500
7772,3.906250
7773,3.906250
7774,3.906250
7775,3.906250
7776,3.906250
7777,3.906250
7778,0.000000
7779,3.906250
7780,3.906250
7781,0.000000
7782,0.000000
7783,0.000000
7784,0.000000
7785,0.000000
7786,0.000000
7787,0.000000
7788,-3.906250
7789,-3.906250
7790,-3.906250
7791,-3.906250
7792,-3.906250
7793,-3.906250
7794,-3.906250
7795,-3.906250
7796,-7.812500
7797,-7.812500
7798,-7.812500
7799,-7.812500
7800,-7.812500
7801,-7.812500
7802,-7.812500
7803,-11.718750
7804,-11.718750
7805,-11.718750
7806,-11.718750
7807,-11.718750
7808,-11.718750
7809,-11.718750
7810,-15.625000
7811,-15.625000
7812,-15.625000
7813,-15.625000
7814,-15.625000
7815,-15.625000
7816,-15.625000
7817,-19.531250
7818,-19.531250
7819,-19.531250
7820,-19.531250
7821,-19.531250
7822,-19.531250
7823,-19.531250
7824,-23.437500
7825,-23.437500
7826,-23.437500
7827,-23.437500
7828,-23.437500
7829,-23.437500
7830,-27.343750
7831,-27.343750
7832,-27.343750
7833,-27.343750
7834,-27.343750
7835,-27.343750
7836,-31.250000
7837,-31.250000
7838,-31.250000
7839,-31.250000
7840,-31.250000
7841,-35.156250
7842,-31.250000
7843,-31.250000
7844,-35.156250
7845,-35.156250
7846,-35.156250
7847,-35.156250
7848,-39.062500
7849,-39.062500
7850,-39.062500
7851,-39.062500
7852,-39.062500
7853,-39.062500
7854,-39.062500
7855,-39.062500
7856,-42.968750
7857,-39.062500
7858,-42.968750
7859,-42.968750
7860,-42.968750
7861,-42.968750
7862,-42.968750
7863,-42.968750
7864,-46.875000
7865,-42.968750
7866,-42.968750
7867,-46.875000
7868,-46.875000
7869,-46.875000
7870,-46.875000
7871,-46.875000
7872,-46.875000
7873,-46.875000
7874,-46.875000
7875,-46.875000
7876,-50.781250
7877,-50.781250
7878,-50.781250
7879,-50.781250
7880,-50.781250
7881,-50.781250
7882,-50.781250
7883,-50.781250
7884,-50.781250
7885,-50.781250
7886,-50.781250
7887,-54.687500
7888,-50.781250
7889,-54.687500
7890,-54.687500
7891,-54.687500
7892,-54.687500
7893,-54.687500
7894,-54.687500
7895,-54.687500
7896,-54.687500
7897,-54.687500
7898,-54.687500
7899,-54.687500
7900,-54.687500
7901,-58.593750
7902,-54.687500
7903,-58.593750
7904,-54.687500
7905,-58.593750
7906,-58.593750
7907,-58.593750
7908,-58.593750
7909,-58.593750
7910,-58.593750
7911,-58.593750
7912,-58.593750
7913,-58.593750
7914,-58.593750
7915,-58.593750
7916,-58.593750
7917,-58.593750
7918,-58.593750
7919,-58.593750
7920,-58.593750
7921,-58.593750
7922,-58.593750
7923,-58.593750
7924,-58.593750
7925,-58.593750
7926,-58.593750
7927,-58.593750
7928,-58.593750
7929,-58.593750
7930,-58.593750
7931,-54.687500
7932,-58.593750
7933,-58.593750
7934,-54.687500
7935,-54.687500
7936,-54.687500
7937,-54.687500
7938,-54.687500
7939,-54.687500
7940,-54.687500
7941,-54.687500
7942,-54.687500
7943,-54.687500
7944,-54.687500
7945,-54.687500
7946,-54.687500
7947,-54.687500
7948,-54.687500
7949,-54.687500
7950,-54.687500
7951,-54.687500
7952,-54.687500
7953,-50.781250
7954,-50.781250
7955,-50.781250
7956,-50.781250
7957,-50.781250
7958,-50.781250
7959,-50.781250
7960,-50.781250
7961,-50.781250
7962,-50.781250
7963,-50.781250
7964,-50.781250
7965,-50.781250
7966,-50.781250
7967,-46.875000
7968,-46.875000
7969,-46.875000
7970,-46.875000
7971,-46.875000
7972,-46.875000
7973,-46.875000
7974,-42.968750
7975,-46.875000
7976,-46.875000
7977,-42.968750
7978,-42.968750
7979,-42.968750
7980,-42.968750
7981,-42.968750
7982,-42.968750
7983,-42.968750
7984,-42.968750
7985,-39.062500
7986,-39.062500
7987,-39.062500
7988,-39.062500
7989,-39.062500
7990,-39.062500
7991,-39.062500
7992,-35.156250
7993,-39.062500
7994,-35.156250
7995,-35.156250
7996,-35.156250
7997,-35.156250
7998,-35.156250
7999,-35.156250
8000,-31.250000
8001,-35.156250
8002,-31.250000
8003,-31.250000
8004,-31.250000
8005,-31.250000
8006,-31.250000
8007,-31.250000
8008,-31.250000
8009,-27.343750
8010,-27.343750
8011,-27.343750
8012,-27.343750
8013,-27.343750
8014,-27.343750
8015,-27.343750
8016,-27.343750
8017,-23.437500
8018,-23.437500
8019,-23.437500
8020,-23.437500
8021,-23.437500
8022,-23.437500
8023,-23.437500
8024,-19.531250
8025,-19.531250
8026,-19.531250
8027,-19.531250
8028,-19.531250
8029,-19.531250
8030,-19.531250
8031,-19.531250
8032,-15.625000
8033,-15.625000
8034,-15.625000
8035,-15.625000
8036,-15.625000
8037,-15.625000
8038,-15.625000
8039,-15.625000
8040,-11.718750
8041,-11.718750
8042,-11.718750
8043,-7.812500
8044,-11.718750
8045,-11.718750
8046,-7.812500
8047,-7.812500
8048,-7.812500
8049,-7.812500
8050,-7.812500
8051,-7.812500
8052,-7.812500
8053,-7.812500
8054,-3.906250
8055,-3.906250
8056,-3.906250
8057,-3.906250
8058,-3.906250
8059,-3.906250
8060,-3.906250
8061,0.000000
8062,-3.906250
8063,0.000000
8064,0.000000
8065,0.000000
8066,0.000000
8067,0.000000
8068,0.000000
8069,0.000000
8070,3.906250
8071,3.906250
8072,3.906250
8073,3.906250
8074,3.906250
8075,3.906250
8076,3.906250
8077,3.906250
8078,3.906250
8079,3.906250
8080,7.812500
8081,7.812500
8082,7.812500
8083,7.812500
8084,7.812500
8085,7.812500
8086,7.812500
8087,7.812500
8088,7.812500
8089,7.812500
8090,7.812500
8091,7.812500
8092,7.812500
8093,11.718750
8094,11.718750
8095,11.718750
8096,11.718750
8097,11.718750
8098,11.718750
8099,11.718750
8100,11.718750
8101,11.718750
8102,11.718750
8103,11.718750
8104,11.718750
8105,15.625000
8106,15.625000
8107,15.625000
8108,15.625000
8109,15.625000
8110,15.625000
8111,15.625000
8112,15.625000
8113,15.625000
8114,15.625000
8115,15.625000
8116,15.625000
8117,15.625000
8118,15.625000
8119,15.625000
8120,15.625000
8121,15.625000
8122,15.625000
8123,15.625000
8124,15.625000
8125,15.625000
8126,15.625000
8127,15.625000
8128,15.625000
8129,15.625000
8130,15.625000
8131,15.625000
8132,19.531250
8133,15.625000
8134,15.625000
8135,19.531250
8136,15.625000
8137,15.625000
8138,15.625000
8139,15.625000
8140,15.625000
8141,19.531250
8142,15.625000
8143,15.625000
8144,15.625000
8145,15.625000
8146,15.625000
8147,15.625000
8148,15.625000
8149,15.625000
8150,15.625000
8151,15.625000
8152,15.625000
8153,15.625000
8154,15.625000
8155,15.625000
8156,15.625000
8157,15.625000
8158,15.625000
8159,15.625000
8160,15.625000
8161,15.625000
8162,15.625000
8163,15.625000
8164,15.625000
8165,11.718750
8166,11.718750
8167,11.718750
8168,11.718750
8169,11.718750
8170,11.718750
8171,11.718750
8172,11.718750
8173,11.718750
8174,11.718750
8175,11.718750
8176,7.812500
8177,11.718750
8178,11.718750
8179,7.812500
8180,11.718750
8181,7.812500
8182,7.812500
8183,7.812500
8184,7.812500
8185,7.812500
8186,7.812500
8187,7.812500
8188,7.812500
8189,7.812500
8190,7.812500
8191,3.906250
8192,3.906250
8193,3.906250
8194,3.906250
8195,3.906250
8196,3.906250
8197,3.906250
8198,3.906250
8199,0.000000
8200,0.000000
8201,0.000000
8202,0.000000
8203,0.000000
8204,0.000000
8205,0.000000
8206,-3.906250
8207,-3.906250
8208,-3.906250
8209,-3.906250
8210,-3.906250
8211,-3.906250
8212,-3.906250
8213,-3.906250
8214,-7.812500
8215,-7.812500
8216,-7.812500
8217,-7.812500
8218,-7.812500
8219,-7.812500
8220,-11.718750
8221,-7.812500
8222,-11.718750
8223,-11.718750
8224,-11.718750
8225,-11.718750
8226,-11.718750
8227,-11.718750
8228,-15.625000
8229,-15.625000
8230,-15.625000
8231,-15.625000
8232,-15.625000
8233,-15.625000
8234,-19.531250
8235,-19.531250
8236,-19.531250
8237,-19.531250
8238,-19.531250
8239,-19.531250
8240,-23.437500
8241,-23.437500
8242,-23.437500
8243,-23.437500
8244,-23.437500
8245,-23.437500
8246,-27.343750
8247,-27.343750
8248,-27.343750
8249,-27.343750
8250,-27.343750
8251,-27.343750
8252,-27.343750
8253,-31.250000
8254,-31.250000
8255,-31.250000
8256,-35.156250
8257,-31.250000
8258,-31.250000
8259,-31.250000
8260,-35.156250
8261,-35.156250
8262,-35.156250
8263,-35.156250
8264,-35.156250
8265,-35.156250
8266,-39.062500
8267,-35.156250
8268,-39.062500
8269,-39.062500
8270,-39.062500
8271,-39.062500
8272,-39.062500
8273,-39.062500
8274,-39.062500
8275,-42.968750
8276,-42.968750
8277,-42.968750
8278,-42.968750
8279,-42.968750
8280,-42.968750
8281,-46.875000
8282,-46.875000
8283,-42.968750
8284,-46.875000
8285,-46.875000
8286,-46.875000
8287,-46.875000
8288,-46.875000
8289,-46.875000
8290,-46.875000
8291,-50.781250
8292,-50.781250
8293,-50.781250
8294,-50.781250
8295,-50.781250
8296,-50.781250
8297,-50.781250
8298,-50.781250
8299,-50.781250
8300,-50.781250
8301,-50.781250
8302,-50.781250
8303,-54.687500
8304,-50.781250
8305,-54.687500
8306,-54.687500
8307,-54.687500
8308,-54.687500
8309,-54.687500
8310,-54.687500
8311,-54.687500
8312,-54.687500
8313,-54.687500
8314,-54.687500
8315,-54.687500
8316,-54.687500
8317,-54.687500
8318,-54.687500
8319,-54.687500
8320,-58.593750
8321,-54.687500
8322,-54.687500
8323,-58.593750
8324,-58.593750
8325,-58.593750
8326,-58.593750
8327,-58.593750
8328,-58.593750
8329,-58.593750
8330,-58.593750
8331,-58.593750
8332,-58.593750
8333,-58.593750
8334,-58.593750
8335,-58.593750
8336,-58.593750
8337,-58.593750
8338,-58.593750
8339,-58.593750
8340,-58.593750
8341,-58.593750
8342,-58.593750
8343,-58.593750
8344,-58.593750
8345,-58.593750
8346,-58.593750
8347,-58.593750
8348,-58.593750
8349,-58.593750
8350,-58.593750
8351,-58.593750
8352,-58.593750
8353,-58.593750
8354,-58.593750
8355,-54.687500
8356,-58.593750
8357,-54.687500
8358,-54.687500
8359,-54.687500
8360,-54.687500
8361,-54.687500
8362,-54.687500
8363,-54.687500
8364,-54.687500
8365,-54.687500
8366,-54.687500
8367,-54.687500
8368,-54.687500
8369,-54.687500
8370,-54.687500
8371,-54.687500
8372,-50.781250
8373,-50.781250
8374,-50.781250
8375,-50.781250
8376,-50.781250
8377,-50.781250
8378,-50.781250
8379,-50.781250
8380,-50.781250
8381,-50.781250
8382,-50.781250
8383,-46.875000
8384,-46.875000
8385,-46.875000
8386,-46.875000
8387,-46.875000
8388,-46.875000
8389,-46.875000
8390,-46.875000
8391,-46.875000
8392,-42.968750
8393,-46.875000
8394,-42.968750
8395,-42.968750
8396,-42.968750
8397,-42.968750
8398,-42.968750
8399,-42.968750
8400,-42.968750
8401,-42.968750
8402,-39.062500
8403,-39.062500
8404,-39.062500
8405,-39.062500
8406,-39.062500
8407,-39.062500
8408,-39.062500
8409,-39.062500
8410,-39.062500
8411,-35.156250
8412,-35.156250
8413,-35.156250
8414,-35.156250
8415,-35.156250
8416,-35.156250
8417,-35.156250
8418,-35.156250
8419,-31.250000
8420,-31.250000
8421,-31.250000
8422,-31.250000
8423,-31.250000
8424,-31.250000
8425,-27.343750
8426,-27.343750
8427,-27.343750
8428,-27.343750
8429,-27.343750
8430,-27.343750
8431,-27.343750
8432,-27.343750
8433,-27.343750
8434,-23.437500
8435,-23.437500
8436,-23.437500
8437,-23.437500
8438,-23.437500
8439,-23.437500
8440,-23.437500
8441,-19.531250
8442,-19.531250
8443,-19.531250
8444,-19.531250
8445,-19.531250
8446,-19.531250
8447,-15.625000
8448,-15.625000
8449,-15.625000
8450,-15.625000
8451,-15.625000
8452,-15.625000
8453,-15.625000
8454,-15.625000
8455,-11.718750
8456,-11.718750
8457,-11.718750
8458,-11.718750
8459,-11.718750
8460,-11.718750
8461,-11.718750
8462,-11.718750
8463,-7.812500
8464,-7.812500
8465,-7.812500
8466,-7.812500
8467,-7.812500
8468,-7.812500
8469,-7.812500
8470,-3.906250
8471,-3.906250
8472,-3.906250
8473,-3.906250
8474,-3.906250
8475,-3.906250
8476,-3.906250
8477,-3.906250
8478,-3.906250
8479,0.000000
8480,0.000000
8481,0.000000
8482,-3.906250
8483,0.000000
8484,0.000000
8485,0.000000
8486,0.000000
8487,3.906250
8488,3.906250
8489,3.906250
8490,3.906250
8491,3.906250
8492,3.906250
8493,3.906250
8494,3.906250
8495,3.906250
8496,7.812500
8497,7.812500
8498,7.812500
8499,7.812500
8500,7.812500
8501,7.812500
8502,7.812500
8503,7.812500
8504,7.812500
8505,7.812500
8506,7.812500
8507,11.718750
8508,11.718750
8509,11.718750
8510,11.718750
8511,11.718750
8512,15.625000
8513,11.718750
8514,11.718750
8515,11.718750
8516,11.718750
8517,11.718750
8518,11.718750
8519,15.625000
8520,15.625000
8521,11.718750
8522,15.625000
8523,15.625000
8524,15.625000
8525,11.718750
8526,15.625000
8527,15.625000
8528,15.625000
8529,15.625000
8530,15.625000
8531,15.625000
8532,15.625000
8533,15.625000
8534,15.625000
8535,15.625000
8536,15.625000
8537,15.625000
8538,15.625000
8539,15.625000
8540,15.625000
8541,19.531250
8542,15.625000
8543,15.625000
8544,19.531250
8545,19.531250
8546,19.531250
8547,15.625000
8548,19.531250
8549,15.625000
8550,15.625000
8551,19.531250
8552,15.625000
8553,19.531250
8554,19.531250
8555,15.625000
8556,19.531250
8557,19.531250
8558,15.625000
8559,15.625000
8560,19.531250
8561,19.531250
8562,15.625000
8563,19.531250
8564,15.625000
8565,15.625000
8566,19.531250
8567,15.625000
8568,15.625000
8569,15.625000
8570,15.625000
8571,15.625000
8572,15.625000
8573,15.625000
8574,15.625000
8575,15.625000
8576,15.625000
8577,15.625000
8578,15.625000
8579,15.625000
8580,15.625000
8581,15.625000
8582,15.625000
8583,15.625000
8584,11.718750
8585,11.718750
8586,15.625000
8587,11.718750
8588,11.718750
8589,11.718750
8590,11.718750
8591,11.718750
8592,11.718750
8593,11.718750
8594,11.718750
8595,11.718750
8596,11.718750
8597,7.812500
8598,7.812500
8599,11.718750
8600,7.812500
8601,7.812500
8602,7.812500
8603,7.812500
8604,7.812500
8605,7.812500
8606,3.906250
8607,3.906250
8608,3.906250
8609,3.906250
8610,3.906250
8611,-3.906250
8612,3.906250
8613,3.906250
8614,3.906250
8615,0.000000
8616,0.000000
8617,0.000000
8618,0.000000
8619,0.000000
8620,0.000000
8621,0.000000
8622,0.000000
8623,-3.906250
8624,-3.906250
8625,-3.906250
8626,-3.906250
8627,-3.906250
8628,-3.906250
8629,-3.906250
8630,-7.812500
8631,-7.812500
8632,-3.906250
8633,-7.812500
8634,-7.812500
8635,-7.812500
8636,-7.812500
8637,-11.718750
8638,-11.718750
8639,-11.718750
8640,-11.718750
8641,-11.718750
8642,-11.718750
8643,-11.718750
8644,-15.625000
8645,-15.625000
8646,-15.625000
8647,-15.625000
8648,-15.625000
8649,-15.625000
8650,-19.531250
8651,-19.531250
8652,-19.531250
8653,-19.531250
8654,-19.531250
8655,-23.437500
8656,-23.437500
8657,-23.437500
8658,-27.343750
8659,-23.437500
8660,-23.437500
8661,-23.437500
8662,-23.437500
8663,-27.343750
8664,-27.343750
8665,-27.343750
8666,-31.250000
8667,-27.343750
8668,-27.343750
8669,-31.250000
8670,-27.343750
8671,-31.250000
8672,-31.250000
8673,-31.250000
8674,-31.250000
8675,-31.250000
8676,-35.156250
8677,-35.156250
8678,-35.156250
8679,-35.156250
8680,-35.156250
8681,-35.156250
8682,-39.062500
8683,-39.062500
8684,-39.062500
8685,-39.062500
8686,-39.062500
8687,-39.062500
8688,-39.062500
8689,-39.062500
8690,-39.062500
8691,-42.968750
8692,-42.968750
8693,-42.968750
8694,-42.968750
8695,-42.968750
8696,-42.968750
8697,-42.968750
8698,-46.875000
8699,-46.875000
8700,-46.875000
8701,-46.875000
8702,-46.875000
8703,-46.875000
8704,-46.875000
8705,-46.875000
8706,-46.875000
8707,-50.781250
8708,-46.875000
8709,-50.781250
8710,-46.875000
8711,-50.781250
8712,-50.781250
8713,-50.781250
8714,-50.781250
8715,-50.781250
8716,-50.781250
8717,-50.781250
8718,-50.781250
8719,-50.781250
8720,-50.781250
8721,-54.687500
8722,-54.687500
8723,-54.687500
8724,-54.687500
8725,-54.687500
8726,-54.687500
8727,-54.687500
8728,-54.687500
8729,-54.687500
8730,-54.687500
8731,-54.687500
8732,-54.687500
8733,-54.687500
8734,-54.687500
8735,-54.687500
8736,-54.687500
8737,-58.593750
8738,-58.593750
8739,-58.593750
8740,-58.593750
8741,-58.593750
8742,-58.593750
8743,-58.593750
8744,-58.593750
8745,-58.593750
8746,-58.593750
8747,-58.593750
8748,-58.593750
8749,-58.593750
8750,-58.593750
8751,-58.593750
8752,-58.593750
8753,-58.593750
8754,-58.593750
8755,-58.593750
8756,-58.593750
8757,-58.593750
8758,-58.593750
8759,-58.593750
8760,-58.593750
8761,-54.687500
8762,-58.593750
8763,-58.593750
8764,-58.593750
8765,-58.593750
8766,-58.593750
8767,-58.593750
8768,-54.687500
8769,-54.687500
8770,-54.687500
8771,-54.687500
8772,-54.687500
8773,-54.687500
8774,-54.687500
8775,-54.687500
8776,-54.687500
8777,-54.687500
8778,-54.687500
8779,-54.687500
8780,-54.687500
8781,-54.687500
8782,-54.687500
8783,-50.781250
8784,-54.687500
8785,-50.781250
8786,-50.781250
8787,-50.781250
8788,-50.781250
8789,-50.781250
8790,-50.781250
8791,-50.781250
8792,-50.781250
8793,-50.781250
8794,-50.781250
8795,-50.781250
8796,-50.781250
8797,-46.875000
8798,-46.875000
8799,-46.875000
8800,-46.875000
8801,-46.875000
8802,-46.875000
8803,-46.875000
8804,-46.875000
8805,-46.875000
8806,-46.875000
8807,-46.875000
8808,-42.968750
8809,-42.968750
8810,-42.968750
8811,-42.968750
8812,-42.968750
8813,-42.968750
8814,-42.968750
8815,-42.968750
8816,-42.968750
8817,-39.062500
8818,-42.968750
8819,-39.062500
8820,-39.062500
8821,-39.062500
8822,-39.062500
8823,-39.062500
8824,-39.062500
8825,-39.062500
8826,-39.062500
8827,-35.156250
8828,-35.156250
8829,-39.062500
8830,-35.156250
8831,-35.156250
8832,-35.156250
8833,-31.250000
8834,-35.156250
8835,-31.250000
8836,-31.250000
8837,-31.250000
8838,-31.250000
8839,-31.250000
8840,-31.250000
8841,-27.343750
8842,-27.343750
8843,-27.343750
8844,-27.343750
8845,-27.343750
8846,-27.343750
8847,-27.343750
8848,-23.437500
8849,-23.437500
8850,-23.437500
8851,-23.437500
8852,-23.437500
8853,-23.437500
8854,-23.437500
8855,-19.531250
8856,-19.531250
8857,-19.531250
8858,-19.531250
8859,-19.531250
8860,-19.531250
8861,-19.531250
8862,-19.531250
8863,-19.531250
8864,-15.625000
8865,-15.625000
8866,-15.625000
8867,-15.625000
8868,-15.625000
8869,-15.625000
8870,-15.625000
8871,-15.625000
8872,-11.718750
8873,-11.718750
8874,-11.718750
8875,-11.718750
8876,-11.718750
8877,-11.718750
8878,-11.718750
8879,-7.812500
8880,-7.812500
8881,-7.812500
8882,-7.812500
8883,-7.812500
8884,-7.812500
8885,-7.812500
8886,-7.812500
8887,-3.906250
8888,-3.906250
8889,-3.906250
8890,-3.906250
8891,-3.906250
8892,-3.906250
8893,0.000000
8894,-3.906250
8895,0.000000
8896,0.000000
8897,0.000000
8898,0.000000
8899,0.000000
8900,0.000000
8901,0.000000
8902,0.000000
8903,3.906250
8904,3.906250
8905,3.906250
8906,3.906250
8907,3.906250
8908,3.906250
8909,3.906250
8910,3.906250
8911,3.906250
8912,7.812500
8913,3.906250
8914,7.812500
8915,7.812500
8916,7.812500
8917,7.812500
8918,7.812500
8919,7.812500
8920,7.812500
8921,7.812500
8922,7.812500
8923,7.812500
8924,7.812500
8925,11.718750
8926,11.718750
8927,11.718750
8928,11.718750
8929,11.718750
8930,11.718750
8931,11.718750
8932,11.718750
8933,11.718750
8934,11.718750
8935,11.718750
8936,11.718750
8937,11.718750
8938,15.625000
8939,15.625000
8940,15.625000
8941,15.625000
8942,15.625000
8943,15.625000
8944,15.625000
8945,15.625000
8946,15.625000
8947,15.625000
8948,15.625000
8949,15.625000
8950,15.625000
8951,15.625000
8952,15.625000
8953,15.625000
8954,15.625000
8955,15.625000
8956,15.625000
8957,15.625000
8958,15.625000
8959,19.531250
8960,15.625000
8961,15.625000
8962,19.531250
8963,15.625000
8964,19.531250
8965,19.531250
8966,19.531250
8967,19.531250
8968,19.531250
8969,19.531250
8970,19.531250
8971,15.625000
8972,19.531250
8973,15.625000
8974,15.625000
8975,19.531250
8976,19.531250
8977,19.531250
8978,15.625000
8979,15.625000
8980,15.625000
8981,15.625000
8982,15.625000
8983,15.625000
8984,15.625000
8985,15.625000
8986,15.625000
8987,15.625000
8988,15.625000
8989,15.625000
8990,15.625000
8991,15.625000
8992,15.625000
8993,15.625000
8994,15.625000
8995,15.625000
8996,15.625000
8997,15.625000
8998,15.625000
8999,15.625000
9000,11.718750
9001,11.718750
9002,11.718750
9003,11.718750
9004,11.718750
9005,11.718750
9006,11.718750
9007,11.718750
9008,11.718750
9009,11.718750
9010,11.718750
9011,11.718750
9012,11.718750
9013,11.718750
9014,7.812500
9015,7.812500
9016,7.812500
9017,7.812500
9018,7.812500
9019,7.812500
9020,7.812500
9021,7.812500
9022,7.812500
9023,7.812500
9024,3.906250
9025,3.906250
9026,3.906250
9027,3.906250
9028,3.906250
9029,3.906250
9030,3.906250
9031,3.906250
9032,0.000000
9033,3.906250
9034,0.000000
9035,0.000000
9036,0.000000
9037,0.000000
9038,0.000000
9039,0.000000
9040,0.000000
9041,-3.906250
9042,-3.906250
9043,-3.906250
9044,-3.906250
9045,-3.906250
9046,-3.906250
9047,-3.906250
9048,-7.812500
9049,-7.812500
9050,-7.812500
9051,-7.812500
9052,-7.812500
9053,-7.812500
9054,-11.718750
9055,-11.718750
9056,-11.718750
9057,-11.718750
9058,-11.718750
9059,-11.718750
9060,-11.718750
9061,-11.718750
9062,-15.625000
9063,-15.625000
9064,-15.625000
9065,-15.625000
9066,-15.625000
9067,-15.625000
9068,-19.531250
9069,-19.531250
9070,-19.531250
9071,-19.531250
9072,-23.437500
9073,-23.437500
9074,-23.437500
9075,-23.437500
9076,-23.437500
9077,-23.437500
9078,-23.437500
9079,-23.437500
9080,-27.343750
9081,-27.343750
9082,-27.343750
9083,-27.343750
9084,-27.343750
9085,-27.343750
9086,-31.250000
9087,-31.250000
9088,-31.250000
9089,-31.250000
9090,-31.250000
9091,-31.250000
9092,-31.250000
9093,-31.250000
9094,-35.156250
9095,-35.156250
9096,-35.156250
9097,-35.156250
9098,-35.156250
9099,-35.156250
9100,-35.156250
9101,-39.062500
9102,-39.062500
9103,-39.062500
9104,-39.062500
9105,-39.062500
9106,-39.062500
9107,-39.062500
9108,-39.062500
9109,-42.968750
9110,-42.968750
9111,-42.968750
9112,-42.968750
9113,-42.968750
9114,-42.968750
9115,-42.968750
9116,-46.875000
9117,-46.875000
9118,-46.875000
9119,-46.875000
9120,-46.875000
9121,-46.875000
9122,-46.875000
9123,-50.781250
9124,-46.875000
9125,-46.875000
9126,-46.875000
9127,-50.781250
9128,-50.781250
9129,-50.781250
9130,-50.781250
9131,-50.781250
9132,-50.781250
9133,-50.781250
9134,-54.687500
9135,-50.781250
9136,-54.687500
9137,-54.687500
9138,-54.687500
9139,-54.687500
9140,-54.687500
9141,-54.687500
9142,-54.687500
9143,-54.687500
9144,-54.687500
9145,-54.687500
9146,-54.687500
9147,-54.687500
9148,-54.687500
9149,-54.687500
9150,-54.687500
9151,-54.687500
9152,-54.687500
9153,-54.687500
9154,-58.593750
9155,-58.593750
9156,-58.593750
9157,-58.593750
9158,-58.593750
9159,-58.593750
9160,-58.593750
9161,-58.593750
9162,-58.593750
9163,-58.593750
9164,-58.593750
9165,-58.593750
9166,-58.593750
9167,-54.687500
9168,-58.593750
9169,-58.593750
9170,-58.593750
9171,-58.593750
9172,-58.593750
9173,-58.593750
9174,-58.593750
9175,-58.593750
9176,-58.593750
9177,-58.593750
9178,-58.593750
9179,-58.593750
9180,-58.593750
9181,-58.593750
9182,-58.593750
9183,-58.593750
9184,-58.593750
9185,-54.687500
9186,-54.687500
9187,-54.687500
9188,-54.687500
9189,-54.687500
9190,-54.687500
9191,-54.687500
9192,-54.687500
9193,-54.687500
9194,-54.687500
9195,-54.687500
9196,-54.687500
9197,-54.687500
9198,-54.687500
9199,-54.687500
9200,-54.687500
9201,-54.687500
9202,-54.687500
9203,-50.781250
9204,-54.687500
9205,-50.781250
9206,-50.781250
9207,-50.781250
9208,-50.781250
9209,-50.781250
9210,-50.781250
9211,-50.781250
9212,-50.781250
9213,-50.781250
9214,-50.781250
9215,-46.875000
9216,-46.875000
9217,-46.875000
9218,-46.875000
9219,-46.875000
9220,-46.875000
9221,-46.875000
9222,-46.875000
9223,-46.875000
9224,-42.968750
9225,-46.875000
9226,-46.875000
9227,-42.968750
9228,-42.968750
9229,-42.968750
9230,-42.968750
9231,-42.968750
9232,-42.968750
9233,-42.968750
9234,-42.968750
9235,-39.062500
9236,-39.062500
9237,-39.062500
9238,-35.156250
9239,-39.062500
9240,-39.062500
9241,-39.062500
9242,-39.062500
9243,-35.156250
9244,-35.156250
9245,-35.156250
9246,-35.156250
9247,-35.156250
9248,-35.156250
9249,-35.156250
9250,-35.156250
9251,-35.156250
9252,-31.250000
9253,-31.250000
9254,-31.250000
9255,-31.250000
9256,-31.250000
9257,-31.250000
9258,-31.250000
9259,-31.250000
9260,-27.343750
9261,-27.343750
9262,-27.343750
9263,-27.343750
9264,-27.343750
9265,-27.343750
9266,-27.343750
9267,-23.437500
9268,-23.437500
9269,-23.437500
9270,-23.437500
9271,-23.437500
9272,-23.437500
9273,-23.437500
9274,-19.531250
9275,-19.531250
9276,-23.437500
9277,-19.531250
9278,-19.531250
9279,-19.531250
9280,-19.531250
9281,-15.625000
9282,-19.531250
9283,-15.625000
9284,-15.625000
9285,-15.625000
9286,-15.625000
9287,-15.625000
9288,-15.625000
9289,-11.718750
9290,-11.718750
9291,-11.718750
9292,-11.718750
9293,-11.718750
9294,-11.718750
9295,-7.812500
9296,-7.812500
9297,-7.812500
9298,-7.812500
9299,-7.812500
9300,-7.812500
9301,-7.812500
9302,-7.812500
9303,-7.812500
9304,-7.812500
9305,-3.906250
9306,-3.906250
9307,-3.906250
9308,-3.906250
9309,-3.906250
9310,-3.906250
9311,0.000000
9312,0.000000
9313,0.000000
9314,0.000000
9315,0.000000
9316,0.000000
9317,3.906250
9318,0.000000
9319,0.000000
9320,3.906250
9321,3.906250
9322,0.000000
9323,3.906250
9324,3.906250
9325,3.906250
9326,3.906250
9327,3.906250
9328,3.906250
9329,3.906250
9330,3.906250
9331,7.812500
9332,7.812500
9333,7.812500
9334,7.812500
9335,7.812500
9336,7.812500
9337,7.812500
9338,7.812500
9339,7.812500
9340,7.812500
9341,11.718750
9342,11.718750
9343,11.718750
9344,11.718750
9345,11.718750
9346,11.718750
9347,11.718750
9348,11.718750
9349,11.718750
9350,11.718750
9351,11.718750
9352,11.718750
9353,11.718750
9354,11.718750
9355,15.625000
9356,11.718750
9357,15.625000
9358,15.625000
9359,15.625000
9360,15.625000
9361,15.625000
9362,15.625000
9363,15.625000
9364,15.625000
9365,15.625000
9366,15.625000
9367,15.625000
9368,15.625000
9369,15.625000
9370,15.625000
9371,15.625000
9372,15.625000
9373,15.625000
9374,15.625000
9375,15.625000
9376,15.625000
9377,15.625000
9378,15.625000
9379,15.625000
9380,15.625000
9381,15.625000
9382,15.625000
9383,15.625000
9384,15.625000
9385,15.625000
9386,15.625000
9387,15.625000
9388,15.625000
9389,15.625000
9390,15.625000
9391,15.625000
9392,15.625000
9393,15.625000
9394,15.625000
9395,15.625000
9396,15.625000
9397,15.625000
9398,15.625000
9399,15.625000
9400,15.625000
9401,15.625000
9402,15.625000
9403,15.625000
9404,15.625000
9405,15.625000
9406,15.625000
9407,15.625000
9408,15.625000
9409,15.625000
9410,15.625000
9411,15.625000
9412,15.625000
9413,15.625000
9414,15.625000
9415,11.718750
9416,15.625000
9417,11.718750
9418,11.718750
9419,15.625000
9420,11.718750
9421,11.718750
9422,11.718750
9423,11.718750
9424,11.718750
9425,11.718750
9426,11.718750
9427,11.718750
9428,11.718750
9429,11.718750
9430,7.812500
9431,11.718750
9432,7.812500
9433,7.812500
9434,7.812500
9435,7.812500
9436,7.812500
9437,3.906250
9438,7.812500
9439,7.812500
9440,3.906250
9441,3.906250
9442,3.906250
9443,3.906250
9444,3.906250
9445,3.906250
9446,3.906250
9447,3.906250
9448,3.906250
9449,0.000000
9450,0.000000
9451,0.000000
9452,0.000000
9453,0.000000
9454,0.000000
9455,0.000000
9456,0.000000
9457,-3.906250
9458,-3.906250
9459,-3.906250
9460,-3.906250
9461,-3.906250
9462,-3.906250
9463,-7.812500
9464,-7.812500
9465,-7.812500
9466,-7.812500
9467,-7.812500
9468,-7.812500
9469,-7.812500
9470,-7.812500
9471,-11.718750
9472,-11.718750
9473,-11.718750
9474,-11.718750
9475,-11.718750
9476,-11.718750
9477,-11.718750
9478,-15.625000
9479,-15.625000
9480,-15.625000
9481,-15.625000
9482,-15.625000
9483,-19.531250
9484,-19.531250
9485,-19.531250
9486,-19.531250
9487,-19.531250
9488,-19.531250
9489,-19.531250
9490,-23.437500
9491,-23.437500
9492,-23.437500
9493,-23.437500
9494,-23.437500
9495,-23.437500
9496,-27.343750
9497,-27.343750
9498,-27.343750
9499,-27.343750
9500,-27.343750
9501,-31.250000
9502,-27.343750
9503,-31.250000
9504,-31.250000
9505,-31.250000
9506,-31.250000
9507,-31.250000
9508,-35.156250
9509,-31.250000
9510,-35.156250
9511,-35.156250
9512,-35.156250
9513,-35.156250
9514,-35.156250
9515,-35.156250
9516,-39.062500
9517,-39.062500
9518,-39.062500
9519,-39.062500
9520,-39.062500
9521,-39.062500
9522,-39.062500
9523,-39.062500
9524,-42.968750
9525,-42.968750
9526,-42.968750
9527,-42.968750
9528,-42.968750
9529,-42.968750
9530,-46.875000
9531,-46.875000
9532,-46.875000
9533,-46.875000
9534,-46.875000
9535,-46.875000
9536,-46.875000
9537,-46.875000
9538,-46.875000
9539,-50.781250
9540,-46.875000
9541,-50.781250
9542,-50.781250
9543,-50.781250
9544,-50.781250
9545,-50.781250
9546,-50.781250
9547,-50.781250
9548,-50.781250
9549,-50.781250
9550,-50.781250
9551,-54.687500
9552,-50.781250
9553,-54.687500
9554,-54.687500
9555,-54.687500
9556,-54.687500
9557,-54.687500
9558,-54.687500
9559,-54.687500
9560,-54.687500
9561,-54.687500
9562,-54.687500
9563,-54.687500
9564,-54.687500
9565,-58.593750
9566,-54.687500
9567,-54.687500
9568,-58.593750
9569,-54.687500
9570,-58.593750
9571,-58.593750
9572,-58.593750
9573,-58.593750
9574,-58.593750
9575,-58.593750
9576,-58.593750
9577,-58.593750
9578,-58.593750
9579,-58.593750
9580,-58.593750
9581,-58.593750
9582,-58.593750
9583,-58.593750
9584,-58.593750
9585,-58.593750
9586,-58.593750
9587,-58.593750
9588,-58.593750
9589,-58.593750
9590,-58.593750
9591,-58.593750
9592,-58.593750
9593,-58.593750
9594,-58.593750
9595,-58.593750
9596,-58.593750
9597,-58.593750
9598,-58.593750
9599,-58.593750
9600,-54.687500
9601,-58.593750
9602,-58.593750
9603,-58.593750
9604,-54.687500
9605,-54.687500
9606,-58.593750
9607,-54.687500
9608,-54.687500
9609,-54.687500
9610,-54.687500
9611,-54.687500
9612,-54.687500
9613,-54.687500
9614,-54.687500
9615,-54.687500
9616,-54.687500
9617,-54.687500
9618,-54.687500
9619,-54.687500
9620,-50.781250
9621,-54.687500
9622,-50.781250
9623,-50.781250
9624,-50.781250
9625,-50.781250
9626,-50.781250
9627,-50.781250
9628,-50.781250
9629,-50.781250
9630,-50.781250
9631,-50.781250
9632,-46.875000
9633,-46.875000
9634,-46.875000
9635,-46.875000
9636,-46.875000
9637,-46.875000
9638,-46.875000
9639,-46.875000
9640,-46.875000
9641,-46.875000
9642,-42.968750
9643,-42.968750
9644,-42.968750
9645,-42.968750
9646,-42.968750
9647,-42.968750
9648,-42.968750
9649,-42.968750
9650,-42.968750
9651,-39.062500
9652,-39.062500
9653,-39.062500
9654,-39.062500
9655,-39.062500
9656,-39.062500
9657,-39.062500
9658,-39.062500
9659,-39.062500
9660,-39.062500
9661,-35.156250
9662,-35.156250
9663,-35.156250
9664,-35.156250
9665,-35.156250
9666,-31.250000
9667,-35.156250
9668,-31.250000
9669,-31.250000
9670,-31.250000
9671,-31.250000
9672,-31.250000
9673,-31.250000
9674,-27.343750
9675,-27.343750
9676,-27.343750
9677,-27.343750
9678,-27.343750
9679,-27.343750
9680,-27.343750
9681,-23.437500
9682,-23.437500
9683,-23.437500
9684,-23.437500
9685,-23.437500
9686,-23.437500
9687,-23.437500
9688,-23.437500
9689,-19.531250
9690,-19.531250
9691,-19.531250
9692,-23.437500
9693,-19.531250
9694,-19.531250
9695,-19.531250
9696,-19.531250
9697,-19.531250
9698,-15.625000
9699,-15.625000
9700,-15.625000
9701,-15.625000
9702,-15.625000
9703,-15.625000
9704,-11.718750
9705,-11.718750
9706,-11.718750
9707,-11.718750
9708,-11.718750
9709,-11.718750
9710,-11.718750
9711,-11.718750
9712,-11.718750
9713,-11.718750
9714,-7.812500
9715,-7.812500
9716,-7.812500
9717,-7.812500
9718,-3.906250
9719,-7.812500
9720,-3.906250
9721,-3.906250
9722,-7.812500
9723,-3.906250
9724,-3.906250
9725,-3.906250
9726,-3.906250
9727,-3.906250
9728,0.000000
9729,0.000000
9730,0.000000
9731,0.000000
9732,0.000000
9733,0.000000
9734,0.000000
9735,0.000000
9736,3.906250
9737,0.000000
9738,3.906250
9739,3.906250
9740,3.906250
9741,3.906250
9742,3.906250
9743,3.906250
9744,3.906250
9745,7.812500
9746,3.906250
9747,3.906250
9748,7.812500
9749,7.812500
9750,7.812500
9751,7.812500
9752,7.812500
9753,7.812500
9754,7.812500
9755,7.812500
9756,11.718750
9757,11.718750
9758,7.812500
9759,11.718750
9760,11.718750
9761,11.718750
9762,11.718750
9763,11.718750
9764,11.718750
9765,11.718750
9766,11.718750
9767,11.718750
9768,11.718750
9769,11.718750
9770,11.718750
9771,15.625000
9772,15.625000
9773,11.718750
9774,15.625000
9775,15.625000
9776,15.625000
9777,15.625000
9778,15.625000
9779,15.625000
9780,15.625000
9781,15.625000
9782,15.625000
9783,15.625000
9784,15.625000
9785,15.625000
9786,15.625000
9787,15.625000
9788,15.625000
9789,15.625000
9790,15.625000
9791,15.625000
9792,19.531250
9793,15.625000
9794,15.625000
9795,15.625000
9796,15.625000
9797,19.531250
9798,19.531250
9799,15.625000
9800,19.531250
9801,15.625000
9802,19.531250
9803,15.625000
9804,19.531250
9805,15.625000
9806,19.531250
9807,19.531250
9808,19.531250
9809,15.625000
9810,19.531250
9811,19.531250
9812,15.625000
9813,19.531250
9814,15.625000
9815,15.625000
9816,15.625000
9817,15.625000
9818,15.625000
9819,15.625000
9820,15.625000
9821,15.625000
9822,15.625000
9823,15.625000
9824,15.625000
9825,15.625000
9826,15.625000
9827,15.625000
9828,15.625000
9829,15.625000
9830,15.625000
9831,15.625000
9832,15.625000
9833,11.718750
9834,11.718750
9835,11.718750
9836,11.718750
9837,11.718750
9838,11.718750
9839,15.625000
9840,11.718750
9841,11.718750
9842,11.718750
9843,11.718750
9844,11.718750
9845,11.718750
9846,7.812500
9847,7.812500
9848,7.812500
9849,7.812500
9850,7.812500
9851,7.812500
9852,7.812500
9853,7.812500
9854,7.812500
9855,7.812500
9856,3.906250
9857,3.906250
9858,3.906250
9859,3.906250
9860,3.906250
9861,0.000000
9862,3.906250
9863,3.906250
9864,0.000000
9865,3.906250
9866,0.000000
9867,0.000000
9868,0.000000
9869,0.000000
9870,0.000000
9871,0.000000
9872,0.000000
9873,-3.906250
9874,-3.906250
9875,-3.906250
9876,-3.906250
9877,-3.906250
9878,-3.906250
9879,-3.906250
9880,-3.906250
9881,-7.812500
9882,-7.812500
9883,-7.812500
9884,-7.812500
9885,-7.812500
9886,-7.812500
9887,-11.718750
9888,-11.718750
9889,-11.718750
9890,-11.718750
9891,-11.718750
9892,-11.718750
9893,-15.625000
9894,-15.625000
9895,-15.625000
9896,-15.625000
9897,-15.625000
9898,-15.625000
9899,-19.531250
9900,-15.625000
9901,-19.531250
9902,-19.531250
9903,-19.531250
9904,-19.531250
9905,-19.531250
9906,-23.437500
9907,-23.437500
9908,-23.437500
9909,-23.437500
9910,-23.437500
9911,-23.437500
9912,-23.437500
9913,-27.343750
9914,-27.343750
9915,-27.343750
9916,-27.343750
9917,-27.343750
9918,-27.343750
9919,-27.343750
9920,-31.250000
9921,-31.250000
9922,-31.250000
9923,-31.250000
9924,-31.250000
9925,-35.156250
9926,-35.156250
9927,-35.156250
9928,-35.156250
9929,-35.156250
9930,-35.156250
9931,-35.156250
9932,-35.156250
9933,-35.156250
9934,-39.062500
9935,-39.062500
9936,-39.062500
9937,-39.062500
9938,-39.062500
9939,-39.062500
9940,-39.062500
9941,-42.968750
9942,-42.968750
9943,-42.968750
9944,-42.968750
9945,-42.968750
9946,-42.968750
9947,-42.968750
9948,-42.968750
9949,-42.968750
9950,-46.875000
9951,-46.875000
9952,-46.875000
9953,-46.875000
9954,-46.875000
9955,-46.875000
9956,-46.875000
9957,-46.875000
9958,-46.875000
9959,-50.781250
9960,-50.781250
9961,-50.781250
9962,-50.781250
9963,-50.781250
9964,-50.781250
9965,-50.781250
9966,-50.781250
9967,-50.781250
9968,-50.781250
9969,-54.687500
9970,-54.687500
9971,-54.687500
9972,-54.687500
9973,-54.687500
9974,-54.687500
9975,-54.687500
9976,-54.687500
9977,-54.687500
9978,-54.687500
9979,-54.687500
9980,-54.687500
9981,-54.687500
9982,-54.687500
9983,-54.687500
9984,-54.687500
9985,-54.687500
9986,-54.687500
9987,-54.687500
9988,-58.593750
9989,-54.687500
9990,-54.687500
9991,-54.687500
9992,-58.593750
9993,-54.687500
9994,-58.593750
9995,-58.593750
9996,-58.593750
9997,-58.593750
9998,-58.593750
9999,-58.593750
10000,-58.593750
