Channel              :,CH1
Frequency            :,1.200kHz
Period               :,0.833ms
PK-PK                :,429.7mV
Probe attenuation    :,1X
Voltage per ADC value:,0.244141mV
Time interval        :,2.00000us

index,CH1_Voltage(mV)
1,-62.500000
2,-62.500000
3,-58.593750
4,-54.687500
5,-50.781250
6,-46.875000
7,-46.875000
8,-42.968750
9,-39.062500
10,-35.156250
11,-31.250000
12,-27.343750
13,-27.343750
14,-23.437500
15,-19.531250
16,-15.625000
17,-11.718750
18,-7.812500
19,-7.812500
20,-3.906250
21,0.000000
22,0.000000
23,3.906250
24,7.812500
25,11.718750
26,11.718750
27,15.625000
28,19.531250
29,23.437500
30,27.343750
31,27.343750
32,31.250000
33,35.156250
34,39.062500
35,39.062500
36,42.968750
37,46.875000
38,46.875000
39,50.781250
40,50.781250
41,54.687500
42,58.593750
43,58.593750
44,62.500000
45,66.406250
46,66.406250
47,70.312500
48,70.312500
49,74.218750
50,74.218750
51,78.125000
52,82.031250
53,82.031250
54,85.937500
55,85.937500
56,89.843750
57,89.843750
58,89.843750
59,93.750000
60,97.656250
61,97.656250
62,101.562500
63,101.562500
64,105.468750
65,105.468750
66,105.468750
67,109.375000
68,109.375000
69,109.375000
70,113.281250
71,113.281250
72,117.187500
73,117.187500
74,117.187500
75,121.093750
76,121.093750
77,121.093750
78,125.000000
79,125.000000
80,125.000000
81,128.906250
82,128.906250
83,128.906250
84,125.000000
85,132.812500
86,132.812500
87,132.812500
88,132.812500
89,132.812500
90,136.718750
91,136.718750
92,136.718750
93,136.718750
94,136.718750
95,136.718750
96,140.625000
97,140.625000
98,140.625000
99,140.625000
100,140.625000
101,140.625000
102,140.625000
103,140.625000
104,144.531250
105,144.531250
106,144.531250
107,144.531250
108,144.531250
109,144.531250
110,144.531250
111,144.531250
112,144.531250
113,144.531250
114,144.531250
115,144.531250
116,144.531250
117,144.531250
118,144.531250
119,144.531250
120,144.531250
121,144.531250
122,144.531250
123,140.625000
124,140.625000
125,140.625000
126,140.625000
127,140.625000
128,140.625000
129,140.625000
130,140.625000
131,140.625000
132,140.625000
133,136.718750
134,136.718750
135,136.718750
136,136.718750
137,132.812500
138,132.812500
139,132.812500
140,132.812500
141,132.812500
142,132.812500
143,128.906250
144,128.906250
145,128.906250
146,125.000000
147,128.906250
148,125.000000
149,125.000000
150,121.093750
151,121.093750
152,121.093750
153,117.187500
154,117.187500
155,117.187500
156,113.281250
157,113.281250
158,113.281250
159,109.375000
160,109.375000
161,105.468750
162,105.468750
163,105.468750
164,101.562500
165,101.562500
166,97.656250
167,97.656250
168,93.750000
169,93.750000
170,89.843750
171,89.843750
172,85.937500
173,85.937500
174,82.031250
175,82.031250
176,78.125000
177,78.125000
178,74.218750
179,70.312500
180,70.312500
181,66.406250
182,66.406250
183,62.500000
184,58.593750
185,58.593750
186,54.687500
187,50.781250
188,50.781250
189,46.875000
190,42.968750
191,42.968750
192,39.062500
193,35.156250
194,35.156250
195,31.250000
196,27.343750
197,23.437500
198,23.437500
199,19.531250
200,15.625000
201,11.718750
202,11.718750
203,7.812500
204,3.906250
205,0.000000
206,-3.906250
207,-3.906250
208,-7.812500
209,-7.812500
210,-15.625000
211,-19.531250
212,-19.531250
213,-23.437500
214,-27.343750
215,-31.250000
216,-35.156250
217,-39.062500
218,-39.062500
219,-42.968750
220,-46.875000
221,-50.781250
222,-54.687500
223,-58.593750
224,-62.500000
225,-62.500000
226,-66.406250
227,-70.312500
228,-74.218750
229,-82.031250
230,-82.031250
231,-85.937500
232,-85.937500
233,-89.843750
234,-97.656250
235,-97.656250
236,-101.562500
237,-105.468750
238,-109.375000
239,-113.281250
240,-113.281250
241,-117.187500
242,-121.093750
243,-125.000000
244,-128.906250
245,-132.812500
246,-136.718750
247,-136.718750
248,-140.625000
249,-144.531250
250,-148.437500
251,-152.343750
252,-156.250000
253,-160.156250
254,-160.156250
255,-164.062500
256,-167.968750
257,-171.875000
258,-171.875000
259,-175.781250
260,-179.687500
261,-183.593750
262,-183.593750
263,-187.500000
264,-191.406250
265,-195.312500
266,-195.312500
267,-199.218750
268,-203.125000
269,-203.125000
270,-207.031250
271,-210.937500
272,-214.843750
273,-214.843750
274,-218.750000
275,-218.750000
276,-222.656250
277,-222.656250
278,-226.562500
279,-230.468750
280,-230.468750
281,-234.375000
282,-234.375000
283,-238.281250
284,-238.281250
285,-242.187500
286,-242.187500
287,-246.093750
288,-246.093750
289,-250.000000
290,-250.000000
291,-253.906250
292,-253.906250
293,-253.906250
294,-257.812500
295,-257.812500
296,-261.718750
297,-261.718750
298,-261.718750
299,-261.718750
300,-265.625000
301,-265.625000
302,-265.625000
303,-269.531250
304,-269.531250
305,-269.531250
306,-269.531250
307,-273.437500
308,-273.437500
309,-273.437500
310,-273.437500
311,-273.437500
312,-273.437500
313,-277.343750
314,-277.343750
315,-277.343750
316,-277.343750
317,-277.343750
318,-277.343750
319,-277.343750
320,-277.343750
321,-277.343750
322,-277.343750
323,-277.343750
324,-277.343750
325,-277.343750
326,-277.343750
327,-277.343750
328,-277.343750
329,-277.343750
330,-277.343750
331,-277.343750
332,-277.343750
333,-273.437500
334,-273.437500
335,-273.437500
336,-273.437500
337,-269.531250
338,-269.531250
339,-269.531250
340,-269.531250
341,-269.531250
342,-265.625000
343,-265.625000
344,-265.625000
345,-261.718750
346,-261.718750
347,-261.718750
348,-257.812500
349,-257.812500
350,-253.906250
351,-253.906250
352,-253.906250
353,-250.000000
354,-250.000000
355,-246.093750
356,-246.093750
357,-242.187500
358,-242.187500
359,-238.281250
360,-238.281250
361,-234.375000
362,-234.375000
363,-230.468750
364,-230.468750
365,-226.562500
366,-222.656250
367,-222.656250
368,-218.750000
369,-214.843750
370,-214.843750
371,-210.937500
372,-210.937500
373,-207.031250
374,-203.125000
375,-203.125000
376,-199.218750
377,-195.312500
378,-195.312500
379,-191.406250
380,-187.500000
381,-183.593750
382,-183.593750
383,-179.687500
384,-175.781250
385,-171.875000
386,-167.968750
387,-167.968750
388,-164.062500
389,-160.156250
390,-156.250000
391,-156.250000
392,-152.343750
393,-148.437500
394,-144.531250
395,-140.625000
396,-136.718750
397,-136.718750
398,-132.812500
399,-128.906250
400,-125.000000
401,-121.093750
402,-117.187500
403,-117.187500
404,-113.281250
405,-109.375000
406,-105.468750
407,-101.562500
408,-97.656250
409,-93.750000
410,-89.843750
411,-89.843750
412,-85.937500
413,-82.031250
414,-78.125000
415,-74.218750
416,-70.312500
417,-66.406250
418,-66.406250
419,-58.593750
420,-58.593750
421,-54.687500
422,-50.781250
423,-46.875000
424,-42.968750
425,-42.968750
426,-35.156250
427,-35.156250
428,-31.250000
429,-27.343750
430,-23.437500
431,-19.531250
432,-19.531250
433,-15.625000
434,-11.718750
435,-7.812500
436,-3.906250
437,-3.906250
438,0.000000
439,3.906250
440,7.812500
441,7.812500
442,11.718750
443,15.625000
444,19.531250
445,23.437500
446,23.437500
447,27.343750
448,31.250000
449,31.250000
450,35.156250
451,39.062500
452,39.062500
453,42.968750
454,46.875000
455,50.781250
456,50.781250
457,54.687500
458,58.593750
459,58.593750
460,62.500000
461,62.500000
462,66.406250
463,70.312500
464,70.312500
465,74.218750
466,74.218750
467,78.125000
468,78.125000
469,82.031250
470,82.031250
471,85.937500
472,89.843750
473,89.843750
474,93.750000
475,93.750000
476,93.750000
477,97.656250
478,97.656250
479,101.562500
480,101.562500
481,105.468750
482,105.468750
483,109.375000
484,109.375000
485,109.375000
486,113.281250
487,113.281250
488,113.281250
489,117.187500
490,117.187500
491,121.093750
492,121.093750
493,121.093750
494,125.000000
495,125.000000
496,125.000000
497,128.906250
498,128.906250
499,128.906250
500,128.906250
501,128.906250
502,132.812500
503,132.812500
504,132.812500
505,132.812500
506,132.812500
507,136.718750
508,136.718750
509,136.718750
510,136.718750
511,136.718750
512,140.625000
513,140.625000
514,140.625000
515,140.625000
516,140.625000
517,140.625000
518,140.625000
519,140.625000
520,140.625000
521,144.531250
522,144.531250
523,144.531250
524,144.531250
525,144.531250
526,144.531250
527,144.531250
528,144.531250
529,144.531250
530,144.531250
531,144.531250
532,144.531250
533,144.531250
534,144.531250
535,144.531250
536,144.531250
537,144.531250
538,144.531250
539,140.625000
540,144.531250
541,140.625000
542,140.625000
543,140.625000
544,140.625000
545,140.625000
546,140.625000
547,140.625000
548,140.625000
549,136.718750
550,136.718750
551,136.718750
552,136.718750
553,136.718750
554,136.718750
555,132.812500
556,132.812500
557,132.812500
558,132.812500
559,132.812500
560,128.906250
561,128.906250
562,128.906250
563,125.000000
564,125.000000
565,125.000000
566,125.000000
567,121.093750
568,121.093750
569,121.093750
570,117.187500
571,117.187500
572,117.187500
573,113.281250
574,113.281250
575,109.375000
576,109.375000
577,109.375000
578,105.468750
579,105.468750
580,101.562500
581,101.562500
582,97.656250
583,97.656250
584,93.750000
585,93.750000
586,89.843750
587,89.843750
588,89.843750
589,85.937500
590,85.937500
591,82.031250
592,78.125000
593,78.125000
594,74.218750
595,74.218750
596,70.312500
597,70.312500
598,66.406250
599,62.500000
600,62.500000
601,58.593750
602,54.687500
603,54.687500
604,50.781250
605,50.781250
606,46.875000
607,42.968750
608,42.968750
609,39.062500
610,35.156250
611,31.250000
612,31.250000
613,27.343750
614,23.437500
615,19.531250
616,19.531250
617,15.625000
618,11.718750
619,11.718750
620,7.812500
621,3.906250
622,0.000000
623,-3.906250
624,-7.812500
625,-7.812500
626,-11.718750
627,-15.625000
628,-19.531250
629,-23.437500
630,-23.437500
631,-27.343750
632,-31.250000
633,-35.156250
634,-39.062500
635,-42.968750
636,-46.875000
637,-46.875000
638,-50.781250
639,-54.687500
640,-58.593750
641,-62.500000
642,-66.406250
643,-70.312500
644,-70.312500
645,-74.218750
646,-78.125000
647,-82.031250
648,-85.937500
649,-89.843750
650,-93.750000
651,-97.656250
652,-101.562500
653,-101.562500
654,-105.468750
655,-109.375000
656,-113.281250
657,-117.187500
658,-121.093750
659,-121.093750
660,-125.000000
661,-128.906250
662,-132.812500
663,-136.718750
664,-140.625000
665,-144.531250
666,-148.437500
667,-148.437500
668,-152.343750
669,-156.250000
670,-160.156250
671,-160.156250
672,-164.062500
673,-167.968750
674,-171.875000
675,-175.781250
676,-175.781250
677,-179.687500
678,-183.593750
679,-183.593750
680,-187.500000
681,-191.406250
682,-195.312500
683,-195.312500
684,-199.218750
685,-203.125000
686,-203.125000
687,-207.031250
688,-210.937500
689,-210.937500
690,-214.843750
691,-218.750000
692,-218.750000
693,-222.656250
694,-226.562500
695,-226.562500
696,-230.468750
697,-230.468750
698,-234.375000
699,-234.375000
700,-238.281250
701,-238.281250
702,-242.187500
703,-242.187500
704,-246.093750
705,-246.093750
706,-250.000000
707,-250.000000
708,-253.906250
709,-253.906250
710,-257.812500
711,-257.812500
712,-257.812500
713,-261.718750
714,-261.718750
715,-261.718750
716,-265.625000
717,-265.625000
718,-265.625000
719,-265.625000
720,-269.531250
721,-269.531250
722,-269.531250
723,-269.531250
724,-273.437500
725,-269.531250
726,-273.437500
727,-273.437500
728,-273.437500
729,-273.437500
730,-277.343750
731,-277.343750
732,-277.343750
733,-277.343750
734,-277.343750
735,-277.343750
736,-277.343750
737,-277.343750
738,-277.343750
739,-277.343750
740,-277.343750
741,-277.343750
742,-277.343750
743,-277.343750
744,-277.343750
745,-277.343750
746,-277.343750
747,-277.343750
748,-273.437500
749,-277.343750
750,-273.437500
751,-273.437500
752,-273.437500
753,-269.531250
754,-269.531250
755,-269.531250
756,-269.531250
757,-265.625000
758,-265.625000
759,-265.625000
760,-265.625000
761,-261.718750
762,-261.718750
763,-261.718750
764,-257.812500
765,-257.812500
766,-253.906250
767,-253.906250
768,-253.906250
769,-250.000000
770,-250.000000
771,-246.093750
772,-246.093750
773,-246.093750
774,-242.187500
775,-238.281250
776,-238.281250
777,-238.281250
778,-234.375000
779,-234.375000
780,-230.468750
781,-226.562500
782,-226.562500
783,-222.656250
784,-218.750000
785,-218.750000
786,-214.843750
787,-214.843750
788,-210.937500
789,-207.031250
790,-207.031250
791,-203.125000
792,-199.218750
793,-199.218750
794,-195.312500
795,-191.406250
796,-191.406250
797,-187.500000
798,-183.593750
799,-179.687500
800,-179.687500
801,-175.781250
802,-171.875000
803,-167.968750
804,-164.062500
805,-160.156250
806,-160.156250
807,-156.250000
808,-152.343750
809,-148.437500
810,-144.531250
811,-144.531250
812,-140.625000
813,-136.718750
814,-132.812500
815,-132.812500
816,-128.906250
817,-125.000000
818,-121.093750
819,-117.187500
820,-113.281250
821,-109.375000
822,-105.468750
823,-101.562500
824,-101.562500
825,-97.656250
826,-93.750000
827,-89.843750
828,-85.937500
829,-82.031250
830,-78.125000
831,-78.125000
832,-74.218750
833,-70.312500
834,-66.406250
835,-62.500000
836,-58.593750
837,-58.593750
838,-54.687500
839,-50.781250
840,-46.875000
841,-42.968750
842,-39.062500
843,-35.156250
844,-35.156250
845,-31.250000
846,-27.343750
847,-23.437500
848,-19.531250
849,-15.625000
850,-15.625000
851,-11.718750
852,-7.812500
853,-7.812500
854,0.000000
855,0.000000
856,3.906250
857,7.812500
858,7.812500
859,15.625000
860,15.625000
861,19.531250
862,23.437500
863,23.437500
864,27.343750
865,31.250000
866,35.156250
867,35.156250
868,39.062500
869,42.968750
870,46.875000
871,46.875000
872,50.781250
873,50.781250
874,54.687500
875,58.593750
876,58.593750
877,62.500000
878,62.500000
879,66.406250
880,70.312500
881,70.312500
882,74.218750
883,74.218750
884,78.125000
885,78.125000
886,82.031250
887,85.937500
888,85.937500
889,89.843750
890,89.843750
891,93.750000
892,97.656250
893,97.656250
894,97.656250
895,101.562500
896,101.562500
897,101.562500
898,105.468750
899,105.468750
900,109.375000
901,109.375000
902,113.281250
903,113.281250
904,113.281250
905,117.187500
906,117.187500
907,117.187500
908,117.187500
909,121.093750
910,121.093750
911,125.000000
912,125.000000
913,125.000000
914,125.000000
915,128.906250
916,128.906250
917,128.906250
918,128.906250
919,132.812500
920,132.812500
921,132.812500
922,132.812500
923,136.718750
924,132.812500
925,136.718750
926,136.718750
927,136.718750
928,140.625000
929,140.625000
930,140.625000
931,140.625000
932,140.625000
933,140.625000
934,140.625000
935,140.625000
936,140.625000
937,144.531250
938,144.531250
939,144.531250
940,144.531250
941,144.531250
942,144.531250
943,144.531250
944,144.531250
945,144.531250
946,144.531250
947,144.531250
948,144.531250
949,144.531250
950,144.531250
951,144.531250
952,144.531250
953,144.531250
954,144.531250
955,144.531250
956,144.531250
957,144.531250
958,140.625000
959,140.625000
960,140.625000
961,140.625000
962,140.625000
963,140.625000
964,140.625000
965,140.625000
966,136.718750
967,136.718750
968,136.718750
969,136.718750
970,136.718750
971,132.812500
972,132.812500
973,132.812500
974,136.718750
975,132.812500
976,128.906250
977,128.906250
978,128.906250
979,128.906250
980,125.000000
981,125.000000
982,125.000000
983,121.093750
984,121.093750
985,121.093750
986,117.187500
987,117.187500
988,113.281250
989,113.281250
990,113.281250
991,113.281250
992,109.375000
993,109.375000
994,109.375000
995,105.468750
996,105.468750
997,101.562500
998,101.562500
999,97.656250
1000,101.562500
1001,93.750000
1002,93.750000
1003,93.750000
1004,89.843750
1005,85.937500
1006,85.937500
1007,82.031250
1008,82.031250
1009,78.125000
1010,78.125000
1011,74.218750
1012,74.218750
1013,70.312500
1014,66.406250
1015,66.406250
1016,62.500000
1017,62.500000
1018,58.593750
1019,54.687500
1020,50.781250
1021,50.781250
1022,46.875000
1023,42.968750
1024,42.968750
1025,39.062500
1026,35.156250
1027,35.156250
1028,31.250000
1029,27.343750
1030,27.343750
1031,23.437500
1032,19.531250
1033,15.625000
1034,11.718750
1035,11.718750
1036,7.812500
1037,3.906250
1038,3.906250
1039,0.000000
1040,-3.906250
1041,-7.812500
1042,-11.718750
1043,-15.625000
1044,-15.625000
1045,-19.531250
1046,-23.437500
1047,-27.343750
1048,-31.250000
1049,-35.156250
1050,-35.156250
1051,-39.062500
1052,-42.968750
1053,-46.875000
1054,-50.781250
1055,-54.687500
1056,-58.593750
1057,-58.593750
1058,-62.500000
1059,-66.406250
1060,-70.312500
1061,-74.218750
1062,-78.125000
1063,-82.031250
1064,-85.937500
1065,-85.937500
1066,-89.843750
1067,-93.750000
1068,-97.656250
1069,-101.562500
1070,-105.468750
1071,-105.468750
1072,-109.375000
1073,-113.281250
1074,-117.187500
1075,-121.093750
1076,-125.000000
1077,-128.906250
1078,-132.812500
1079,-132.812500
1080,-136.718750
1081,-140.625000
1082,-144.531250
1083,-144.531250
1084,-148.437500
1085,-152.343750
1086,-156.250000
1087,-160.156250
1088,-164.062500
1089,-164.062500
1090,-167.968750
1091,-171.875000
1092,-175.781250
1093,-179.687500
1094,-179.687500
1095,-183.593750
1096,-187.500000
1097,-191.406250
1098,-191.406250
1099,-195.312500
1100,-199.218750
1101,-199.218750
1102,-203.125000
1103,-207.031250
1104,-207.031250
1105,-210.937500
1106,-214.843750
1107,-214.843750
1108,-218.750000
1109,-218.750000
1110,-222.656250
1111,-226.562500
1112,-226.562500
1113,-230.468750
1114,-234.375000
1115,-234.375000
1116,-238.281250
1117,-238.281250
1118,-238.281250
1119,-242.187500
1120,-246.093750
1121,-246.093750
1122,-246.093750
1123,-250.000000
1124,-250.000000
1125,-253.906250
1126,-253.906250
1127,-257.812500
1128,-257.812500
1129,-257.812500
1130,-261.718750
1131,-261.718750
1132,-261.718750
1133,-265.625000
1134,-265.625000
1135,-265.625000
1136,-269.531250
1137,-269.531250
1138,-269.531250
1139,-269.531250
1140,-269.531250
1141,-273.437500
1142,-273.437500
1143,-273.437500
1144,-273.437500
1145,-273.437500
1146,-277.343750
1147,-277.343750
1148,-277.343750
1149,-277.343750
1150,-277.343750
1151,-277.343750
1152,-277.343750
1153,-277.343750
1154,-277.343750
1155,-277.343750
1156,-277.343750
1157,-277.343750
1158,-277.343750
1159,-277.343750
1160,-277.343750
1161,-277.343750
1162,-277.343750
1163,-277.343750
1164,-277.343750
1165,-273.437500
1166,-273.437500
1167,-273.437500
1168,-273.437500
1169,-273.437500
1170,-273.437500
1171,-269.531250
1172,-269.531250
1173,-269.531250
1174,-269.531250
1175,-265.625000
1176,-265.625000
1177,-265.625000
1178,-265.625000
1179,-261.718750
1180,-261.718750
1181,-257.812500
1182,-257.812500
1183,-253.906250
1184,-253.906250
1185,-253.906250
1186,-250.000000
1187,-250.000000
1188,-246.093750
1189,-246.093750
1190,-242.187500
1191,-242.187500
1192,-242.187500
1193,-238.281250
1194,-234.375000
1195,-234.375000
1196,-230.468750
1197,-230.468750
1198,-226.562500
1199,-222.656250
1200,-222.656250
1201,-218.750000
1202,-218.750000
1203,-214.843750
1204,-214.843750
1205,-210.937500
1206,-207.031250
1207,-203.125000
1208,-203.125000
1209,-199.218750
1210,-195.312500
1211,-195.312500
1212,-191.406250
1213,-187.500000
1214,-187.500000
1215,-183.593750
1216,-179.687500
1217,-175.781250
1218,-171.875000
1219,-171.875000
1220,-167.968750
1221,-164.062500
1222,-164.062500
1223,-160.156250
1224,-156.250000
1225,-152.343750
1226,-148.437500
1227,-144.531250
1228,-140.625000
1229,-140.625000
1230,-136.718750
1231,-132.812500
1232,-128.906250
1233,-128.906250
1234,-125.000000
1235,-121.093750
1236,-117.187500
1237,-113.281250
1238,-109.375000
1239,-105.468750
1240,-105.468750
1241,-97.656250
1242,-97.656250
1243,-93.750000
1244,-89.843750
1245,-85.937500
1246,-82.031250
1247,-78.125000
1248,-74.218750
1249,-74.218750
1250,-70.312500
1251,-66.406250
1252,-62.500000
1253,-58.593750
1254,-54.687500
1255,-50.781250
1256,-50.781250
1257,-46.875000
1258,-42.968750
1259,-39.062500
1260,-35.156250
1261,-31.250000
1262,-27.343750
1263,-27.343750
1264,-23.437500
1265,-19.531250
1266,-15.625000
1267,-11.718750
1268,-7.812500
1269,-7.812500
1270,-3.906250
1271,0.000000
1272,3.906250
1273,3.906250
1274,7.812500
1275,11.718750
1276,15.625000
1277,15.625000
1278,19.531250
1279,23.437500
1280,27.343750
1281,27.343750
1282,31.250000
1283,35.156250
1284,35.156250
1285,39.062500
1286,42.968750
1287,46.875000
1288,46.875000
1289,50.781250
1290,54.687500
1291,54.687500
1292,58.593750
1293,58.593750
1294,62.500000
1295,66.406250
1296,66.406250
1297,70.312500
1298,70.312500
1299,74.218750
1300,74.218750
1301,78.125000
1302,82.031250
1303,82.031250
1304,85.937500
1305,85.937500
1306,89.843750
1307,89.843750
1308,93.750000
1309,97.656250
1310,97.656250
1311,97.656250
1312,101.562500
1313,101.562500
1314,105.468750
1315,105.468750
1316,105.468750
1317,109.375000
1318,109.375000
1319,113.281250
1320,113.281250
1321,113.281250
1322,117.187500
1323,117.187500
1324,117.187500
1325,121.093750
1326,121.093750
1327,121.093750
1328,125.000000
1329,125.000000
1330,125.000000
1331,128.906250
1332,128.906250
1333,128.906250
1334,132.812500
1335,132.812500
1336,132.812500
1337,132.812500
1338,132.812500
1339,132.812500
1340,136.718750
1341,136.718750
1342,136.718750
1343,136.718750
1344,136.718750
1345,136.718750
1346,140.625000
1347,140.625000
1348,140.625000
1349,140.625000
1350,140.625000
1351,140.625000
1352,140.625000
1353,144.531250
1354,144.531250
1355,144.531250
1356,144.531250
1357,144.531250
1358,144.531250
1359,144.531250
1360,144.531250
1361,144.531250
1362,144.531250
1363,144.531250
1364,144.531250
1365,144.531250
1366,144.531250
1367,144.531250
1368,144.531250
1369,144.531250
1370,144.531250
1371,144.531250
1372,144.531250
1373,144.531250
1374,140.625000
1375,140.625000
1376,140.625000
1377,140.625000
1378,140.625000
1379,140.625000
1380,140.625000
1381,140.625000
1382,136.718750
1383,136.718750
1384,136.718750
1385,136.718750
1386,136.718750
1387,136.718750
1388,132.812500
1389,132.812500
1390,132.812500
1391,132.812500
1392,132.812500
1393,132.812500
1394,128.906250
1395,128.906250
1396,128.906250
1397,125.000000
1398,125.000000
1399,125.000000
1400,121.093750
1401,121.093750
1402,121.093750
1403,117.187500
1404,117.187500
1405,117.187500
1406,113.281250
1407,113.281250
1408,109.375000
1409,109.375000
1410,105.468750
1411,105.468750
1412,105.468750
1413,101.562500
1414,101.562500
1415,101.562500
1416,97.656250
1417,97.656250
1418,93.750000
1419,93.750000
1420,89.843750
1421,89.843750
1422,89.843750
1423,85.937500
1424,82.031250
1425,78.125000
1426,78.125000
1427,74.218750
1428,74.218750
1429,70.312500
1430,70.312500
1431,66.406250
1432,62.500000
1433,62.500000
1434,58.593750
1435,54.687500
1436,54.687500
1437,50.781250
1438,50.781250
1439,46.875000
1440,42.968750
1441,42.968750
1442,39.062500
1443,35.156250
1444,31.250000
1445,31.250000
1446,27.343750
1447,23.437500
1448,19.531250
1449,19.531250
1450,15.625000
1451,11.718750
1452,7.812500
1453,7.812500
1454,3.906250
1455,0.000000
1456,-3.906250
1457,-3.906250
1458,-7.812500
1459,-11.718750
1460,-15.625000
1461,-19.531250
1462,-23.437500
1463,-23.437500
1464,-27.343750
1465,-31.250000
1466,-35.156250
1467,-39.062500
1468,-42.968750
1469,-46.875000
1470,-46.875000
1471,-50.781250
1472,-54.687500
1473,-58.593750
1474,-62.500000
1475,-66.406250
1476,-66.406250
1477,-70.312500
1478,-74.218750
1479,-78.125000
1480,-82.031250
1481,-85.937500
1482,-89.843750
1483,-93.750000
1484,-97.656250
1485,-97.656250
1486,-101.562500
1487,-105.468750
1488,-109.375000
1489,-113.281250
1490,-113.281250
1491,-121.093750
1492,-125.000000
1493,-125.000000
1494,-128.906250
1495,-132.812500
1496,-136.718750
1497,-140.625000
1498,-140.625000
1499,-144.531250
1500,-148.437500
1501,-152.343750
1502,-156.250000
1503,-160.156250
1504,-160.156250
1505,-164.062500
1506,-167.968750
1507,-171.875000
1508,-171.875000
1509,-175.781250
1510,-179.687500
1511,-183.593750
1512,-187.500000
1513,-187.500000
1514,-191.406250
1515,-191.406250
1516,-195.312500
1517,-199.218750
1518,-203.125000
1519,-203.125000
1520,-207.031250
1521,-210.937500
1522,-210.937500
1523,-210.937500
1524,-218.750000
1525,-218.750000
1526,-222.656250
1527,-222.656250
1528,-226.562500
1529,-226.562500
1530,-230.468750
1531,-234.375000
1532,-234.375000
1533,-238.281250
1534,-238.281250
1535,-242.187500
1536,-242.187500
1537,-246.093750
1538,-246.093750
1539,-246.093750
1540,-250.000000
1541,-250.000000
1542,-253.906250
1543,-253.906250
1544,-257.812500
1545,-257.812500
1546,-257.812500
1547,-261.718750
1548,-261.718750
1549,-265.625000
1550,-265.625000
1551,-265.625000
1552,-269.531250
1553,-269.531250
1554,-269.531250
1555,-269.531250
1556,-273.437500
1557,-273.437500
1558,-273.437500
1559,-273.437500
1560,-273.437500
1561,-273.437500
1562,-277.343750
1563,-277.343750
1564,-277.343750
1565,-277.343750
1566,-277.343750
1567,-277.343750
1568,-277.343750
1569,-277.343750
1570,-277.343750
1571,-277.343750
1572,-277.343750
1573,-277.343750
1574,-277.343750
1575,-277.343750
1576,-277.343750
1577,-277.343750
1578,-277.343750
1579,-277.343750
1580,-277.343750
1581,-277.343750
1582,-273.437500
1583,-273.437500
1584,-273.437500
1585,-273.437500
1586,-273.437500
1587,-269.531250
1588,-269.531250
1589,-269.531250
1590,-269.531250
1591,-265.625000
1592,-265.625000
1593,-265.625000
1594,-261.718750
1595,-261.718750
1596,-261.718750
1597,-257.812500
1598,-257.812500
1599,-257.812500
1600,-253.906250
1601,-253.906250
1602,-253.906250
1603,-250.000000
1604,-250.000000
1605,-246.093750
1606,-246.093750
1607,-242.187500
1608,-242.187500
1609,-238.281250
1610,-238.281250
1611,-234.375000
1612,-234.375000
1613,-230.468750
1614,-230.468750
1615,-226.562500
1616,-226.562500
1617,-226.562500
1618,-218.750000
1619,-214.843750
1620,-214.843750
1621,-210.937500
1622,-210.937500
1623,-207.031250
1624,-203.125000
1625,-203.125000
1626,-199.218750
1627,-195.312500
1628,-191.406250
1629,-191.406250
1630,-187.500000
1631,-183.593750
1632,-179.687500
1633,-179.687500
1634,-175.781250
1635,-171.875000
1636,-171.875000
1637,-167.968750
1638,-164.062500
1639,-160.156250
1640,-156.250000
1641,-152.343750
1642,-152.343750
1643,-148.437500
1644,-144.531250
1645,-140.625000
1646,-136.718750
1647,-136.718750
1648,-132.812500
1649,-128.906250
1650,-125.000000
1651,-121.093750
1652,-117.187500
1653,-113.281250
1654,-109.375000
1655,-109.375000
1656,-105.468750
1657,-101.562500
1658,-97.656250
1659,-93.750000
1660,-89.843750
1661,-85.937500
1662,-82.031250
1663,-82.031250
1664,-78.125000
1665,-74.218750
1666,-70.312500
1667,-66.406250
1668,-62.500000
1669,-58.593750
1670,-58.593750
1671,-54.687500
1672,-50.781250
1673,-46.875000
1674,-42.968750
1675,-39.062500
1676,-39.062500
1677,-35.156250
1678,-31.250000
1679,-27.343750
1680,-23.437500
1681,-23.437500
1682,-19.531250
1683,-15.625000
1684,-11.718750
1685,-7.812500
1686,-7.812500
1687,-3.906250
1688,0.000000
1689,3.906250
1690,7.812500
1691,7.812500
1692,11.718750
1693,15.625000
1694,19.531250
1695,19.531250
1696,23.437500
1697,27.343750
1698,31.250000
1699,31.250000
1700,35.156250
1701,39.062500
1702,39.062500
1703,42.968750
1704,46.875000
1705,50.781250
1706,50.781250
1707,54.687500
1708,54.687500
1709,58.593750
1710,62.500000
1711,62.500000
1712,66.406250
1713,70.312500
1714,70.312500
1715,74.218750
1716,74.218750
1717,78.125000
1718,78.125000
1719,82.031250
1720,82.031250
1721,85.937500
1722,85.937500
1723,89.843750
1724,89.843750
1725,93.750000
1726,97.656250
1727,97.656250
1728,101.562500
1729,101.562500
1730,101.562500
1731,105.468750
1732,105.468750
1733,109.375000
1734,109.375000
1735,109.375000
1736,113.281250
1737,113.281250
1738,113.281250
1739,117.187500
1740,117.187500
1741,117.187500
1742,121.093750
1743,121.093750
1744,125.000000
1745,125.000000
1746,125.000000
1747,125.000000
1748,128.906250
1749,128.906250
1750,128.906250
1751,128.906250
1752,132.812500
1753,132.812500
1754,132.812500
1755,132.812500
1756,136.718750
1757,136.718750
1758,136.718750
1759,136.718750
1760,136.718750
1761,144.531250
1762,140.625000
1763,140.625000
1764,140.625000
1765,140.625000
1766,136.718750
1767,140.625000
1768,140.625000
1769,140.625000
1770,144.531250
1771,140.625000
1772,144.531250
1773,144.531250
1774,144.531250
1775,144.531250
1776,144.531250
1777,144.531250
1778,144.531250
1779,144.531250
1780,144.531250
1781,144.531250
1782,144.531250
1783,144.531250
1784,144.531250
1785,144.531250
1786,144.531250
1787,144.531250
1788,144.531250
1789,144.531250
1790,144.531250
1791,140.625000
1792,140.625000
1793,140.625000
1794,140.625000
1795,140.625000
1796,140.625000
1797,140.625000
1798,140.625000
1799,136.718750
1800,136.718750
1801,136.718750
1802,136.718750
1803,136.718750
1804,136.718750
1805,132.812500
1806,132.812500
1807,132.812500
1808,132.812500
1809,132.812500
1810,128.906250
1811,128.906250
1812,128.906250
1813,125.000000
1814,125.000000
1815,125.000000
1816,121.093750
1817,121.093750
1818,121.093750
1819,121.093750
1820,117.187500
1821,117.187500
1822,113.281250
1823,113.281250
1824,113.281250
1825,109.375000
1826,109.375000
1827,109.375000
1828,105.468750
1829,105.468750
1830,101.562500
1831,101.562500
1832,97.656250
1833,97.656250
1834,97.656250
1835,93.750000
1836,93.750000
1837,89.843750
1838,89.843750
1839,85.937500
1840,82.031250
1841,82.031250
1842,78.125000
1843,78.125000
1844,74.218750
1845,74.218750
1846,70.312500
1847,70.312500
1848,66.406250
1849,62.500000
1850,62.500000
1851,58.593750
1852,54.687500
1853,54.687500
1854,50.781250
1855,46.875000
1856,46.875000
1857,42.968750
1858,42.968750
1859,39.062500
1860,35.156250
1861,31.250000
1862,31.250000
1863,27.343750
1864,23.437500
1865,19.531250
1866,19.531250
1867,15.625000
1868,11.718750
1869,7.812500
1870,7.812500
1871,3.906250
1872,0.000000
1873,-3.906250
1874,-7.812500
1875,-11.718750
1876,-15.625000
1877,-15.625000
1878,-19.531250
1879,-23.437500
1880,-27.343750
1881,-31.250000
1882,-31.250000
1883,-35.156250
1884,-35.156250
1885,-42.968750
1886,-46.875000
1887,-50.781250
1888,-50.781250
1889,-54.687500
1890,-58.593750
1891,-62.500000
1892,-66.406250
1893,-70.312500
1894,-74.218750
1895,-74.218750
1896,-78.125000
1897,-82.031250
1898,-85.937500
1899,-89.843750
1900,-93.750000
1901,-97.656250
1902,-101.562500
1903,-101.562500
1904,-105.468750
1905,-109.375000
1906,-113.281250
1907,-117.187500
1908,-121.093750
1909,-121.093750
1910,-125.000000
1911,-128.906250
1912,-132.812500
1913,-136.718750
1914,-140.625000
1915,-144.531250
1916,-144.531250
1917,-148.437500
1918,-152.343750
1919,-156.250000
1920,-160.156250
1921,-160.156250
1922,-164.062500
1923,-167.968750
1924,-171.875000
1925,-175.781250
1926,-175.781250
1927,-179.687500
1928,-183.593750
1929,-187.500000
1930,-187.500000
1931,-191.406250
1932,-191.406250
1933,-199.218750
1934,-199.218750
1935,-203.125000
1936,-207.031250
1937,-207.031250
1938,-210.937500
1939,-214.843750
1940,-214.843750
1941,-218.750000
1942,-218.750000
1943,-222.656250
1944,-226.562500
1945,-226.562500
1946,-230.468750
1947,-230.468750
1948,-234.375000
1949,-238.281250
1950,-238.281250
1951,-242.187500
1952,-242.187500
1953,-246.093750
1954,-246.093750
1955,-246.093750
1956,-250.000000
1957,-250.000000
1958,-253.906250
1959,-253.906250
1960,-257.812500
1961,-257.812500
1962,-257.812500
1963,-261.718750
1964,-261.718750
1965,-261.718750
1966,-261.718750
1967,-265.625000
1968,-265.625000
1969,-269.531250
1970,-269.531250
1971,-269.531250
1972,-269.531250
1973,-269.531250
1974,-273.437500
1975,-273.437500
1976,-273.437500
1977,-273.437500
1978,-273.437500
1979,-273.437500
1980,-277.343750
1981,-277.343750
1982,-277.343750
1983,-277.343750
1984,-277.343750
1985,-277.343750
1986,-277.343750
1987,-277.343750
1988,-277.343750
1989,-277.343750
1990,-277.343750
1991,-277.343750
1992,-277.343750
1993,-277.343750
1994,-277.343750
1995,-277.343750
1996,-277.343750
1997,-277.343750
1998,-277.343750
1999,-273.437500
2000,-273.437500
2001,-273.437500
2002,-273.437500
2003,-273.437500
2004,-269.531250
2005,-269.531250
2006,-269.531250
2007,-269.531250
2008,-269.531250
2009,-265.625000
2010,-265.625000
2011,-265.625000
2012,-261.718750
2013,-261.718750
2014,-257.812500
2015,-257.812500
2016,-257.812500
2017,-253.906250
2018,-253.906250
2019,-250.000000
2020,-250.000000
2021,-250.000000
2022,-246.093750
2023,-246.093750
2024,-242.187500
2025,-242.187500
2026,-242.187500
2027,-238.281250
2028,-234.375000
2029,-230.468750
2030,-230.468750
2031,-230.468750
2032,-226.562500
2033,-222.656250
2034,-222.656250
2035,-218.750000
2036,-214.843750
2037,-214.843750
2038,-210.937500
2039,-207.031250
2040,-207.031250
2041,-203.125000
2042,-199.218750
2043,-199.218750
2044,-195.312500
2045,-191.406250
2046,-187.500000
2047,-187.500000
2048,-183.593750
2049,-179.687500
2050,-179.687500
2051,-175.781250
2052,-171.875000
2053,-167.968750
2054,-164.062500
2055,-160.156250
2056,-160.156250
2057,-156.250000
2058,-152.343750
2059,-148.437500
2060,-148.437500
2061,-144.531250
2062,-140.625000
2063,-136.718750
2064,-132.812500
2065,-132.812500
2066,-125.000000
2067,-125.000000
2068,-121.093750
2069,-117.187500
2070,-113.281250
2071,-109.375000
2072,-105.468750
2073,-105.468750
2074,-101.562500
2075,-97.656250
2076,-93.750000
2077,-89.843750
2078,-85.937500
2079,-82.031250
2080,-82.031250
2081,-78.125000
2082,-74.218750
2083,-70.312500
2084,-66.406250
2085,-62.500000
2086,-58.593750
2087,-58.593750
2088,-54.687500
2089,-50.781250
2090,-46.875000
2091,-42.968750
2092,-39.062500
2093,-35.156250
2094,-35.156250
2095,-27.343750
2096,-27.343750
2097,-23.437500
2098,-19.531250
2099,-15.625000
2100,-11.718750
2101,-11.718750
2102,-7.812500
2103,-3.906250
2104,0.000000
2105,0.000000
2106,3.906250
2107,7.812500
2108,11.718750
2109,11.718750
2110,15.625000
2111,19.531250
2112,23.437500
2113,27.343750
2114,27.343750
2115,31.250000
2116,35.156250
2117,35.156250
2118,39.062500
2119,42.968750
2120,42.968750
2121,46.875000
2122,50.781250
2123,50.781250
2124,54.687500
2125,58.593750
2126,58.593750
2127,62.500000
2128,62.500000
2129,66.406250
2130,70.312500
2131,74.218750
2132,74.218750
2133,74.218750
2134,78.125000
2135,78.125000
2136,82.031250
2137,85.937500
2138,85.937500
2139,89.843750
2140,89.843750
2141,93.750000
2142,93.750000
2143,97.656250
2144,97.656250
2145,97.656250
2146,101.562500
2147,101.562500
2148,105.468750
2149,105.468750
2150,109.375000
2151,109.375000
2152,109.375000
2153,113.281250
2154,113.281250
2155,117.187500
2156,117.187500
2157,117.187500
2158,121.093750
2159,121.093750
2160,121.093750
2161,125.000000
2162,125.000000
2163,125.000000
2164,128.906250
2165,128.906250
2166,128.906250
2167,128.906250
2168,132.812500
2169,132.812500
2170,132.812500
2171,132.812500
2172,136.718750
2173,136.718750
2174,136.718750
2175,136.718750
2176,136.718750
2177,140.625000
2178,140.625000
2179,140.625000
2180,140.625000
2181,140.625000
2182,140.625000
2183,140.625000
2184,140.625000
2185,140.625000
2186,140.625000
2187,140.625000
2188,140.625000
2189,144.531250
2190,144.531250
2191,144.531250
2192,144.531250
2193,144.531250
2194,144.531250
2195,144.531250
2196,144.531250
2197,140.625000
2198,144.531250
2199,144.531250
2200,144.531250
2201,144.531250
2202,144.531250
2203,144.531250
2204,144.531250
2205,144.531250
2206,140.625000
2207,140.625000
2208,140.625000
2209,140.625000
2210,140.625000
2211,140.625000
2212,140.625000
2213,140.625000
2214,140.625000
2215,140.625000
2216,136.718750
2217,136.718750
2218,136.718750
2219,136.718750
2220,136.718750
2221,132.812500
2222,132.812500
2223,132.812500
2224,132.812500
2225,132.812500
2226,132.812500
2227,128.906250
2228,128.906250
2229,128.906250
2230,125.000000
2231,125.000000
2232,125.000000
2233,121.093750
2234,121.093750
2235,121.093750
2236,117.187500
2237,117.187500
2238,117.187500
2239,113.281250
2240,113.281250
2241,113.281250
2242,109.375000
2243,109.375000
2244,109.375000
2245,105.468750
2246,105.468750
2247,101.562500
2248,101.562500
2249,97.656250
2250,97.656250
2251,97.656250
2252,93.750000
2253,89.843750
2254,89.843750
2255,85.937500
2256,85.937500
2257,82.031250
2258,82.031250
2259,78.125000
2260,78.125000
2261,74.218750
2262,70.312500
2263,70.312500
2264,66.406250
2265,66.406250
2266,62.500000
2267,58.593750
2268,58.593750
2269,54.687500
2270,50.781250
2271,50.781250
2272,46.875000
2273,46.875000
2274,42.968750
2275,39.062500
2276,35.156250
2277,35.156250
2278,31.250000
2279,27.343750
2280,27.343750
2281,23.437500
2282,19.531250
2283,15.625000
2284,15.625000
2285,11.718750
2286,7.812500
2287,3.906250
2288,0.000000
2289,0.000000
2290,-3.906250
2291,-7.812500
2292,-11.718750
2293,-11.718750
2294,-15.625000
2295,-19.531250
2296,-23.437500
2297,-27.343750
2298,-31.250000
2299,-35.156250
2300,-35.156250
2301,-39.062500
2302,-42.968750
2303,-46.875000
2304,-50.781250
2305,-54.687500
2306,-54.687500
2307,-58.593750
2308,-62.500000
2309,-66.406250
2310,-70.312500
2311,-74.218750
2312,-78.125000
2313,-82.031250
2314,-82.031250
2315,-85.937500
2316,-89.843750
2317,-93.750000
2318,-97.656250
2319,-101.562500
2320,-101.562500
2321,-109.375000
2322,-109.375000
2323,-113.281250
2324,-117.187500
2325,-121.093750
2326,-125.000000
2327,-128.906250
2328,-128.906250
2329,-132.812500
2330,-136.718750
2331,-140.625000
2332,-144.531250
2333,-148.437500
2334,-152.343750
2335,-156.250000
2336,-156.250000
2337,-160.156250
2338,-164.062500
2339,-167.968750
2340,-167.968750
2341,-171.875000
2342,-175.781250
2343,-179.687500
2344,-179.687500
2345,-183.593750
2346,-187.500000
2347,-191.406250
2348,-191.406250
2349,-195.312500
2350,-199.218750
2351,-203.125000
2352,-203.125000
2353,-207.031250
2354,-207.031250
2355,-210.937500
2356,-214.843750
2357,-214.843750
2358,-218.750000
2359,-218.750000
2360,-222.656250
2361,-226.562500
2362,-226.562500
2363,-230.468750
2364,-230.468750
2365,-234.375000
2366,-238.281250
2367,-238.281250
2368,-242.187500
2369,-242.187500
2370,-242.187500
2371,-246.093750
2372,-246.093750
2373,-250.000000
2374,-250.000000
2375,-253.906250
2376,-253.906250
2377,-257.812500
2378,-257.812500
2379,-257.812500
2380,-261.718750
2381,-261.718750
2382,-261.718750
2383,-265.625000
2384,-265.625000
2385,-265.625000
2386,-269.531250
2387,-269.531250
2388,-269.531250
2389,-269.531250
2390,-273.437500
2391,-273.437500
2392,-273.437500
2393,-273.437500
2394,-273.437500
2395,-273.437500
2396,-277.343750
2397,-277.343750
2398,-277.343750
2399,-277.343750
2400,-277.343750
2401,-277.343750
2402,-277.343750
2403,-277.343750
2404,-277.343750
2405,-277.343750
2406,-277.343750
2407,-277.343750
2408,-277.343750
2409,-277.343750
2410,-277.343750
2411,-277.343750
2412,-277.343750
2413,-277.343750
2414,-277.343750
2415,-277.343750
2416,-273.437500
2417,-273.437500
2418,-273.437500
2419,-273.437500
2420,-273.437500
2421,-269.531250
2422,-269.531250
2423,-269.531250
2424,-269.531250
2425,-265.625000
2426,-265.625000
2427,-265.625000
2428,-261.718750
2429,-261.718750
2430,-261.718750
2431,-257.812500
2432,-257.812500
2433,-257.812500
2434,-253.906250
2435,-253.906250
2436,-250.000000
2437,-250.000000
2438,-246.093750
2439,-246.093750
2440,-242.187500
2441,-242.187500
2442,-238.281250
2443,-238.281250
2444,-234.375000
2445,-234.375000
2446,-230.468750
2447,-230.468750
2448,-226.562500
2449,-226.562500
2450,-222.656250
2451,-218.750000
2452,-218.750000
2453,-214.843750
2454,-210.937500
2455,-210.937500
2456,-207.031250
2457,-203.125000
2458,-203.125000
2459,-199.218750
2460,-195.312500
2461,-195.312500
2462,-191.406250
2463,-187.500000
2464,-187.500000
2465,-183.593750
2466,-179.687500
2467,-175.781250
2468,-175.781250
2469,-171.875000
2470,-167.968750
2471,-164.062500
2472,-160.156250
2473,-160.156250
2474,-156.250000
2475,-152.343750
2476,-148.437500
2477,-144.531250
2478,-140.625000
2479,-140.625000
2480,-136.718750
2481,-132.812500
2482,-128.906250
2483,-125.000000
2484,-121.093750
2485,-121.093750
2486,-117.187500
2487,-113.281250
2488,-109.375000
2489,-105.468750
2490,-101.562500
2491,-97.656250
2492,-97.656250
2493,-93.750000
2494,-89.843750
2495,-85.937500
2496,-82.031250
2497,-78.125000
2498,-74.218750
2499,-70.312500
2500,-70.312500
2501,-66.406250
2502,-62.500000
2503,-58.593750
2504,-54.687500
2505,-50.781250
2506,-50.781250
2507,-46.875000
2508,-42.968750
2509,-39.062500
2510,-35.156250
2511,-31.250000
2512,-27.343750
2513,-27.343750
2514,-23.437500
2515,-19.531250
2516,-15.625000
2517,-11.718750
2518,-11.718750
2519,-7.812500
2520,-3.906250
2521,0.000000
2522,0.000000
2523,3.906250
2524,7.812500
2525,11.718750
2526,15.625000
2527,15.625000
2528,19.531250
2529,23.437500
2530,27.343750
2531,27.343750
2532,31.250000
2533,35.156250
2534,35.156250
2535,39.062500
2536,42.968750
2537,46.875000
2538,46.875000
2539,50.781250
2540,54.687500
2541,54.687500
2542,58.593750
2543,62.500000
2544,62.500000
2545,66.406250
2546,66.406250
2547,70.312500
2548,70.312500
2549,74.218750
2550,78.125000
2551,78.125000
2552,82.031250
2553,82.031250
2554,85.937500
2555,89.843750
2556,89.843750
2557,89.843750
2558,93.750000
2559,93.750000
2560,97.656250
2561,97.656250
2562,101.562500
2563,101.562500
2564,105.468750
2565,105.468750
2566,105.468750
2567,109.375000
2568,109.375000
2569,109.375000
2570,113.281250
2571,113.281250
2572,117.187500
2573,117.187500
2574,117.187500
2575,121.093750
2576,121.093750
2577,121.093750
2578,125.000000
2579,125.000000
2580,128.906250
2581,125.000000
2582,128.906250
2583,128.906250
2584,128.906250
2585,128.906250
2586,132.812500
2587,132.812500
2588,132.812500
2589,132.812500
2590,136.718750
2591,136.718750
2592,136.718750
2593,136.718750
2594,136.718750
2595,136.718750
2596,140.625000
2597,136.718750
2598,140.625000
2599,140.625000
2600,140.625000
2601,140.625000
2602,140.625000
2603,140.625000
2604,140.625000
2605,140.625000
2606,144.531250
2607,144.531250
2608,144.531250
2609,144.531250
2610,144.531250
2611,144.531250
2612,144.531250
2613,144.531250
2614,144.531250
2615,144.531250
2616,144.531250
2617,144.531250
2618,144.531250
2619,144.531250
2620,144.531250
2621,144.531250
2622,144.531250
2623,144.531250
2624,140.625000
2625,140.625000
2626,140.625000
2627,140.625000
2628,140.625000
2629,140.625000
2630,140.625000
2631,140.625000
2632,136.718750
2633,136.718750
2634,136.718750
2635,136.718750
2636,136.718750
2637,132.812500
2638,132.812500
2639,132.812500
2640,132.812500
2641,132.812500
2642,132.812500
2643,128.906250
2644,128.906250
2645,128.906250
2646,125.000000
2647,125.000000
2648,125.000000
2649,125.000000
2650,121.093750
2651,121.093750
2652,117.187500
2653,117.187500
2654,117.187500
2655,117.187500
2656,113.281250
2657,113.281250
2658,113.281250
2659,109.375000
2660,109.375000
2661,105.468750
2662,105.468750
2663,101.562500
2664,101.562500
2665,101.562500
2666,97.656250
2667,97.656250
2668,93.750000
2669,93.750000
2670,89.843750
2671,89.843750
2672,85.937500
2673,85.937500
2674,82.031250
2675,82.031250
2676,78.125000
2677,74.218750
2678,74.218750
2679,70.312500
2680,70.312500
2681,66.406250
2682,62.500000
2683,62.500000
2684,58.593750
2685,58.593750
2686,54.687500
2687,50.781250
2688,50.781250
2689,46.875000
2690,42.968750
2691,42.968750
2692,39.062500
2693,35.156250
2694,35.156250
2695,31.250000
2696,27.343750
2697,27.343750
2698,23.437500
2699,19.531250
2700,15.625000
2701,11.718750
2702,11.718750
2703,3.906250
2704,3.906250
2705,0.000000
2706,-3.906250
2707,-3.906250
2708,-7.812500
2709,-11.718750
2710,-15.625000
2711,-15.625000
2712,-19.531250
2713,-23.437500
2714,-27.343750
2715,-31.250000
2716,-35.156250
2717,-35.156250
2718,-42.968750
2719,-42.968750
2720,-46.875000
2721,-50.781250
2722,-54.687500
2723,-58.593750
2724,-62.500000
2725,-66.406250
2726,-70.312500
2727,-70.312500
2728,-74.218750
2729,-78.125000
2730,-82.031250
2731,-85.937500
2732,-89.843750
2733,-93.750000
2734,-93.750000
2735,-97.656250
2736,-101.562500
2737,-105.468750
2738,-109.375000
2739,-113.281250
2740,-113.281250
2741,-117.187500
2742,-121.093750
2743,-125.000000
2744,-128.906250
2745,-132.812500
2746,-136.718750
2747,-140.625000
2748,-140.625000
2749,-144.531250
2750,-148.437500
2751,-152.343750
2752,-156.250000
2753,-156.250000
2754,-160.156250
2755,-164.062500
2756,-167.968750
2757,-171.875000
2758,-171.875000
2759,-175.781250
2760,-179.687500
2761,-183.593750
2762,-183.593750
2763,-187.500000
2764,-191.406250
2765,-191.406250
2766,-195.312500
2767,-195.312500
2768,-203.125000
2769,-203.125000
2770,-207.031250
2771,-210.937500
2772,-210.937500
2773,-214.843750
2774,-214.843750
2775,-218.750000
2776,-222.656250
2777,-222.656250
2778,-226.562500
2779,-226.562500
2780,-230.468750
2781,-234.375000
2782,-234.375000
2783,-238.281250
2784,-238.281250
2785,-242.187500
2786,-242.187500
2787,-246.093750
2788,-246.093750
2789,-250.000000
2790,-250.000000
2791,-253.906250
2792,-253.906250
2793,-253.906250
2794,-257.812500
2795,-257.812500
2796,-261.718750
2797,-261.718750
2798,-261.718750
2799,-265.625000
2800,-265.625000
2801,-265.625000
2802,-265.625000
2803,-269.531250
2804,-269.531250
2805,-269.531250
2806,-273.437500
2807,-273.437500
2808,-273.437500
2809,-273.437500
2810,-273.437500
2811,-273.437500
2812,-277.343750
2813,-277.343750
2814,-277.343750
2815,-277.343750
2816,-277.343750
2817,-277.343750
2818,-277.343750
2819,-277.343750
2820,-277.343750
2821,-277.343750
2822,-277.343750
2823,-277.343750
2824,-277.343750
2825,-277.343750
2826,-277.343750
2827,-277.343750
2828,-277.343750
2829,-277.343750
2830,-277.343750
2831,-277.343750
2832,-273.437500
2833,-273.437500
2834,-273.437500
2835,-273.437500
2836,-273.437500
2837,-269.531250
2838,-269.531250
2839,-269.531250
2840,-269.531250
2841,-265.625000
2842,-265.625000
2843,-265.625000
2844,-265.625000
2845,-261.718750
2846,-261.718750
2847,-261.718750
2848,-257.812500
2849,-257.812500
2850,-253.906250
2851,-253.906250
2852,-253.906250
2853,-250.000000
2854,-250.000000
2855,-246.093750
2856,-246.093750
2857,-242.187500
2858,-242.187500
2859,-238.281250
2860,-238.281250
2861,-234.375000
2862,-234.375000
2863,-230.468750
2864,-226.562500
2865,-226.562500
2866,-226.562500
2867,-222.656250
2868,-218.750000
2869,-218.750000
2870,-214.843750
2871,-210.937500
2872,-210.937500
2873,-207.031250
2874,-203.125000
2875,-203.125000
2876,-199.218750
2877,-195.312500
2878,-195.312500
2879,-191.406250
2880,-187.500000
2881,-183.593750
2882,-183.593750
2883,-179.687500
2884,-175.781250
2885,-171.875000
2886,-167.968750
2887,-167.968750
2888,-164.062500
2889,-160.156250
2890,-156.250000
2891,-156.250000
2892,-152.343750
2893,-148.437500
2894,-144.531250
2895,-140.625000
2896,-132.812500
2897,-136.718750
2898,-132.812500
2899,-128.906250
2900,-125.000000
2901,-121.093750
2902,-117.187500
2903,-117.187500
2904,-113.281250
2905,-109.375000
2906,-105.468750
2907,-101.562500
2908,-97.656250
2909,-93.750000
2910,-89.843750
2911,-89.843750
2912,-85.937500
2913,-82.031250
2914,-78.125000
2915,-74.218750
2916,-70.312500
2917,-66.406250
2918,-66.406250
2919,-62.500000
2920,-58.593750
2921,-54.687500
2922,-50.781250
2923,-46.875000
2924,-42.968750
2925,-39.062500
2926,-39.062500
2927,-35.156250
2928,-31.250000
2929,-27.343750
2930,-23.437500
2931,-23.437500
2932,-19.531250
2933,-15.625000
2934,-11.718750
2935,-7.812500
2936,-7.812500
2937,-3.906250
2938,0.000000
2939,3.906250
2940,7.812500
2941,11.718750
2942,11.718750
2943,15.625000
2944,19.531250
2945,23.437500
2946,23.437500
2947,27.343750
2948,31.250000
2949,31.250000
2950,35.156250
2951,39.062500
2952,39.062500
2953,42.968750
2954,46.875000
2955,46.875000
2956,50.781250
2957,54.687500
2958,58.593750
2959,58.593750
2960,62.500000
2961,62.500000
2962,66.406250
2963,66.406250
2964,70.312500
2965,74.218750
2966,74.218750
2967,78.125000
2968,78.125000
2969,82.031250
2970,85.937500
2971,85.937500
2972,85.937500
2973,89.843750
2974,93.750000
2975,93.750000
2976,93.750000
2977,97.656250
2978,97.656250
2979,101.562500
2980,101.562500
2981,105.468750
2982,105.468750
2983,109.375000
2984,109.375000
2985,109.375000
2986,109.375000
2987,113.281250
2988,113.281250
2989,117.187500
2990,117.187500
2991,117.187500
2992,121.093750
2993,121.093750
2994,121.093750
2995,125.000000
2996,125.000000
2997,125.000000
2998,128.906250
2999,128.906250
3000,128.906250
3001,128.906250
3002,132.812500
3003,132.812500
3004,132.812500
3005,132.812500
3006,136.718750
3007,136.718750
3008,136.718750
3009,136.718750
3010,136.718750
3011,140.625000
3012,140.625000
3013,140.625000
3014,140.625000
3015,140.625000
3016,140.625000
3017,140.625000
3018,140.625000
3019,140.625000
3020,140.625000
3021,140.625000
3022,144.531250
3023,144.531250
3024,144.531250
3025,144.531250
3026,144.531250
3027,144.531250
3028,144.531250
3029,144.531250
3030,144.531250
3031,144.531250
3032,144.531250
3033,144.531250
3034,144.531250
3035,144.531250
3036,144.531250
3037,144.531250
3038,144.531250
3039,140.625000
3040,140.625000
3041,140.625000
3042,140.625000
3043,140.625000
3044,140.625000
3045,140.625000
3046,140.625000
3047,140.625000
3048,136.718750
3049,136.718750
3050,136.718750
3051,136.718750
3052,136.718750
3053,136.718750
3054,132.812500
3055,132.812500
3056,132.812500
3057,132.812500
3058,132.812500
3059,132.812500
3060,128.906250
3061,128.906250
3062,128.906250
3063,125.000000
3064,125.000000
3065,125.000000
3066,125.000000
3067,121.093750
3068,121.093750
3069,117.187500
3070,117.187500
3071,117.187500
3072,117.187500
3073,113.281250
3074,113.281250
3075,109.375000
3076,109.375000
3077,109.375000
3078,105.468750
3079,105.468750
3080,101.562500
3081,101.562500
3082,101.562500
3083,97.656250
3084,93.750000
3085,93.750000
3086,89.843750
3087,89.843750
3088,89.843750
3089,85.937500
3090,82.031250
3091,82.031250
3092,78.125000
3093,78.125000
3094,74.218750
3095,70.312500
3096,70.312500
3097,66.406250
3098,66.406250
3099,62.500000
3100,58.593750
3101,58.593750
3102,54.687500
3103,54.687500
3104,50.781250
3105,46.875000
3106,46.875000
3107,42.968750
3108,39.062500
3109,35.156250
3110,35.156250
3111,31.250000
3112,31.250000
3113,27.343750
3114,23.437500
3115,19.531250
3116,19.531250
3117,11.718750
3118,11.718750
3119,7.812500
3120,3.906250
3121,3.906250
3122,0.000000
3123,-3.906250
3124,-7.812500
3125,-11.718750
3126,-11.718750
3127,-15.625000
3128,-19.531250
3129,-23.437500
3130,-27.343750
3131,-27.343750
3132,-31.250000
3133,-35.156250
3134,-39.062500
3135,-42.968750
3136,-46.875000
3137,-50.781250
3138,-50.781250
3139,-54.687500
3140,-58.593750
3141,-62.500000
3142,-66.406250
3143,-70.312500
3144,-74.218750
3145,-74.218750
3146,-78.125000
3147,-82.031250
3148,-85.937500
3149,-89.843750
3150,-93.750000
3151,-93.750000
3152,-97.656250
3153,-101.562500
3154,-105.468750
3155,-109.375000
3156,-113.281250
3157,-117.187500
3158,-121.093750
3159,-125.000000
3160,-125.000000
3161,-128.906250
3162,-132.812500
3163,-136.718750
3164,-140.625000
3165,-144.531250
3166,-148.437500
3167,-148.437500
3168,-152.343750
3169,-156.250000
3170,-160.156250
3171,-164.062500
3172,-167.968750
3173,-167.968750
3174,-171.875000
3175,-175.781250
3176,-179.687500
3177,-179.687500
3178,-183.593750
3179,-187.500000
3180,-187.500000
3181,-191.406250
3182,-195.312500
3183,-199.218750
3184,-199.218750
3185,-203.125000
3186,-207.031250
3187,-207.031250
3188,-210.937500
3189,-214.843750
3190,-214.843750
3191,-218.750000
3192,-222.656250
3193,-222.656250
3194,-226.562500
3195,-226.562500
3196,-230.468750
3197,-234.375000
3198,-234.375000
3199,-234.375000
3200,-238.281250
3201,-238.281250
3202,-242.187500
3203,-242.187500
3204,-246.093750
3205,-246.093750
3206,-250.000000
3207,-250.000000
3208,-253.906250
3209,-253.906250
3210,-253.906250
3211,-257.812500
3212,-257.812500
3213,-261.718750
3214,-261.718750
3215,-265.625000
3216,-265.625000
3217,-265.625000
3218,-265.625000
3219,-269.531250
3220,-269.531250
3221,-269.531250
3222,-269.531250
3223,-269.531250
3224,-273.437500
3225,-273.437500
3226,-273.437500
3227,-273.437500
3228,-273.437500
3229,-277.343750
3230,-277.343750
3231,-277.343750
3232,-277.343750
3233,-277.343750
3234,-277.343750
3235,-277.343750
3236,-277.343750
3237,-277.343750
3238,-277.343750
3239,-277.343750
3240,-277.343750
3241,-277.343750
3242,-277.343750
3243,-277.343750
3244,-277.343750
3245,-277.343750
3246,-277.343750
3247,-277.343750
3248,-277.343750
3249,-273.437500
3250,-273.437500
3251,-273.437500
3252,-273.437500
3253,-273.437500
3254,-269.531250
3255,-269.531250
3256,-269.531250
3257,-269.531250
3258,-265.625000
3259,-265.625000
3260,-265.625000
3261,-261.718750
3262,-261.718750
3263,-261.718750
3264,-257.812500
3265,-257.812500
3266,-257.812500
3267,-253.906250
3268,-253.906250
3269,-250.000000
3270,-250.000000
3271,-246.093750
3272,-246.093750
3273,-246.093750
3274,-242.187500
3275,-238.281250
3276,-238.281250
3277,-234.375000
3278,-234.375000
3279,-234.375000
3280,-230.468750
3281,-226.562500
3282,-226.562500
3283,-222.656250
3284,-222.656250
3285,-218.750000
3286,-214.843750
3287,-214.843750
3288,-210.937500
3289,-210.937500
3290,-207.031250
3291,-203.125000
3292,-199.218750
3293,-199.218750
3294,-195.312500
3295,-191.406250
3296,-191.406250
3297,-187.500000
3298,-183.593750
3299,-179.687500
3300,-179.687500
3301,-175.781250
3302,-171.875000
3303,-167.968750
3304,-167.968750
3305,-164.062500
3306,-160.156250
3307,-156.250000
3308,-152.343750
3309,-152.343750
3310,-148.437500
3311,-144.531250
3312,-140.625000
3313,-136.718750
3314,-132.812500
3315,-132.812500
3316,-128.906250
3317,-125.000000
3318,-121.093750
3319,-113.281250
3320,-113.281250
3321,-109.375000
3322,-105.468750
3323,-105.468750
3324,-101.562500
3325,-97.656250
3326,-93.750000
3327,-89.843750
3328,-85.937500
3329,-78.125000
3330,-82.031250
3331,-78.125000
3332,-74.218750
3333,-70.312500
3334,-66.406250
3335,-62.500000
3336,-58.593750
3337,-54.687500
3338,-50.781250
3339,-50.781250
3340,-46.875000
3341,-42.968750
3342,-39.062500
3343,-35.156250
3344,-35.156250
3345,-31.250000
3346,-27.343750
3347,-23.437500
3348,-23.437500
3349,-15.625000
3350,-15.625000
3351,-11.718750
3352,-7.812500
3353,-3.906250
3354,0.000000
3355,0.000000
3356,3.906250
3357,7.812500
3358,11.718750
3359,11.718750
3360,15.625000
3361,19.531250
3362,23.437500
3363,23.437500
3364,27.343750
3365,31.250000
3366,31.250000
3367,35.156250
3368,39.062500
3369,42.968750
3370,42.968750
3371,46.875000
3372,50.781250
3373,50.781250
3374,54.687500
3375,58.593750
3376,58.593750
3377,62.500000
3378,62.500000
3379,66.406250
3380,66.406250
3381,70.312500
3382,78.125000
3383,74.218750
3384,78.125000
3385,78.125000
3386,82.031250
3387,82.031250
3388,85.937500
3389,89.843750
3390,89.843750
3391,89.843750
3392,97.656250
3393,97.656250
3394,97.656250
3395,101.562500
3396,101.562500
3397,101.562500
3398,105.468750
3399,105.468750
3400,105.468750
3401,109.375000
3402,109.375000
3403,113.281250
3404,113.281250
3405,117.187500
3406,117.187500
3407,117.187500
3408,121.093750
3409,121.093750
3410,121.093750
3411,121.093750
3412,125.000000
3413,125.000000
3414,125.000000
3415,128.906250
3416,128.906250
3417,128.906250
3418,128.906250
3419,132.812500
3420,132.812500
3421,132.812500
3422,132.812500
3423,136.718750
3424,136.718750
3425,136.718750
3426,136.718750
3427,136.718750
3428,140.625000
3429,140.625000
3430,140.625000
3431,140.625000
3432,140.625000
3433,140.625000
3434,140.625000
3435,140.625000
3436,140.625000
3437,140.625000
3438,144.531250
3439,140.625000
3440,144.531250
3441,144.531250
3442,144.531250
3443,144.531250
3444,144.531250
3445,144.531250
3446,144.531250
3447,144.531250
3448,144.531250
3449,144.531250
3450,144.531250
3451,144.531250
3452,144.531250
3453,144.531250
3454,144.531250
3455,140.625000
3456,140.625000
3457,140.625000
3458,140.625000
3459,140.625000
3460,140.625000
3461,140.625000
3462,140.625000
3463,140.625000
3464,140.625000
3465,140.625000
3466,140.625000
3467,136.718750
3468,136.718750
3469,136.718750
3470,136.718750
3471,136.718750
3472,132.812500
3473,132.812500
3474,132.812500
3475,132.812500
3476,132.812500
3477,128.906250
3478,128.906250
3479,128.906250
3480,125.000000
3481,125.000000
3482,125.000000
3483,125.000000
3484,121.093750
3485,121.093750
3486,117.187500
3487,117.187500
3488,117.187500
3489,113.281250
3490,113.281250
3491,109.375000
3492,109.375000
3493,109.375000
3494,105.468750
3495,105.468750
3496,105.468750
3497,101.562500
3498,101.562500
3499,97.656250
3500,97.656250
3501,93.750000
3502,93.750000
3503,89.843750
3504,89.843750
3505,85.937500
3506,85.937500
3507,82.031250
3508,82.031250
3509,78.125000
3510,78.125000
3511,74.218750
3512,70.312500
3513,70.312500
3514,66.406250
3515,66.406250
3516,62.500000
3517,58.593750
3518,58.593750
3519,54.687500
3520,50.781250
3521,50.781250
3522,46.875000
3523,46.875000
3524,42.968750
3525,39.062500
3526,35.156250
3527,35.156250
3528,31.250000
3529,27.343750
3530,27.343750
3531,23.437500
3532,19.531250
3533,15.625000
3534,15.625000
3535,11.718750
3536,7.812500
3537,3.906250
3538,0.000000
3539,0.000000
3540,-7.812500
3541,-7.812500
3542,-11.718750
3543,-15.625000
3544,-19.531250
3545,-19.531250
3546,-23.437500
3547,-27.343750
3548,-31.250000
3549,-35.156250
3550,-39.062500
3551,-39.062500
3552,-42.968750
3553,-46.875000
3554,-50.781250
3555,-54.687500
3556,-58.593750
3557,-62.500000
3558,-62.500000
3559,-66.406250
3560,-70.312500
3561,-74.218750
3562,-78.125000
3563,-78.125000
3564,-85.937500
3565,-89.843750
3566,-89.843750
3567,-93.750000
3568,-97.656250
3569,-101.562500
3570,-105.468750
3571,-109.375000
3572,-109.375000
3573,-113.281250
3574,-117.187500
3575,-121.093750
3576,-125.000000
3577,-128.906250
3578,-132.812500
3579,-132.812500
3580,-136.718750
3581,-140.625000
3582,-144.531250
3583,-148.437500
3584,-152.343750
3585,-152.343750
3586,-156.250000
3587,-160.156250
3588,-164.062500
3589,-167.968750
3590,-167.968750
3591,-171.875000
3592,-175.781250
3593,-179.687500
3594,-183.593750
3595,-183.593750
3596,-187.500000
3597,-191.406250
3598,-195.312500
3599,-195.312500
3600,-199.218750
3601,-199.218750
3602,-203.125000
3603,-207.031250
3604,-207.031250
3605,-210.937500
3606,-214.843750
3607,-214.843750
3608,-218.750000
3609,-222.656250
3610,-222.656250
3611,-226.562500
3612,-226.562500
3613,-230.468750
3614,-234.375000
3615,-234.375000
3616,-238.281250
3617,-238.281250
3618,-242.187500
3619,-242.187500
3620,-246.093750
3621,-246.093750
3622,-250.000000
3623,-250.000000
3624,-250.000000
3625,-253.906250
3626,-253.906250
3627,-257.812500
3628,-257.812500
3629,-261.718750
3630,-261.718750
3631,-261.718750
3632,-261.718750
3633,-265.625000
3634,-265.625000
3635,-265.625000
3636,-269.531250
3637,-269.531250
3638,-269.531250
3639,-269.531250
3640,-273.437500
3641,-273.437500
3642,-273.437500
3643,-273.437500
3644,-273.437500
3645,-277.343750
3646,-277.343750
3647,-277.343750
3648,-277.343750
3649,-277.343750
3650,-277.343750
3651,-277.343750
3652,-277.343750
3653,-277.343750
3654,-277.343750
3655,-277.343750
3656,-277.343750
3657,-277.343750
3658,-277.343750
3659,-277.343750
3660,-277.343750
3661,-277.343750
3662,-277.343750
3663,-277.343750
3664,-273.437500
3665,-273.437500
3666,-273.437500
3667,-273.437500
3668,-273.437500
3669,-273.437500
3670,-273.437500
3671,-269.531250
3672,-269.531250
3673,-269.531250
3674,-269.531250
3675,-265.625000
3676,-265.625000
3677,-265.625000
3678,-265.625000
3679,-261.718750
3680,-261.718750
3681,-257.812500
3682,-257.812500
3683,-257.812500
3684,-257.812500
3685,-253.906250
3686,-250.000000
3687,-250.000000
3688,-246.093750
3689,-246.093750
3690,-246.093750
3691,-242.187500
3692,-238.281250
3693,-238.281250
3694,-238.281250
3695,-234.375000
3696,-230.468750
3697,-230.468750
3698,-226.562500
3699,-226.562500
3700,-222.656250
3701,-222.656250
3702,-218.750000
3703,-214.843750
3704,-210.937500
3705,-210.937500
3706,-207.031250
3707,-207.031250
3708,-203.125000
3709,-199.218750
3710,-195.312500
3711,-195.312500
3712,-191.406250
3713,-187.500000
3714,-187.500000
3715,-183.593750
3716,-179.687500
3717,-175.781250
3718,-171.875000
3719,-171.875000
3720,-167.968750
3721,-164.062500
3722,-164.062500
3723,-160.156250
3724,-156.250000
3725,-152.343750
3726,-148.437500
3727,-144.531250
3728,-144.531250
3729,-140.625000
3730,-136.718750
3731,-132.812500
3732,-128.906250
3733,-125.000000
3734,-125.000000
3735,-117.187500
3736,-117.187500
3737,-113.281250
3738,-109.375000
3739,-105.468750
3740,-101.562500
3741,-101.562500
3742,-97.656250
3743,-93.750000
3744,-82.031250
3745,-85.937500
3746,-82.031250
3747,-78.125000
3748,-74.218750
3749,-70.312500
3750,-70.312500
3751,-66.406250
3752,-62.500000
3753,-58.593750
3754,-58.593750
3755,-50.781250
3756,-46.875000
3757,-46.875000
3758,-42.968750
3759,-39.062500
3760,-35.156250
3761,-31.250000
3762,-27.343750
3763,-27.343750
3764,-23.437500
3765,-19.531250
3766,-15.625000
3767,-11.718750
3768,-11.718750
3769,-7.812500
3770,-3.906250
3771,0.000000
3772,3.906250
3773,3.906250
3774,7.812500
3775,11.718750
3776,15.625000
3777,15.625000
3778,19.531250
3779,23.437500
3780,27.343750
3781,27.343750
3782,31.250000
3783,35.156250
3784,39.062500
3785,39.062500
3786,42.968750
3787,46.875000
3788,46.875000
3789,50.781250
3790,54.687500
3791,54.687500
3792,58.593750
3793,62.500000
3794,62.500000
3795,66.406250
3796,66.406250
3797,70.312500
3798,70.312500
3799,74.218750
3800,78.125000
3801,78.125000
3802,82.031250
3803,82.031250
3804,85.937500
3805,85.937500
3806,89.843750
3807,89.843750
3808,93.750000
3809,93.750000
3810,97.656250
3811,97.656250
3812,101.562500
3813,101.562500
3814,101.562500
3815,105.468750
3816,105.468750
3817,109.375000
3818,109.375000
3819,113.281250
3820,113.281250
3821,113.281250
3822,113.281250
3823,117.187500
3824,117.187500
3825,121.093750
3826,121.093750
3827,121.093750
3828,125.000000
3829,125.000000
3830,125.000000
3831,125.000000
3832,128.906250
3833,128.906250
3834,128.906250
3835,132.812500
3836,132.812500
3837,132.812500
3838,132.812500
3839,136.718750
3840,136.718750
3841,136.718750
3842,136.718750
3843,136.718750
3844,136.718750
3845,136.718750
3846,140.625000
3847,140.625000
3848,140.625000
3849,140.625000
3850,140.625000
3851,140.625000
3852,140.625000
3853,144.531250
3854,144.531250
3855,144.531250
3856,144.531250
3857,144.531250
3858,144.531250
3859,144.531250
3860,144.531250
3861,144.531250
3862,144.531250
3863,144.531250
3864,144.531250
3865,144.531250
3866,144.531250
3867,144.531250
3868,144.531250
3869,144.531250
3870,144.531250
3871,144.531250
3872,144.531250
3873,140.625000
3874,140.625000
3875,140.625000
3876,140.625000
3877,140.625000
3878,140.625000
3879,140.625000
3880,140.625000
3881,140.625000
3882,136.718750
3883,136.718750
3884,136.718750
3885,136.718750
3886,136.718750
3887,136.718750
3888,132.812500
3889,132.812500
3890,132.812500
3891,132.812500
3892,132.812500
3893,128.906250
3894,128.906250
3895,128.906250
3896,128.906250
3897,125.000000
3898,125.000000
3899,125.000000
3900,121.093750
3901,121.093750
3902,121.093750
3903,117.187500
3904,117.187500
3905,117.187500
3906,113.281250
3907,113.281250
3908,113.281250
3909,109.375000
3910,109.375000
3911,105.468750
3912,105.468750
3913,101.562500
3914,101.562500
3915,101.562500
3916,101.562500
3917,97.656250
3918,93.750000
3919,93.750000
3920,89.843750
3921,89.843750
3922,85.937500
3923,85.937500
3924,82.031250
3925,82.031250
3926,78.125000
3927,78.125000
3928,74.218750
3929,70.312500
3930,70.312500
3931,66.406250
3932,62.500000
3933,62.500000
3934,58.593750
3935,54.687500
3936,54.687500
3937,50.781250
3938,46.875000
3939,46.875000
3940,42.968750
3941,39.062500
3942,39.062500
3943,35.156250
3944,31.250000
3945,31.250000
3946,27.343750
3947,23.437500
3948,19.531250
3949,19.531250
3950,15.625000
3951,11.718750
3952,7.812500
3953,7.812500
3954,3.906250
3955,0.000000
3956,-3.906250
3957,-7.812500
3958,-7.812500
3959,-11.718750
3960,-15.625000
3961,-19.531250
3962,-23.437500
3963,-23.437500
3964,-27.343750
3965,-31.250000
3966,-35.156250
3967,-39.062500
3968,-42.968750
3969,-42.968750
3970,-46.875000
3971,-50.781250
3972,-54.687500
3973,-58.593750
3974,-62.500000
3975,-66.406250
3976,-66.406250
3977,-70.312500
3978,-74.218750
3979,-78.125000
3980,-82.031250
3981,-85.937500
3982,-85.937500
3983,-89.843750
3984,-93.750000
3985,-97.656250
3986,-101.562500
3987,-105.468750
3988,-109.375000
3989,-113.281250
3990,-117.187500
3991,-117.187500
3992,-121.093750
3993,-125.000000
3994,-128.906250
3995,-132.812500
3996,-136.718750
3997,-140.625000
3998,-144.531250
3999,-144.531250
4000,-148.437500
4001,-152.343750
4002,-156.250000
4003,-160.156250
4004,-160.156250
4005,-164.062500
4006,-167.968750
4007,-171.875000
4008,-171.875000
4009,-175.781250
4010,-179.687500
4011,-183.593750
4012,-187.500000
4013,-187.500000
4014,-191.406250
4015,-195.312500
4016,-195.312500
4017,-199.218750
4018,-203.125000
4019,-203.125000
4020,-207.031250
4021,-210.937500
4022,-214.843750
4023,-214.843750
4024,-218.750000
4025,-218.750000
4026,-222.656250
4027,-226.562500
4028,-226.562500
4029,-230.468750
4030,-230.468750
4031,-234.375000
4032,-234.375000
4033,-238.281250
4034,-238.281250
4035,-242.187500
4036,-242.187500
4037,-246.093750
4038,-246.093750
4039,-250.000000
4040,-250.000000
4041,-250.000000
4042,-253.906250
4043,-257.812500
4044,-257.812500
4045,-257.812500
4046,-257.812500
4047,-261.718750
4048,-261.718750
4049,-265.625000
4050,-265.625000
4051,-265.625000
4052,-269.531250
4053,-269.531250
4054,-269.531250
4055,-269.531250
4056,-273.437500
4057,-273.437500
4058,-273.437500
4059,-273.437500
4060,-273.437500
4061,-273.437500
4062,-277.343750
4063,-277.343750
4064,-277.343750
4065,-277.343750
4066,-277.343750
4067,-277.343750
4068,-277.343750
4069,-277.343750
4070,-277.343750
4071,-277.343750
4072,-277.343750
4073,-277.343750
4074,-277.343750
4075,-277.343750
4076,-277.343750
4077,-277.343750
4078,-277.343750
4079,-277.343750
4080,-277.343750
4081,-277.343750
4082,-273.437500
4083,-273.437500
4084,-273.437500
4085,-273.437500
4086,-273.437500
4087,-269.531250
4088,-269.531250
4089,-269.531250
4090,-269.531250
4091,-269.531250
4092,-265.625000
4093,-269.531250
4094,-265.625000
4095,-261.718750
4096,-261.718750
4097,-257.812500
4098,-257.812500
4099,-257.812500
4100,-253.906250
4101,-253.906250
4102,-250.000000
4103,-250.000000
4104,-250.000000
4105,-246.093750
4106,-246.093750
4107,-242.187500
4108,-242.187500
4109,-238.281250
4110,-238.281250
4111,-234.375000
4112,-234.375000
4113,-230.468750
4114,-230.468750
4115,-226.562500
4116,-222.656250
4117,-222.656250
4118,-218.750000
4119,-218.750000
4120,-214.843750
4121,-210.937500
4122,-210.937500
4123,-207.031250
4124,-210.937500
4125,-199.218750
4126,-199.218750
4127,-195.312500
4128,-191.406250
4129,-187.500000
4130,-187.500000
4131,-187.500000
4132,-183.593750
4133,-179.687500
4134,-175.781250
4135,-175.781250
4136,-171.875000
4137,-167.968750
4138,-164.062500
4139,-160.156250
4140,-160.156250
4141,-156.250000
4142,-152.343750
4143,-148.437500
4144,-144.531250
4145,-140.625000
4146,-136.718750
4147,-136.718750
4148,-132.812500
4149,-128.906250
4150,-125.000000
4151,-121.093750
4152,-117.187500
4153,-113.281250
4154,-113.281250
4155,-109.375000
4156,-105.468750
4157,-101.562500
4158,-97.656250
4159,-93.750000
4160,-89.843750
4161,-89.843750
4162,-85.937500
4163,-82.031250
4164,-78.125000
4165,-74.218750
4166,-70.312500
4167,-70.312500
4168,-66.406250
4169,-62.500000
4170,-58.593750
4171,-54.687500
4172,-50.781250
4173,-46.875000
4174,-42.968750
4175,-42.968750
4176,-39.062500
4177,-35.156250
4178,-31.250000
4179,-27.343750
4180,-23.437500
4181,-19.531250
4182,-19.531250
4183,-15.625000
4184,-11.718750
4185,-11.718750
4186,-3.906250
4187,-3.906250
4188,0.000000
4189,3.906250
4190,7.812500
4191,7.812500
4192,11.718750
4193,15.625000
4194,19.531250
4195,19.531250
4196,23.437500
4197,27.343750
4198,31.250000
4199,35.156250
4200,35.156250
4201,35.156250
4202,39.062500
4203,42.968750
4204,46.875000
4205,46.875000
4206,50.781250
4207,54.687500
4208,54.687500
4209,58.593750
4210,62.500000
4211,62.500000
4212,66.406250
4213,70.312500
4214,70.312500
4215,74.218750
4216,74.218750
4217,78.125000
4218,74.218750
4219,82.031250
4220,82.031250
4221,85.937500
4222,85.937500
4223,89.843750
4224,89.843750
4225,93.750000
4226,93.750000
4227,97.656250
4228,97.656250
4229,101.562500
4230,101.562500
4231,105.468750
4232,105.468750
4233,109.375000
4234,109.375000
4235,109.375000
4236,113.281250
4237,113.281250
4238,113.281250
4239,117.187500
4240,117.187500
4241,121.093750
4242,121.093750
4243,121.093750
4244,121.093750
4245,125.000000
4246,125.000000
4247,125.000000
4248,128.906250
4249,128.906250
4250,128.906250
4251,128.906250
4252,132.812500
4253,132.812500
4254,132.812500
4255,132.812500
4256,136.718750
4257,136.718750
4258,136.718750
4259,136.718750
4260,136.718750
4261,136.718750
4262,140.625000
4263,140.625000
4264,140.625000
4265,140.625000
4266,140.625000
4267,140.625000
4268,140.625000
4269,140.625000
4270,144.531250
4271,144.531250
4272,144.531250
4273,144.531250
4274,144.531250
4275,144.531250
4276,144.531250
4277,144.531250
4278,144.531250
4279,144.531250
4280,144.531250
4281,144.531250
4282,144.531250
4283,144.531250
4284,144.531250
4285,144.531250
4286,144.531250
4287,144.531250
4288,144.531250
4289,144.531250
4290,140.625000
4291,144.531250
4292,140.625000
4293,140.625000
4294,140.625000
4295,136.718750
4296,140.625000
4297,140.625000
4298,140.625000
4299,136.718750
4300,136.718750
4301,136.718750
4302,136.718750
4303,136.718750
4304,136.718750
4305,132.812500
4306,132.812500
4307,132.812500
4308,132.812500
4309,132.812500
4310,128.906250
4311,128.906250
4312,128.906250
4313,125.000000
4314,125.000000
4315,125.000000
4316,125.000000
4317,121.093750
4318,121.093750
4319,117.187500
4320,117.187500
4321,117.187500
4322,117.187500
4323,113.281250
4324,113.281250
4325,109.375000
4326,109.375000
4327,105.468750
4328,105.468750
4329,105.468750
4330,101.562500
4331,101.562500
4332,97.656250
4333,97.656250
4334,93.750000
4335,89.843750
4336,89.843750
4337,89.843750
4338,85.937500
4339,85.937500
4340,82.031250
4341,82.031250
4342,78.125000
4343,78.125000
4344,74.218750
4345,74.218750
4346,70.312500
4347,66.406250
4348,66.406250
4349,62.500000
4350,62.500000
4351,58.593750
4352,54.687500
4353,54.687500
4354,50.781250
4355,46.875000
4356,46.875000
4357,42.968750
4358,39.062500
4359,39.062500
4360,35.156250
4361,31.250000
4362,31.250000
4363,27.343750
4364,23.437500
4365,19.531250
4366,15.625000
4367,15.625000
4368,11.718750
4369,7.812500
4370,7.812500
4371,3.906250
4372,0.000000
4373,-3.906250
4374,-7.812500
4375,-7.812500
4376,-11.718750
4377,-15.625000
4378,-19.531250
4379,-23.437500
4380,-27.343750
4381,-31.250000
4382,-31.250000
4383,-35.156250
4384,-39.062500
4385,-42.968750
4386,-46.875000
4387,-50.781250
4388,-50.781250
4389,-54.687500
4390,-58.593750
4391,-62.500000
4392,-66.406250
4393,-70.312500
4394,-74.218750
4395,-74.218750
4396,-78.125000
4397,-82.031250
4398,-85.937500
4399,-89.843750
4400,-93.750000
4401,-97.656250
4402,-101.562500
4403,-101.562500
4404,-105.468750
4405,-109.375000
4406,-113.281250
4407,-117.187500
4408,-121.093750
4409,-125.000000
4410,-125.000000
4411,-128.906250
4412,-132.812500
4413,-136.718750
4414,-140.625000
4415,-144.531250
4416,-144.531250
4417,-148.437500
4418,-152.343750
4419,-156.250000
4420,-160.156250
4421,-160.156250
4422,-164.062500
4423,-167.968750
4424,-171.875000
4425,-175.781250
4426,-175.781250
4427,-179.687500
4428,-183.593750
4429,-187.500000
4430,-187.500000
4431,-191.406250
4432,-195.312500
4433,-199.218750
4434,-199.218750
4435,-203.125000
4436,-207.031250
4437,-207.031250
4438,-210.937500
4439,-210.937500
4440,-214.843750
4441,-218.750000
4442,-218.750000
4443,-222.656250
4444,-226.562500
4445,-226.562500
4446,-230.468750
4447,-230.468750
4448,-234.375000
4449,-234.375000
4450,-238.281250
4451,-238.281250
4452,-242.187500
4453,-246.093750
4454,-246.093750
4455,-246.093750
4456,-250.000000
4457,-250.000000
4458,-253.906250
4459,-253.906250
4460,-257.812500
4461,-257.812500
4462,-257.812500
4463,-261.718750
4464,-261.718750
4465,-261.718750
4466,-265.625000
4467,-265.625000
4468,-265.625000
4469,-269.531250
4470,-269.531250
4471,-269.531250
4472,-269.531250
4473,-273.437500
4474,-273.437500
4475,-273.437500
4476,-273.437500
4477,-273.437500
4478,-273.437500
4479,-273.437500
4480,-277.343750
4481,-277.343750
4482,-277.343750
4483,-277.343750
4484,-277.343750
4485,-277.343750
4486,-277.343750
4487,-277.343750
4488,-277.343750
4489,-277.343750
4490,-277.343750
4491,-277.343750
4492,-277.343750
4493,-277.343750
4494,-277.343750
4495,-277.343750
4496,-277.343750
4497,-277.343750
4498,-277.343750
4499,-273.437500
4500,-273.437500
4501,-273.437500
4502,-273.437500
4503,-273.437500
4504,-269.531250
4505,-269.531250
4506,-269.531250
4507,-269.531250
4508,-265.625000
4509,-265.625000
4510,-265.625000
4511,-261.718750
4512,-261.718750
4513,-261.718750
4514,-261.718750
4515,-257.812500
4516,-257.812500
4517,-253.906250
4518,-253.906250
4519,-250.000000
4520,-250.000000
4521,-246.093750
4522,-246.093750
4523,-246.093750
4524,-238.281250
4525,-242.187500
4526,-238.281250
4527,-238.281250
4528,-234.375000
4529,-234.375000
4530,-230.468750
4531,-230.468750
4532,-226.562500
4533,-222.656250
4534,-222.656250
4535,-218.750000
4536,-214.843750
4537,-214.843750
4538,-210.937500
4539,-210.937500
4540,-207.031250
4541,-203.125000
4542,-203.125000
4543,-199.218750
4544,-195.312500
4545,-191.406250
4546,-191.406250
4547,-187.500000
4548,-183.593750
4549,-179.687500
4550,-179.687500
4551,-175.781250
4552,-171.875000
4553,-167.968750
4554,-167.968750
4555,-164.062500
4556,-160.156250
4557,-156.250000
4558,-152.343750
4559,-152.343750
4560,-148.437500
4561,-144.531250
4562,-140.625000
4563,-136.718750
4564,-132.812500
4565,-132.812500
4566,-128.906250
4567,-125.000000
4568,-121.093750
4569,-117.187500
4570,-113.281250
4571,-109.375000
4572,-105.468750
4573,-105.468750
4574,-101.562500
4575,-97.656250
4576,-93.750000
4577,-89.843750
4578,-85.937500
4579,-82.031250
4580,-82.031250
4581,-78.125000
4582,-74.218750
4583,-70.312500
4584,-66.406250
4585,-62.500000
4586,-58.593750
4587,-54.687500
4588,-50.781250
4589,-50.781250
4590,-46.875000
4591,-42.968750
4592,-39.062500
4593,-35.156250
4594,-35.156250
4595,-31.250000
4596,-27.343750
4597,-23.437500
4598,-19.531250
4599,-19.531250
4600,-15.625000
4601,-11.718750
4602,-7.812500
4603,-3.906250
4604,0.000000
4605,0.000000
4606,3.906250
4607,7.812500
4608,11.718750
4609,15.625000
4610,15.625000
4611,19.531250
4612,23.437500
4613,23.437500
4614,27.343750
4615,31.250000
4616,35.156250
4617,35.156250
4618,39.062500
4619,42.968750
4620,42.968750
4621,46.875000
4622,50.781250
4623,50.781250
4624,54.687500
4625,58.593750
4626,58.593750
4627,62.500000
4628,66.406250
4629,66.406250
4630,70.312500
4631,70.312500
4632,74.218750
4633,74.218750
4634,78.125000
4635,82.031250
4636,82.031250
4637,85.937500
4638,85.937500
4639,89.843750
4640,89.843750
4641,93.750000
4642,93.750000
4643,97.656250
4644,97.656250
4645,101.562500
4646,101.562500
4647,101.562500
4648,105.468750
4649,105.468750
4650,105.468750
4651,109.375000
4652,109.375000
4653,113.281250
4654,113.281250
4655,113.281250
4656,117.187500
4657,117.187500
4658,121.093750
4659,121.093750
4660,121.093750
4661,125.000000
4662,125.000000
4663,125.000000
4664,125.000000
4665,128.906250
4666,128.906250
4667,128.906250
4668,128.906250
4669,132.812500
4670,132.812500
4671,132.812500
4672,132.812500
4673,136.718750
4674,136.718750
4675,136.718750
4676,136.718750
4677,136.718750
4678,140.625000
4679,140.625000
4680,140.625000
4681,140.625000
4682,140.625000
4683,136.718750
4684,140.625000
4685,140.625000
4686,144.531250
4687,144.531250
4688,144.531250
4689,144.531250
4690,144.531250
4691,144.531250
4692,144.531250
4693,144.531250
4694,144.531250
4695,144.531250
4696,144.531250
4697,144.531250
4698,144.531250
4699,144.531250
4700,144.531250
4701,144.531250
4702,144.531250
4703,144.531250
4704,144.531250
4705,144.531250
4706,140.625000
4707,140.625000
4708,144.531250
4709,140.625000
4710,140.625000
4711,140.625000
4712,140.625000
4713,140.625000
4714,140.625000
4715,136.718750
4716,136.718750
4717,136.718750
4718,136.718750
4719,136.718750
4720,136.718750
4721,136.718750
4722,132.812500
4723,132.812500
4724,132.812500
4725,128.906250
4726,128.906250
4727,128.906250
4728,128.906250
4729,128.906250
4730,125.000000
4731,125.000000
4732,125.000000
4733,121.093750
4734,121.093750
4735,121.093750
4736,117.187500
4737,117.187500
4738,117.187500
4739,113.281250
4740,113.281250
4741,113.281250
4742,109.375000
4743,109.375000
4744,105.468750
4745,105.468750
4746,105.468750
4747,101.562500
4748,101.562500
4749,97.656250
4750,97.656250
4751,93.750000
4752,93.750000
4753,93.750000
4754,89.843750
4755,85.937500
4756,85.937500
4757,82.031250
4758,82.031250
4759,78.125000
4760,78.125000
4761,74.218750
4762,74.218750
4763,70.312500
4764,66.406250
4765,66.406250
4766,62.500000
4767,58.593750
4768,58.593750
4769,54.687500
4770,50.781250
4771,50.781250
4772,46.875000
4773,42.968750
4774,42.968750
4775,39.062500
4776,35.156250
4777,35.156250
4778,31.250000
4779,27.343750
4780,23.437500
4781,23.437500
4782,19.531250
4783,15.625000
4784,11.718750
4785,11.718750
4786,7.812500
4787,3.906250
4788,0.000000
4789,-3.906250
4790,-3.906250
4791,-7.812500
4792,-11.718750
4793,-11.718750
4794,-15.625000
4795,-19.531250
4796,-23.437500
4797,-27.343750
4798,-31.250000
4799,-35.156250
4800,-39.062500
4801,-39.062500
4802,-42.968750
4803,-46.875000
4804,-50.781250
4805,-54.687500
4806,-54.687500
4807,-58.593750
4808,-62.500000
4809,-66.406250
4810,-70.312500
4811,-74.218750
4812,-78.125000
4813,-82.031250
4814,-82.031250
4815,-85.937500
4816,-89.843750
4817,-93.750000
4818,-97.656250
4819,-101.562500
4820,-105.468750
4821,-105.468750
4822,-109.375000
4823,-113.281250
4824,-117.187500
4825,-121.093750
4826,-125.000000
4827,-128.906250
4828,-132.812500
4829,-132.812500
4830,-136.718750
4831,-140.625000
4832,-144.531250
4833,-148.437500
4834,-148.437500
4835,-152.343750
4836,-156.250000
4837,-160.156250
4838,-164.062500
4839,-167.968750
4840,-167.968750
4841,-171.875000
4842,-175.781250
4843,-179.687500
4844,-179.687500
4845,-187.500000
4846,-187.500000
4847,-191.406250
4848,-195.312500
4849,-195.312500
4850,-199.218750
4851,-203.125000
4852,-203.125000
4853,-207.031250
4854,-207.031250
4855,-218.750000
4856,-214.843750
4857,-214.843750
4858,-218.750000
4859,-222.656250
4860,-222.656250
4861,-226.562500
4862,-230.468750
4863,-230.468750
4864,-230.468750
4865,-234.375000
4866,-238.281250
4867,-238.281250
4868,-242.187500
4869,-242.187500
4870,-246.093750
4871,-246.093750
4872,-250.000000
4873,-250.000000
4874,-250.000000
4875,-253.906250
4876,-253.906250
4877,-257.812500
4878,-257.812500
4879,-257.812500
4880,-261.718750
4881,-261.718750
4882,-261.718750
4883,-265.625000
4884,-265.625000
4885,-265.625000
4886,-269.531250
4887,-269.531250
4888,-269.531250
4889,-273.437500
4890,-273.437500
4891,-273.437500
4892,-273.437500
4893,-273.437500
4894,-273.437500
4895,-273.437500
4896,-277.343750
4897,-277.343750
4898,-277.343750
4899,-277.343750
4900,-277.343750
4901,-277.343750
4902,-277.343750
4903,-277.343750
4904,-277.343750
4905,-277.343750
4906,-277.343750
4907,-277.343750
4908,-277.343750
4909,-277.343750
4910,-277.343750
4911,-277.343750
4912,-277.343750
4913,-277.343750
4914,-277.343750
4915,-273.437500
4916,-273.437500
4917,-273.437500
4918,-273.437500
4919,-273.437500
4920,-273.437500
4921,-269.531250
4922,-269.531250
4923,-269.531250
4924,-269.531250
4925,-265.625000
4926,-265.625000
4927,-265.625000
4928,-261.718750
4929,-261.718750
4930,-261.718750
4931,-257.812500
4932,-257.812500
4933,-257.812500
4934,-253.906250
4935,-253.906250
4936,-250.000000
4937,-250.000000
4938,-246.093750
4939,-246.093750
4940,-246.093750
4941,-242.187500
4942,-238.281250
4943,-238.281250
4944,-234.375000
4945,-234.375000
4946,-230.468750
4947,-230.468750
4948,-226.562500
4949,-222.656250
4950,-222.656250
4951,-218.750000
4952,-218.750000
4953,-214.843750
4954,-210.937500
4955,-210.937500
4956,-207.031250
4957,-207.031250
4958,-203.125000
4959,-199.218750
4960,-199.218750
4961,-195.312500
4962,-191.406250
4963,-187.500000
4964,-187.500000
4965,-183.593750
4966,-179.687500
4967,-175.781250
4968,-175.781250
4969,-171.875000
4970,-167.968750
4971,-164.062500
4972,-164.062500
4973,-160.156250
4974,-156.250000
4975,-152.343750
4976,-148.437500
4977,-148.437500
4978,-144.531250
4979,-140.625000
4980,-136.718750
4981,-132.812500
4982,-128.906250
4983,-125.000000
4984,-125.000000
4985,-121.093750
4986,-117.187500
4987,-113.281250
4988,-109.375000
4989,-105.468750
4990,-101.562500
4991,-97.656250
4992,-97.656250
4993,-93.750000
4994,-89.843750
4995,-85.937500
4996,-82.031250
4997,-78.125000
4998,-74.218750
4999,-74.218750
5000,-70.312500
5001,-66.406250
5002,-62.500000
5003,-58.593750
5004,-54.687500
5005,-50.781250
5006,-46.875000
5007,-46.875000
5008,-42.968750
5009,-39.062500
5010,-35.156250
5011,-31.250000
5012,-27.343750
5013,-23.437500
5014,-23.437500
5015,-19.531250
5016,-15.625000
5017,-11.718750
5018,-11.718750
5019,-7.812500
5020,-3.906250
5021,0.000000
5022,3.906250
5023,3.906250
5024,7.812500
5025,11.718750
5026,11.718750
5027,15.625000
5028,19.531250
5029,23.437500
5030,27.343750
5031,27.343750
5032,31.250000
5033,35.156250
5034,39.062500
5035,39.062500
5036,42.968750
5037,46.875000
5038,46.875000
5039,50.781250
5040,50.781250
5041,54.687500
5042,58.593750
5043,58.593750
5044,62.500000
5045,66.406250
5046,66.406250
5047,70.312500
5048,70.312500
5049,74.218750
5050,78.125000
5051,78.125000
5052,82.031250
5053,82.031250
5054,85.937500
5055,85.937500
5056,85.937500
5057,89.843750
5058,93.750000
5059,93.750000
5060,97.656250
5061,101.562500
5062,101.562500
5063,101.562500
5064,105.468750
5065,105.468750
5066,105.468750
5067,109.375000
5068,109.375000
5069,113.281250
5070,113.281250
5071,113.281250
5072,117.187500
5073,117.187500
5074,117.187500
5075,121.093750
5076,121.093750
5077,121.093750
5078,125.000000
5079,125.000000
5080,125.000000
5081,128.906250
5082,128.906250
5083,128.906250
5084,128.906250
5085,128.906250
5086,132.812500
5087,132.812500
5088,132.812500
5089,132.812500
5090,136.718750
5091,136.718750
5092,136.718750
5093,136.718750
5094,140.625000
5095,140.625000
5096,140.625000
5097,140.625000
5098,140.625000
5099,140.625000
5100,140.625000
5101,140.625000
5102,140.625000
5103,140.625000
5104,144.531250
5105,140.625000
5106,148.437500
5107,144.531250
5108,144.531250
5109,144.531250
5110,144.531250
5111,144.531250
5112,144.531250
5113,144.531250
5114,144.531250
5115,144.531250
5116,144.531250
5117,144.531250
5118,144.531250
5119,144.531250
5120,144.531250
5121,144.531250
5122,144.531250
5123,144.531250
5124,140.625000
5125,140.625000
5126,140.625000
5127,140.625000
5128,140.625000
5129,140.625000
5130,140.625000
5131,140.625000
5132,140.625000
5133,136.718750
5134,136.718750
5135,136.718750
5136,136.718750
5137,132.812500
5138,132.812500
5139,132.812500
5140,132.812500
5141,132.812500
5142,132.812500
5143,128.906250
5144,128.906250
5145,128.906250
5146,128.906250
5147,125.000000
5148,125.000000
5149,125.000000
5150,121.093750
5151,121.093750
5152,121.093750
5153,117.187500
5154,117.187500
5155,117.187500
5156,113.281250
5157,113.281250
5158,109.375000
5159,109.375000
5160,109.375000
5161,105.468750
5162,105.468750
5163,101.562500
5164,101.562500
5165,97.656250
5166,97.656250
5167,97.656250
5168,93.750000
5169,93.750000
5170,89.843750
5171,89.843750
5172,85.937500
5173,85.937500
5174,82.031250
5175,78.125000
5176,78.125000
5177,74.218750
5178,74.218750
5179,70.312500
5180,70.312500
5181,66.406250
5182,62.500000
5183,62.500000
5184,58.593750
5185,58.593750
5186,54.687500
5187,50.781250
5188,50.781250
5189,46.875000
5190,42.968750
5191,42.968750
5192,39.062500
5193,35.156250
5194,31.250000
5195,31.250000
5196,27.343750
5197,23.437500
5198,23.437500
5199,19.531250
5200,15.625000
5201,11.718750
5202,11.718750
5203,7.812500
5204,3.906250
5205,0.000000
5206,0.000000
5207,-3.906250
5208,-7.812500
5209,-11.718750
5210,-11.718750
5211,-19.531250
5212,-19.531250
5213,-23.437500
5214,-27.343750
5215,-31.250000
5216,-35.156250
5217,-35.156250
5218,-39.062500
5219,-42.968750
5220,-46.875000
5221,-50.781250
5222,-54.687500
5223,-58.593750
5224,-62.500000
5225,-62.500000
5226,-70.312500
5227,-70.312500
5228,-74.218750
5229,-78.125000
5230,-82.031250
5231,-82.031250
5232,-89.843750
5233,-89.843750
5234,-93.750000
5235,-97.656250
5236,-101.562500
5237,-105.468750
5238,-109.375000
5239,-113.281250
5240,-117.187500
5241,-117.187500
5242,-121.093750
5243,-125.000000
5244,-128.906250
5245,-132.812500
5246,-136.718750
5247,-140.625000
5248,-140.625000
5249,-144.531250
5250,-148.437500
5251,-152.343750
5252,-156.250000
5253,-156.250000
5254,-160.156250
5255,-164.062500
5256,-167.968750
5257,-167.968750
5258,-171.875000
5259,-175.781250
5260,-179.687500
5261,-183.593750
5262,-183.593750
5263,-187.500000
5264,-191.406250
5265,-195.312500
5266,-195.312500
5267,-199.218750
5268,-203.125000
5269,-203.125000
5270,-207.031250
5271,-210.937500
5272,-210.937500
5273,-214.843750
5274,-218.750000
5275,-218.750000
5276,-222.656250
5277,-222.656250
5278,-226.562500
5279,-230.468750
5280,-230.468750
5281,-234.375000
5282,-234.375000
5283,-238.281250
5284,-238.281250
5285,-242.187500
5286,-242.187500
5287,-246.093750
5288,-246.093750
5289,-250.000000
5290,-250.000000
5291,-253.906250
5292,-253.906250
5293,-257.812500
5294,-257.812500
5295,-257.812500
5296,-261.718750
5297,-261.718750
5298,-261.718750
5299,-265.625000
5300,-265.625000
5301,-265.625000
5302,-265.625000
5303,-269.531250
5304,-269.531250
5305,-269.531250
5306,-269.531250
5307,-273.437500
5308,-273.437500
5309,-273.437500
5310,-273.437500
5311,-273.437500
5312,-277.343750
5313,-277.343750
5314,-277.343750
5315,-277.343750
5316,-277.343750
5317,-277.343750
5318,-277.343750
5319,-277.343750
5320,-277.343750
5321,-277.343750
5322,-277.343750
5323,-277.343750
5324,-277.343750
5325,-277.343750
5326,-277.343750
5327,-277.343750
5328,-277.343750
5329,-277.343750
5330,-277.343750
5331,-277.343750
5332,-273.437500
5333,-273.437500
5334,-273.437500
5335,-273.437500
5336,-273.437500
5337,-273.437500
5338,-269.531250
5339,-269.531250
5340,-269.531250
5341,-265.625000
5342,-265.625000
5343,-265.625000
5344,-261.718750
5345,-261.718750
5346,-261.718750
5347,-261.718750
5348,-257.812500
5349,-257.812500
5350,-253.906250
5351,-253.906250
5352,-253.906250
5353,-250.000000
5354,-250.000000
5355,-246.093750
5356,-246.093750
5357,-242.187500
5358,-242.187500
5359,-242.187500
5360,-238.281250
5361,-234.375000
5362,-234.375000
5363,-230.468750
5364,-230.468750
5365,-226.562500
5366,-222.656250
5367,-222.656250
5368,-218.750000
5369,-218.750000
5370,-214.843750
5371,-210.937500
5372,-210.937500
5373,-207.031250
5374,-203.125000
5375,-203.125000
5376,-199.218750
5377,-195.312500
5378,-195.312500
5379,-191.406250
5380,-187.500000
5381,-183.593750
5382,-183.593750
5383,-179.687500
5384,-175.781250
5385,-171.875000
5386,-171.875000
5387,-167.968750
5388,-164.062500
5389,-160.156250
5390,-156.250000
5391,-156.250000
5392,-152.343750
5393,-148.437500
5394,-144.531250
5395,-140.625000
5396,-136.718750
5397,-136.718750
5398,-132.812500
5399,-128.906250
5400,-125.000000
5401,-121.093750
5402,-117.187500
5403,-113.281250
5404,-113.281250
5405,-109.375000
5406,-105.468750
5407,-101.562500
5408,-97.656250
5409,-93.750000
5410,-89.843750
5411,-89.843750
5412,-85.937500
5413,-82.031250
5414,-78.125000
5415,-74.218750
5416,-70.312500
5417,-66.406250
5418,-62.500000
5419,-62.500000
5420,-58.593750
5421,-54.687500
5422,-50.781250
5423,-46.875000
5424,-42.968750
5425,-39.062500
5426,-39.062500
5427,-35.156250
5428,-31.250000
5429,-27.343750
5430,-23.437500
5431,-23.437500
5432,-19.531250
5433,-15.625000
5434,-11.718750
5435,-7.812500
5436,-7.812500
5437,-3.906250
5438,0.000000
5439,3.906250
5440,7.812500
5441,11.718750
5442,11.718750
5443,15.625000
5444,19.531250
5445,19.531250
5446,23.437500
5447,27.343750
5448,31.250000
5449,31.250000
5450,35.156250
5451,39.062500
5452,39.062500
5453,42.968750
5454,46.875000
5455,46.875000
5456,50.781250
5457,54.687500
5458,54.687500
5459,58.593750
5460,62.500000
5461,62.500000
5462,66.406250
5463,66.406250
5464,70.312500
5465,70.312500
5466,74.218750
5467,78.125000
5468,78.125000
5469,82.031250
5470,85.937500
5471,85.937500
5472,89.843750
5473,89.843750
5474,89.843750
5475,93.750000
5476,93.750000
5477,97.656250
5478,97.656250
5479,101.562500
5480,101.562500
5481,105.468750
5482,109.375000
5483,109.375000
5484,109.375000
5485,109.375000
5486,113.281250
5487,113.281250
5488,113.281250
5489,117.187500
5490,117.187500
5491,121.093750
5492,121.093750
5493,121.093750
5494,121.093750
5495,125.000000
5496,125.000000
5497,128.906250
5498,128.906250
5499,128.906250
5500,128.906250
5501,128.906250
5502,132.812500
5503,132.812500
5504,132.812500
5505,132.812500
5506,136.718750
5507,136.718750
5508,136.718750
5509,136.718750
5510,136.718750
5511,136.718750
5512,140.625000
5513,140.625000
5514,140.625000
5515,140.625000
5516,140.625000
5517,140.625000
5518,140.625000
5519,140.625000
5520,144.531250
5521,144.531250
5522,144.531250
5523,144.531250
5524,144.531250
5525,144.531250
5526,144.531250
5527,144.531250
5528,144.531250
5529,144.531250
5530,144.531250
5531,144.531250
5532,144.531250
5533,144.531250
5534,144.531250
5535,144.531250
5536,144.531250
5537,140.625000
5538,144.531250
5539,144.531250
5540,140.625000
5541,144.531250
5542,140.625000
5543,140.625000
5544,140.625000
5545,140.625000
5546,140.625000
5547,140.625000
5548,140.625000
5549,136.718750
5550,136.718750
5551,136.718750
5552,136.718750
5553,136.718750
5554,136.718750
5555,132.812500
5556,132.812500
5557,132.812500
5558,132.812500
5559,128.906250
5560,128.906250
5561,128.906250
5562,128.906250
5563,125.000000
5564,125.000000
5565,125.000000
5566,125.000000
5567,121.093750
5568,121.093750
5569,117.187500
5570,117.187500
5571,117.187500
5572,117.187500
5573,113.281250
5574,113.281250
5575,109.375000
5576,109.375000
5577,105.468750
5578,105.468750
5579,105.468750
5580,101.562500
5581,101.562500
5582,101.562500
5583,97.656250
5584,93.750000
5585,93.750000
5586,93.750000
5587,89.843750
5588,85.937500
5589,85.937500
5590,85.937500
5591,82.031250
5592,78.125000
5593,78.125000
5594,74.218750
5595,74.218750
5596,70.312500
5597,66.406250
5598,66.406250
5599,62.500000
5600,62.500000
5601,58.593750
5602,58.593750
5603,54.687500
5604,50.781250
5605,46.875000
5606,42.968750
5607,42.968750
5608,39.062500
5609,39.062500
5610,35.156250
5611,31.250000
5612,27.343750
5613,27.343750
5614,23.437500
5615,19.531250
5616,15.625000
5617,15.625000
5618,11.718750
5619,7.812500
5620,3.906250
5621,3.906250
5622,0.000000
5623,-3.906250
5624,-7.812500
5625,-7.812500
5626,-11.718750
5627,-15.625000
5628,-19.531250
5629,-23.437500
5630,-27.343750
5631,-27.343750
5632,-31.250000
5633,-35.156250
5634,-39.062500
5635,-42.968750
5636,-46.875000
5637,-46.875000
5638,-54.687500
5639,-54.687500
5640,-58.593750
5641,-62.500000
5642,-66.406250
5643,-70.312500
5644,-74.218750
5645,-78.125000
5646,-78.125000
5647,-82.031250
5648,-85.937500
5649,-89.843750
5650,-93.750000
5651,-97.656250
5652,-101.562500
5653,-101.562500
5654,-105.468750
5655,-109.375000
5656,-113.281250
5657,-117.187500
5658,-121.093750
5659,-125.000000
5660,-125.000000
5661,-128.906250
5662,-132.812500
5663,-136.718750
5664,-140.625000
5665,-144.531250
5666,-144.531250
5667,-148.437500
5668,-152.343750
5669,-156.250000
5670,-160.156250
5671,-164.062500
5672,-164.062500
5673,-167.968750
5674,-171.875000
5675,-175.781250
5676,-175.781250
5677,-179.687500
5678,-183.593750
5679,-187.500000
5680,-187.500000
5681,-191.406250
5682,-195.312500
5683,-199.218750
5684,-199.218750
5685,-203.125000
5686,-207.031250
5687,-207.031250
5688,-210.937500
5689,-214.843750
5690,-214.843750
5691,-218.750000
5692,-222.656250
5693,-222.656250
5694,-226.562500
5695,-226.562500
5696,-230.468750
5697,-230.468750
5698,-234.375000
5699,-234.375000
5700,-238.281250
5701,-238.281250
5702,-242.187500
5703,-242.187500
5704,-246.093750
5705,-246.093750
5706,-250.000000
5707,-250.000000
5708,-253.906250
5709,-253.906250
5710,-257.812500
5711,-257.812500
5712,-257.812500
5713,-261.718750
5714,-261.718750
5715,-261.718750
5716,-265.625000
5717,-265.625000
5718,-265.625000
5719,-269.531250
5720,-269.531250
5721,-269.531250
5722,-269.531250
5723,-273.437500
5724,-273.437500
5725,-273.437500
5726,-273.437500
5727,-273.437500
5728,-273.437500
5729,-273.437500
5730,-277.343750
5731,-277.343750
5732,-277.343750
5733,-277.343750
5734,-277.343750
5735,-277.343750
5736,-277.343750
5737,-277.343750
5738,-277.343750
5739,-277.343750
5740,-277.343750
5741,-277.343750
5742,-277.343750
5743,-277.343750
5744,-277.343750
5745,-277.343750
5746,-277.343750
5747,-277.343750
5748,-277.343750
5749,-273.437500
5750,-273.437500
5751,-273.437500
5752,-273.437500
5753,-269.531250
5754,-269.531250
5755,-269.531250
5756,-269.531250
5757,-269.531250
5758,-265.625000
5759,-265.625000
5760,-265.625000
5761,-261.718750
5762,-261.718750
5763,-261.718750
5764,-257.812500
5765,-257.812500
5766,-257.812500
5767,-253.906250
5768,-253.906250
5769,-253.906250
5770,-250.000000
5771,-246.093750
5772,-246.093750
5773,-246.093750
5774,-242.187500
5775,-242.187500
5776,-238.281250
5777,-234.375000
5778,-234.375000
5779,-234.375000
5780,-230.468750
5781,-226.562500
5782,-226.562500
5783,-222.656250
5784,-222.656250
5785,-218.750000
5786,-214.843750
5787,-214.843750
5788,-210.937500
5789,-207.031250
5790,-207.031250
5791,-203.125000
5792,-199.218750
5793,-199.218750
5794,-195.312500
5795,-191.406250
5796,-191.406250
5797,-187.500000
5798,-183.593750
5799,-179.687500
5800,-179.687500
5801,-175.781250
5802,-171.875000
5803,-167.968750
5804,-164.062500
5805,-164.062500
5806,-160.156250
5807,-156.250000
5808,-152.343750
5809,-152.343750
5810,-148.437500
5811,-144.531250
5812,-140.625000
5813,-136.718750
5814,-132.812500
5815,-128.906250
5816,-128.906250
5817,-125.000000
5818,-117.187500
5819,-117.187500
5820,-113.281250
5821,-109.375000
5822,-105.468750
5823,-105.468750
5824,-101.562500
5825,-97.656250
5826,-93.750000
5827,-89.843750
5828,-85.937500
5829,-82.031250
5830,-78.125000
5831,-78.125000
5832,-74.218750
5833,-70.312500
5834,-66.406250
5835,-58.593750
5836,-58.593750
5837,-54.687500
5838,-54.687500
5839,-50.781250
5840,-46.875000
5841,-42.968750
5842,-39.062500
5843,-35.156250
5844,-31.250000
5845,-31.250000
5846,-27.343750
5847,-23.437500
5848,-19.531250
5849,-15.625000
5850,-15.625000
5851,-11.718750
5852,-7.812500
5853,-3.906250
5854,0.000000
5855,0.000000
5856,3.906250
5857,7.812500
5858,11.718750
5859,11.718750
5860,15.625000
5861,19.531250
5862,23.437500
5863,23.437500
5864,27.343750
5865,31.250000
5866,35.156250
5867,35.156250
5868,39.062500
5869,42.968750
5870,42.968750
5871,46.875000
5872,50.781250
5873,50.781250
5874,54.687500
5875,58.593750
5876,58.593750
5877,62.500000
5878,62.500000
5879,66.406250
5880,66.406250
5881,70.312500
5882,74.218750
5883,74.218750
5884,78.125000
5885,78.125000
5886,82.031250
5887,85.937500
5888,85.937500
5889,89.843750
5890,89.843750
5891,89.843750
5892,93.750000
5893,97.656250
5894,97.656250
5895,101.562500
5896,101.562500
5897,101.562500
5898,105.468750
5899,105.468750
5900,109.375000
5901,109.375000
5902,113.281250
5903,113.281250
5904,113.281250
5905,117.187500
5906,117.187500
5907,117.187500
5908,117.187500
5909,121.093750
5910,121.093750
5911,125.000000
5912,125.000000
5913,125.000000
5914,128.906250
5915,128.906250
5916,128.906250
5917,128.906250
5918,132.812500
5919,132.812500
5920,132.812500
5921,132.812500
5922,136.718750
5923,136.718750
5924,136.718750
5925,136.718750
5926,136.718750
5927,136.718750
5928,140.625000
5929,140.625000
5930,140.625000
5931,140.625000
5932,140.625000
5933,140.625000
5934,140.625000
5935,140.625000
5936,140.625000
5937,140.625000
5938,140.625000
5939,144.531250
5940,144.531250
5941,144.531250
5942,144.531250
5943,144.531250
5944,144.531250
5945,144.531250
5946,144.531250
5947,144.531250
5948,144.531250
5949,144.531250
5950,144.531250
5951,144.531250
5952,144.531250
5953,144.531250
5954,144.531250
5955,144.531250
5956,140.625000
5957,140.625000
5958,140.625000
5959,140.625000
5960,140.625000
5961,140.625000
5962,140.625000
5963,140.625000
5964,140.625000
5965,136.718750
5966,136.718750
5967,136.718750
5968,136.718750
5969,136.718750
5970,136.718750
5971,136.718750
5972,132.812500
5973,132.812500
5974,132.812500
5975,132.812500
5976,128.906250
5977,128.906250
5978,128.906250
5979,125.000000
5980,125.000000
5981,125.000000
5982,125.000000
5983,121.093750
5984,121.093750
5985,121.093750
5986,117.187500
5987,117.187500
5988,117.187500
5989,113.281250
5990,113.281250
5991,113.281250
5992,109.375000
5993,109.375000
5994,109.375000
5995,105.468750
5996,105.468750
5997,101.562500
5998,101.562500
5999,97.656250
6000,97.656250
6001,93.750000
6002,93.750000
6003,89.843750
6004,89.843750
6005,85.937500
6006,85.937500
6007,82.031250
6008,82.031250
6009,78.125000
6010,74.218750
6011,74.218750
6012,70.312500
6013,70.312500
6014,66.406250
6015,66.406250
6016,62.500000
6017,58.593750
6018,54.687500
6019,54.687500
6020,54.687500
6021,50.781250
6022,46.875000
6023,42.968750
6024,42.968750
6025,39.062500
6026,35.156250
6027,35.156250
6028,31.250000
6029,27.343750
6030,27.343750
6031,23.437500
6032,19.531250
6033,15.625000
6034,15.625000
6035,11.718750
6036,7.812500
6037,3.906250
6038,3.906250
6039,-3.906250
6040,-3.906250
6041,-7.812500
6042,-11.718750
6043,-15.625000
6044,-15.625000
6045,-19.531250
6046,-23.437500
6047,-27.343750
6048,-31.250000
6049,-31.250000
6050,-35.156250
6051,-39.062500
6052,-42.968750
6053,-46.875000
6054,-50.781250
6055,-54.687500
6056,-54.687500
6057,-58.593750
6058,-62.500000
6059,-66.406250
6060,-70.312500
6061,-74.218750
6062,-78.125000
6063,-82.031250
6064,-82.031250
6065,-85.937500
6066,-89.843750
6067,-93.750000
6068,-97.656250
6069,-101.562500
6070,-105.468750
6071,-109.375000
6072,-109.375000
6073,-113.281250
6074,-117.187500
6075,-121.093750
6076,-125.000000
6077,-128.906250
6078,-132.812500
6079,-136.718750
6080,-136.718750
6081,-140.625000
6082,-144.531250
6083,-148.437500
6084,-152.343750
6085,-152.343750
6086,-156.250000
6087,-160.156250
6088,-164.062500
6089,-164.062500
6090,-167.968750
6091,-171.875000
6092,-175.781250
6093,-179.687500
6094,-179.687500
6095,-183.593750
6096,-187.500000
6097,-191.406250
6098,-191.406250
6099,-195.312500
6100,-199.218750
6101,-199.218750
6102,-203.125000
6103,-207.031250
6104,-207.031250
6105,-210.937500
6106,-214.843750
6107,-214.843750
6108,-218.750000
6109,-222.656250
6110,-222.656250
6111,-226.562500
6112,-230.468750
6113,-230.468750
6114,-230.468750
6115,-234.375000
6116,-238.281250
6117,-238.281250
6118,-242.187500
6119,-242.187500
6120,-246.093750
6121,-246.093750
6122,-250.000000
6123,-250.000000
6124,-250.000000
6125,-253.906250
6126,-253.906250
6127,-253.906250
6128,-257.812500
6129,-261.718750
6130,-261.718750
6131,-261.718750
6132,-261.718750
6133,-265.625000
6134,-265.625000
6135,-265.625000
6136,-269.531250
6137,-269.531250
6138,-269.531250
6139,-273.437500
6140,-273.437500
6141,-273.437500
6142,-273.437500
6143,-273.437500
6144,-273.437500
6145,-273.437500
6146,-277.343750
6147,-277.343750
6148,-277.343750
6149,-277.343750
6150,-277.343750
6151,-277.343750
6152,-281.250000
6153,-277.343750
6154,-277.343750
6155,-277.343750
6156,-277.343750
6157,-277.343750
6158,-277.343750
6159,-277.343750
6160,-277.343750
6161,-277.343750
6162,-277.343750
6163,-277.343750
6164,-277.343750
6165,-277.343750
6166,-273.437500
6167,-273.437500
6168,-273.437500
6169,-269.531250
6170,-273.437500
6171,-269.531250
6172,-269.531250
6173,-269.531250
6174,-269.531250
6175,-265.625000
6176,-265.625000
6177,-265.625000
6178,-261.718750
6179,-261.718750
6180,-261.718750
6181,-257.812500
6182,-257.812500
6183,-253.906250
6184,-253.906250
6185,-253.906250
6186,-250.000000
6187,-250.000000
6188,-246.093750
6189,-242.187500
6190,-246.093750
6191,-242.187500
6192,-238.281250
6193,-238.281250
6194,-234.375000
6195,-234.375000
6196,-230.468750
6197,-230.468750
6198,-226.562500
6199,-226.562500
6200,-222.656250
6201,-218.750000
6202,-218.750000
6203,-214.843750
6204,-210.937500
6205,-210.937500
6206,-207.031250
6207,-207.031250
6208,-203.125000
6209,-199.218750
6210,-199.218750
6211,-195.312500
6212,-191.406250
6213,-187.500000
6214,-187.500000
6215,-183.593750
6216,-179.687500
6217,-175.781250
6218,-175.781250
6219,-171.875000
6220,-167.968750
6221,-164.062500
6222,-160.156250
6223,-160.156250
6224,-156.250000
6225,-152.343750
6226,-148.437500
6227,-144.531250
6228,-144.531250
6229,-140.625000
6230,-136.718750
6231,-132.812500
6232,-128.906250
6233,-125.000000
6234,-125.000000
6235,-117.187500
6236,-117.187500
6237,-113.281250
6238,-109.375000
6239,-105.468750
6240,-101.562500
6241,-97.656250
6242,-97.656250
6243,-93.750000
6244,-89.843750
6245,-85.937500
6246,-82.031250
6247,-78.125000
6248,-74.218750
6249,-70.312500
6250,-70.312500
6251,-66.406250
6252,-62.500000
6253,-58.593750
6254,-54.687500
6255,-50.781250
6256,-50.781250
6257,-46.875000
6258,-42.968750
6259,-39.062500
6260,-35.156250
6261,-31.250000
6262,-27.343750
6263,-27.343750
6264,-23.437500
6265,-19.531250
6266,-15.625000
6267,-11.718750
6268,-11.718750
6269,-7.812500
6270,-3.906250
6271,0.000000
6272,3.906250
6273,3.906250
6274,7.812500
6275,11.718750
6276,15.625000
6277,15.625000
6278,19.531250
6279,23.437500
6280,27.343750
6281,31.250000
6282,31.250000
6283,35.156250
6284,39.062500
6285,39.062500
6286,42.968750
6287,46.875000
6288,46.875000
6289,50.781250
6290,54.687500
6291,54.687500
6292,58.593750
6293,62.500000
6294,62.500000
6295,66.406250
6296,66.406250
6297,70.312500
6298,74.218750
6299,74.218750
6300,78.125000
6301,78.125000
6302,82.031250
6303,82.031250
6304,85.937500
6305,85.937500
6306,89.843750
6307,89.843750
6308,93.750000
6309,93.750000
6310,97.656250
6311,97.656250
6312,101.562500
6313,101.562500
6314,105.468750
6315,105.468750
6316,105.468750
6317,109.375000
6318,109.375000
6319,113.281250
6320,113.281250
6321,113.281250
6322,117.187500
6323,117.187500
6324,117.187500
6325,121.093750
6326,121.093750
6327,121.093750
6328,125.000000
6329,125.000000
6330,125.000000
6331,125.000000
6332,128.906250
6333,128.906250
6334,128.906250
6335,132.812500
6336,132.812500
6337,132.812500
6338,132.812500
6339,132.812500
6340,136.718750
6341,136.718750
6342,136.718750
6343,136.718750
6344,136.718750
6345,136.718750
6346,140.625000
6347,140.625000
6348,140.625000
6349,140.625000
6350,140.625000
6351,140.625000
6352,140.625000
6353,144.531250
6354,144.531250
6355,144.531250
6356,144.531250
6357,144.531250
6358,144.531250
6359,144.531250
6360,144.531250
6361,144.531250
6362,144.531250
6363,144.531250
6364,144.531250
6365,144.531250
6366,144.531250
6367,144.531250
6368,144.531250
6369,144.531250
6370,144.531250
6371,144.531250
6372,140.625000
6373,148.437500
6374,140.625000
6375,144.531250
6376,140.625000
6377,140.625000
6378,140.625000
6379,140.625000
6380,140.625000
6381,140.625000
6382,140.625000
6383,136.718750
6384,136.718750
6385,136.718750
6386,136.718750
6387,136.718750
6388,132.812500
6389,132.812500
6390,132.812500
6391,132.812500
6392,128.906250
6393,128.906250
6394,128.906250
6395,128.906250
6396,125.000000
6397,125.000000
6398,125.000000
6399,121.093750
6400,121.093750
6401,121.093750
6402,121.093750
6403,117.187500
6404,117.187500
6405,117.187500
6406,113.281250
6407,113.281250
6408,113.281250
6409,109.375000
6410,109.375000
6411,105.468750
6412,105.468750
6413,101.562500
6414,101.562500
6415,97.656250
6416,97.656250
6417,97.656250
6418,93.750000
6419,93.750000
6420,89.843750
6421,85.937500
6422,85.937500
6423,85.937500
6424,82.031250
6425,78.125000
6426,78.125000
6427,82.031250
6428,74.218750
6429,70.312500
6430,66.406250
6431,66.406250
6432,62.500000
6433,62.500000
6434,58.593750
6435,54.687500
6436,54.687500
6437,50.781250
6438,50.781250
6439,46.875000
6440,42.968750
6441,42.968750
6442,39.062500
6443,35.156250
6444,35.156250
6445,31.250000
6446,27.343750
6447,23.437500
6448,19.531250
6449,15.625000
6450,15.625000
6451,11.718750
6452,7.812500
6453,7.812500
6454,3.906250
6455,0.000000
6456,-3.906250
6457,-3.906250
6458,-7.812500
6459,-11.718750
6460,-15.625000
6461,-19.531250
6462,-23.437500
6463,-23.437500
6464,-27.343750
6465,-31.250000
6466,-35.156250
6467,-39.062500
6468,-42.968750
6469,-46.875000
6470,-46.875000
6471,-54.687500
6472,-54.687500
6473,-58.593750
6474,-62.500000
6475,-66.406250
6476,-66.406250
6477,-74.218750
6478,-74.218750
6479,-82.031250
6480,-82.031250
6481,-85.937500
6482,-89.843750
6483,-89.843750
6484,-97.656250
6485,-97.656250
6486,-101.562500
6487,-105.468750
6488,-109.375000
6489,-113.281250
6490,-117.187500
6491,-121.093750
6492,-121.093750
6493,-125.000000
6494,-128.906250
6495,-132.812500
6496,-136.718750
6497,-136.718750
6498,-140.625000
6499,-144.531250
6500,-148.437500
6501,-152.343750
6502,-156.250000
6503,-156.250000
6504,-160.156250
6505,-164.062500
6506,-167.968750
6507,-171.875000
6508,-175.781250
6509,-175.781250
6510,-179.687500
6511,-183.593750
6512,-183.593750
6513,-187.500000
6514,-191.406250
6515,-191.406250
6516,-195.312500
6517,-199.218750
6518,-203.125000
6519,-203.125000
6520,-207.031250
6521,-210.937500
6522,-210.937500
6523,-214.843750
6524,-218.750000
6525,-218.750000
6526,-222.656250
6527,-226.562500
6528,-226.562500
6529,-230.468750
6530,-230.468750
6531,-234.375000
6532,-234.375000
6533,-238.281250
6534,-238.281250
6535,-242.187500
6536,-242.187500
6537,-246.093750
6538,-246.093750
6539,-250.000000
6540,-250.000000
6541,-250.000000
6542,-253.906250
6543,-253.906250
6544,-257.812500
6545,-257.812500
6546,-261.718750
6547,-261.718750
6548,-261.718750
6549,-265.625000
6550,-265.625000
6551,-265.625000
6552,-269.531250
6553,-269.531250
6554,-269.531250
6555,-269.531250
6556,-269.531250
6557,-273.437500
6558,-273.437500
6559,-273.437500
6560,-273.437500
6561,-273.437500
6562,-273.437500
6563,-277.343750
6564,-277.343750
6565,-277.343750
6566,-277.343750
6567,-277.343750
6568,-277.343750
6569,-277.343750
6570,-277.343750
6571,-277.343750
6572,-277.343750
6573,-277.343750
6574,-277.343750
6575,-277.343750
6576,-277.343750
6577,-277.343750
6578,-277.343750
6579,-277.343750
6580,-277.343750
6581,-273.437500
6582,-277.343750
6583,-273.437500
6584,-273.437500
6585,-273.437500
6586,-273.437500
6587,-265.625000
6588,-269.531250
6589,-269.531250
6590,-269.531250
6591,-265.625000
6592,-265.625000
6593,-265.625000
6594,-265.625000
6595,-261.718750
6596,-261.718750
6597,-261.718750
6598,-257.812500
6599,-257.812500
6600,-253.906250
6601,-253.906250
6602,-253.906250
6603,-250.000000
6604,-250.000000
6605,-246.093750
6606,-246.093750
6607,-242.187500
6608,-242.187500
6609,-238.281250
6610,-238.281250
6611,-234.375000
6612,-234.375000
6613,-230.468750
6614,-226.562500
6615,-226.562500
6616,-222.656250
6617,-222.656250
6618,-218.750000
6619,-214.843750
6620,-214.843750
6621,-210.937500
6622,-210.937500
6623,-207.031250
6624,-203.125000
6625,-203.125000
6626,-199.218750
6627,-195.312500
6628,-191.406250
6629,-191.406250
6630,-187.500000
6631,-183.593750
6632,-183.593750
6633,-179.687500
6634,-175.781250
6635,-171.875000
6636,-171.875000
6637,-167.968750
6638,-164.062500
6639,-160.156250
6640,-156.250000
6641,-156.250000
6642,-152.343750
6643,-148.437500
6644,-144.531250
6645,-140.625000
6646,-140.625000
6647,-136.718750
6648,-132.812500
6649,-128.906250
6650,-125.000000
6651,-121.093750
6652,-117.187500
6653,-117.187500
6654,-113.281250
6655,-109.375000
6656,-105.468750
6657,-101.562500
6658,-97.656250
6659,-97.656250
6660,-93.750000
6661,-85.937500
6662,-85.937500
6663,-82.031250
6664,-78.125000
6665,-74.218750
6666,-70.312500
6667,-66.406250
6668,-66.406250
6669,-62.500000
6670,-58.593750
6671,-54.687500
6672,-50.781250
6673,-46.875000
6674,-42.968750
6675,-42.968750
6676,-39.062500
6677,-35.156250
6678,-31.250000
6679,-27.343750
6680,-23.437500
6681,-19.531250
6682,-19.531250
6683,-15.625000
6684,-11.718750
6685,-7.812500
6686,-7.812500
6687,-3.906250
6688,0.000000
6689,3.906250
6690,7.812500
6691,7.812500
6692,11.718750
6693,15.625000
6694,19.531250
6695,19.531250
6696,23.437500
6697,27.343750
6698,31.250000
6699,31.250000
6700,35.156250
6701,39.062500
6702,39.062500
6703,42.968750
6704,46.875000
6705,46.875000
6706,50.781250
6707,54.687500
6708,54.687500
6709,58.593750
6710,62.500000
6711,62.500000
6712,66.406250
6713,66.406250
6714,70.312500
6715,74.218750
6716,74.218750
6717,78.125000
6718,78.125000
6719,82.031250
6720,82.031250
6721,85.937500
6722,85.937500
6723,89.843750
6724,89.843750
6725,93.750000
6726,93.750000
6727,97.656250
6728,97.656250
6729,101.562500
6730,101.562500
6731,105.468750
6732,105.468750
6733,105.468750
6734,109.375000
6735,109.375000
6736,113.281250
6737,113.281250
6738,117.187500
6739,117.187500
6740,117.187500
6741,117.187500
6742,121.093750
6743,121.093750
6744,121.093750
6745,125.000000
6746,125.000000
6747,125.000000
6748,128.906250
6749,128.906250
6750,128.906250
6751,128.906250
6752,132.812500
6753,132.812500
6754,132.812500
6755,132.812500
6756,132.812500
6757,136.718750
6758,136.718750
6759,136.718750
6760,136.718750
6761,136.718750
6762,136.718750
6763,140.625000
6764,140.625000
6765,140.625000
6766,140.625000
6767,140.625000
6768,140.625000
6769,144.531250
6770,140.625000
6771,140.625000
6772,144.531250
6773,144.531250
6774,144.531250
6775,144.531250
6776,144.531250
6777,144.531250
6778,144.531250
6779,144.531250
6780,144.531250
6781,144.531250
6782,144.531250
6783,144.531250
6784,144.531250
6785,144.531250
6786,144.531250
6787,144.531250
6788,144.531250
6789,144.531250
6790,140.625000
6791,140.625000
6792,144.531250
6793,140.625000
6794,140.625000
6795,140.625000
6796,140.625000
6797,140.625000
6798,140.625000
6799,136.718750
6800,136.718750
6801,136.718750
6802,136.718750
6803,136.718750
6804,136.718750
6805,132.812500
6806,132.812500
6807,128.906250
6808,132.812500
6809,128.906250
6810,128.906250
6811,128.906250
6812,128.906250
6813,125.000000
6814,125.000000
6815,125.000000
6816,121.093750
6817,121.093750
6818,121.093750
6819,121.093750
6820,117.187500
6821,117.187500
6822,113.281250
6823,113.281250
6824,109.375000
6825,109.375000
6826,109.375000
6827,109.375000
6828,105.468750
6829,105.468750
6830,101.562500
6831,101.562500
6832,97.656250
6833,97.656250
6834,93.750000
6835,93.750000
6836,89.843750
6837,89.843750
6838,85.937500
6839,85.937500
6840,82.031250
6841,82.031250
6842,78.125000
6843,78.125000
6844,74.218750
6845,70.312500
6846,70.312500
6847,70.312500
6848,66.406250
6849,62.500000
6850,58.593750
6851,58.593750
6852,54.687500
6853,50.781250
6854,50.781250
6855,46.875000
6856,46.875000
6857,42.968750
6858,42.968750
6859,39.062500
6860,35.156250
6861,31.250000
6862,31.250000
6863,27.343750
6864,23.437500
6865,19.531250
6866,15.625000
6867,15.625000
6868,11.718750
6869,11.718750
6870,3.906250
6871,3.906250
6872,0.000000
6873,-3.906250
6874,-7.812500
6875,-11.718750
6876,-11.718750
6877,-15.625000
6878,-19.531250
6879,-23.437500
6880,-27.343750
6881,-27.343750
6882,-31.250000
6883,-35.156250
6884,-39.062500
6885,-42.968750
6886,-46.875000
6887,-50.781250
6888,-50.781250
6889,-54.687500
6890,-58.593750
6891,-62.500000
6892,-66.406250
6893,-70.312500
6894,-74.218750
6895,-78.125000
6896,-78.125000
6897,-82.031250
6898,-85.937500
6899,-89.843750
6900,-93.750000
6901,-93.750000
6902,-101.562500
6903,-105.468750
6904,-105.468750
6905,-109.375000
6906,-113.281250
6907,-117.187500
6908,-121.093750
6909,-121.093750
6910,-128.906250
6911,-128.906250
6912,-132.812500
6913,-136.718750
6914,-140.625000
6915,-144.531250
6916,-148.437500
6917,-148.437500
6918,-152.343750
6919,-156.250000
6920,-160.156250
6921,-164.062500
6922,-164.062500
6923,-167.968750
6924,-171.875000
6925,-175.781250
6926,-175.781250
6927,-179.687500
6928,-183.593750
6929,-187.500000
6930,-187.500000
6931,-191.406250
6932,-195.312500
6933,-199.218750
6934,-199.218750
6935,-203.125000
6936,-207.031250
6937,-207.031250
6938,-210.937500
6939,-214.843750
6940,-214.843750
6941,-218.750000
6942,-222.656250
6943,-222.656250
6944,-226.562500
6945,-226.562500
6946,-230.468750
6947,-230.468750
6948,-234.375000
6949,-234.375000
6950,-238.281250
6951,-238.281250
6952,-242.187500
6953,-242.187500
6954,-246.093750
6955,-246.093750
6956,-250.000000
6957,-250.000000
6958,-253.906250
6959,-253.906250
6960,-257.812500
6961,-257.812500
6962,-257.812500
6963,-261.718750
6964,-261.718750
6965,-261.718750
6966,-265.625000
6967,-265.625000
6968,-265.625000
6969,-265.625000
6970,-269.531250
6971,-269.531250
6972,-269.531250
6973,-273.437500
6974,-273.437500
6975,-273.437500
6976,-273.437500
6977,-273.437500
6978,-277.343750
6979,-277.343750
6980,-277.343750
6981,-277.343750
6982,-277.343750
6983,-277.343750
6984,-277.343750
6985,-277.343750
6986,-277.343750
6987,-277.343750
6988,-277.343750
6989,-277.343750
6990,-277.343750
6991,-277.343750
6992,-277.343750
6993,-277.343750
6994,-277.343750
6995,-277.343750
6996,-277.343750
6997,-277.343750
6998,-277.343750
6999,-277.343750
7000,-273.437500
7001,-273.437500
7002,-273.437500
7003,-273.437500
7004,-269.531250
7005,-269.531250
7006,-269.531250
7007,-269.531250
7008,-265.625000
7009,-265.625000
7010,-265.625000
7011,-265.625000
7012,-261.718750
7013,-261.718750
7014,-257.812500
7015,-257.812500
7016,-257.812500
7017,-253.906250
7018,-253.906250
7019,-253.906250
7020,-250.000000
7021,-246.093750
7022,-246.093750
7023,-246.093750
7024,-242.187500
7025,-242.187500
7026,-238.281250
7027,-238.281250
7028,-234.375000
7029,-234.375000
7030,-230.468750
7031,-226.562500
7032,-226.562500
7033,-222.656250
7034,-222.656250
7035,-218.750000
7036,-214.843750
7037,-214.843750
7038,-210.937500
7039,-210.937500
7040,-207.031250
7041,-203.125000
7042,-199.218750
7043,-199.218750
7044,-195.312500
7045,-191.406250
7046,-191.406250
7047,-187.500000
7048,-183.593750
7049,-179.687500
7050,-179.687500
7051,-175.781250
7052,-171.875000
7053,-167.968750
7054,-167.968750
7055,-164.062500
7056,-160.156250
7057,-156.250000
7058,-152.343750
7059,-148.437500
7060,-148.437500
7061,-144.531250
7062,-140.625000
7063,-136.718750
7064,-132.812500
7065,-132.812500
7066,-128.906250
7067,-125.000000
7068,-121.093750
7069,-117.187500
7070,-113.281250
7071,-109.375000
7072,-109.375000
7073,-105.468750
7074,-101.562500
7075,-97.656250
7076,-93.750000
7077,-89.843750
7078,-85.937500
7079,-82.031250
7080,-82.031250
7081,-78.125000
7082,-74.218750
7083,-70.312500
7084,-66.406250
7085,-62.500000
7086,-58.593750
7087,-54.687500
7088,-54.687500
7089,-50.781250
7090,-46.875000
7091,-42.968750
7092,-39.062500
7093,-35.156250
7094,-35.156250
7095,-31.250000
7096,-27.343750
7097,-23.437500
7098,-19.531250
7099,-15.625000
7100,-15.625000
7101,-11.718750
7102,-7.812500
7103,-3.906250
7104,0.000000
7105,0.000000
7106,3.906250
7107,7.812500
7108,11.718750
7109,11.718750
7110,15.625000
7111,19.531250
7112,23.437500
7113,27.343750
7114,27.343750
7115,31.250000
7116,35.156250
7117,35.156250
7118,39.062500
7119,42.968750
7120,42.968750
7121,46.875000
7122,50.781250
7123,54.687500
7124,54.687500
7125,58.593750
7126,58.593750
7127,62.500000
7128,62.500000
7129,66.406250
7130,70.312500
7131,70.312500
7132,74.218750
7133,74.218750
7134,78.125000
7135,82.031250
7136,82.031250
7137,85.937500
7138,85.937500
7139,89.843750
7140,89.843750
7141,93.750000
7142,93.750000
7143,93.750000
7144,97.656250
7145,101.562500
7146,101.562500
7147,101.562500
7148,105.468750
7149,105.468750
7150,109.375000
7151,109.375000
7152,113.281250
7153,113.281250
7154,113.281250
7155,117.187500
7156,117.187500
7157,117.187500
7158,121.093750
7159,121.093750
7160,121.093750
7161,121.093750
7162,125.000000
7163,125.000000
7164,125.000000
7165,128.906250
7166,128.906250
7167,128.906250
7168,132.812500
7169,132.812500
7170,132.812500
7171,132.812500
7172,132.812500
7173,136.718750
7174,136.718750
7175,136.718750
7176,136.718750
7177,136.718750
7178,136.718750
7179,136.718750
7180,140.625000
7181,140.625000
7182,140.625000
7183,140.625000
7184,140.625000
7185,140.625000
7186,144.531250
7187,140.625000
7188,144.531250
7189,144.531250
7190,140.625000
7191,144.531250
7192,144.531250
7193,144.531250
7194,144.531250
7195,144.531250
7196,144.531250
7197,144.531250
7198,144.531250
7199,144.531250
7200,144.531250
7201,144.531250
7202,144.531250
7203,144.531250
7204,144.531250
7205,144.531250
7206,144.531250
7207,144.531250
7208,140.625000
7209,140.625000
7210,140.625000
7211,140.625000
7212,140.625000
7213,140.625000
7214,140.625000
7215,140.625000
7216,136.718750
7217,136.718750
7218,136.718750
7219,136.718750
7220,136.718750
7221,132.812500
7222,132.812500
7223,132.812500
7224,132.812500
7225,132.812500
7226,128.906250
7227,128.906250
7228,128.906250
7229,128.906250
7230,125.000000
7231,125.000000
7232,125.000000
7233,125.000000
7234,121.093750
7235,121.093750
7236,117.187500
7237,117.187500
7238,117.187500
7239,113.281250
7240,113.281250
7241,109.375000
7242,109.375000
7243,109.375000
7244,105.468750
7245,105.468750
7246,101.562500
7247,101.562500
7248,101.562500
7249,97.656250
7250,97.656250
7251,93.750000
7252,93.750000
7253,89.843750
7254,89.843750
7255,85.937500
7256,85.937500
7257,82.031250
7258,82.031250
7259,78.125000
7260,78.125000
7261,74.218750
7262,70.312500
7263,70.312500
7264,66.406250
7265,66.406250
7266,62.500000
7267,58.593750
7268,58.593750
7269,54.687500
7270,50.781250
7271,50.781250
7272,46.875000
7273,42.968750
7274,42.968750
7275,39.062500
7276,35.156250
7277,35.156250
7278,31.250000
7279,27.343750
7280,23.437500
7281,23.437500
7282,19.531250
7283,15.625000
7284,11.718750
7285,7.812500
7286,7.812500
7287,3.906250
7288,0.000000
7289,0.000000
7290,-3.906250
7291,-7.812500
7292,-11.718750
7293,-15.625000
7294,-19.531250
7295,-19.531250
7296,-23.437500
7297,-27.343750
7298,-31.250000
7299,-35.156250
7300,-39.062500
7301,-39.062500
7302,-42.968750
7303,-46.875000
7304,-50.781250
7305,-54.687500
7306,-58.593750
7307,-62.500000
7308,-62.500000
7309,-66.406250
7310,-70.312500
7311,-74.218750
7312,-78.125000
7313,-82.031250
7314,-85.937500
7315,-89.843750
7316,-89.843750
7317,-93.750000
7318,-97.656250
7319,-101.562500
7320,-105.468750
7321,-109.375000
7322,-113.281250
7323,-113.281250
7324,-117.187500
7325,-121.093750
7326,-125.000000
7327,-128.906250
7328,-132.812500
7329,-132.812500
7330,-140.625000
7331,-140.625000
7332,-144.531250
7333,-148.437500
7334,-152.343750
7335,-156.250000
7336,-156.250000
7337,-160.156250
7338,-164.062500
7339,-167.968750
7340,-167.968750
7341,-171.875000
7342,-175.781250
7343,-179.687500
7344,-179.687500
7345,-183.593750
7346,-187.500000
7347,-191.406250
7348,-191.406250
7349,-195.312500
7350,-199.218750
7351,-203.125000
7352,-203.125000
7353,-207.031250
7354,-210.937500
7355,-210.937500
7356,-214.843750
7357,-214.843750
7358,-218.750000
7359,-222.656250
7360,-226.562500
7361,-226.562500
7362,-226.562500
7363,-230.468750
7364,-234.375000
7365,-234.375000
7366,-238.281250
7367,-238.281250
7368,-242.187500
7369,-242.187500
7370,-246.093750
7371,-246.093750
7372,-250.000000
7373,-250.000000
7374,-253.906250
7375,-253.906250
7376,-253.906250
7377,-257.812500
7378,-257.812500
7379,-257.812500
7380,-261.718750
7381,-261.718750
7382,-265.625000
7383,-265.625000
7384,-265.625000
7385,-265.625000
7386,-269.531250
7387,-269.531250
7388,-269.531250
7389,-269.531250
7390,-269.531250
7391,-273.437500
7392,-273.437500
7393,-273.437500
7394,-273.437500
7395,-277.343750
7396,-277.343750
7397,-277.343750
7398,-277.343750
7399,-277.343750
7400,-277.343750
7401,-277.343750
7402,-277.343750
7403,-277.343750
7404,-277.343750
7405,-277.343750
7406,-277.343750
7407,-277.343750
7408,-277.343750
7409,-277.343750
7410,-277.343750
7411,-277.343750
7412,-277.343750
7413,-277.343750
7414,-277.343750
7415,-273.437500
7416,-273.437500
7417,-273.437500
7418,-273.437500
7419,-273.437500
7420,-273.437500
7421,-269.531250
7422,-269.531250
7423,-269.531250
7424,-269.531250
7425,-265.625000
7426,-265.625000
7427,-265.625000
7428,-265.625000
7429,-261.718750
7430,-261.718750
7431,-257.812500
7432,-257.812500
7433,-257.812500
7434,-253.906250
7435,-253.906250
7436,-250.000000
7437,-250.000000
7438,-246.093750
7439,-246.093750
7440,-242.187500
7441,-242.187500
7442,-238.281250
7443,-238.281250
7444,-238.281250
7445,-234.375000
7446,-230.468750
7447,-230.468750
7448,-226.562500
7449,-226.562500
7450,-222.656250
7451,-218.750000
7452,-218.750000
7453,-214.843750
7454,-210.937500
7455,-210.937500
7456,-207.031250
7457,-207.031250
7458,-203.125000
7459,-199.218750
7460,-195.312500
7461,-191.406250
7462,-191.406250
7463,-187.500000
7464,-187.500000
7465,-183.593750
7466,-179.687500
7467,-175.781250
7468,-171.875000
7469,-171.875000
7470,-167.968750
7471,-164.062500
7472,-160.156250
7473,-160.156250
7474,-156.250000
7475,-152.343750
7476,-148.437500
7477,-144.531250
7478,-144.531250
7479,-140.625000
7480,-136.718750
7481,-132.812500
7482,-128.906250
7483,-125.000000
7484,-121.093750
7485,-121.093750
7486,-117.187500
7487,-113.281250
7488,-109.375000
7489,-105.468750
7490,-101.562500
7491,-101.562500
7492,-97.656250
7493,-93.750000
7494,-89.843750
7495,-85.937500
7496,-82.031250
7497,-78.125000
7498,-74.218750
7499,-74.218750
7500,-70.312500
7501,-66.406250
7502,-62.500000
7503,-58.593750
7504,-54.687500
7505,-50.781250
7506,-46.875000
7507,-46.875000
7508,-42.968750
7509,-39.062500
7510,-35.156250
7511,-31.250000
7512,-31.250000
7513,-27.343750
7514,-23.437500
7515,-19.531250
7516,-15.625000
7517,-11.718750
7518,-11.718750
7519,-7.812500
7520,-3.906250
7521,0.000000
7522,3.906250
7523,7.812500
7524,7.812500
7525,15.625000
7526,15.625000
7527,19.531250
7528,19.531250
7529,23.437500
7530,27.343750
7531,31.250000
7532,31.250000
7533,35.156250
7534,35.156250
7535,39.062500
7536,42.968750
7537,46.875000
7538,46.875000
7539,50.781250
7540,54.687500
7541,54.687500
7542,58.593750
7543,62.500000
7544,62.500000
7545,66.406250
7546,66.406250
7547,70.312500
7548,74.218750
7549,74.218750
7550,78.125000
7551,78.125000
7552,82.031250
7553,82.031250
7554,85.937500
7555,85.937500
7556,89.843750
7557,89.843750
7558,93.750000
7559,93.750000
7560,97.656250
7561,97.656250
7562,101.562500
7563,101.562500
7564,105.468750
7565,105.468750
7566,105.468750
7567,109.375000
7568,109.375000
7569,109.375000
7570,113.281250
7571,113.281250
7572,117.187500
7573,117.187500
7574,117.187500
7575,121.093750
7576,121.093750
7577,121.093750
7578,125.000000
7579,125.000000
7580,128.906250
7581,128.906250
7582,128.906250
7583,128.906250
7584,128.906250
7585,132.812500
7586,132.812500
7587,132.812500
7588,132.812500
7589,136.718750
7590,136.718750
7591,136.718750
7592,136.718750
7593,136.718750
7594,136.718750
7595,140.625000
7596,140.625000
7597,140.625000
7598,140.625000
7599,140.625000
7600,140.625000
7601,144.531250
7602,140.625000
7603,140.625000
7604,144.531250
7605,144.531250
7606,144.531250
7607,144.531250
7608,144.531250
7609,144.531250
7610,144.531250
7611,144.531250
7612,144.531250
7613,144.531250
7614,144.531250
7615,144.531250
7616,144.531250
7617,144.531250
7618,144.531250
7619,144.531250
7620,144.531250
7621,144.531250
7622,140.625000
7623,140.625000
7624,140.625000
7625,140.625000
7626,140.625000
7627,140.625000
7628,140.625000
7629,140.625000
7630,140.625000
7631,140.625000
7632,136.718750
7633,136.718750
7634,136.718750
7635,136.718750
7636,136.718750
7637,136.718750
7638,132.812500
7639,132.812500
7640,132.812500
7641,132.812500
7642,128.906250
7643,128.906250
7644,128.906250
7645,128.906250
7646,125.000000
7647,125.000000
7648,125.000000
7649,125.000000
7650,121.093750
7651,121.093750
7652,121.093750
7653,117.187500
7654,117.187500
7655,117.187500
7656,113.281250
7657,113.281250
7658,109.375000
7659,109.375000
7660,105.468750
7661,105.468750
7662,105.468750
7663,101.562500
7664,101.562500
7665,97.656250
7666,97.656250
7667,97.656250
7668,93.750000
7669,93.750000
7670,89.843750
7671,89.843750
7672,85.937500
7673,82.031250
7674,82.031250
7675,78.125000
7676,78.125000
7677,74.218750
7678,74.218750
7679,70.312500
7680,70.312500
7681,66.406250
7682,62.500000
7683,62.500000
7684,58.593750
7685,58.593750
7686,54.687500
7687,50.781250
7688,50.781250
7689,46.875000
7690,42.968750
7691,42.968750
7692,39.062500
7693,35.156250
7694,31.250000
7695,27.343750
7696,27.343750
7697,23.437500
7698,19.531250
7699,19.531250
7700,15.625000
7701,11.718750
7702,7.812500
7703,7.812500
7704,3.906250
7705,0.000000
7706,-3.906250
7707,-7.812500
7708,-7.812500
7709,-11.718750
7710,-15.625000
7711,-19.531250
7712,-23.437500
7713,-23.437500
7714,-27.343750
7715,-31.250000
7716,-35.156250
7717,-39.062500
7718,-42.968750
7719,-42.968750
7720,-46.875000
7721,-50.781250
7722,-54.687500
7723,-58.593750
7724,-62.500000
7725,-66.406250
7726,-66.406250
7727,-70.312500
7728,-74.218750
7729,-78.125000
7730,-82.031250
7731,-85.937500
7732,-89.843750
7733,-93.750000
7734,-93.750000
7735,-97.656250
7736,-101.562500
7737,-105.468750
7738,-109.375000
7739,-113.281250
7740,-117.187500
7741,-117.187500
7742,-121.093750
7743,-125.000000
7744,-128.906250
7745,-132.812500
7746,-136.718750
7747,-140.625000
7748,-140.625000
7749,-144.531250
7750,-148.437500
7751,-152.343750
7752,-156.250000
7753,-160.156250
7754,-164.062500
7755,-164.062500
7756,-167.968750
7757,-171.875000
7758,-175.781250
7759,-175.781250
7760,-179.687500
7761,-183.593750
7762,-187.500000
7763,-187.500000
7764,-191.406250
7765,-195.312500
7766,-195.312500
7767,-199.218750
7768,-203.125000
7769,-203.125000
7770,-207.031250
7771,-210.937500
7772,-210.937500
7773,-214.843750
7774,-218.750000
7775,-218.750000
7776,-222.656250
7777,-226.562500
7778,-226.562500
7779,-230.468750
7780,-230.468750
7781,-234.375000
7782,-234.375000
7783,-238.281250
7784,-238.281250
7785,-242.187500
7786,-242.187500
7787,-246.093750
7788,-246.093750
7789,-250.000000
7790,-250.000000
7791,-257.812500
7792,-253.906250
7793,-253.906250
7794,-257.812500
7795,-257.812500
7796,-261.718750
7797,-261.718750
7798,-261.718750
7799,-265.625000
7800,-265.625000
7801,-265.625000
7802,-269.531250
7803,-269.531250
7804,-269.531250
7805,-269.531250
7806,-273.437500
7807,-273.437500
7808,-273.437500
7809,-273.437500
7810,-273.437500
7811,-277.343750
7812,-277.343750
7813,-277.343750
7814,-277.343750
7815,-277.343750
7816,-281.250000
7817,-277.343750
7818,-277.343750
7819,-277.343750
7820,-277.343750
7821,-277.343750
7822,-277.343750
7823,-277.343750
7824,-277.343750
7825,-277.343750
7826,-277.343750
7827,-277.343750
7828,-277.343750
7829,-277.343750
7830,-277.343750
7831,-277.343750
7832,-273.437500
7833,-273.437500
7834,-273.437500
7835,-273.437500
7836,-273.437500
7837,-273.437500
7838,-269.531250
7839,-269.531250
7840,-269.531250
7841,-269.531250
7842,-265.625000
7843,-265.625000
7844,-261.718750
7845,-265.625000
7846,-261.718750
7847,-261.718750
7848,-257.812500
7849,-257.812500
7850,-253.906250
7851,-253.906250
7852,-253.906250
7853,-250.000000
7854,-250.000000
7855,-246.093750
7856,-242.187500
7857,-242.187500
7858,-242.187500
7859,-238.281250
7860,-238.281250
7861,-234.375000
7862,-234.375000
7863,-230.468750
7864,-230.468750
7865,-226.562500
7866,-222.656250
7867,-222.656250
7868,-218.750000
7869,-218.750000
7870,-214.843750
7871,-210.937500
7872,-210.937500
7873,-207.031250
7874,-203.125000
7875,-199.218750
7876,-199.218750
7877,-195.312500
7878,-191.406250
7879,-191.406250
7880,-187.500000
7881,-183.593750
7882,-183.593750
7883,-179.687500
7884,-175.781250
7885,-171.875000
7886,-167.968750
7887,-167.968750
7888,-164.062500
7889,-160.156250
7890,-156.250000
7891,-156.250000
7892,-152.343750
7893,-148.437500
7894,-144.531250
7895,-140.625000
7896,-136.718750
7897,-136.718750
7898,-132.812500
7899,-128.906250
7900,-125.000000
7901,-121.093750
7902,-117.187500
7903,-113.281250
7904,-113.281250
7905,-109.375000
7906,-105.468750
7907,-101.562500
7908,-97.656250
7909,-97.656250
7910,-89.843750
7911,-89.843750
7912,-85.937500
7913,-82.031250
7914,-78.125000
7915,-74.218750
7916,-70.312500
7917,-66.406250
7918,-62.500000
7919,-62.500000
7920,-58.593750
7921,-54.687500
7922,-50.781250
7923,-46.875000
7924,-42.968750
7925,-39.062500
7926,-39.062500
7927,-35.156250
7928,-31.250000
7929,-27.343750
7930,-23.437500
7931,-19.531250
7932,-15.625000
7933,-15.625000
7934,-11.718750
7935,-7.812500
7936,-3.906250
7937,-3.906250
7938,0.000000
7939,3.906250
7940,7.812500
7941,7.812500
7942,15.625000
7943,15.625000
7944,19.531250
7945,23.437500
7946,23.437500
7947,27.343750
7948,31.250000
7949,31.250000
7950,35.156250
7951,39.062500
7952,42.968750
7953,42.968750
7954,46.875000
7955,46.875000
7956,50.781250
7957,54.687500
7958,54.687500
7959,54.687500
7960,62.500000
7961,62.500000
7962,66.406250
7963,70.312500
7964,70.312500
7965,74.218750
7966,74.218750
7967,78.125000
7968,82.031250
7969,82.031250
7970,85.937500
7971,85.937500
7972,89.843750
7973,89.843750
7974,89.843750
7975,93.750000
7976,97.656250
7977,97.656250
7978,101.562500
7979,101.562500
7980,101.562500
7981,105.468750
7982,105.468750
7983,109.375000
7984,109.375000
7985,109.375000
7986,113.281250
7987,113.281250
7988,117.187500
7989,117.187500
7990,117.187500
7991,117.187500
7992,121.093750
7993,121.093750
7994,121.093750
7995,125.000000
7996,125.000000
7997,125.000000
7998,128.906250
7999,128.906250
8000,128.906250
8001,132.812500
8002,132.812500
8003,132.812500
8004,132.812500
8005,136.718750
8006,136.718750
8007,136.718750
8008,136.718750
8009,136.718750
8010,136.718750
8011,136.718750
8012,140.625000
8013,140.625000
8014,140.625000
8015,140.625000
8016,140.625000
8017,140.625000
8018,140.625000
8019,140.625000
8020,140.625000
8021,144.531250
8022,144.531250
8023,144.531250
8024,144.531250
8025,144.531250
8026,144.531250
8027,144.531250
8028,144.531250
8029,144.531250
8030,144.531250
8031,144.531250
8032,144.531250
8033,144.531250
8034,144.531250
8035,144.531250
8036,144.531250
8037,144.531250
8038,144.531250
8039,144.531250
8040,140.625000
8041,140.625000
8042,140.625000
8043,140.625000
8044,140.625000
8045,140.625000
8046,140.625000
8047,140.625000
8048,140.625000
8049,140.625000
8050,140.625000
8051,136.718750
8052,136.718750
8053,136.718750
8054,136.718750
8055,132.812500
8056,132.812500
8057,132.812500
8058,132.812500
8059,128.906250
8060,128.906250
8061,128.906250
8062,128.906250
8063,128.906250
8064,125.000000
8065,125.000000
8066,121.093750
8067,121.093750
8068,121.093750
8069,121.093750
8070,117.187500
8071,117.187500
8072,113.281250
8073,113.281250
8074,113.281250
8075,109.375000
8076,109.375000
8077,105.468750
8078,105.468750
8079,105.468750
8080,101.562500
8081,101.562500
8082,97.656250
8083,97.656250
8084,93.750000
8085,93.750000
8086,89.843750
8087,89.843750
8088,89.843750
8089,85.937500
8090,82.031250
8091,82.031250
8092,78.125000
8093,78.125000
8094,74.218750
8095,74.218750
8096,70.312500
8097,66.406250
8098,66.406250
8099,62.500000
8100,58.593750
8101,58.593750
8102,54.687500
8103,54.687500
8104,50.781250
8105,46.875000
8106,46.875000
8107,42.968750
8108,39.062500
8109,39.062500
8110,35.156250
8111,31.250000
8112,31.250000
8113,27.343750
8114,23.437500
8115,19.531250
8116,15.625000
8117,15.625000
8118,11.718750
8119,7.812500
8120,3.906250
8121,3.906250
8122,0.000000
8123,-3.906250
8124,-7.812500
8125,-11.718750
8126,-11.718750
8127,-15.625000
8128,-19.531250
8129,-23.437500
8130,-27.343750
8131,-31.250000
8132,-31.250000
8133,-35.156250
8134,-39.062500
8135,-46.875000
8136,-46.875000
8137,-50.781250
8138,-54.687500
8139,-58.593750
8140,-58.593750
8141,-62.500000
8142,-66.406250
8143,-70.312500
8144,-74.218750
8145,-78.125000
8146,-82.031250
8147,-82.031250
8148,-85.937500
8149,-89.843750
8150,-93.750000
8151,-97.656250
8152,-101.562500
8153,-101.562500
8154,-109.375000
8155,-109.375000
8156,-113.281250
8157,-117.187500
8158,-121.093750
8159,-125.000000
8160,-128.906250
8161,-128.906250
8162,-132.812500
8163,-136.718750
8164,-140.625000
8165,-144.531250
8166,-144.531250
8167,-148.437500
8168,-152.343750
8169,-156.250000
8170,-160.156250
8171,-164.062500
8172,-167.968750
8173,-167.968750
8174,-171.875000
8175,-175.781250
8176,-179.687500
8177,-179.687500
8178,-183.593750
8179,-187.500000
8180,-191.406250
8181,-191.406250
8182,-195.312500
8183,-199.218750
8184,-199.218750
8185,-203.125000
8186,-207.031250
8187,-207.031250
8188,-210.937500
8189,-214.843750
8190,-214.843750
8191,-218.750000
8192,-218.750000
8193,-222.656250
8194,-226.562500
8195,-226.562500
8196,-230.468750
8197,-230.468750
8198,-234.375000
8199,-238.281250
8200,-238.281250
8201,-238.281250
8202,-242.187500
8203,-246.093750
8204,-246.093750
8205,-246.093750
8206,-246.093750
8207,-253.906250
8208,-253.906250
8209,-253.906250
8210,-257.812500
8211,-257.812500
8212,-261.718750
8213,-261.718750
8214,-261.718750
8215,-265.625000
8216,-265.625000
8217,-265.625000
8218,-265.625000
8219,-269.531250
8220,-269.531250
8221,-269.531250
8222,-273.437500
8223,-269.531250
8224,-273.437500
8225,-273.437500
8226,-273.437500
8227,-273.437500
8228,-277.343750
8229,-277.343750
8230,-277.343750
8231,-277.343750
8232,-277.343750
8233,-277.343750
8234,-277.343750
8235,-277.343750
8236,-277.343750
8237,-277.343750
8238,-277.343750
8239,-277.343750
8240,-277.343750
8241,-277.343750
8242,-277.343750
8243,-277.343750
8244,-277.343750
8245,-277.343750
8246,-277.343750
8247,-277.343750
8248,-277.343750
8249,-273.437500
8250,-273.437500
8251,-273.437500
8252,-273.437500
8253,-273.437500
8254,-269.531250
8255,-269.531250
8256,-269.531250
8257,-269.531250
8258,-269.531250
8259,-265.625000
8260,-265.625000
8261,-265.625000
8262,-261.718750
8263,-261.718750
8264,-261.718750
8265,-257.812500
8266,-257.812500
8267,-253.906250
8268,-253.906250
8269,-253.906250
8270,-250.000000
8271,-250.000000
8272,-246.093750
8273,-246.093750
8274,-242.187500
8275,-242.187500
8276,-238.281250
8277,-238.281250
8278,-234.375000
8279,-234.375000
8280,-230.468750
8281,-226.562500
8282,-226.562500
8283,-222.656250
8284,-222.656250
8285,-218.750000
8286,-214.843750
8287,-214.843750
8288,-210.937500
8289,-207.031250
8290,-207.031250
8291,-203.125000
8292,-199.218750
8293,-199.218750
8294,-195.312500
8295,-191.406250
8296,-187.500000
8297,-187.500000
8298,-183.593750
8299,-179.687500
8300,-179.687500
8301,-175.781250
8302,-171.875000
8303,-167.968750
8304,-164.062500
8305,-164.062500
8306,-160.156250
8307,-156.250000
8308,-152.343750
8309,-148.437500
8310,-148.437500
8311,-144.531250
8312,-140.625000
8313,-136.718750
8314,-132.812500
8315,-128.906250
8316,-125.000000
8317,-125.000000
8318,-121.093750
8319,-117.187500
8320,-113.281250
8321,-109.375000
8322,-105.468750
8323,-101.562500
8324,-101.562500
8325,-97.656250
8326,-93.750000
8327,-89.843750
8328,-85.937500
8329,-82.031250
8330,-78.125000
8331,-78.125000
8332,-74.218750
8333,-70.312500
8334,-66.406250
8335,-62.500000
8336,-58.593750
8337,-54.687500
8338,-54.687500
8339,-50.781250
8340,-46.875000
8341,-42.968750
8342,-39.062500
8343,-35.156250
8344,-35.156250
8345,-31.250000
8346,-27.343750
8347,-23.437500
8348,-19.531250
8349,-15.625000
8350,-15.625000
8351,-11.718750
8352,-7.812500
8353,-3.906250
8354,0.000000
8355,0.000000
8356,3.906250
8357,7.812500
8358,11.718750
8359,11.718750
8360,15.625000
8361,19.531250
8362,23.437500
8363,23.437500
8364,27.343750
8365,31.250000
8366,35.156250
8367,35.156250
8368,39.062500
8369,42.968750
8370,46.875000
8371,46.875000
8372,50.781250
8373,54.687500
8374,54.687500
8375,58.593750
8376,58.593750
8377,62.500000
8378,66.406250
8379,66.406250
8380,70.312500
8381,70.312500
8382,74.218750
8383,78.125000
8384,78.125000
8385,82.031250
8386,82.031250
8387,85.937500
8388,85.937500
8389,89.843750
8390,89.843750
8391,93.750000
8392,93.750000
8393,97.656250
8394,97.656250
8395,101.562500
8396,101.562500
8397,101.562500
8398,105.468750
8399,105.468750
8400,109.375000
8401,109.375000
8402,109.375000
8403,113.281250
8404,113.281250
8405,113.281250
8406,117.187500
8407,117.187500
8408,121.093750
8409,121.093750
8410,121.093750
8411,121.093750
8412,125.000000
8413,125.000000
8414,125.000000
8415,128.906250
8416,128.906250
8417,128.906250
8418,132.812500
8419,132.812500
8420,132.812500
8421,132.812500
8422,132.812500
8423,136.718750
8424,136.718750
8425,136.718750
8426,136.718750
8427,136.718750
8428,140.625000
8429,140.625000
8430,140.625000
8431,140.625000
8432,140.625000
8433,140.625000
8434,140.625000
8435,140.625000
8436,140.625000
8437,144.531250
8438,144.531250
8439,144.531250
8440,144.531250
8441,144.531250
8442,144.531250
8443,144.531250
8444,144.531250
8445,144.531250
8446,144.531250
8447,144.531250
8448,140.625000
8449,144.531250
8450,144.531250
8451,144.531250
8452,144.531250
8453,144.531250
8454,144.531250
8455,144.531250
8456,140.625000
8457,144.531250
8458,140.625000
8459,144.531250
8460,140.625000
8461,140.625000
8462,140.625000
8463,140.625000
8464,140.625000
8465,140.625000
8466,136.718750
8467,136.718750
8468,136.718750
8469,136.718750
8470,136.718750
8471,132.812500
8472,132.812500
8473,132.812500
8474,132.812500
8475,128.906250
8476,128.906250
8477,128.906250
8478,128.906250
8479,128.906250
8480,125.000000
8481,125.000000
8482,125.000000
8483,121.093750
8484,121.093750
8485,121.093750
8486,117.187500
8487,117.187500
8488,117.187500
8489,113.281250
8490,113.281250
8491,113.281250
8492,109.375000
8493,109.375000
8494,105.468750
8495,105.468750
8496,97.656250
8497,101.562500
8498,101.562500
8499,97.656250
8500,97.656250
8501,93.750000
8502,93.750000
8503,89.843750
8504,89.843750
8505,85.937500
8506,85.937500
8507,82.031250
8508,82.031250
8509,78.125000
8510,78.125000
8511,74.218750
8512,70.312500
8513,70.312500
8514,66.406250
8515,66.406250
8516,62.500000
8517,58.593750
8518,58.593750
8519,54.687500
8520,50.781250
8521,50.781250
8522,46.875000
8523,42.968750
8524,42.968750
8525,39.062500
8526,35.156250
8527,31.250000
8528,31.250000
8529,27.343750
8530,23.437500
8531,23.437500
8532,19.531250
8533,15.625000
8534,11.718750
8535,7.812500
8536,7.812500
8537,3.906250
8538,0.000000
8539,0.000000
8540,-3.906250
8541,-7.812500
8542,-11.718750
8543,-15.625000
8544,-19.531250
8545,-19.531250
8546,-27.343750
8547,-27.343750
8548,-31.250000
8549,-35.156250
8550,-39.062500
8551,-39.062500
8552,-42.968750
8553,-46.875000
8554,-50.781250
8555,-54.687500
8556,-58.593750
8557,-62.500000
8558,-62.500000
8559,-66.406250
8560,-70.312500
8561,-74.218750
8562,-78.125000
8563,-82.031250
8564,-85.937500
8565,-85.937500
8566,-89.843750
8567,-93.750000
8568,-97.656250
8569,-101.562500
8570,-105.468750
8571,-109.375000
8572,-113.281250
8573,-117.187500
8574,-117.187500
8575,-121.093750
8576,-125.000000
8577,-128.906250
8578,-132.812500
8579,-136.718750
8580,-140.625000
8581,-140.625000
8582,-144.531250
8583,-148.437500
8584,-152.343750
8585,-156.250000
8586,-156.250000
8587,-160.156250
8588,-164.062500
8589,-167.968750
8590,-167.968750
8591,-171.875000
8592,-175.781250
8593,-179.687500
8594,-179.687500
8595,-183.593750
8596,-187.500000
8597,-191.406250
8598,-191.406250
8599,-195.312500
8600,-199.218750
8601,-203.125000
8602,-203.125000
8603,-207.031250
8604,-210.937500
8605,-210.937500
8606,-214.843750
8607,-214.843750
8608,-218.750000
8609,-222.656250
8610,-222.656250
8611,-226.562500
8612,-226.562500
8613,-230.468750
8614,-234.375000
8615,-234.375000
8616,-238.281250
8617,-238.281250
8618,-242.187500
8619,-242.187500
8620,-246.093750
8621,-246.093750
8622,-250.000000
8623,-250.000000
8624,-253.906250
8625,-253.906250
8626,-253.906250
8627,-257.812500
8628,-257.812500
8629,-257.812500
8630,-261.718750
8631,-261.718750
8632,-265.625000
8633,-265.625000
8634,-265.625000
8635,-265.625000
8636,-269.531250
8637,-269.531250
8638,-269.531250
8639,-273.437500
8640,-273.437500
8641,-273.437500
8642,-273.437500
8643,-273.437500
8644,-273.437500
8645,-277.343750
8646,-277.343750
8647,-277.343750
8648,-277.343750
8649,-277.343750
8650,-277.343750
8651,-277.343750
8652,-277.343750
8653,-277.343750
8654,-277.343750
8655,-277.343750
8656,-277.343750
8657,-277.343750
8658,-277.343750
8659,-277.343750
8660,-277.343750
8661,-277.343750
8662,-277.343750
8663,-277.343750
8664,-277.343750
8665,-277.343750
8666,-273.437500
8667,-273.437500
8668,-273.437500
8669,-273.437500
8670,-273.437500
8671,-269.531250
8672,-269.531250
8673,-269.531250
8674,-269.531250
8675,-269.531250
8676,-265.625000
8677,-265.625000
8678,-261.718750
8679,-261.718750
8680,-261.718750
8681,-257.812500
8682,-257.812500
8683,-257.812500
8684,-253.906250
8685,-253.906250
8686,-250.000000
8687,-250.000000
8688,-246.093750
8689,-246.093750
8690,-246.093750
8691,-242.187500
8692,-242.187500
8693,-238.281250
8694,-234.375000
8695,-234.375000
8696,-230.468750
8697,-230.468750
8698,-226.562500
8699,-226.562500
8700,-222.656250
8701,-218.750000
8702,-218.750000
8703,-214.843750
8704,-214.843750
8705,-210.937500
8706,-207.031250
8707,-207.031250
8708,-203.125000
8709,-199.218750
8710,-195.312500
8711,-195.312500
8712,-191.406250
8713,-187.500000
8714,-187.500000
8715,-183.593750
8716,-179.687500
8717,-179.687500
8718,-175.781250
8719,-171.875000
8720,-167.968750
8721,-164.062500
8722,-160.156250
8723,-160.156250
8724,-156.250000
8725,-152.343750
8726,-148.437500
8727,-144.531250
8728,-144.531250
8729,-140.625000
8730,-136.718750
8731,-132.812500
8732,-128.906250
8733,-125.000000
8734,-125.000000
8735,-121.093750
8736,-117.187500
8737,-113.281250
8738,-109.375000
8739,-105.468750
8740,-101.562500
8741,-97.656250
8742,-97.656250
8743,-93.750000
8744,-89.843750
8745,-85.937500
8746,-82.031250
8747,-78.125000
8748,-74.218750
8749,-74.218750
8750,-70.312500
8751,-66.406250
8752,-62.500000
8753,-58.593750
8754,-54.687500
8755,-50.781250
8756,-46.875000
8757,-46.875000
8758,-42.968750
8759,-39.062500
8760,-35.156250
8761,-31.250000
8762,-27.343750
8763,-27.343750
8764,-23.437500
8765,-19.531250
8766,-15.625000
8767,-11.718750
8768,-7.812500
8769,-7.812500
8770,-3.906250
8771,0.000000
8772,3.906250
8773,3.906250
8774,7.812500
8775,11.718750
8776,11.718750
8777,15.625000
8778,19.531250
8779,23.437500
8780,27.343750
8781,27.343750
8782,31.250000
8783,35.156250
8784,39.062500
8785,39.062500
8786,42.968750
8787,46.875000
8788,46.875000
8789,50.781250
8790,54.687500
8791,54.687500
8792,58.593750
8793,58.593750
8794,62.500000
8795,66.406250
8796,66.406250
8797,70.312500
8798,70.312500
8799,74.218750
8800,78.125000
8801,78.125000
8802,78.125000
8803,82.031250
8804,82.031250
8805,85.937500
8806,89.843750
8807,89.843750
8808,93.750000
8809,93.750000
8810,97.656250
8811,97.656250
8812,101.562500
8813,101.562500
8814,105.468750
8815,105.468750
8816,109.375000
8817,109.375000
8818,109.375000
8819,113.281250
8820,113.281250
8821,113.281250
8822,117.187500
8823,117.187500
8824,121.093750
8825,121.093750
8826,121.093750
8827,121.093750
8828,125.000000
8829,125.000000
8830,125.000000
8831,128.906250
8832,128.906250
8833,128.906250
8834,128.906250
8835,132.812500
8836,132.812500
8837,132.812500
8838,132.812500
8839,132.812500
8840,136.718750
8841,136.718750
8842,136.718750
8843,136.718750
8844,136.718750
8845,136.718750
8846,140.625000
8847,140.625000
8848,140.625000
8849,140.625000
8850,140.625000
8851,140.625000
8852,140.625000
8853,140.625000
8854,140.625000
8855,144.531250
8856,144.531250
8857,144.531250
8858,144.531250
8859,144.531250
8860,144.531250
8861,144.531250
8862,144.531250
8863,144.531250
8864,144.531250
8865,144.531250
8866,144.531250
8867,144.531250
8868,144.531250
8869,144.531250
8870,144.531250
8871,144.531250
8872,144.531250
8873,140.625000
8874,140.625000
8875,140.625000
8876,136.718750
8877,140.625000
8878,140.625000
8879,140.625000
8880,140.625000
8881,140.625000
8882,140.625000
8883,136.718750
8884,136.718750
8885,136.718750
8886,136.718750
8887,136.718750
8888,132.812500
8889,132.812500
8890,132.812500
8891,132.812500
8892,132.812500
8893,128.906250
8894,128.906250
8895,128.906250
8896,128.906250
8897,125.000000
8898,125.000000
8899,125.000000
8900,125.000000
8901,121.093750
8902,121.093750
8903,117.187500
8904,117.187500
8905,117.187500
8906,113.281250
8907,113.281250
8908,113.281250
8909,109.375000
8910,109.375000
8911,105.468750
8912,105.468750
8913,101.562500
8914,101.562500
8915,97.656250
8916,97.656250
8917,97.656250
8918,93.750000
8919,93.750000
8920,89.843750
8921,89.843750
8922,85.937500
8923,85.937500
8924,82.031250
8925,78.125000
8926,78.125000
8927,74.218750
8928,74.218750
8929,70.312500
8930,66.406250
8931,66.406250
8932,62.500000
8933,62.500000
8934,58.593750
8935,54.687500
8936,54.687500
8937,50.781250
8938,50.781250
8939,46.875000
8940,42.968750
8941,39.062500
8942,39.062500
8943,35.156250
8944,31.250000
8945,31.250000
8946,27.343750
8947,23.437500
8948,23.437500
8949,19.531250
8950,15.625000
8951,11.718750
8952,11.718750
8953,7.812500
8954,3.906250
8955,0.000000
8956,-3.906250
8957,-3.906250
8958,-7.812500
8959,-11.718750
8960,-15.625000
8961,-19.531250
8962,-19.531250
8963,-23.437500
8964,-27.343750
8965,-31.250000
8966,-35.156250
8967,-39.062500
8968,-42.968750
8969,-46.875000
8970,-46.875000
8971,-50.781250
8972,-54.687500
8973,-58.593750
8974,-62.500000
8975,-66.406250
8976,-70.312500
8977,-70.312500
8978,-74.218750
8979,-78.125000
8980,-82.031250
8981,-85.937500
8982,-89.843750
8983,-93.750000
8984,-93.750000
8985,-97.656250
8986,-101.562500
8987,-105.468750
8988,-109.375000
8989,-113.281250
8990,-117.187500
8991,-121.093750
8992,-121.093750
8993,-125.000000
8994,-128.906250
8995,-132.812500
8996,-136.718750
8997,-140.625000
8998,-140.625000
8999,-144.531250
9000,-148.437500
9001,-152.343750
9002,-156.250000
9003,-156.250000
9004,-160.156250
9005,-164.062500
9006,-167.968750
9007,-171.875000
9008,-175.781250
9009,-175.781250
9010,-179.687500
9011,-183.593750
9012,-187.500000
9013,-187.500000
9014,-191.406250
9015,-195.312500
9016,-195.312500
9017,-199.218750
9018,-203.125000
9019,-203.125000
9020,-207.031250
9021,-210.937500
9022,-214.843750
9023,-214.843750
9024,-218.750000
9025,-218.750000
9026,-222.656250
9027,-226.562500
9028,-226.562500
9029,-230.468750
9030,-230.468750
9031,-234.375000
9032,-234.375000
9033,-238.281250
9034,-242.187500
9035,-242.187500
9036,-242.187500
9037,-246.093750
9038,-246.093750
9039,-250.000000
9040,-250.000000
9041,-253.906250
9042,-253.906250
9043,-257.812500
9044,-257.812500
9045,-257.812500
9046,-261.718750
9047,-261.718750
9048,-261.718750
9049,-265.625000
9050,-265.625000
9051,-265.625000
9052,-269.531250
9053,-269.531250
9054,-269.531250
9055,-269.531250
9056,-273.437500
9057,-273.437500
9058,-273.437500
9059,-273.437500
9060,-277.343750
9061,-273.437500
9062,-277.343750
9063,-277.343750
9064,-277.343750
9065,-277.343750
9066,-277.343750
9067,-277.343750
9068,-277.343750
9069,-277.343750
9070,-277.343750
9071,-277.343750
9072,-277.343750
9073,-277.343750
9074,-277.343750
9075,-277.343750
9076,-277.343750
9077,-277.343750
9078,-277.343750
9079,-277.343750
9080,-277.343750
9081,-277.343750
9082,-273.437500
9083,-273.437500
9084,-273.437500
9085,-273.437500
9086,-273.437500
9087,-269.531250
9088,-269.531250
9089,-269.531250
9090,-269.531250
9091,-265.625000
9092,-265.625000
9093,-265.625000
9094,-265.625000
9095,-261.718750
9096,-261.718750
9097,-257.812500
9098,-257.812500
9099,-257.812500
9100,-257.812500
9101,-253.906250
9102,-253.906250
9103,-250.000000
9104,-250.000000
9105,-246.093750
9106,-246.093750
9107,-242.187500
9108,-242.187500
9109,-238.281250
9110,-238.281250
9111,-234.375000
9112,-234.375000
9113,-230.468750
9114,-230.468750
9115,-226.562500
9116,-222.656250
9117,-222.656250
9118,-218.750000
9119,-214.843750
9120,-214.843750
9121,-210.937500
9122,-210.937500
9123,-207.031250
9124,-203.125000
9125,-203.125000
9126,-199.218750
9127,-199.218750
9128,-195.312500
9129,-187.500000
9130,-187.500000
9131,-183.593750
9132,-179.687500
9133,-179.687500
9134,-175.781250
9135,-171.875000
9136,-171.875000
9137,-167.968750
9138,-164.062500
9139,-160.156250
9140,-156.250000
9141,-152.343750
9142,-152.343750
9143,-148.437500
9144,-144.531250
9145,-140.625000
9146,-136.718750
9147,-136.718750
9148,-132.812500
9149,-128.906250
9150,-125.000000
9151,-121.093750
9152,-117.187500
9153,-113.281250
9154,-113.281250
9155,-105.468750
9156,-105.468750
9157,-101.562500
9158,-97.656250
9159,-93.750000
9160,-89.843750
9161,-89.843750
9162,-85.937500
9163,-82.031250
9164,-78.125000
9165,-74.218750
9166,-70.312500
9167,-66.406250
9168,-62.500000
9169,-62.500000
9170,-58.593750
9171,-54.687500
9172,-50.781250
9173,-46.875000
9174,-42.968750
9175,-42.968750
9176,-39.062500
9177,-35.156250
9178,-31.250000
9179,-27.343750
9180,-23.437500
9181,-19.531250
9182,-19.531250
9183,-15.625000
9184,-11.718750
9185,-7.812500
9186,-7.812500
9187,-3.906250
9188,0.000000
9189,3.906250
9190,7.812500
9191,11.718750
9192,11.718750
9193,15.625000
9194,19.531250
9195,23.437500
9196,23.437500
9197,27.343750
9198,31.250000
9199,31.250000
9200,35.156250
9201,39.062500
9202,39.062500
9203,42.968750
9204,46.875000
9205,50.781250
9206,50.781250
9207,54.687500
9208,58.593750
9209,58.593750
9210,62.500000
9211,62.500000
9212,66.406250
9213,70.312500
9214,70.312500
9215,74.218750
9216,74.218750
9217,78.125000
9218,82.031250
9219,82.031250
9220,85.937500
9221,85.937500
9222,85.937500
9223,89.843750
9224,89.843750
9225,93.750000
9226,97.656250
9227,97.656250
9228,101.562500
9229,101.562500
9230,101.562500
9231,105.468750
9232,105.468750
9233,109.375000
9234,109.375000
9235,113.281250
9236,113.281250
9237,113.281250
9238,113.281250
9239,117.187500
9240,117.187500
9241,117.187500
9242,121.093750
9243,121.093750
9244,121.093750
9245,125.000000
9246,125.000000
9247,125.000000
9248,128.906250
9249,128.906250
9250,128.906250
9251,128.906250
9252,132.812500
9253,132.812500
9254,132.812500
9255,132.812500
9256,132.812500
9257,136.718750
9258,136.718750
9259,136.718750
9260,136.718750
9261,136.718750
9262,136.718750
9263,140.625000
9264,140.625000
9265,140.625000
9266,140.625000
9267,140.625000
9268,140.625000
9269,140.625000
9270,144.531250
9271,140.625000
9272,144.531250
9273,144.531250
9274,144.531250
9275,144.531250
9276,144.531250
9277,144.531250
9278,144.531250
9279,144.531250
9280,144.531250
9281,144.531250
9282,144.531250
9283,144.531250
9284,144.531250
9285,144.531250
9286,144.531250
9287,144.531250
9288,144.531250
9289,144.531250
9290,140.625000
9291,140.625000
9292,140.625000
9293,140.625000
9294,140.625000
9295,140.625000
9296,140.625000
9297,140.625000
9298,140.625000
9299,136.718750
9300,136.718750
9301,136.718750
9302,136.718750
9303,136.718750
9304,132.812500
9305,132.812500
9306,132.812500
9307,132.812500
9308,132.812500
9309,128.906250
9310,128.906250
9311,128.906250
9312,128.906250
9313,125.000000
9314,125.000000
9315,125.000000
9316,121.093750
9317,121.093750
9318,121.093750
9319,117.187500
9320,117.187500
9321,117.187500
9322,117.187500
9323,113.281250
9324,113.281250
9325,109.375000
9326,109.375000
9327,105.468750
9328,105.468750
9329,105.468750
9330,101.562500
9331,101.562500
9332,97.656250
9333,97.656250
9334,93.750000
9335,93.750000
9336,89.843750
9337,89.843750
9338,89.843750
9339,85.937500
9340,82.031250
9341,82.031250
9342,78.125000
9343,78.125000
9344,74.218750
9345,74.218750
9346,70.312500
9347,66.406250
9348,66.406250
9349,62.500000
9350,62.500000
9351,58.593750
9352,54.687500
9353,54.687500
9354,50.781250
9355,46.875000
9356,46.875000
9357,42.968750
9358,42.968750
9359,39.062500
9360,35.156250
9361,31.250000
9362,27.343750
9363,27.343750
9364,23.437500
9365,19.531250
9366,19.531250
9367,15.625000
9368,11.718750
9369,7.812500
9370,3.906250
9371,0.000000
9372,0.000000
9373,-3.906250
9374,-7.812500
9375,-11.718750
9376,-11.718750
9377,-15.625000
9378,-19.531250
9379,-23.437500
9380,-27.343750
9381,-31.250000
9382,-31.250000
9383,-35.156250
9384,-39.062500
9385,-42.968750
9386,-50.781250
9387,-50.781250
9388,-54.687500
9389,-54.687500
9390,-58.593750
9391,-62.500000
9392,-66.406250
9393,-70.312500
9394,-74.218750
9395,-78.125000
9396,-78.125000
9397,-82.031250
9398,-85.937500
9399,-89.843750
9400,-93.750000
9401,-97.656250
9402,-101.562500
9403,-105.468750
9404,-105.468750
9405,-109.375000
9406,-113.281250
9407,-117.187500
9408,-121.093750
9409,-125.000000
9410,-128.906250
9411,-128.906250
9412,-132.812500
9413,-136.718750
9414,-140.625000
9415,-144.531250
9416,-148.437500
9417,-148.437500
9418,-152.343750
9419,-156.250000
9420,-160.156250
9421,-160.156250
9422,-164.062500
9423,-167.968750
9424,-171.875000
9425,-175.781250
9426,-175.781250
9427,-179.687500
9428,-183.593750
9429,-187.500000
9430,-187.500000
9431,-191.406250
9432,-195.312500
9433,-199.218750
9434,-199.218750
9435,-203.125000
9436,-207.031250
9437,-207.031250
9438,-210.937500
9439,-214.843750
9440,-214.843750
9441,-218.750000
9442,-218.750000
9443,-222.656250
9444,-226.562500
9445,-226.562500
9446,-230.468750
9447,-234.375000
9448,-234.375000
9449,-234.375000
9450,-238.281250
9451,-238.281250
9452,-242.187500
9453,-242.187500
9454,-246.093750
9455,-246.093750
9456,-250.000000
9457,-250.000000
9458,-253.906250
9459,-253.906250
9460,-257.812500
9461,-257.812500
9462,-257.812500
9463,-261.718750
9464,-261.718750
9465,-261.718750
9466,-265.625000
9467,-265.625000
9468,-265.625000
9469,-265.625000
9470,-269.531250
9471,-269.531250
9472,-269.531250
9473,-269.531250
9474,-273.437500
9475,-273.437500
9476,-273.437500
9477,-273.437500
9478,-273.437500
9479,-277.343750
9480,-277.343750
9481,-277.343750
9482,-277.343750
9483,-277.343750
9484,-277.343750
9485,-277.343750
9486,-277.343750
9487,-277.343750
9488,-277.343750
9489,-277.343750
9490,-277.343750
9491,-277.343750
9492,-277.343750
9493,-277.343750
9494,-277.343750
9495,-277.343750
9496,-277.343750
9497,-277.343750
9498,-277.343750
9499,-273.437500
9500,-273.437500
9501,-273.437500
9502,-273.437500
9503,-273.437500
9504,-269.531250
9505,-269.531250
9506,-269.531250
9507,-269.531250
9508,-265.625000
9509,-265.625000
9510,-265.625000
9511,-261.718750
9512,-261.718750
9513,-261.718750
9514,-257.812500
9515,-257.812500
9516,-257.812500
9517,-253.906250
9518,-253.906250
9519,-250.000000
9520,-250.000000
9521,-250.000000
9522,-246.093750
9523,-242.187500
9524,-242.187500
9525,-242.187500
9526,-238.281250
9527,-234.375000
9528,-234.375000
9529,-234.375000
9530,-230.468750
9531,-226.562500
9532,-226.562500
9533,-222.656250
9534,-218.750000
9535,-218.750000
9536,-214.843750
9537,-214.843750
9538,-210.937500
9539,-207.031250
9540,-207.031250
9541,-203.125000
9542,-199.218750
9543,-195.312500
9544,-195.312500
9545,-191.406250
9546,-187.500000
9547,-187.500000
9548,-183.593750
9549,-179.687500
9550,-175.781250
9551,-175.781250
9552,-171.875000
9553,-167.968750
9554,-167.968750
9555,-160.156250
9556,-160.156250
9557,-156.250000
9558,-152.343750
9559,-148.437500
9560,-148.437500
9561,-144.531250
9562,-140.625000
9563,-136.718750
9564,-132.812500
9565,-128.906250
9566,-128.906250
9567,-125.000000
9568,-121.093750
9569,-117.187500
9570,-113.281250
9571,-109.375000
9572,-105.468750
9573,-105.468750
9574,-101.562500
9575,-97.656250
9576,-93.750000
9577,-89.843750
9578,-85.937500
9579,-82.031250
9580,-82.031250
9581,-78.125000
9582,-74.218750
9583,-70.312500
9584,-66.406250
9585,-62.500000
9586,-58.593750
9587,-54.687500
9588,-54.687500
9589,-50.781250
9590,-46.875000
9591,-42.968750
9592,-39.062500
9593,-35.156250
9594,-35.156250
9595,-27.343750
9596,-27.343750
9597,-23.437500
9598,-19.531250
9599,-15.625000
9600,-11.718750
9601,-11.718750
9602,-7.812500
9603,-3.906250
9604,0.000000
9605,0.000000
9606,3.906250
9607,7.812500
9608,11.718750
9609,15.625000
9610,15.625000
9611,19.531250
9612,23.437500
9613,23.437500
9614,27.343750
9615,31.250000
9616,35.156250
9617,35.156250
9618,39.062500
9619,42.968750
9620,46.875000
9621,46.875000
9622,50.781250
9623,50.781250
9624,54.687500
9625,58.593750
9626,58.593750
9627,62.500000
9628,62.500000
9629,66.406250
9630,70.312500
9631,70.312500
9632,74.218750
9633,74.218750
9634,78.125000
9635,82.031250
9636,82.031250
9637,85.937500
9638,85.937500
9639,89.843750
9640,89.843750
9641,93.750000
9642,93.750000
9643,97.656250
9644,97.656250
9645,101.562500
9646,101.562500
9647,101.562500
9648,105.468750
9649,105.468750
9650,109.375000
9651,109.375000
9652,109.375000
9653,113.281250
9654,113.281250
9655,113.281250
9656,117.187500
9657,117.187500
9658,121.093750
9659,121.093750
9660,121.093750
9661,125.000000
9662,125.000000
9663,125.000000
9664,128.906250
9665,128.906250
9666,128.906250
9667,128.906250
9668,132.812500
9669,132.812500
9670,132.812500
9671,132.812500
9672,132.812500
9673,136.718750
9674,136.718750
9675,136.718750
9676,136.718750
9677,136.718750
9678,136.718750
9679,140.625000
9680,140.625000
9681,140.625000
9682,140.625000
9683,140.625000
9684,140.625000
9685,140.625000
9686,144.531250
9687,144.531250
9688,144.531250
9689,144.531250
9690,144.531250
9691,144.531250
9692,144.531250
9693,144.531250
9694,144.531250
9695,144.531250
9696,144.531250
9697,144.531250
9698,144.531250
9699,144.531250
9700,144.531250
9701,144.531250
9702,144.531250
9703,144.531250
9704,144.531250
9705,140.625000
9706,144.531250
9707,140.625000
9708,140.625000
9709,140.625000
9710,140.625000
9711,140.625000
9712,140.625000
9713,140.625000
9714,140.625000
9715,140.625000
9716,140.625000
9717,136.718750
9718,136.718750
9719,132.812500
9720,136.718750
9721,132.812500
9722,132.812500
9723,132.812500
9724,132.812500
9725,132.812500
9726,128.906250
9727,128.906250
9728,128.906250
9729,125.000000
9730,125.000000
9731,125.000000
9732,125.000000
9733,121.093750
9734,121.093750
9735,121.093750
9736,117.187500
9737,117.187500
9738,117.187500
9739,113.281250
9740,113.281250
9741,113.281250
9742,109.375000
9743,109.375000
9744,105.468750
9745,105.468750
9746,105.468750
9747,101.562500
9748,101.562500
9749,97.656250
9750,97.656250
9751,93.750000
9752,89.843750
9753,89.843750
9754,89.843750
9755,85.937500
9756,85.937500
9757,82.031250
9758,82.031250
9759,78.125000
9760,78.125000
9761,74.218750
9762,70.312500
9763,70.312500
9764,66.406250
9765,66.406250
9766,62.500000
9767,62.500000
9768,58.593750
9769,54.687500
9770,50.781250
9771,50.781250
9772,46.875000
9773,42.968750
9774,42.968750
9775,39.062500
9776,35.156250
9777,35.156250
9778,31.250000
9779,27.343750
9780,23.437500
9781,23.437500
9782,19.531250
9783,15.625000
9784,15.625000
9785,11.718750
9786,7.812500
9787,3.906250
9788,0.000000
9789,-3.906250
9790,-3.906250
9791,-7.812500
9792,-11.718750
9793,-15.625000
9794,-15.625000
9795,-19.531250
9796,-23.437500
9797,-27.343750
9798,-31.250000
9799,-35.156250
9800,-35.156250
9801,-39.062500
9802,-42.968750
9803,-46.875000
9804,-50.781250
9805,-54.687500
9806,-58.593750
9807,-58.593750
9808,-62.500000
9809,-66.406250
9810,-70.312500
9811,-74.218750
9812,-78.125000
9813,-82.031250
9814,-85.937500
9815,-85.937500
9816,-89.843750
9817,-93.750000
9818,-97.656250
9819,-101.562500
9820,-105.468750
9821,-109.375000
9822,-109.375000
9823,-113.281250
9824,-117.187500
9825,-121.093750
9826,-125.000000
9827,-128.906250
9828,-132.812500
9829,-132.812500
9830,-136.718750
9831,-140.625000
9832,-144.531250
9833,-148.437500
9834,-152.343750
9835,-156.250000
9836,-156.250000
9837,-160.156250
9838,-164.062500
9839,-167.968750
9840,-171.875000
9841,-171.875000
9842,-175.781250
9843,-179.687500
9844,-179.687500
9845,-183.593750
9846,-187.500000
9847,-187.500000
9848,-191.406250
9849,-195.312500
9850,-199.218750
9851,-199.218750
9852,-203.125000
9853,-207.031250
9854,-207.031250
9855,-210.937500
9856,-214.843750
9857,-214.843750
9858,-218.750000
9859,-222.656250
9860,-222.656250
9861,-226.562500
9862,-226.562500
9863,-230.468750
9864,-230.468750
9865,-234.375000
9866,-238.281250
9867,-238.281250
9868,-238.281250
9869,-242.187500
9870,-242.187500
9871,-246.093750
9872,-246.093750
9873,-250.000000
9874,-250.000000
9875,-253.906250
9876,-253.906250
9877,-257.812500
9878,-257.812500
9879,-257.812500
9880,-261.718750
9881,-261.718750
9882,-261.718750
9883,-265.625000
9884,-265.625000
9885,-265.625000
9886,-265.625000
9887,-269.531250
9888,-269.531250
9889,-269.531250
9890,-273.437500
9891,-273.437500
9892,-273.437500
9893,-273.437500
9894,-273.437500
9895,-273.437500
9896,-273.437500
9897,-277.343750
9898,-277.343750
9899,-277.343750
9900,-277.343750
9901,-277.343750
9902,-277.343750
9903,-277.343750
9904,-277.343750
9905,-277.343750
9906,-277.343750
9907,-277.343750
9908,-277.343750
9909,-277.343750
9910,-277.343750
9911,-277.343750
9912,-277.343750
9913,-277.343750
9914,-277.343750
9915,-273.437500
9916,-273.437500
9917,-273.437500
9918,-273.437500
9919,-273.437500
9920,-269.531250
9921,-269.531250
9922,-269.531250
9923,-269.531250
9924,-265.625000
9925,-265.625000
9926,-265.625000
9927,-265.625000
9928,-261.718750
9929,-261.718750
9930,-261.718750
9931,-257.812500
9932,-257.812500
9933,-253.906250
9934,-253.906250
9935,-250.000000
9936,-250.000000
9937,-250.000000
9938,-246.093750
9939,-246.093750
9940,-242.187500
9941,-242.187500
9942,-238.281250
9943,-238.281250
9944,-234.375000
9945,-234.375000
9946,-230.468750
9947,-230.468750
9948,-226.562500
9949,-222.656250
9950,-222.656250
9951,-218.750000
9952,-218.750000
9953,-214.843750
9954,-214.843750
9955,-210.937500
9956,-207.031250
9957,-203.125000
9958,-203.125000
9959,-199.218750
9960,-195.312500
9961,-195.312500
9962,-191.406250
9963,-187.500000
9964,-187.500000
9965,-183.593750
9966,-179.687500
9967,-175.781250
9968,-171.875000
9969,-167.968750
9970,-167.968750
9971,-164.062500
9972,-160.156250
9973,-156.250000
9974,-156.250000
9975,-152.343750
9976,-148.437500
9977,-144.531250
9978,-140.625000
9979,-136.718750
9980,-132.812500
9981,-132.812500
9982,-128.906250
9983,-125.000000
9984,-121.093750
9985,-117.187500
9986,-113.281250
9987,-113.281250
9988,-109.375000
9989,-105.468750
9990,-101.562500
9991,-97.656250
9992,-93.750000
9993,-93.750000
9994,-89.843750
9995,-85.937500
9996,-82.031250
9997,-78.125000
9998,-74.218750
9999,-70.312500
10000,-70.312500
