Channel              :,CH1
Frequency            :,1.200kHz
Period               :,0.833ms
PK-PK                :,543.0mV
Probe attenuation    :,1X
Voltage per ADC value:,0.244141mV
Time interval        :,2.00000us

index,CH1_Voltage(mV)
1,-66.406250
2,-66.406250
3,-58.593750
4,-54.687500
5,-50.781250
6,-46.875000
7,-42.968750
8,-39.062500
9,-35.156250
10,-31.250000
11,-27.343750
12,-23.437500
13,-15.625000
14,-15.625000
15,-11.718750
16,-3.906250
17,-3.906250
18,3.906250
19,7.812500
20,11.718750
21,15.625000
22,15.625000
23,23.437500
24,27.343750
25,31.250000
26,31.250000
27,35.156250
28,42.968750
29,42.968750
30,46.875000
31,50.781250
32,54.687500
33,58.593750
34,62.500000
35,66.406250
36,70.312500
37,70.312500
38,74.218750
39,78.125000
40,82.031250
41,85.937500
42,85.937500
43,89.843750
44,93.750000
45,97.656250
46,101.562500
47,101.562500
48,105.468750
49,109.375000
50,109.375000
51,113.281250
52,113.281250
53,117.187500
54,121.093750
55,121.093750
56,125.000000
57,128.906250
58,128.906250
59,132.812500
60,132.812500
61,136.718750
62,136.718750
63,140.625000
64,140.625000
65,144.531250
66,144.531250
67,148.437500
68,148.437500
69,152.343750
70,152.343750
71,152.343750
72,156.250000
73,156.250000
74,160.156250
75,160.156250
76,164.062500
77,164.062500
78,164.062500
79,164.062500
80,167.968750
81,167.968750
82,167.968750
83,171.875000
84,171.875000
85,171.875000
86,175.781250
87,175.781250
88,175.781250
89,175.781250
90,179.687500
91,179.687500
92,179.687500
93,179.687500
94,179.687500
95,179.687500
96,183.593750
97,183.593750
98,183.593750
99,183.593750
100,183.593750
101,183.593750
102,183.593750
103,183.593750
104,183.593750
105,183.593750
106,183.593750
107,187.500000
108,183.593750
109,183.593750
110,183.593750
111,187.500000
112,187.500000
113,183.593750
114,187.500000
115,183.593750
116,183.593750
117,183.593750
118,183.593750
119,183.593750
120,183.593750
121,183.593750
122,183.593750
123,183.593750
124,183.593750
125,183.593750
126,183.593750
127,183.593750
128,179.687500
129,179.687500
130,179.687500
131,179.687500
132,179.687500
133,175.781250
134,175.781250
135,175.781250
136,175.781250
137,171.875000
138,171.875000
139,171.875000
140,171.875000
141,167.968750
142,167.968750
143,167.968750
144,164.062500
145,164.062500
146,164.062500
147,164.062500
148,160.156250
149,160.156250
150,156.250000
151,156.250000
152,156.250000
153,152.343750
154,152.343750
155,148.437500
156,148.437500
157,144.531250
158,144.531250
159,140.625000
160,140.625000
161,140.625000
162,136.718750
163,136.718750
164,132.812500
165,128.906250
166,128.906250
167,125.000000
168,125.000000
169,121.093750
170,117.187500
171,117.187500
172,113.281250
173,109.375000
174,109.375000
175,105.468750
176,101.562500
177,97.656250
178,97.656250
179,93.750000
180,89.843750
181,89.843750
182,85.937500
183,82.031250
184,78.125000
185,74.218750
186,70.312500
187,70.312500
188,66.406250
189,62.500000
190,58.593750
191,54.687500
192,50.781250
193,46.875000
194,42.968750
195,39.062500
196,35.156250
197,35.156250
198,31.250000
199,27.343750
200,23.437500
201,19.531250
202,15.625000
203,11.718750
204,7.812500
205,3.906250
206,0.000000
207,-3.906250
208,-7.812500
209,-15.625000
210,-19.531250
211,-23.437500
212,-27.343750
213,-31.250000
214,-35.156250
215,-39.062500
216,-42.968750
217,-46.875000
218,-50.781250
219,-54.687500
220,-62.500000
221,-62.500000
222,-66.406250
223,-74.218750
224,-78.125000
225,-82.031250
226,-85.937500
227,-89.843750
228,-93.750000
229,-97.656250
230,-105.468750
231,-109.375000
232,-113.281250
233,-117.187500
234,-121.093750
235,-125.000000
236,-128.906250
237,-132.812500
238,-136.718750
239,-140.625000
240,-148.437500
241,-152.343750
242,-156.250000
243,-160.156250
244,-164.062500
245,-167.968750
246,-171.875000
247,-175.781250
248,-179.687500
249,-183.593750
250,-187.500000
251,-191.406250
252,-195.312500
253,-199.218750
254,-207.031250
255,-207.031250
256,-210.937500
257,-214.843750
258,-218.750000
259,-222.656250
260,-226.562500
261,-230.468750
262,-234.375000
263,-238.281250
264,-242.187500
265,-242.187500
266,-250.000000
267,-250.000000
268,-253.906250
269,-257.812500
270,-261.718750
271,-265.625000
272,-269.531250
273,-269.531250
274,-277.343750
275,-277.343750
276,-281.250000
277,-281.250000
278,-285.156250
279,-289.062500
280,-292.968750
281,-292.968750
282,-296.875000
283,-300.781250
284,-300.781250
285,-304.687500
286,-304.687500
287,-308.593750
288,-308.593750
289,-312.500000
290,-312.500000
291,-316.406250
292,-320.312500
293,-320.312500
294,-320.312500
295,-328.125000
296,-324.218750
297,-328.125000
298,-328.125000
299,-328.125000
300,-332.031250
301,-332.031250
302,-335.937500
303,-335.937500
304,-335.937500
305,-335.937500
306,-339.843750
307,-339.843750
308,-339.843750
309,-339.843750
310,-339.843750
311,-343.750000
312,-343.750000
313,-343.750000
314,-343.750000
315,-343.750000
316,-343.750000
317,-343.750000
318,-347.656250
319,-343.750000
320,-343.750000
321,-343.750000
322,-347.656250
323,-343.750000
324,-343.750000
325,-343.750000
326,-343.750000
327,-343.750000
328,-343.750000
329,-343.750000
330,-343.750000
331,-339.843750
332,-339.843750
333,-339.843750
334,-339.843750
335,-335.937500
336,-335.937500
337,-335.937500
338,-335.937500
339,-332.031250
340,-332.031250
341,-332.031250
342,-328.125000
343,-328.125000
344,-324.218750
345,-324.218750
346,-324.218750
347,-320.312500
348,-320.312500
349,-316.406250
350,-316.406250
351,-312.500000
352,-312.500000
353,-308.593750
354,-308.593750
355,-304.687500
356,-300.781250
357,-300.781250
358,-296.875000
359,-296.875000
360,-292.968750
361,-289.062500
362,-285.156250
363,-285.156250
364,-281.250000
365,-277.343750
366,-273.437500
367,-273.437500
368,-269.531250
369,-265.625000
370,-261.718750
371,-261.718750
372,-257.812500
373,-253.906250
374,-250.000000
375,-246.093750
376,-242.187500
377,-238.281250
378,-234.375000
379,-230.468750
380,-230.468750
381,-222.656250
382,-222.656250
383,-218.750000
384,-214.843750
385,-210.937500
386,-207.031250
387,-203.125000
388,-199.218750
389,-195.312500
390,-187.500000
391,-183.593750
392,-183.593750
393,-175.781250
394,-171.875000
395,-167.968750
396,-164.062500
397,-160.156250
398,-156.250000
399,-152.343750
400,-148.437500
401,-144.531250
402,-140.625000
403,-132.812500
404,-128.906250
405,-125.000000
406,-121.093750
407,-117.187500
408,-113.281250
409,-109.375000
410,-105.468750
411,-97.656250
412,-93.750000
413,-89.843750
414,-85.937500
415,-82.031250
416,-78.125000
417,-74.218750
418,-66.406250
419,-62.500000
420,-58.593750
421,-54.687500
422,-50.781250
423,-46.875000
424,-42.968750
425,-39.062500
426,-35.156250
427,-31.250000
428,-23.437500
429,-19.531250
430,-15.625000
431,-11.718750
432,-7.812500
433,-3.906250
434,0.000000
435,3.906250
436,7.812500
437,11.718750
438,15.625000
439,19.531250
440,23.437500
441,27.343750
442,31.250000
443,35.156250
444,39.062500
445,42.968750
446,46.875000
447,46.875000
448,54.687500
449,54.687500
450,58.593750
451,62.500000
452,66.406250
453,70.312500
454,74.218750
455,78.125000
456,78.125000
457,82.031250
458,85.937500
459,89.843750
460,89.843750
461,93.750000
462,97.656250
463,101.562500
464,101.562500
465,105.468750
466,109.375000
467,109.375000
468,113.281250
469,117.187500
470,117.187500
471,121.093750
472,125.000000
473,125.000000
474,128.906250
475,128.906250
476,132.812500
477,136.718750
478,136.718750
479,140.625000
480,140.625000
481,144.531250
482,144.531250
483,148.437500
484,148.437500
485,152.343750
486,152.343750
487,152.343750
488,156.250000
489,156.250000
490,160.156250
491,160.156250
492,160.156250
493,164.062500
494,164.062500
495,164.062500
496,167.968750
497,167.968750
498,167.968750
499,171.875000
500,171.875000
501,171.875000
502,171.875000
503,175.781250
504,175.781250
505,175.781250
506,175.781250
507,175.781250
508,175.781250
509,179.687500
510,179.687500
511,179.687500
512,179.687500
513,179.687500
514,183.593750
515,183.593750
516,183.593750
517,183.593750
518,183.593750
519,183.593750
520,183.593750
521,183.593750
522,183.593750
523,183.593750
524,183.593750
525,187.500000
526,183.593750
527,183.593750
528,183.593750
529,187.500000
530,187.500000
531,183.593750
532,183.593750
533,183.593750
534,183.593750
535,183.593750
536,183.593750
537,183.593750
538,183.593750
539,183.593750
540,183.593750
541,183.593750
542,183.593750
543,183.593750
544,179.687500
545,179.687500
546,179.687500
547,179.687500
548,179.687500
549,179.687500
550,175.781250
551,175.781250
552,175.781250
553,175.781250
554,171.875000
555,171.875000
556,171.875000
557,171.875000
558,167.968750
559,167.968750
560,167.968750
561,164.062500
562,164.062500
563,164.062500
564,164.062500
565,160.156250
566,160.156250
567,156.250000
568,156.250000
569,152.343750
570,152.343750
571,152.343750
572,148.437500
573,148.437500
574,144.531250
575,144.531250
576,140.625000
577,140.625000
578,136.718750
579,136.718750
580,132.812500
581,132.812500
582,128.906250
583,128.906250
584,125.000000
585,121.093750
586,121.093750
587,117.187500
588,113.281250
589,113.281250
590,109.375000
591,105.468750
592,105.468750
593,101.562500
594,97.656250
595,97.656250
596,93.750000
597,89.843750
598,85.937500
599,82.031250
600,82.031250
601,78.125000
602,74.218750
603,70.312500
604,66.406250
605,62.500000
606,62.500000
607,58.593750
608,54.687500
609,50.781250
610,46.875000
611,42.968750
612,39.062500
613,35.156250
614,31.250000
615,27.343750
616,23.437500
617,19.531250
618,15.625000
619,11.718750
620,7.812500
621,3.906250
622,3.906250
623,-3.906250
624,-7.812500
625,-11.718750
626,-15.625000
627,-19.531250
628,-23.437500
629,-27.343750
630,-31.250000
631,-35.156250
632,-39.062500
633,-42.968750
634,-50.781250
635,-54.687500
636,-58.593750
637,-62.500000
638,-66.406250
639,-70.312500
640,-74.218750
641,-78.125000
642,-82.031250
643,-85.937500
644,-93.750000
645,-97.656250
646,-101.562500
647,-105.468750
648,-109.375000
649,-113.281250
650,-117.187500
651,-125.000000
652,-125.000000
653,-132.812500
654,-136.718750
655,-140.625000
656,-144.531250
657,-148.437500
658,-152.343750
659,-156.250000
660,-160.156250
661,-164.062500
662,-167.968750
663,-175.781250
664,-179.687500
665,-183.593750
666,-187.500000
667,-191.406250
668,-195.312500
669,-199.218750
670,-203.125000
671,-207.031250
672,-210.937500
673,-214.843750
674,-214.843750
675,-222.656250
676,-226.562500
677,-226.562500
678,-230.468750
679,-234.375000
680,-238.281250
681,-242.187500
682,-246.093750
683,-250.000000
684,-253.906250
685,-257.812500
686,-257.812500
687,-261.718750
688,-265.625000
689,-269.531250
690,-273.437500
691,-273.437500
692,-277.343750
693,-281.250000
694,-285.156250
695,-285.156250
696,-289.062500
697,-292.968750
698,-292.968750
699,-296.875000
700,-300.781250
701,-304.687500
702,-304.687500
703,-304.687500
704,-308.593750
705,-312.500000
706,-312.500000
707,-316.406250
708,-316.406250
709,-320.312500
710,-324.218750
711,-320.312500
712,-324.218750
713,-328.125000
714,-328.125000
715,-328.125000
716,-332.031250
717,-332.031250
718,-332.031250
719,-335.937500
720,-335.937500
721,-335.937500
722,-335.937500
723,-339.843750
724,-339.843750
725,-339.843750
726,-339.843750
727,-343.750000
728,-343.750000
729,-343.750000
730,-343.750000
731,-343.750000
732,-343.750000
733,-343.750000
734,-347.656250
735,-343.750000
736,-343.750000
737,-347.656250
738,-343.750000
739,-343.750000
740,-343.750000
741,-347.656250
742,-347.656250
743,-343.750000
744,-343.750000
745,-343.750000
746,-343.750000
747,-343.750000
748,-339.843750
749,-339.843750
750,-339.843750
751,-339.843750
752,-339.843750
753,-335.937500
754,-335.937500
755,-335.937500
756,-332.031250
757,-332.031250
758,-332.031250
759,-328.125000
760,-328.125000
761,-324.218750
762,-324.218750
763,-324.218750
764,-320.312500
765,-320.312500
766,-316.406250
767,-312.500000
768,-312.500000
769,-312.500000
770,-308.593750
771,-304.687500
772,-304.687500
773,-300.781250
774,-300.781250
775,-296.875000
776,-292.968750
777,-292.968750
778,-289.062500
779,-285.156250
780,-285.156250
781,-281.250000
782,-277.343750
783,-273.437500
784,-269.531250
785,-265.625000
786,-265.625000
787,-261.718750
788,-257.812500
789,-253.906250
790,-253.906250
791,-250.000000
792,-246.093750
793,-242.187500
794,-238.281250
795,-234.375000
796,-230.468750
797,-226.562500
798,-222.656250
799,-218.750000
800,-214.843750
801,-210.937500
802,-207.031250
803,-203.125000
804,-199.218750
805,-195.312500
806,-191.406250
807,-187.500000
808,-183.593750
809,-179.687500
810,-175.781250
811,-171.875000
812,-167.968750
813,-164.062500
814,-160.156250
815,-156.250000
816,-148.437500
817,-144.531250
818,-140.625000
819,-136.718750
820,-132.812500
821,-128.906250
822,-125.000000
823,-121.093750
824,-117.187500
825,-109.375000
826,-109.375000
827,-101.562500
828,-97.656250
829,-93.750000
830,-89.843750
831,-85.937500
832,-82.031250
833,-74.218750
834,-70.312500
835,-66.406250
836,-62.500000
837,-58.593750
838,-54.687500
839,-50.781250
840,-42.968750
841,-42.968750
842,-39.062500
843,-31.250000
844,-27.343750
845,-23.437500
846,-19.531250
847,-15.625000
848,-11.718750
849,-7.812500
850,-3.906250
851,0.000000
852,3.906250
853,7.812500
854,11.718750
855,15.625000
856,19.531250
857,23.437500
858,27.343750
859,31.250000
860,35.156250
861,39.062500
862,42.968750
863,46.875000
864,50.781250
865,54.687500
866,58.593750
867,58.593750
868,58.593750
869,66.406250
870,70.312500
871,74.218750
872,78.125000
873,78.125000
874,82.031250
875,85.937500
876,89.843750
877,93.750000
878,93.750000
879,97.656250
880,101.562500
881,105.468750
882,105.468750
883,109.375000
884,113.281250
885,113.281250
886,117.187500
887,117.187500
888,121.093750
889,125.000000
890,125.000000
891,128.906250
892,128.906250
893,132.812500
894,132.812500
895,136.718750
896,136.718750
897,140.625000
898,144.531250
899,144.531250
900,148.437500
901,152.343750
902,148.437500
903,152.343750
904,156.250000
905,156.250000
906,156.250000
907,160.156250
908,160.156250
909,164.062500
910,164.062500
911,164.062500
912,164.062500
913,167.968750
914,167.968750
915,167.968750
916,171.875000
917,171.875000
918,171.875000
919,175.781250
920,175.781250
921,175.781250
922,175.781250
923,179.687500
924,179.687500
925,179.687500
926,179.687500
927,179.687500
928,179.687500
929,183.593750
930,183.593750
931,183.593750
932,183.593750
933,183.593750
934,183.593750
935,183.593750
936,183.593750
937,183.593750
938,183.593750
939,187.500000
940,187.500000
941,187.500000
942,183.593750
943,187.500000
944,187.500000
945,187.500000
946,183.593750
947,187.500000
948,187.500000
949,187.500000
950,191.406250
951,183.593750
952,183.593750
953,183.593750
954,183.593750
955,183.593750
956,183.593750
957,183.593750
958,183.593750
959,183.593750
960,179.687500
961,179.687500
962,179.687500
963,179.687500
964,179.687500
965,179.687500
966,179.687500
967,175.781250
968,175.781250
969,175.781250
970,171.875000
971,171.875000
972,171.875000
973,171.875000
974,167.968750
975,167.968750
976,167.968750
977,167.968750
978,164.062500
979,164.062500
980,164.062500
981,160.156250
982,160.156250
983,160.156250
984,156.250000
985,156.250000
986,156.250000
987,152.343750
988,148.437500
989,148.437500
990,148.437500
991,144.531250
992,144.531250
993,140.625000
994,140.625000
995,136.718750
996,136.718750
997,132.812500
998,132.812500
999,128.906250
1000,125.000000
1001,125.000000
1002,121.093750
1003,117.187500
1004,117.187500
1005,113.281250
1006,113.281250
1007,109.375000
1008,105.468750
1009,101.562500
1010,101.562500
1011,97.656250
1012,93.750000
1013,93.750000
1014,89.843750
1015,85.937500
1016,82.031250
1017,78.125000
1018,78.125000
1019,78.125000
1020,70.312500
1021,66.406250
1022,62.500000
1023,62.500000
1024,54.687500
1025,54.687500
1026,50.781250
1027,46.875000
1028,42.968750
1029,39.062500
1030,35.156250
1031,31.250000
1032,27.343750
1033,23.437500
1034,19.531250
1035,15.625000
1036,11.718750
1037,7.812500
1038,3.906250
1039,0.000000
1040,-3.906250
1041,-7.812500
1042,-11.718750
1043,-15.625000
1044,-19.531250
1045,-23.437500
1046,-27.343750
1047,-31.250000
1048,-35.156250
1049,-42.968750
1050,-46.875000
1051,-50.781250
1052,-54.687500
1053,-58.593750
1054,-62.500000
1055,-66.406250
1056,-70.312500
1057,-74.218750
1058,-82.031250
1059,-85.937500
1060,-89.843750
1061,-93.750000
1062,-97.656250
1063,-101.562500
1064,-105.468750
1065,-109.375000
1066,-113.281250
1067,-121.093750
1068,-125.000000
1069,-128.906250
1070,-132.812500
1071,-136.718750
1072,-140.625000
1073,-144.531250
1074,-148.437500
1075,-156.250000
1076,-156.250000
1077,-164.062500
1078,-164.062500
1079,-171.875000
1080,-175.781250
1081,-179.687500
1082,-183.593750
1083,-187.500000
1084,-191.406250
1085,-195.312500
1086,-199.218750
1087,-203.125000
1088,-207.031250
1089,-210.937500
1090,-214.843750
1091,-218.750000
1092,-222.656250
1093,-226.562500
1094,-230.468750
1095,-234.375000
1096,-238.281250
1097,-242.187500
1098,-246.093750
1099,-246.093750
1100,-250.000000
1101,-253.906250
1102,-257.812500
1103,-261.718750
1104,-261.718750
1105,-265.625000
1106,-269.531250
1107,-273.437500
1108,-277.343750
1109,-277.343750
1110,-281.250000
1111,-285.156250
1112,-289.062500
1113,-289.062500
1114,-292.968750
1115,-296.875000
1116,-296.875000
1117,-300.781250
1118,-300.781250
1119,-304.687500
1120,-308.593750
1121,-308.593750
1122,-312.500000
1123,-312.500000
1124,-316.406250
1125,-316.406250
1126,-320.312500
1127,-320.312500
1128,-324.218750
1129,-324.218750
1130,-324.218750
1131,-328.125000
1132,-332.031250
1133,-332.031250
1134,-332.031250
1135,-332.031250
1136,-335.937500
1137,-335.937500
1138,-335.937500
1139,-339.843750
1140,-339.843750
1141,-339.843750
1142,-339.843750
1143,-343.750000
1144,-343.750000
1145,-343.750000
1146,-343.750000
1147,-343.750000
1148,-343.750000
1149,-343.750000
1150,-343.750000
1151,-343.750000
1152,-347.656250
1153,-343.750000
1154,-343.750000
1155,-343.750000
1156,-343.750000
1157,-343.750000
1158,-343.750000
1159,-343.750000
1160,-343.750000
1161,-343.750000
1162,-343.750000
1163,-343.750000
1164,-343.750000
1165,-339.843750
1166,-339.843750
1167,-339.843750
1168,-339.843750
1169,-335.937500
1170,-335.937500
1171,-335.937500
1172,-335.937500
1173,-332.031250
1174,-332.031250
1175,-332.031250
1176,-328.125000
1177,-328.125000
1178,-328.125000
1179,-324.218750
1180,-320.312500
1181,-320.312500
1182,-316.406250
1183,-316.406250
1184,-312.500000
1185,-312.500000
1186,-308.593750
1187,-308.593750
1188,-304.687500
1189,-304.687500
1190,-300.781250
1191,-296.875000
1192,-296.875000
1193,-292.968750
1194,-289.062500
1195,-289.062500
1196,-285.156250
1197,-281.250000
1198,-281.250000
1199,-277.343750
1200,-273.437500
1201,-269.531250
1202,-265.625000
1203,-265.625000
1204,-261.718750
1205,-257.812500
1206,-253.906250
1207,-250.000000
1208,-246.093750
1209,-246.093750
1210,-242.187500
1211,-234.375000
1212,-234.375000
1213,-230.468750
1214,-226.562500
1215,-222.656250
1216,-218.750000
1217,-214.843750
1218,-210.937500
1219,-207.031250
1220,-203.125000
1221,-195.312500
1222,-195.312500
1223,-191.406250
1224,-187.500000
1225,-183.593750
1226,-179.687500
1227,-175.781250
1228,-167.968750
1229,-167.968750
1230,-164.062500
1231,-156.250000
1232,-152.343750
1233,-148.437500
1234,-144.531250
1235,-140.625000
1236,-136.718750
1237,-132.812500
1238,-128.906250
1239,-121.093750
1240,-117.187500
1241,-113.281250
1242,-109.375000
1243,-105.468750
1244,-101.562500
1245,-93.750000
1246,-93.750000
1247,-85.937500
1248,-82.031250
1249,-78.125000
1250,-74.218750
1251,-70.312500
1252,-66.406250
1253,-62.500000
1254,-58.593750
1255,-54.687500
1256,-46.875000
1257,-42.968750
1258,-39.062500
1259,-35.156250
1260,-31.250000
1261,-27.343750
1262,-23.437500
1263,-19.531250
1264,-15.625000
1265,-7.812500
1266,-7.812500
1267,0.000000
1268,3.906250
1269,3.906250
1270,11.718750
1271,15.625000
1272,15.625000
1273,23.437500
1274,27.343750
1275,27.343750
1276,31.250000
1277,35.156250
1278,39.062500
1279,42.968750
1280,46.875000
1281,50.781250
1282,50.781250
1283,58.593750
1284,62.500000
1285,66.406250
1286,70.312500
1287,70.312500
1288,74.218750
1289,78.125000
1290,78.125000
1291,82.031250
1292,85.937500
1293,89.843750
1294,93.750000
1295,93.750000
1296,97.656250
1297,101.562500
1298,105.468750
1299,105.468750
1300,109.375000
1301,113.281250
1302,113.281250
1303,117.187500
1304,121.093750
1305,121.093750
1306,125.000000
1307,128.906250
1308,128.906250
1309,132.812500
1310,132.812500
1311,136.718750
1312,136.718750
1313,140.625000
1314,140.625000
1315,144.531250
1316,144.531250
1317,148.437500
1318,148.437500
1319,152.343750
1320,152.343750
1321,156.250000
1322,156.250000
1323,156.250000
1324,160.156250
1325,160.156250
1326,160.156250
1327,164.062500
1328,164.062500
1329,167.968750
1330,167.968750
1331,167.968750
1332,167.968750
1333,171.875000
1334,171.875000
1335,167.968750
1336,175.781250
1337,175.781250
1338,175.781250
1339,175.781250
1340,175.781250
1341,175.781250
1342,179.687500
1343,179.687500
1344,179.687500
1345,179.687500
1346,179.687500
1347,183.593750
1348,183.593750
1349,183.593750
1350,183.593750
1351,183.593750
1352,183.593750
1353,183.593750
1354,187.500000
1355,183.593750
1356,183.593750
1357,183.593750
1358,183.593750
1359,187.500000
1360,187.500000
1361,187.500000
1362,183.593750
1363,187.500000
1364,183.593750
1365,187.500000
1366,183.593750
1367,183.593750
1368,183.593750
1369,183.593750
1370,183.593750
1371,183.593750
1372,183.593750
1373,183.593750
1374,183.593750
1375,183.593750
1376,183.593750
1377,179.687500
1378,179.687500
1379,179.687500
1380,179.687500
1381,179.687500
1382,179.687500
1383,179.687500
1384,175.781250
1385,175.781250
1386,175.781250
1387,175.781250
1388,171.875000
1389,171.875000
1390,171.875000
1391,171.875000
1392,167.968750
1393,167.968750
1394,167.968750
1395,164.062500
1396,164.062500
1397,164.062500
1398,164.062500
1399,160.156250
1400,160.156250
1401,156.250000
1402,156.250000
1403,152.343750
1404,152.343750
1405,148.437500
1406,148.437500
1407,148.437500
1408,144.531250
1409,144.531250
1410,140.625000
1411,136.718750
1412,136.718750
1413,136.718750
1414,132.812500
1415,128.906250
1416,128.906250
1417,125.000000
1418,125.000000
1419,121.093750
1420,117.187500
1421,117.187500
1422,113.281250
1423,109.375000
1424,105.468750
1425,105.468750
1426,101.562500
1427,97.656250
1428,97.656250
1429,93.750000
1430,89.843750
1431,85.937500
1432,85.937500
1433,82.031250
1434,78.125000
1435,74.218750
1436,70.312500
1437,70.312500
1438,66.406250
1439,62.500000
1440,58.593750
1441,54.687500
1442,46.875000
1443,46.875000
1444,42.968750
1445,42.968750
1446,39.062500
1447,35.156250
1448,31.250000
1449,27.343750
1450,23.437500
1451,19.531250
1452,15.625000
1453,11.718750
1454,7.812500
1455,3.906250
1456,0.000000
1457,-3.906250
1458,-11.718750
1459,-11.718750
1460,-15.625000
1461,-23.437500
1462,-27.343750
1463,-31.250000
1464,-35.156250
1465,-39.062500
1466,-42.968750
1467,-46.875000
1468,-50.781250
1469,-54.687500
1470,-58.593750
1471,-66.406250
1472,-66.406250
1473,-74.218750
1474,-78.125000
1475,-82.031250
1476,-85.937500
1477,-89.843750
1478,-93.750000
1479,-97.656250
1480,-105.468750
1481,-109.375000
1482,-113.281250
1483,-117.187500
1484,-121.093750
1485,-125.000000
1486,-128.906250
1487,-132.812500
1488,-136.718750
1489,-144.531250
1490,-148.437500
1491,-152.343750
1492,-156.250000
1493,-160.156250
1494,-164.062500
1495,-167.968750
1496,-171.875000
1497,-175.781250
1498,-179.687500
1499,-183.593750
1500,-187.500000
1501,-195.312500
1502,-195.312500
1503,-199.218750
1504,-203.125000
1505,-207.031250
1506,-210.937500
1507,-214.843750
1508,-218.750000
1509,-222.656250
1510,-226.562500
1511,-230.468750
1512,-234.375000
1513,-238.281250
1514,-242.187500
1515,-246.093750
1516,-246.093750
1517,-250.000000
1518,-253.906250
1519,-257.812500
1520,-261.718750
1521,-265.625000
1522,-265.625000
1523,-269.531250
1524,-273.437500
1525,-277.343750
1526,-281.250000
1527,-281.250000
1528,-285.156250
1529,-289.062500
1530,-289.062500
1531,-292.968750
1532,-296.875000
1533,-296.875000
1534,-300.781250
1535,-304.687500
1536,-304.687500
1537,-308.593750
1538,-308.593750
1539,-312.500000
1540,-316.406250
1541,-316.406250
1542,-316.406250
1543,-320.312500
1544,-324.218750
1545,-324.218750
1546,-324.218750
1547,-328.125000
1548,-328.125000
1549,-328.125000
1550,-332.031250
1551,-332.031250
1552,-335.937500
1553,-335.937500
1554,-335.937500
1555,-339.843750
1556,-339.843750
1557,-339.843750
1558,-339.843750
1559,-339.843750
1560,-343.750000
1561,-343.750000
1562,-343.750000
1563,-343.750000
1564,-343.750000
1565,-343.750000
1566,-343.750000
1567,-343.750000
1568,-343.750000
1569,-343.750000
1570,-347.656250
1571,-347.656250
1572,-343.750000
1573,-343.750000
1574,-343.750000
1575,-343.750000
1576,-343.750000
1577,-343.750000
1578,-343.750000
1579,-343.750000
1580,-343.750000
1581,-339.843750
1582,-339.843750
1583,-339.843750
1584,-339.843750
1585,-339.843750
1586,-335.937500
1587,-335.937500
1588,-335.937500
1589,-332.031250
1590,-332.031250
1591,-332.031250
1592,-328.125000
1593,-328.125000
1594,-324.218750
1595,-324.218750
1596,-324.218750
1597,-320.312500
1598,-320.312500
1599,-316.406250
1600,-312.500000
1601,-312.500000
1602,-312.500000
1603,-308.593750
1604,-304.687500
1605,-304.687500
1606,-300.781250
1607,-300.781250
1608,-296.875000
1609,-296.875000
1610,-292.968750
1611,-289.062500
1612,-285.156250
1613,-285.156250
1614,-281.250000
1615,-277.343750
1616,-273.437500
1617,-273.437500
1618,-269.531250
1619,-265.625000
1620,-261.718750
1621,-261.718750
1622,-257.812500
1623,-253.906250
1624,-250.000000
1625,-246.093750
1626,-242.187500
1627,-238.281250
1628,-234.375000
1629,-230.468750
1630,-230.468750
1631,-226.562500
1632,-222.656250
1633,-214.843750
1634,-214.843750
1635,-210.937500
1636,-207.031250
1637,-203.125000
1638,-199.218750
1639,-195.312500
1640,-191.406250
1641,-187.500000
1642,-179.687500
1643,-175.781250
1644,-171.875000
1645,-167.968750
1646,-164.062500
1647,-160.156250
1648,-156.250000
1649,-152.343750
1650,-148.437500
1651,-144.531250
1652,-140.625000
1653,-136.718750
1654,-128.906250
1655,-125.000000
1656,-121.093750
1657,-117.187500
1658,-113.281250
1659,-109.375000
1660,-105.468750
1661,-101.562500
1662,-93.750000
1663,-89.843750
1664,-85.937500
1665,-82.031250
1666,-78.125000
1667,-74.218750
1668,-66.406250
1669,-62.500000
1670,-58.593750
1671,-54.687500
1672,-50.781250
1673,-46.875000
1674,-42.968750
1675,-39.062500
1676,-35.156250
1677,-31.250000
1678,-27.343750
1679,-23.437500
1680,-19.531250
1681,-11.718750
1682,-7.812500
1683,-3.906250
1684,0.000000
1685,3.906250
1686,7.812500
1687,11.718750
1688,15.625000
1689,19.531250
1690,23.437500
1691,27.343750
1692,31.250000
1693,35.156250
1694,39.062500
1695,42.968750
1696,42.968750
1697,46.875000
1698,54.687500
1699,54.687500
1700,58.593750
1701,62.500000
1702,66.406250
1703,70.312500
1704,74.218750
1705,74.218750
1706,78.125000
1707,82.031250
1708,85.937500
1709,89.843750
1710,89.843750
1711,93.750000
1712,97.656250
1713,97.656250
1714,101.562500
1715,105.468750
1716,109.375000
1717,109.375000
1718,113.281250
1719,117.187500
1720,117.187500
1721,121.093750
1722,125.000000
1723,125.000000
1724,128.906250
1725,128.906250
1726,132.812500
1727,136.718750
1728,136.718750
1729,136.718750
1730,140.625000
1731,144.531250
1732,144.531250
1733,144.531250
1734,148.437500
1735,148.437500
1736,152.343750
1737,152.343750
1738,156.250000
1739,156.250000
1740,156.250000
1741,160.156250
1742,160.156250
1743,160.156250
1744,164.062500
1745,164.062500
1746,167.968750
1747,167.968750
1748,167.968750
1749,167.968750
1750,171.875000
1751,171.875000
1752,171.875000
1753,175.781250
1754,175.781250
1755,175.781250
1756,175.781250
1757,175.781250
1758,179.687500
1759,179.687500
1760,179.687500
1761,179.687500
1762,179.687500
1763,179.687500
1764,183.593750
1765,183.593750
1766,183.593750
1767,183.593750
1768,183.593750
1769,183.593750
1770,183.593750
1771,183.593750
1772,187.500000
1773,187.500000
1774,187.500000
1775,187.500000
1776,183.593750
1777,187.500000
1778,187.500000
1779,187.500000
1780,187.500000
1781,187.500000
1782,183.593750
1783,187.500000
1784,183.593750
1785,183.593750
1786,183.593750
1787,183.593750
1788,183.593750
1789,183.593750
1790,183.593750
1791,183.593750
1792,183.593750
1793,179.687500
1794,179.687500
1795,179.687500
1796,179.687500
1797,179.687500
1798,179.687500
1799,179.687500
1800,175.781250
1801,175.781250
1802,175.781250
1803,175.781250
1804,175.781250
1805,171.875000
1806,171.875000
1807,171.875000
1808,167.968750
1809,167.968750
1810,167.968750
1811,167.968750
1812,164.062500
1813,164.062500
1814,160.156250
1815,160.156250
1816,160.156250
1817,156.250000
1818,156.250000
1819,156.250000
1820,152.343750
1821,152.343750
1822,148.437500
1823,148.437500
1824,144.531250
1825,144.531250
1826,140.625000
1827,140.625000
1828,136.718750
1829,136.718750
1830,132.812500
1831,132.812500
1832,132.812500
1833,128.906250
1834,125.000000
1835,121.093750
1836,121.093750
1837,117.187500
1838,117.187500
1839,113.281250
1840,109.375000
1841,109.375000
1842,105.468750
1843,101.562500
1844,101.562500
1845,97.656250
1846,93.750000
1847,89.843750
1848,85.937500
1849,85.937500
1850,82.031250
1851,78.125000
1852,74.218750
1853,70.312500
1854,66.406250
1855,66.406250
1856,62.500000
1857,58.593750
1858,54.687500
1859,50.781250
1860,42.968750
1861,42.968750
1862,39.062500
1863,35.156250
1864,35.156250
1865,31.250000
1866,23.437500
1867,23.437500
1868,15.625000
1869,11.718750
1870,11.718750
1871,3.906250
1872,0.000000
1873,-3.906250
1874,-7.812500
1875,-11.718750
1876,-15.625000
1877,-19.531250
1878,-23.437500
1879,-27.343750
1880,-31.250000
1881,-35.156250
1882,-39.062500
1883,-42.968750
1884,-46.875000
1885,-54.687500
1886,-58.593750
1887,-62.500000
1888,-66.406250
1889,-70.312500
1890,-74.218750
1891,-78.125000
1892,-82.031250
1893,-85.937500
1894,-89.843750
1895,-97.656250
1896,-101.562500
1897,-105.468750
1898,-109.375000
1899,-113.281250
1900,-117.187500
1901,-121.093750
1902,-125.000000
1903,-132.812500
1904,-136.718750
1905,-140.625000
1906,-144.531250
1907,-148.437500
1908,-152.343750
1909,-156.250000
1910,-160.156250
1911,-164.062500
1912,-167.968750
1913,-171.875000
1914,-179.687500
1915,-179.687500
1916,-183.593750
1917,-191.406250
1918,-195.312500
1919,-199.218750
1920,-199.218750
1921,-203.125000
1922,-207.031250
1923,-214.843750
1924,-214.843750
1925,-222.656250
1926,-226.562500
1927,-226.562500
1928,-230.468750
1929,-234.375000
1930,-238.281250
1931,-242.187500
1932,-246.093750
1933,-250.000000
1934,-253.906250
1935,-253.906250
1936,-257.812500
1937,-261.718750
1938,-265.625000
1939,-269.531250
1940,-269.531250
1941,-273.437500
1942,-277.343750
1943,-281.250000
1944,-285.156250
1945,-285.156250
1946,-289.062500
1947,-292.968750
1948,-296.875000
1949,-296.875000
1950,-300.781250
1951,-300.781250
1952,-304.687500
1953,-308.593750
1954,-308.593750
1955,-312.500000
1956,-312.500000
1957,-316.406250
1958,-316.406250
1959,-320.312500
1960,-320.312500
1961,-324.218750
1962,-324.218750
1963,-324.218750
1964,-328.125000
1965,-328.125000
1966,-332.031250
1967,-332.031250
1968,-332.031250
1969,-335.937500
1970,-332.031250
1971,-335.937500
1972,-339.843750
1973,-339.843750
1974,-339.843750
1975,-339.843750
1976,-339.843750
1977,-343.750000
1978,-343.750000
1979,-343.750000
1980,-343.750000
1981,-343.750000
1982,-343.750000
1983,-343.750000
1984,-347.656250
1985,-343.750000
1986,-347.656250
1987,-343.750000
1988,-343.750000
1989,-343.750000
1990,-343.750000
1991,-343.750000
1992,-343.750000
1993,-343.750000
1994,-343.750000
1995,-343.750000
1996,-343.750000
1997,-339.843750
1998,-339.843750
1999,-339.843750
2000,-339.843750
2001,-339.843750
2002,-335.937500
2003,-335.937500
2004,-335.937500
2005,-335.937500
2006,-332.031250
2007,-332.031250
2008,-332.031250
2009,-328.125000
2010,-328.125000
2011,-324.218750
2012,-324.218750
2013,-324.218750
2014,-320.312500
2015,-320.312500
2016,-316.406250
2017,-316.406250
2018,-312.500000
2019,-308.593750
2020,-308.593750
2021,-304.687500
2022,-304.687500
2023,-300.781250
2024,-296.875000
2025,-296.875000
2026,-292.968750
2027,-292.968750
2028,-289.062500
2029,-285.156250
2030,-281.250000
2031,-281.250000
2032,-277.343750
2033,-273.437500
2034,-273.437500
2035,-269.531250
2036,-265.625000
2037,-261.718750
2038,-257.812500
2039,-253.906250
2040,-253.906250
2041,-250.000000
2042,-246.093750
2043,-242.187500
2044,-238.281250
2045,-234.375000
2046,-230.468750
2047,-226.562500
2048,-222.656250
2049,-218.750000
2050,-214.843750
2051,-210.937500
2052,-207.031250
2053,-203.125000
2054,-199.218750
2055,-195.312500
2056,-195.312500
2057,-187.500000
2058,-183.593750
2059,-179.687500
2060,-175.781250
2061,-171.875000
2062,-167.968750
2063,-164.062500
2064,-160.156250
2065,-156.250000
2066,-152.343750
2067,-144.531250
2068,-140.625000
2069,-136.718750
2070,-136.718750
2071,-128.906250
2072,-125.000000
2073,-121.093750
2074,-117.187500
2075,-113.281250
2076,-105.468750
2077,-101.562500
2078,-97.656250
2079,-93.750000
2080,-89.843750
2081,-85.937500
2082,-82.031250
2083,-74.218750
2084,-70.312500
2085,-66.406250
2086,-62.500000
2087,-58.593750
2088,-54.687500
2089,-50.781250
2090,-46.875000
2091,-42.968750
2092,-35.156250
2093,-31.250000
2094,-31.250000
2095,-23.437500
2096,-19.531250
2097,-15.625000
2098,-11.718750
2099,-7.812500
2100,-3.906250
2101,0.000000
2102,3.906250
2103,7.812500
2104,11.718750
2105,15.625000
2106,19.531250
2107,23.437500
2108,27.343750
2109,31.250000
2110,35.156250
2111,39.062500
2112,42.968750
2113,46.875000
2114,46.875000
2115,54.687500
2116,54.687500
2117,58.593750
2118,62.500000
2119,66.406250
2120,70.312500
2121,74.218750
2122,74.218750
2123,78.125000
2124,82.031250
2125,85.937500
2126,89.843750
2127,89.843750
2128,93.750000
2129,97.656250
2130,101.562500
2131,105.468750
2132,105.468750
2133,109.375000
2134,113.281250
2135,113.281250
2136,117.187500
2137,117.187500
2138,121.093750
2139,125.000000
2140,125.000000
2141,128.906250
2142,128.906250
2143,132.812500
2144,136.718750
2145,136.718750
2146,136.718750
2147,140.625000
2148,144.531250
2149,144.531250
2150,148.437500
2151,148.437500
2152,148.437500
2153,152.343750
2154,152.343750
2155,156.250000
2156,156.250000
2157,156.250000
2158,160.156250
2159,164.062500
2160,164.062500
2161,164.062500
2162,164.062500
2163,167.968750
2164,164.062500
2165,167.968750
2166,171.875000
2167,171.875000
2168,171.875000
2169,171.875000
2170,175.781250
2171,175.781250
2172,175.781250
2173,175.781250
2174,179.687500
2175,179.687500
2176,179.687500
2177,179.687500
2178,179.687500
2179,183.593750
2180,179.687500
2181,183.593750
2182,183.593750
2183,183.593750
2184,183.593750
2185,183.593750
2186,183.593750
2187,183.593750
2188,183.593750
2189,183.593750
2190,183.593750
2191,183.593750
2192,187.500000
2193,187.500000
2194,187.500000
2195,183.593750
2196,187.500000
2197,183.593750
2198,183.593750
2199,183.593750
2200,183.593750
2201,183.593750
2202,183.593750
2203,183.593750
2204,183.593750
2205,183.593750
2206,183.593750
2207,183.593750
2208,183.593750
2209,183.593750
2210,179.687500
2211,179.687500
2212,179.687500
2213,179.687500
2214,179.687500
2215,179.687500
2216,175.781250
2217,175.781250
2218,175.781250
2219,171.875000
2220,175.781250
2221,171.875000
2222,171.875000
2223,171.875000
2224,171.875000
2225,167.968750
2226,167.968750
2227,167.968750
2228,164.062500
2229,164.062500
2230,164.062500
2231,160.156250
2232,160.156250
2233,160.156250
2234,156.250000
2235,156.250000
2236,152.343750
2237,152.343750
2238,152.343750
2239,152.343750
2240,148.437500
2241,144.531250
2242,144.531250
2243,140.625000
2244,140.625000
2245,136.718750
2246,136.718750
2247,132.812500
2248,132.812500
2249,128.906250
2250,125.000000
2251,128.906250
2252,125.000000
2253,121.093750
2254,117.187500
2255,113.281250
2256,113.281250
2257,109.375000
2258,105.468750
2259,101.562500
2260,101.562500
2261,97.656250
2262,93.750000
2263,93.750000
2264,89.843750
2265,85.937500
2266,82.031250
2267,82.031250
2268,78.125000
2269,74.218750
2270,70.312500
2271,66.406250
2272,62.500000
2273,62.500000
2274,58.593750
2275,54.687500
2276,50.781250
2277,46.875000
2278,42.968750
2279,39.062500
2280,35.156250
2281,31.250000
2282,27.343750
2283,19.531250
2284,19.531250
2285,15.625000
2286,11.718750
2287,7.812500
2288,3.906250
2289,0.000000
2290,-3.906250
2291,-7.812500
2292,-11.718750
2293,-15.625000
2294,-19.531250
2295,-23.437500
2296,-27.343750
2297,-31.250000
2298,-35.156250
2299,-42.968750
2300,-46.875000
2301,-50.781250
2302,-54.687500
2303,-58.593750
2304,-62.500000
2305,-66.406250
2306,-70.312500
2307,-74.218750
2308,-78.125000
2309,-82.031250
2310,-89.843750
2311,-93.750000
2312,-97.656250
2313,-101.562500
2314,-105.468750
2315,-109.375000
2316,-113.281250
2317,-121.093750
2318,-125.000000
2319,-128.906250
2320,-132.812500
2321,-136.718750
2322,-140.625000
2323,-144.531250
2324,-148.437500
2325,-156.250000
2326,-156.250000
2327,-164.062500
2328,-164.062500
2329,-171.875000
2330,-175.781250
2331,-179.687500
2332,-183.593750
2333,-187.500000
2334,-191.406250
2335,-195.312500
2336,-199.218750
2337,-203.125000
2338,-207.031250
2339,-210.937500
2340,-214.843750
2341,-218.750000
2342,-218.750000
2343,-226.562500
2344,-230.468750
2345,-234.375000
2346,-238.281250
2347,-238.281250
2348,-246.093750
2349,-246.093750
2350,-250.000000
2351,-253.906250
2352,-257.812500
2353,-261.718750
2354,-261.718750
2355,-265.625000
2356,-269.531250
2357,-273.437500
2358,-277.343750
2359,-277.343750
2360,-281.250000
2361,-285.156250
2362,-285.156250
2363,-289.062500
2364,-292.968750
2365,-292.968750
2366,-296.875000
2367,-300.781250
2368,-300.781250
2369,-304.687500
2370,-308.593750
2371,-308.593750
2372,-312.500000
2373,-312.500000
2374,-316.406250
2375,-316.406250
2376,-320.312500
2377,-320.312500
2378,-324.218750
2379,-324.218750
2380,-324.218750
2381,-328.125000
2382,-328.125000
2383,-332.031250
2384,-332.031250
2385,-332.031250
2386,-335.937500
2387,-335.937500
2388,-335.937500
2389,-339.843750
2390,-339.843750
2391,-339.843750
2392,-339.843750
2393,-343.750000
2394,-343.750000
2395,-343.750000
2396,-343.750000
2397,-343.750000
2398,-347.656250
2399,-343.750000
2400,-343.750000
2401,-343.750000
2402,-343.750000
2403,-347.656250
2404,-347.656250
2405,-343.750000
2406,-343.750000
2407,-343.750000
2408,-343.750000
2409,-339.843750
2410,-343.750000
2411,-343.750000
2412,-343.750000
2413,-343.750000
2414,-339.843750
2415,-335.937500
2416,-339.843750
2417,-339.843750
2418,-339.843750
2419,-335.937500
2420,-335.937500
2421,-335.937500
2422,-335.937500
2423,-332.031250
2424,-332.031250
2425,-328.125000
2426,-328.125000
2427,-328.125000
2428,-324.218750
2429,-324.218750
2430,-320.312500
2431,-320.312500
2432,-316.406250
2433,-316.406250
2434,-312.500000
2435,-312.500000
2436,-308.593750
2437,-308.593750
2438,-304.687500
2439,-300.781250
2440,-300.781250
2441,-296.875000
2442,-296.875000
2443,-292.968750
2444,-289.062500
2445,-289.062500
2446,-285.156250
2447,-281.250000
2448,-281.250000
2449,-277.343750
2450,-273.437500
2451,-273.437500
2452,-265.625000
2453,-261.718750
2454,-261.718750
2455,-257.812500
2456,-253.906250
2457,-250.000000
2458,-246.093750
2459,-246.093750
2460,-242.187500
2461,-238.281250
2462,-234.375000
2463,-230.468750
2464,-226.562500
2465,-222.656250
2466,-218.750000
2467,-214.843750
2468,-210.937500
2469,-207.031250
2470,-203.125000
2471,-199.218750
2472,-195.312500
2473,-191.406250
2474,-187.500000
2475,-183.593750
2476,-179.687500
2477,-175.781250
2478,-171.875000
2479,-164.062500
2480,-160.156250
2481,-156.250000
2482,-152.343750
2483,-148.437500
2484,-144.531250
2485,-140.625000
2486,-136.718750
2487,-132.812500
2488,-128.906250
2489,-121.093750
2490,-117.187500
2491,-113.281250
2492,-109.375000
2493,-105.468750
2494,-101.562500
2495,-97.656250
2496,-93.750000
2497,-89.843750
2498,-82.031250
2499,-78.125000
2500,-74.218750
2501,-70.312500
2502,-66.406250
2503,-62.500000
2504,-58.593750
2505,-54.687500
2506,-50.781250
2507,-42.968750
2508,-39.062500
2509,-35.156250
2510,-31.250000
2511,-27.343750
2512,-23.437500
2513,-19.531250
2514,-15.625000
2515,-11.718750
2516,-7.812500
2517,-3.906250
2518,3.906250
2519,3.906250
2520,7.812500
2521,11.718750
2522,15.625000
2523,19.531250
2524,23.437500
2525,27.343750
2526,31.250000
2527,35.156250
2528,39.062500
2529,42.968750
2530,46.875000
2531,50.781250
2532,54.687500
2533,58.593750
2534,58.593750
2535,62.500000
2536,66.406250
2537,70.312500
2538,74.218750
2539,78.125000
2540,82.031250
2541,85.937500
2542,85.937500
2543,89.843750
2544,93.750000
2545,93.750000
2546,97.656250
2547,101.562500
2548,105.468750
2549,105.468750
2550,113.281250
2551,113.281250
2552,113.281250
2553,117.187500
2554,121.093750
2555,121.093750
2556,125.000000
2557,125.000000
2558,128.906250
2559,132.812500
2560,132.812500
2561,136.718750
2562,136.718750
2563,140.625000
2564,140.625000
2565,144.531250
2566,144.531250
2567,148.437500
2568,148.437500
2569,152.343750
2570,152.343750
2571,156.250000
2572,156.250000
2573,156.250000
2574,160.156250
2575,160.156250
2576,164.062500
2577,164.062500
2578,164.062500
2579,164.062500
2580,167.968750
2581,167.968750
2582,171.875000
2583,171.875000
2584,171.875000
2585,171.875000
2586,171.875000
2587,175.781250
2588,175.781250
2589,175.781250
2590,175.781250
2591,179.687500
2592,179.687500
2593,179.687500
2594,175.781250
2595,179.687500
2596,179.687500
2597,183.593750
2598,183.593750
2599,183.593750
2600,183.593750
2601,183.593750
2602,183.593750
2603,183.593750
2604,183.593750
2605,183.593750
2606,183.593750
2607,183.593750
2608,187.500000
2609,187.500000
2610,187.500000
2611,187.500000
2612,183.593750
2613,187.500000
2614,187.500000
2615,187.500000
2616,183.593750
2617,183.593750
2618,183.593750
2619,183.593750
2620,183.593750
2621,183.593750
2622,183.593750
2623,183.593750
2624,183.593750
2625,183.593750
2626,183.593750
2627,179.687500
2628,179.687500
2629,179.687500
2630,179.687500
2631,179.687500
2632,179.687500
2633,175.781250
2634,175.781250
2635,175.781250
2636,175.781250
2637,171.875000
2638,171.875000
2639,171.875000
2640,171.875000
2641,171.875000
2642,167.968750
2643,167.968750
2644,167.968750
2645,164.062500
2646,164.062500
2647,164.062500
2648,160.156250
2649,160.156250
2650,156.250000
2651,156.250000
2652,156.250000
2653,152.343750
2654,152.343750
2655,148.437500
2656,148.437500
2657,148.437500
2658,144.531250
2659,140.625000
2660,140.625000
2661,140.625000
2662,136.718750
2663,132.812500
2664,132.812500
2665,132.812500
2666,125.000000
2667,125.000000
2668,121.093750
2669,121.093750
2670,117.187500
2671,117.187500
2672,113.281250
2673,109.375000
2674,109.375000
2675,105.468750
2676,101.562500
2677,101.562500
2678,97.656250
2679,93.750000
2680,89.843750
2681,89.843750
2682,85.937500
2683,82.031250
2684,78.125000
2685,74.218750
2686,74.218750
2687,70.312500
2688,66.406250
2689,62.500000
2690,58.593750
2691,58.593750
2692,50.781250
2693,46.875000
2694,42.968750
2695,42.968750
2696,39.062500
2697,35.156250
2698,31.250000
2699,27.343750
2700,23.437500
2701,19.531250
2702,15.625000
2703,11.718750
2704,7.812500
2705,3.906250
2706,0.000000
2707,-3.906250
2708,-11.718750
2709,-11.718750
2710,-15.625000
2711,-23.437500
2712,-27.343750
2713,-31.250000
2714,-35.156250
2715,-39.062500
2716,-42.968750
2717,-46.875000
2718,-50.781250
2719,-54.687500
2720,-58.593750
2721,-62.500000
2722,-66.406250
2723,-70.312500
2724,-78.125000
2725,-82.031250
2726,-85.937500
2727,-89.843750
2728,-93.750000
2729,-97.656250
2730,-101.562500
2731,-105.468750
2732,-113.281250
2733,-117.187500
2734,-121.093750
2735,-125.000000
2736,-128.906250
2737,-132.812500
2738,-136.718750
2739,-140.625000
2740,-144.531250
2741,-148.437500
2742,-156.250000
2743,-160.156250
2744,-160.156250
2745,-167.968750
2746,-171.875000
2747,-175.781250
2748,-179.687500
2749,-183.593750
2750,-187.500000
2751,-191.406250
2752,-195.312500
2753,-199.218750
2754,-203.125000
2755,-207.031250
2756,-210.937500
2757,-214.843750
2758,-218.750000
2759,-222.656250
2760,-226.562500
2761,-230.468750
2762,-234.375000
2763,-238.281250
2764,-242.187500
2765,-246.093750
2766,-250.000000
2767,-250.000000
2768,-253.906250
2769,-257.812500
2770,-261.718750
2771,-265.625000
2772,-265.625000
2773,-269.531250
2774,-273.437500
2775,-277.343750
2776,-277.343750
2777,-281.250000
2778,-285.156250
2779,-289.062500
2780,-289.062500
2781,-292.968750
2782,-296.875000
2783,-296.875000
2784,-300.781250
2785,-304.687500
2786,-304.687500
2787,-308.593750
2788,-308.593750
2789,-312.500000
2790,-316.406250
2791,-316.406250
2792,-320.312500
2793,-320.312500
2794,-320.312500
2795,-324.218750
2796,-324.218750
2797,-328.125000
2798,-328.125000
2799,-328.125000
2800,-332.031250
2801,-335.937500
2802,-335.937500
2803,-335.937500
2804,-335.937500
2805,-335.937500
2806,-339.843750
2807,-339.843750
2808,-339.843750
2809,-339.843750
2810,-343.750000
2811,-343.750000
2812,-343.750000
2813,-343.750000
2814,-343.750000
2815,-343.750000
2816,-343.750000
2817,-343.750000
2818,-343.750000
2819,-343.750000
2820,-343.750000
2821,-347.656250
2822,-343.750000
2823,-343.750000
2824,-343.750000
2825,-343.750000
2826,-343.750000
2827,-343.750000
2828,-343.750000
2829,-343.750000
2830,-343.750000
2831,-339.843750
2832,-339.843750
2833,-339.843750
2834,-339.843750
2835,-339.843750
2836,-335.937500
2837,-335.937500
2838,-335.937500
2839,-335.937500
2840,-332.031250
2841,-332.031250
2842,-328.125000
2843,-328.125000
2844,-328.125000
2845,-324.218750
2846,-324.218750
2847,-320.312500
2848,-320.312500
2849,-316.406250
2850,-316.406250
2851,-312.500000
2852,-312.500000
2853,-308.593750
2854,-308.593750
2855,-304.687500
2856,-304.687500
2857,-300.781250
2858,-296.875000
2859,-296.875000
2860,-292.968750
2861,-289.062500
2862,-289.062500
2863,-281.250000
2864,-281.250000
2865,-277.343750
2866,-277.343750
2867,-273.437500
2868,-269.531250
2869,-265.625000
2870,-261.718750
2871,-261.718750
2872,-257.812500
2873,-253.906250
2874,-250.000000
2875,-246.093750
2876,-242.187500
2877,-238.281250
2878,-234.375000
2879,-234.375000
2880,-230.468750
2881,-226.562500
2882,-222.656250
2883,-218.750000
2884,-214.843750
2885,-210.937500
2886,-207.031250
2887,-203.125000
2888,-199.218750
2889,-195.312500
2890,-187.500000
2891,-183.593750
2892,-179.687500
2893,-179.687500
2894,-171.875000
2895,-167.968750
2896,-164.062500
2897,-160.156250
2898,-156.250000
2899,-152.343750
2900,-148.437500
2901,-144.531250
2902,-140.625000
2903,-136.718750
2904,-132.812500
2905,-125.000000
2906,-121.093750
2907,-117.187500
2908,-113.281250
2909,-109.375000
2910,-105.468750
2911,-101.562500
2912,-93.750000
2913,-89.843750
2914,-85.937500
2915,-82.031250
2916,-78.125000
2917,-74.218750
2918,-70.312500
2919,-66.406250
2920,-58.593750
2921,-54.687500
2922,-50.781250
2923,-46.875000
2924,-42.968750
2925,-39.062500
2926,-35.156250
2927,-31.250000
2928,-27.343750
2929,-23.437500
2930,-15.625000
2931,-11.718750
2932,-7.812500
2933,-3.906250
2934,0.000000
2935,3.906250
2936,7.812500
2937,11.718750
2938,15.625000
2939,19.531250
2940,23.437500
2941,27.343750
2942,31.250000
2943,35.156250
2944,39.062500
2945,39.062500
2946,42.968750
2947,46.875000
2948,50.781250
2949,54.687500
2950,58.593750
2951,62.500000
2952,66.406250
2953,70.312500
2954,74.218750
2955,78.125000
2956,78.125000
2957,82.031250
2958,85.937500
2959,85.937500
2960,89.843750
2961,93.750000
2962,97.656250
2963,101.562500
2964,101.562500
2965,105.468750
2966,109.375000
2967,109.375000
2968,113.281250
2969,113.281250
2970,117.187500
2971,117.187500
2972,121.093750
2973,125.000000
2974,128.906250
2975,128.906250
2976,132.812500
2977,132.812500
2978,136.718750
2979,140.625000
2980,140.625000
2981,140.625000
2982,144.531250
2983,144.531250
2984,148.437500
2985,148.437500
2986,152.343750
2987,156.250000
2988,156.250000
2989,156.250000
2990,156.250000
2991,160.156250
2992,160.156250
2993,164.062500
2994,164.062500
2995,164.062500
2996,167.968750
2997,167.968750
2998,167.968750
2999,167.968750
3000,171.875000
3001,171.875000
3002,171.875000
3003,175.781250
3004,175.781250
3005,175.781250
3006,175.781250
3007,179.687500
3008,179.687500
3009,179.687500
3010,179.687500
3011,179.687500
3012,179.687500
3013,183.593750
3014,183.593750
3015,183.593750
3016,183.593750
3017,183.593750
3018,183.593750
3019,183.593750
3020,183.593750
3021,183.593750
3022,183.593750
3023,183.593750
3024,183.593750
3025,183.593750
3026,187.500000
3027,187.500000
3028,183.593750
3029,183.593750
3030,183.593750
3031,191.406250
3032,183.593750
3033,183.593750
3034,183.593750
3035,183.593750
3036,183.593750
3037,183.593750
3038,183.593750
3039,183.593750
3040,183.593750
3041,183.593750
3042,183.593750
3043,179.687500
3044,179.687500
3045,179.687500
3046,179.687500
3047,179.687500
3048,179.687500
3049,179.687500
3050,175.781250
3051,175.781250
3052,171.875000
3053,175.781250
3054,171.875000
3055,171.875000
3056,171.875000
3057,171.875000
3058,167.968750
3059,167.968750
3060,167.968750
3061,164.062500
3062,164.062500
3063,164.062500
3064,164.062500
3065,160.156250
3066,160.156250
3067,156.250000
3068,156.250000
3069,156.250000
3070,152.343750
3071,152.343750
3072,148.437500
3073,148.437500
3074,148.437500
3075,144.531250
3076,144.531250
3077,140.625000
3078,136.718750
3079,136.718750
3080,132.812500
3081,132.812500
3082,128.906250
3083,128.906250
3084,125.000000
3085,121.093750
3086,121.093750
3087,117.187500
3088,117.187500
3089,113.281250
3090,109.375000
3091,109.375000
3092,105.468750
3093,101.562500
3094,97.656250
3095,97.656250
3096,93.750000
3097,89.843750
3098,85.937500
3099,85.937500
3100,82.031250
3101,78.125000
3102,74.218750
3103,74.218750
3104,70.312500
3105,62.500000
3106,62.500000
3107,58.593750
3108,54.687500
3109,50.781250
3110,46.875000
3111,42.968750
3112,39.062500
3113,35.156250
3114,35.156250
3115,27.343750
3116,23.437500
3117,23.437500
3118,19.531250
3119,15.625000
3120,7.812500
3121,7.812500
3122,3.906250
3123,-3.906250
3124,-3.906250
3125,-7.812500
3126,-15.625000
3127,-19.531250
3128,-23.437500
3129,-27.343750
3130,-31.250000
3131,-35.156250
3132,-39.062500
3133,-42.968750
3134,-46.875000
3135,-50.781250
3136,-58.593750
3137,-62.500000
3138,-66.406250
3139,-70.312500
3140,-74.218750
3141,-78.125000
3142,-82.031250
3143,-85.937500
3144,-93.750000
3145,-93.750000
3146,-101.562500
3147,-105.468750
3148,-109.375000
3149,-113.281250
3150,-117.187500
3151,-121.093750
3152,-125.000000
3153,-132.812500
3154,-136.718750
3155,-140.625000
3156,-144.531250
3157,-148.437500
3158,-152.343750
3159,-156.250000
3160,-160.156250
3161,-164.062500
3162,-167.968750
3163,-171.875000
3164,-175.781250
3165,-179.687500
3166,-187.500000
3167,-191.406250
3168,-195.312500
3169,-199.218750
3170,-199.218750
3171,-207.031250
3172,-210.937500
3173,-214.843750
3174,-218.750000
3175,-222.656250
3176,-222.656250
3177,-226.562500
3178,-230.468750
3179,-238.281250
3180,-238.281250
3181,-242.187500
3182,-246.093750
3183,-250.000000
3184,-253.906250
3185,-257.812500
3186,-261.718750
3187,-261.718750
3188,-265.625000
3189,-269.531250
3190,-273.437500
3191,-273.437500
3192,-277.343750
3193,-281.250000
3194,-281.250000
3195,-285.156250
3196,-289.062500
3197,-292.968750
3198,-292.968750
3199,-296.875000
3200,-300.781250
3201,-300.781250
3202,-304.687500
3203,-304.687500
3204,-308.593750
3205,-308.593750
3206,-312.500000
3207,-316.406250
3208,-316.406250
3209,-320.312500
3210,-320.312500
3211,-324.218750
3212,-324.218750
3213,-328.125000
3214,-328.125000
3215,-328.125000
3216,-332.031250
3217,-332.031250
3218,-335.937500
3219,-335.937500
3220,-335.937500
3221,-335.937500
3222,-339.843750
3223,-339.843750
3224,-339.843750
3225,-339.843750
3226,-339.843750
3227,-343.750000
3228,-343.750000
3229,-343.750000
3230,-343.750000
3231,-343.750000
3232,-343.750000
3233,-343.750000
3234,-347.656250
3235,-347.656250
3236,-347.656250
3237,-347.656250
3238,-347.656250
3239,-347.656250
3240,-347.656250
3241,-343.750000
3242,-343.750000
3243,-343.750000
3244,-343.750000
3245,-343.750000
3246,-343.750000
3247,-343.750000
3248,-343.750000
3249,-339.843750
3250,-339.843750
3251,-339.843750
3252,-339.843750
3253,-335.937500
3254,-335.937500
3255,-335.937500
3256,-332.031250
3257,-332.031250
3258,-332.031250
3259,-328.125000
3260,-328.125000
3261,-324.218750
3262,-324.218750
3263,-324.218750
3264,-320.312500
3265,-320.312500
3266,-316.406250
3267,-316.406250
3268,-312.500000
3269,-312.500000
3270,-308.593750
3271,-304.687500
3272,-304.687500
3273,-300.781250
3274,-300.781250
3275,-296.875000
3276,-292.968750
3277,-292.968750
3278,-289.062500
3279,-285.156250
3280,-285.156250
3281,-281.250000
3282,-277.343750
3283,-277.343750
3284,-273.437500
3285,-269.531250
3286,-265.625000
3287,-261.718750
3288,-257.812500
3289,-257.812500
3290,-253.906250
3291,-250.000000
3292,-246.093750
3293,-242.187500
3294,-238.281250
3295,-234.375000
3296,-230.468750
3297,-226.562500
3298,-222.656250
3299,-218.750000
3300,-218.750000
3301,-214.843750
3302,-207.031250
3303,-207.031250
3304,-199.218750
3305,-199.218750
3306,-195.312500
3307,-191.406250
3308,-187.500000
3309,-179.687500
3310,-175.781250
3311,-171.875000
3312,-171.875000
3313,-164.062500
3314,-160.156250
3315,-156.250000
3316,-152.343750
3317,-148.437500
3318,-144.531250
3319,-136.718750
3320,-132.812500
3321,-128.906250
3322,-125.000000
3323,-121.093750
3324,-117.187500
3325,-113.281250
3326,-105.468750
3327,-105.468750
3328,-97.656250
3329,-93.750000
3330,-89.843750
3331,-85.937500
3332,-82.031250
3333,-78.125000
3334,-70.312500
3335,-66.406250
3336,-62.500000
3337,-58.593750
3338,-54.687500
3339,-50.781250
3340,-46.875000
3341,-42.968750
3342,-39.062500
3343,-35.156250
3344,-27.343750
3345,-27.343750
3346,-19.531250
3347,-15.625000
3348,-11.718750
3349,-7.812500
3350,-3.906250
3351,0.000000
3352,3.906250
3353,7.812500
3354,11.718750
3355,15.625000
3356,19.531250
3357,23.437500
3358,27.343750
3359,31.250000
3360,35.156250
3361,39.062500
3362,42.968750
3363,46.875000
3364,46.875000
3365,50.781250
3366,54.687500
3367,58.593750
3368,62.500000
3369,66.406250
3370,70.312500
3371,74.218750
3372,78.125000
3373,78.125000
3374,82.031250
3375,85.937500
3376,85.937500
3377,89.843750
3378,93.750000
3379,97.656250
3380,101.562500
3381,101.562500
3382,105.468750
3383,109.375000
3384,109.375000
3385,113.281250
3386,117.187500
3387,117.187500
3388,121.093750
3389,125.000000
3390,125.000000
3391,128.906250
3392,128.906250
3393,132.812500
3394,132.812500
3395,136.718750
3396,140.625000
3397,140.625000
3398,144.531250
3399,144.531250
3400,148.437500
3401,148.437500
3402,148.437500
3403,152.343750
3404,152.343750
3405,156.250000
3406,156.250000
3407,160.156250
3408,160.156250
3409,160.156250
3410,164.062500
3411,164.062500
3412,164.062500
3413,167.968750
3414,167.968750
3415,167.968750
3416,171.875000
3417,171.875000
3418,171.875000
3419,171.875000
3420,171.875000
3421,175.781250
3422,175.781250
3423,175.781250
3424,175.781250
3425,175.781250
3426,179.687500
3427,179.687500
3428,179.687500
3429,179.687500
3430,179.687500
3431,179.687500
3432,183.593750
3433,183.593750
3434,183.593750
3435,183.593750
3436,183.593750
3437,183.593750
3438,183.593750
3439,183.593750
3440,183.593750
3441,183.593750
3442,183.593750
3443,187.500000
3444,183.593750
3445,187.500000
3446,183.593750
3447,187.500000
3448,187.500000
3449,187.500000
3450,183.593750
3451,187.500000
3452,183.593750
3453,183.593750
3454,183.593750
3455,183.593750
3456,183.593750
3457,183.593750
3458,183.593750
3459,179.687500
3460,179.687500
3461,183.593750
3462,179.687500
3463,179.687500
3464,179.687500
3465,179.687500
3466,175.781250
3467,179.687500
3468,175.781250
3469,175.781250
3470,175.781250
3471,171.875000
3472,171.875000
3473,171.875000
3474,171.875000
3475,167.968750
3476,167.968750
3477,167.968750
3478,164.062500
3479,164.062500
3480,164.062500
3481,160.156250
3482,160.156250
3483,160.156250
3484,156.250000
3485,156.250000
3486,152.343750
3487,152.343750
3488,152.343750
3489,148.437500
3490,148.437500
3491,144.531250
3492,144.531250
3493,140.625000
3494,140.625000
3495,136.718750
3496,136.718750
3497,132.812500
3498,132.812500
3499,128.906250
3500,125.000000
3501,125.000000
3502,121.093750
3503,121.093750
3504,117.187500
3505,113.281250
3506,113.281250
3507,109.375000
3508,105.468750
3509,105.468750
3510,101.562500
3511,97.656250
3512,93.750000
3513,93.750000
3514,89.843750
3515,85.937500
3516,85.937500
3517,78.125000
3518,78.125000
3519,74.218750
3520,70.312500
3521,66.406250
3522,62.500000
3523,62.500000
3524,58.593750
3525,54.687500
3526,50.781250
3527,46.875000
3528,42.968750
3529,39.062500
3530,35.156250
3531,31.250000
3532,27.343750
3533,23.437500
3534,19.531250
3535,15.625000
3536,11.718750
3537,7.812500
3538,3.906250
3539,0.000000
3540,-3.906250
3541,-7.812500
3542,-11.718750
3543,-15.625000
3544,-19.531250
3545,-23.437500
3546,-27.343750
3547,-31.250000
3548,-35.156250
3549,-39.062500
3550,-42.968750
3551,-46.875000
3552,-54.687500
3553,-58.593750
3554,-62.500000
3555,-66.406250
3556,-70.312500
3557,-74.218750
3558,-78.125000
3559,-82.031250
3560,-85.937500
3561,-93.750000
3562,-97.656250
3563,-101.562500
3564,-105.468750
3565,-109.375000
3566,-113.281250
3567,-117.187500
3568,-121.093750
3569,-128.906250
3570,-132.812500
3571,-136.718750
3572,-140.625000
3573,-144.531250
3574,-148.437500
3575,-152.343750
3576,-156.250000
3577,-160.156250
3578,-164.062500
3579,-171.875000
3580,-171.875000
3581,-179.687500
3582,-183.593750
3583,-187.500000
3584,-191.406250
3585,-195.312500
3586,-199.218750
3587,-203.125000
3588,-207.031250
3589,-210.937500
3590,-214.843750
3591,-218.750000
3592,-222.656250
3593,-226.562500
3594,-230.468750
3595,-234.375000
3596,-238.281250
3597,-238.281250
3598,-242.187500
3599,-246.093750
3600,-250.000000
3601,-253.906250
3602,-257.812500
3603,-257.812500
3604,-261.718750
3605,-265.625000
3606,-269.531250
3607,-273.437500
3608,-273.437500
3609,-277.343750
3610,-281.250000
3611,-285.156250
3612,-289.062500
3613,-289.062500
3614,-292.968750
3615,-296.875000
3616,-296.875000
3617,-300.781250
3618,-300.781250
3619,-304.687500
3620,-308.593750
3621,-308.593750
3622,-312.500000
3623,-312.500000
3624,-316.406250
3625,-316.406250
3626,-320.312500
3627,-320.312500
3628,-324.218750
3629,-324.218750
3630,-328.125000
3631,-328.125000
3632,-328.125000
3633,-332.031250
3634,-332.031250
3635,-332.031250
3636,-335.937500
3637,-335.937500
3638,-335.937500
3639,-339.843750
3640,-339.843750
3641,-339.843750
3642,-339.843750
3643,-339.843750
3644,-343.750000
3645,-343.750000
3646,-343.750000
3647,-343.750000
3648,-343.750000
3649,-343.750000
3650,-347.656250
3651,-343.750000
3652,-347.656250
3653,-347.656250
3654,-343.750000
3655,-343.750000
3656,-343.750000
3657,-347.656250
3658,-347.656250
3659,-343.750000
3660,-343.750000
3661,-343.750000
3662,-343.750000
3663,-343.750000
3664,-343.750000
3665,-339.843750
3666,-339.843750
3667,-339.843750
3668,-339.843750
3669,-339.843750
3670,-339.843750
3671,-335.937500
3672,-335.937500
3673,-332.031250
3674,-332.031250
3675,-332.031250
3676,-328.125000
3677,-328.125000
3678,-324.218750
3679,-324.218750
3680,-324.218750
3681,-320.312500
3682,-320.312500
3683,-316.406250
3684,-316.406250
3685,-312.500000
3686,-312.500000
3687,-308.593750
3688,-304.687500
3689,-304.687500
3690,-300.781250
3691,-300.781250
3692,-296.875000
3693,-292.968750
3694,-289.062500
3695,-289.062500
3696,-285.156250
3697,-281.250000
3698,-281.250000
3699,-277.343750
3700,-273.437500
3701,-273.437500
3702,-269.531250
3703,-265.625000
3704,-261.718750
3705,-257.812500
3706,-257.812500
3707,-253.906250
3708,-246.093750
3709,-246.093750
3710,-242.187500
3711,-234.375000
3712,-234.375000
3713,-230.468750
3714,-226.562500
3715,-222.656250
3716,-218.750000
3717,-214.843750
3718,-210.937500
3719,-207.031250
3720,-203.125000
3721,-199.218750
3722,-195.312500
3723,-191.406250
3724,-187.500000
3725,-183.593750
3726,-179.687500
3727,-171.875000
3728,-171.875000
3729,-167.968750
3730,-164.062500
3731,-160.156250
3732,-156.250000
3733,-152.343750
3734,-144.531250
3735,-140.625000
3736,-136.718750
3737,-132.812500
3738,-128.906250
3739,-125.000000
3740,-121.093750
3741,-113.281250
3742,-109.375000
3743,-105.468750
3744,-101.562500
3745,-97.656250
3746,-93.750000
3747,-85.937500
3748,-82.031250
3749,-78.125000
3750,-74.218750
3751,-70.312500
3752,-66.406250
3753,-62.500000
3754,-54.687500
3755,-54.687500
3756,-50.781250
3757,-42.968750
3758,-39.062500
3759,-35.156250
3760,-31.250000
3761,-27.343750
3762,-23.437500
3763,-19.531250
3764,-15.625000
3765,-11.718750
3766,-7.812500
3767,-3.906250
3768,0.000000
3769,3.906250
3770,7.812500
3771,11.718750
3772,15.625000
3773,19.531250
3774,23.437500
3775,27.343750
3776,31.250000
3777,35.156250
3778,39.062500
3779,42.968750
3780,46.875000
3781,50.781250
3782,54.687500
3783,58.593750
3784,62.500000
3785,62.500000
3786,66.406250
3787,70.312500
3788,74.218750
3789,78.125000
3790,82.031250
3791,82.031250
3792,85.937500
3793,89.843750
3794,93.750000
3795,97.656250
3796,97.656250
3797,101.562500
3798,105.468750
3799,105.468750
3800,109.375000
3801,109.375000
3802,113.281250
3803,117.187500
3804,117.187500
3805,121.093750
3806,125.000000
3807,125.000000
3808,128.906250
3809,132.812500
3810,132.812500
3811,136.718750
3812,136.718750
3813,140.625000
3814,140.625000
3815,144.531250
3816,148.437500
3817,144.531250
3818,148.437500
3819,152.343750
3820,152.343750
3821,156.250000
3822,156.250000
3823,156.250000
3824,160.156250
3825,160.156250
3826,160.156250
3827,164.062500
3828,164.062500
3829,164.062500
3830,167.968750
3831,167.968750
3832,167.968750
3833,171.875000
3834,171.875000
3835,171.875000
3836,175.781250
3837,175.781250
3838,175.781250
3839,175.781250
3840,175.781250
3841,175.781250
3842,175.781250
3843,179.687500
3844,179.687500
3845,179.687500
3846,179.687500
3847,179.687500
3848,183.593750
3849,183.593750
3850,183.593750
3851,183.593750
3852,183.593750
3853,183.593750
3854,183.593750
3855,183.593750
3856,183.593750
3857,187.500000
3858,187.500000
3859,183.593750
3860,187.500000
3861,183.593750
3862,187.500000
3863,183.593750
3864,187.500000
3865,187.500000
3866,187.500000
3867,183.593750
3868,183.593750
3869,183.593750
3870,183.593750
3871,183.593750
3872,183.593750
3873,183.593750
3874,183.593750
3875,183.593750
3876,179.687500
3877,179.687500
3878,179.687500
3879,179.687500
3880,179.687500
3881,179.687500
3882,179.687500
3883,175.781250
3884,175.781250
3885,175.781250
3886,175.781250
3887,175.781250
3888,171.875000
3889,171.875000
3890,171.875000
3891,164.062500
3892,167.968750
3893,167.968750
3894,167.968750
3895,164.062500
3896,164.062500
3897,160.156250
3898,160.156250
3899,160.156250
3900,160.156250
3901,156.250000
3902,156.250000
3903,152.343750
3904,152.343750
3905,152.343750
3906,148.437500
3907,148.437500
3908,144.531250
3909,140.625000
3910,140.625000
3911,140.625000
3912,136.718750
3913,136.718750
3914,132.812500
3915,132.812500
3916,128.906250
3917,125.000000
3918,121.093750
3919,121.093750
3920,121.093750
3921,117.187500
3922,113.281250
3923,113.281250
3924,109.375000
3925,105.468750
3926,101.562500
3927,101.562500
3928,97.656250
3929,93.750000
3930,89.843750
3931,89.843750
3932,85.937500
3933,82.031250
3934,78.125000
3935,74.218750
3936,70.312500
3937,70.312500
3938,66.406250
3939,62.500000
3940,58.593750
3941,54.687500
3942,54.687500
3943,46.875000
3944,46.875000
3945,42.968750
3946,39.062500
3947,35.156250
3948,31.250000
3949,27.343750
3950,23.437500
3951,19.531250
3952,15.625000
3953,11.718750
3954,11.718750
3955,3.906250
3956,0.000000
3957,-3.906250
3958,-7.812500
3959,-11.718750
3960,-15.625000
3961,-19.531250
3962,-23.437500
3963,-27.343750
3964,-31.250000
3965,-35.156250
3966,-42.968750
3967,-46.875000
3968,-50.781250
3969,-54.687500
3970,-58.593750
3971,-62.500000
3972,-66.406250
3973,-70.312500
3974,-78.125000
3975,-82.031250
3976,-85.937500
3977,-89.843750
3978,-93.750000
3979,-97.656250
3980,-101.562500
3981,-105.468750
3982,-109.375000
3983,-117.187500
3984,-121.093750
3985,-121.093750
3986,-128.906250
3987,-132.812500
3988,-136.718750
3989,-140.625000
3990,-148.437500
3991,-148.437500
3992,-156.250000
3993,-160.156250
3994,-164.062500
3995,-167.968750
3996,-171.875000
3997,-175.781250
3998,-179.687500
3999,-183.593750
4000,-187.500000
4001,-195.312500
4002,-195.312500
4003,-199.218750
4004,-203.125000
4005,-207.031250
4006,-210.937500
4007,-214.843750
4008,-218.750000
4009,-222.656250
4010,-226.562500
4011,-230.468750
4012,-234.375000
4013,-238.281250
4014,-242.187500
4015,-246.093750
4016,-250.000000
4017,-250.000000
4018,-253.906250
4019,-257.812500
4020,-261.718750
4021,-265.625000
4022,-269.531250
4023,-273.437500
4024,-273.437500
4025,-277.343750
4026,-281.250000
4027,-285.156250
4028,-285.156250
4029,-289.062500
4030,-289.062500
4031,-292.968750
4032,-296.875000
4033,-296.875000
4034,-300.781250
4035,-304.687500
4036,-304.687500
4037,-308.593750
4038,-308.593750
4039,-312.500000
4040,-312.500000
4041,-316.406250
4042,-316.406250
4043,-320.312500
4044,-320.312500
4045,-324.218750
4046,-324.218750
4047,-328.125000
4048,-328.125000
4049,-332.031250
4050,-332.031250
4051,-332.031250
4052,-335.937500
4053,-335.937500
4054,-335.937500
4055,-335.937500
4056,-339.843750
4057,-339.843750
4058,-339.843750
4059,-343.750000
4060,-343.750000
4061,-343.750000
4062,-339.843750
4063,-343.750000
4064,-343.750000
4065,-343.750000
4066,-343.750000
4067,-347.656250
4068,-343.750000
4069,-347.656250
4070,-347.656250
4071,-347.656250
4072,-347.656250
4073,-347.656250
4074,-347.656250
4075,-343.750000
4076,-343.750000
4077,-343.750000
4078,-343.750000
4079,-343.750000
4080,-343.750000
4081,-343.750000
4082,-339.843750
4083,-339.843750
4084,-335.937500
4085,-335.937500
4086,-339.843750
4087,-335.937500
4088,-335.937500
4089,-332.031250
4090,-332.031250
4091,-332.031250
4092,-328.125000
4093,-328.125000
4094,-328.125000
4095,-324.218750
4096,-324.218750
4097,-320.312500
4098,-320.312500
4099,-320.312500
4100,-316.406250
4101,-312.500000
4102,-312.500000
4103,-308.593750
4104,-308.593750
4105,-304.687500
4106,-304.687500
4107,-300.781250
4108,-296.875000
4109,-296.875000
4110,-292.968750
4111,-289.062500
4112,-289.062500
4113,-285.156250
4114,-281.250000
4115,-277.343750
4116,-277.343750
4117,-273.437500
4118,-269.531250
4119,-265.625000
4120,-261.718750
4121,-261.718750
4122,-257.812500
4123,-253.906250
4124,-250.000000
4125,-246.093750
4126,-246.093750
4127,-242.187500
4128,-238.281250
4129,-234.375000
4130,-230.468750
4131,-226.562500
4132,-222.656250
4133,-218.750000
4134,-214.843750
4135,-210.937500
4136,-207.031250
4137,-203.125000
4138,-199.218750
4139,-195.312500
4140,-191.406250
4141,-187.500000
4142,-183.593750
4143,-179.687500
4144,-175.781250
4145,-167.968750
4146,-167.968750
4147,-164.062500
4148,-156.250000
4149,-152.343750
4150,-148.437500
4151,-144.531250
4152,-140.625000
4153,-136.718750
4154,-128.906250
4155,-128.906250
4156,-121.093750
4157,-117.187500
4158,-113.281250
4159,-109.375000
4160,-105.468750
4161,-101.562500
4162,-97.656250
4163,-93.750000
4164,-85.937500
4165,-82.031250
4166,-78.125000
4167,-74.218750
4168,-70.312500
4169,-66.406250
4170,-62.500000
4171,-54.687500
4172,-50.781250
4173,-46.875000
4174,-42.968750
4175,-39.062500
4176,-35.156250
4177,-31.250000
4178,-27.343750
4179,-23.437500
4180,-15.625000
4181,-15.625000
4182,-7.812500
4183,-7.812500
4184,-3.906250
4185,0.000000
4186,7.812500
4187,7.812500
4188,15.625000
4189,19.531250
4190,19.531250
4191,27.343750
4192,27.343750
4193,35.156250
4194,39.062500
4195,39.062500
4196,42.968750
4197,50.781250
4198,50.781250
4199,54.687500
4200,58.593750
4201,62.500000
4202,66.406250
4203,70.312500
4204,70.312500
4205,74.218750
4206,74.218750
4207,82.031250
4208,82.031250
4209,85.937500
4210,89.843750
4211,93.750000
4212,97.656250
4213,97.656250
4214,101.562500
4215,105.468750
4216,105.468750
4217,109.375000
4218,113.281250
4219,117.187500
4220,117.187500
4221,121.093750
4222,121.093750
4223,125.000000
4224,128.906250
4225,128.906250
4226,132.812500
4227,132.812500
4228,136.718750
4229,136.718750
4230,140.625000
4231,144.531250
4232,144.531250
4233,144.531250
4234,148.437500
4235,148.437500
4236,152.343750
4237,152.343750
4238,152.343750
4239,156.250000
4240,160.156250
4241,160.156250
4242,160.156250
4243,160.156250
4244,164.062500
4245,164.062500
4246,167.968750
4247,167.968750
4248,167.968750
4249,171.875000
4250,171.875000
4251,171.875000
4252,171.875000
4253,175.781250
4254,175.781250
4255,175.781250
4256,183.593750
4257,175.781250
4258,179.687500
4259,179.687500
4260,179.687500
4261,179.687500
4262,179.687500
4263,183.593750
4264,183.593750
4265,183.593750
4266,183.593750
4267,183.593750
4268,183.593750
4269,183.593750
4270,183.593750
4271,183.593750
4272,183.593750
4273,183.593750
4274,183.593750
4275,183.593750
4276,183.593750
4277,187.500000
4278,187.500000
4279,183.593750
4280,183.593750
4281,187.500000
4282,187.500000
4283,183.593750
4284,183.593750
4285,183.593750
4286,183.593750
4287,183.593750
4288,183.593750
4289,183.593750
4290,183.593750
4291,183.593750
4292,183.593750
4293,183.593750
4294,179.687500
4295,179.687500
4296,179.687500
4297,179.687500
4298,179.687500
4299,179.687500
4300,175.781250
4301,175.781250
4302,175.781250
4303,175.781250
4304,175.781250
4305,171.875000
4306,171.875000
4307,171.875000
4308,167.968750
4309,167.968750
4310,167.968750
4311,167.968750
4312,164.062500
4313,164.062500
4314,164.062500
4315,160.156250
4316,160.156250
4317,156.250000
4318,156.250000
4319,156.250000
4320,152.343750
4321,152.343750
4322,148.437500
4323,148.437500
4324,144.531250
4325,144.531250
4326,140.625000
4327,140.625000
4328,136.718750
4329,136.718750
4330,132.812500
4331,132.812500
4332,128.906250
4333,128.906250
4334,125.000000
4335,121.093750
4336,121.093750
4337,117.187500
4338,117.187500
4339,113.281250
4340,109.375000
4341,109.375000
4342,105.468750
4343,101.562500
4344,97.656250
4345,97.656250
4346,93.750000
4347,89.843750
4348,85.937500
4349,85.937500
4350,82.031250
4351,78.125000
4352,74.218750
4353,74.218750
4354,70.312500
4355,62.500000
4356,62.500000
4357,58.593750
4358,54.687500
4359,50.781250
4360,50.781250
4361,46.875000
4362,39.062500
4363,39.062500
4364,35.156250
4365,27.343750
4366,23.437500
4367,23.437500
4368,19.531250
4369,15.625000
4370,11.718750
4371,7.812500
4372,3.906250
4373,0.000000
4374,-3.906250
4375,-11.718750
4376,-15.625000
4377,-15.625000
4378,-23.437500
4379,-27.343750
4380,-31.250000
4381,-35.156250
4382,-39.062500
4383,-42.968750
4384,-46.875000
4385,-46.875000
4386,-54.687500
4387,-58.593750
4388,-66.406250
4389,-70.312500
4390,-74.218750
4391,-78.125000
4392,-82.031250
4393,-85.937500
4394,-89.843750
4395,-93.750000
4396,-97.656250
4397,-105.468750
4398,-109.375000
4399,-113.281250
4400,-117.187500
4401,-121.093750
4402,-125.000000
4403,-128.906250
4404,-136.718750
4405,-140.625000
4406,-144.531250
4407,-148.437500
4408,-152.343750
4409,-156.250000
4410,-160.156250
4411,-164.062500
4412,-167.968750
4413,-171.875000
4414,-175.781250
4415,-179.687500
4416,-187.500000
4417,-187.500000
4418,-191.406250
4419,-195.312500
4420,-203.125000
4421,-203.125000
4422,-210.937500
4423,-210.937500
4424,-214.843750
4425,-218.750000
4426,-222.656250
4427,-226.562500
4428,-230.468750
4429,-234.375000
4430,-238.281250
4431,-242.187500
4432,-246.093750
4433,-250.000000
4434,-253.906250
4435,-253.906250
4436,-257.812500
4437,-261.718750
4438,-265.625000
4439,-269.531250
4440,-269.531250
4441,-273.437500
4442,-277.343750
4443,-281.250000
4444,-285.156250
4445,-285.156250
4446,-289.062500
4447,-292.968750
4448,-292.968750
4449,-296.875000
4450,-300.781250
4451,-300.781250
4452,-304.687500
4453,-308.593750
4454,-308.593750
4455,-308.593750
4456,-312.500000
4457,-316.406250
4458,-316.406250
4459,-316.406250
4460,-320.312500
4461,-320.312500
4462,-324.218750
4463,-324.218750
4464,-328.125000
4465,-328.125000
4466,-328.125000
4467,-332.031250
4468,-332.031250
4469,-335.937500
4470,-335.937500
4471,-339.843750
4472,-339.843750
4473,-339.843750
4474,-339.843750
4475,-339.843750
4476,-339.843750
4477,-343.750000
4478,-343.750000
4479,-343.750000
4480,-343.750000
4481,-343.750000
4482,-343.750000
4483,-343.750000
4484,-343.750000
4485,-343.750000
4486,-347.656250
4487,-343.750000
4488,-343.750000
4489,-347.656250
4490,-347.656250
4491,-343.750000
4492,-343.750000
4493,-343.750000
4494,-343.750000
4495,-343.750000
4496,-343.750000
4497,-343.750000
4498,-339.843750
4499,-339.843750
4500,-339.843750
4501,-339.843750
4502,-335.937500
4503,-335.937500
4504,-335.937500
4505,-335.937500
4506,-332.031250
4507,-332.031250
4508,-332.031250
4509,-328.125000
4510,-328.125000
4511,-328.125000
4512,-324.218750
4513,-324.218750
4514,-320.312500
4515,-320.312500
4516,-316.406250
4517,-316.406250
4518,-312.500000
4519,-312.500000
4520,-308.593750
4521,-308.593750
4522,-304.687500
4523,-304.687500
4524,-300.781250
4525,-296.875000
4526,-296.875000
4527,-292.968750
4528,-289.062500
4529,-285.156250
4530,-285.156250
4531,-281.250000
4532,-277.343750
4533,-273.437500
4534,-273.437500
4535,-269.531250
4536,-265.625000
4537,-261.718750
4538,-257.812500
4539,-257.812500
4540,-253.906250
4541,-250.000000
4542,-246.093750
4543,-242.187500
4544,-238.281250
4545,-234.375000
4546,-230.468750
4547,-230.468750
4548,-226.562500
4549,-222.656250
4550,-218.750000
4551,-214.843750
4552,-210.937500
4553,-207.031250
4554,-203.125000
4555,-199.218750
4556,-195.312500
4557,-191.406250
4558,-183.593750
4559,-179.687500
4560,-175.781250
4561,-175.781250
4562,-167.968750
4563,-164.062500
4564,-160.156250
4565,-156.250000
4566,-152.343750
4567,-148.437500
4568,-148.437500
4569,-136.718750
4570,-132.812500
4571,-132.812500
4572,-125.000000
4573,-121.093750
4574,-117.187500
4575,-113.281250
4576,-109.375000
4577,-105.468750
4578,-97.656250
4579,-93.750000
4580,-89.843750
4581,-85.937500
4582,-82.031250
4583,-78.125000
4584,-74.218750
4585,-70.312500
4586,-62.500000
4587,-62.500000
4588,-54.687500
4589,-50.781250
4590,-42.968750
4591,-42.968750
4592,-39.062500
4593,-35.156250
4594,-27.343750
4595,-27.343750
4596,-23.437500
4597,-19.531250
4598,-11.718750
4599,-7.812500
4600,-3.906250
4601,-3.906250
4602,3.906250
4603,7.812500
4604,11.718750
4605,15.625000
4606,19.531250
4607,23.437500
4608,27.343750
4609,31.250000
4610,35.156250
4611,39.062500
4612,42.968750
4613,42.968750
4614,50.781250
4615,50.781250
4616,54.687500
4617,58.593750
4618,62.500000
4619,66.406250
4620,70.312500
4621,74.218750
4622,78.125000
4623,78.125000
4624,82.031250
4625,85.937500
4626,89.843750
4627,93.750000
4628,93.750000
4629,97.656250
4630,101.562500
4631,101.562500
4632,105.468750
4633,109.375000
4634,109.375000
4635,113.281250
4636,117.187500
4637,117.187500
4638,121.093750
4639,125.000000
4640,125.000000
4641,128.906250
4642,128.906250
4643,132.812500
4644,132.812500
4645,136.718750
4646,140.625000
4647,140.625000
4648,144.531250
4649,144.531250
4650,148.437500
4651,148.437500
4652,148.437500
4653,152.343750
4654,152.343750
4655,156.250000
4656,156.250000
4657,156.250000
4658,160.156250
4659,160.156250
4660,164.062500
4661,164.062500
4662,164.062500
4663,167.968750
4664,167.968750
4665,167.968750
4666,167.968750
4667,171.875000
4668,167.968750
4669,175.781250
4670,175.781250
4671,175.781250
4672,175.781250
4673,175.781250
4674,175.781250
4675,179.687500
4676,179.687500
4677,179.687500
4678,179.687500
4679,183.593750
4680,183.593750
4681,183.593750
4682,183.593750
4683,183.593750
4684,183.593750
4685,183.593750
4686,183.593750
4687,183.593750
4688,183.593750
4689,187.500000
4690,187.500000
4691,187.500000
4692,187.500000
4693,183.593750
4694,187.500000
4695,187.500000
4696,187.500000
4697,183.593750
4698,183.593750
4699,187.500000
4700,187.500000
4701,183.593750
4702,183.593750
4703,183.593750
4704,183.593750
4705,183.593750
4706,183.593750
4707,183.593750
4708,183.593750
4709,183.593750
4710,179.687500
4711,179.687500
4712,179.687500
4713,179.687500
4714,175.781250
4715,175.781250
4716,179.687500
4717,175.781250
4718,175.781250
4719,175.781250
4720,171.875000
4721,171.875000
4722,171.875000
4723,167.968750
4724,171.875000
4725,171.875000
4726,167.968750
4727,167.968750
4728,167.968750
4729,164.062500
4730,164.062500
4731,160.156250
4732,160.156250
4733,156.250000
4734,156.250000
4735,156.250000
4736,156.250000
4737,152.343750
4738,152.343750
4739,148.437500
4740,148.437500
4741,144.531250
4742,144.531250
4743,140.625000
4744,140.625000
4745,136.718750
4746,136.718750
4747,136.718750
4748,132.812500
4749,128.906250
4750,128.906250
4751,125.000000
4752,121.093750
4753,121.093750
4754,117.187500
4755,113.281250
4756,113.281250
4757,109.375000
4758,109.375000
4759,105.468750
4760,101.562500
4761,97.656250
4762,97.656250
4763,93.750000
4764,89.843750
4765,85.937500
4766,85.937500
4767,82.031250
4768,78.125000
4769,74.218750
4770,70.312500
4771,66.406250
4772,66.406250
4773,62.500000
4774,58.593750
4775,54.687500
4776,50.781250
4777,46.875000
4778,42.968750
4779,39.062500
4780,35.156250
4781,31.250000
4782,27.343750
4783,23.437500
4784,19.531250
4785,15.625000
4786,15.625000
4787,7.812500
4788,3.906250
4789,0.000000
4790,-3.906250
4791,-7.812500
4792,-11.718750
4793,-15.625000
4794,-19.531250
4795,-23.437500
4796,-27.343750
4797,-31.250000
4798,-35.156250
4799,-39.062500
4800,-42.968750
4801,-46.875000
4802,-54.687500
4803,-58.593750
4804,-62.500000
4805,-66.406250
4806,-70.312500
4807,-74.218750
4808,-78.125000
4809,-82.031250
4810,-89.843750
4811,-89.843750
4812,-97.656250
4813,-101.562500
4814,-105.468750
4815,-109.375000
4816,-113.281250
4817,-117.187500
4818,-121.093750
4819,-128.906250
4820,-132.812500
4821,-136.718750
4822,-140.625000
4823,-144.531250
4824,-148.437500
4825,-152.343750
4826,-156.250000
4827,-160.156250
4828,-164.062500
4829,-171.875000
4830,-175.781250
4831,-175.781250
4832,-183.593750
4833,-187.500000
4834,-191.406250
4835,-195.312500
4836,-199.218750
4837,-203.125000
4838,-207.031250
4839,-210.937500
4840,-214.843750
4841,-218.750000
4842,-222.656250
4843,-226.562500
4844,-230.468750
4845,-234.375000
4846,-238.281250
4847,-242.187500
4848,-242.187500
4849,-246.093750
4850,-250.000000
4851,-253.906250
4852,-257.812500
4853,-261.718750
4854,-261.718750
4855,-265.625000
4856,-269.531250
4857,-273.437500
4858,-277.343750
4859,-277.343750
4860,-281.250000
4861,-285.156250
4862,-289.062500
4863,-289.062500
4864,-292.968750
4865,-292.968750
4866,-296.875000
4867,-300.781250
4868,-300.781250
4869,-304.687500
4870,-308.593750
4871,-308.593750
4872,-312.500000
4873,-312.500000
4874,-316.406250
4875,-316.406250
4876,-320.312500
4877,-320.312500
4878,-324.218750
4879,-324.218750
4880,-328.125000
4881,-328.125000
4882,-328.125000
4883,-332.031250
4884,-332.031250
4885,-332.031250
4886,-335.937500
4887,-335.937500
4888,-335.937500
4889,-339.843750
4890,-339.843750
4891,-339.843750
4892,-339.843750
4893,-339.843750
4894,-343.750000
4895,-343.750000
4896,-343.750000
4897,-343.750000
4898,-343.750000
4899,-347.656250
4900,-343.750000
4901,-347.656250
4902,-347.656250
4903,-343.750000
4904,-343.750000
4905,-347.656250
4906,-343.750000
4907,-343.750000
4908,-347.656250
4909,-343.750000
4910,-343.750000
4911,-343.750000
4912,-343.750000
4913,-343.750000
4914,-343.750000
4915,-343.750000
4916,-339.843750
4917,-339.843750
4918,-339.843750
4919,-339.843750
4920,-339.843750
4921,-335.937500
4922,-335.937500
4923,-332.031250
4924,-332.031250
4925,-332.031250
4926,-328.125000
4927,-328.125000
4928,-324.218750
4929,-320.312500
4930,-324.218750
4931,-320.312500
4932,-320.312500
4933,-316.406250
4934,-316.406250
4935,-312.500000
4936,-312.500000
4937,-308.593750
4938,-308.593750
4939,-304.687500
4940,-300.781250
4941,-300.781250
4942,-296.875000
4943,-292.968750
4944,-292.968750
4945,-289.062500
4946,-285.156250
4947,-281.250000
4948,-281.250000
4949,-277.343750
4950,-273.437500
4951,-273.437500
4952,-269.531250
4953,-265.625000
4954,-261.718750
4955,-257.812500
4956,-257.812500
4957,-250.000000
4958,-250.000000
4959,-242.187500
4960,-242.187500
4961,-238.281250
4962,-234.375000
4963,-230.468750
4964,-226.562500
4965,-222.656250
4966,-218.750000
4967,-218.750000
4968,-210.937500
4969,-207.031250
4970,-203.125000
4971,-199.218750
4972,-195.312500
4973,-191.406250
4974,-187.500000
4975,-183.593750
4976,-179.687500
4977,-179.687500
4978,-171.875000
4979,-167.968750
4980,-160.156250
4981,-160.156250
4982,-156.250000
4983,-152.343750
4984,-148.437500
4985,-140.625000
4986,-136.718750
4987,-132.812500
4988,-128.906250
4989,-125.000000
4990,-121.093750
4991,-117.187500
4992,-109.375000
4993,-105.468750
4994,-101.562500
4995,-97.656250
4996,-93.750000
4997,-89.843750
4998,-85.937500
4999,-82.031250
5000,-78.125000
5001,-70.312500
5002,-66.406250
5003,-62.500000
5004,-58.593750
5005,-54.687500
5006,-50.781250
5007,-46.875000
5008,-42.968750
5009,-35.156250
5010,-31.250000
5011,-27.343750
5012,-23.437500
5013,-19.531250
5014,-15.625000
5015,-11.718750
5016,-7.812500
5017,-3.906250
5018,0.000000
5019,3.906250
5020,7.812500
5021,11.718750
5022,15.625000
5023,19.531250
5024,23.437500
5025,27.343750
5026,31.250000
5027,35.156250
5028,39.062500
5029,42.968750
5030,46.875000
5031,50.781250
5032,54.687500
5033,58.593750
5034,58.593750
5035,62.500000
5036,66.406250
5037,70.312500
5038,74.218750
5039,78.125000
5040,78.125000
5041,82.031250
5042,85.937500
5043,89.843750
5044,89.843750
5045,97.656250
5046,97.656250
5047,101.562500
5048,101.562500
5049,105.468750
5050,109.375000
5051,113.281250
5052,113.281250
5053,117.187500
5054,117.187500
5055,121.093750
5056,125.000000
5057,128.906250
5058,128.906250
5059,132.812500
5060,132.812500
5061,136.718750
5062,136.718750
5063,140.625000
5064,140.625000
5065,144.531250
5066,144.531250
5067,148.437500
5068,148.437500
5069,152.343750
5070,152.343750
5071,156.250000
5072,156.250000
5073,156.250000
5074,160.156250
5075,160.156250
5076,160.156250
5077,164.062500
5078,164.062500
5079,167.968750
5080,167.968750
5081,167.968750
5082,171.875000
5083,171.875000
5084,171.875000
5085,171.875000
5086,175.781250
5087,175.781250
5088,175.781250
5089,175.781250
5090,175.781250
5091,179.687500
5092,179.687500
5093,179.687500
5094,179.687500
5095,179.687500
5096,179.687500
5097,183.593750
5098,179.687500
5099,183.593750
5100,183.593750
5101,183.593750
5102,183.593750
5103,183.593750
5104,183.593750
5105,183.593750
5106,183.593750
5107,187.500000
5108,183.593750
5109,183.593750
5110,183.593750
5111,183.593750
5112,187.500000
5113,187.500000
5114,183.593750
5115,183.593750
5116,183.593750
5117,183.593750
5118,183.593750
5119,183.593750
5120,183.593750
5121,179.687500
5122,183.593750
5123,183.593750
5124,183.593750
5125,183.593750
5126,179.687500
5127,179.687500
5128,179.687500
5129,179.687500
5130,183.593750
5131,179.687500
5132,179.687500
5133,175.781250
5134,175.781250
5135,175.781250
5136,175.781250
5137,175.781250
5138,171.875000
5139,171.875000
5140,171.875000
5141,167.968750
5142,167.968750
5143,167.968750
5144,167.968750
5145,167.968750
5146,164.062500
5147,164.062500
5148,160.156250
5149,160.156250
5150,160.156250
5151,156.250000
5152,156.250000
5153,152.343750
5154,152.343750
5155,152.343750
5156,148.437500
5157,148.437500
5158,144.531250
5159,144.531250
5160,140.625000
5161,136.718750
5162,136.718750
5163,136.718750
5164,132.812500
5165,132.812500
5166,128.906250
5167,125.000000
5168,125.000000
5169,121.093750
5170,117.187500
5171,117.187500
5172,113.281250
5173,113.281250
5174,109.375000
5175,105.468750
5176,101.562500
5177,101.562500
5178,97.656250
5179,93.750000
5180,93.750000
5181,89.843750
5182,85.937500
5183,82.031250
5184,78.125000
5185,78.125000
5186,74.218750
5187,70.312500
5188,66.406250
5189,62.500000
5190,58.593750
5191,54.687500
5192,54.687500
5193,50.781250
5194,46.875000
5195,42.968750
5196,39.062500
5197,35.156250
5198,31.250000
5199,27.343750
5200,23.437500
5201,19.531250
5202,15.625000
5203,11.718750
5204,7.812500
5205,3.906250
5206,0.000000
5207,-3.906250
5208,-7.812500
5209,-11.718750
5210,-15.625000
5211,-19.531250
5212,-23.437500
5213,-27.343750
5214,-31.250000
5215,-39.062500
5216,-42.968750
5217,-42.968750
5218,-50.781250
5219,-54.687500
5220,-58.593750
5221,-62.500000
5222,-66.406250
5223,-70.312500
5224,-78.125000
5225,-82.031250
5226,-85.937500
5227,-89.843750
5228,-93.750000
5229,-97.656250
5230,-101.562500
5231,-105.468750
5232,-109.375000
5233,-117.187500
5234,-121.093750
5235,-125.000000
5236,-128.906250
5237,-132.812500
5238,-136.718750
5239,-140.625000
5240,-144.531250
5241,-148.437500
5242,-156.250000
5243,-160.156250
5244,-164.062500
5245,-167.968750
5246,-164.062500
5247,-175.781250
5248,-179.687500
5249,-183.593750
5250,-187.500000
5251,-191.406250
5252,-195.312500
5253,-199.218750
5254,-203.125000
5255,-207.031250
5256,-210.937500
5257,-214.843750
5258,-218.750000
5259,-222.656250
5260,-226.562500
5261,-230.468750
5262,-234.375000
5263,-238.281250
5264,-238.281250
5265,-246.093750
5266,-246.093750
5267,-250.000000
5268,-253.906250
5269,-257.812500
5270,-261.718750
5271,-261.718750
5272,-265.625000
5273,-269.531250
5274,-273.437500
5275,-277.343750
5276,-277.343750
5277,-281.250000
5278,-285.156250
5279,-289.062500
5280,-289.062500
5281,-292.968750
5282,-292.968750
5283,-296.875000
5284,-300.781250
5285,-304.687500
5286,-304.687500
5287,-308.593750
5288,-308.593750
5289,-312.500000
5290,-312.500000
5291,-316.406250
5292,-316.406250
5293,-320.312500
5294,-320.312500
5295,-324.218750
5296,-324.218750
5297,-328.125000
5298,-328.125000
5299,-328.125000
5300,-332.031250
5301,-332.031250
5302,-335.937500
5303,-335.937500
5304,-335.937500
5305,-335.937500
5306,-339.843750
5307,-339.843750
5308,-339.843750
5309,-339.843750
5310,-343.750000
5311,-343.750000
5312,-343.750000
5313,-343.750000
5314,-343.750000
5315,-347.656250
5316,-343.750000
5317,-347.656250
5318,-343.750000
5319,-343.750000
5320,-347.656250
5321,-347.656250
5322,-343.750000
5323,-343.750000
5324,-347.656250
5325,-343.750000
5326,-343.750000
5327,-343.750000
5328,-343.750000
5329,-343.750000
5330,-343.750000
5331,-343.750000
5332,-339.843750
5333,-339.843750
5334,-339.843750
5335,-339.843750
5336,-335.937500
5337,-335.937500
5338,-335.937500
5339,-335.937500
5340,-332.031250
5341,-332.031250
5342,-332.031250
5343,-328.125000
5344,-332.031250
5345,-324.218750
5346,-324.218750
5347,-324.218750
5348,-320.312500
5349,-316.406250
5350,-316.406250
5351,-316.406250
5352,-312.500000
5353,-308.593750
5354,-308.593750
5355,-304.687500
5356,-304.687500
5357,-300.781250
5358,-300.781250
5359,-296.875000
5360,-292.968750
5361,-289.062500
5362,-289.062500
5363,-285.156250
5364,-285.156250
5365,-281.250000
5366,-277.343750
5367,-273.437500
5368,-269.531250
5369,-265.625000
5370,-265.625000
5371,-261.718750
5372,-257.812500
5373,-253.906250
5374,-250.000000
5375,-246.093750
5376,-246.093750
5377,-242.187500
5378,-238.281250
5379,-234.375000
5380,-230.468750
5381,-226.562500
5382,-222.656250
5383,-218.750000
5384,-214.843750
5385,-210.937500
5386,-207.031250
5387,-203.125000
5388,-199.218750
5389,-195.312500
5390,-191.406250
5391,-187.500000
5392,-183.593750
5393,-179.687500
5394,-175.781250
5395,-171.875000
5396,-167.968750
5397,-160.156250
5398,-160.156250
5399,-152.343750
5400,-148.437500
5401,-144.531250
5402,-140.625000
5403,-136.718750
5404,-132.812500
5405,-128.906250
5406,-125.000000
5407,-121.093750
5408,-113.281250
5409,-109.375000
5410,-105.468750
5411,-101.562500
5412,-97.656250
5413,-93.750000
5414,-89.843750
5415,-82.031250
5416,-78.125000
5417,-74.218750
5418,-70.312500
5419,-66.406250
5420,-62.500000
5421,-58.593750
5422,-50.781250
5423,-50.781250
5424,-42.968750
5425,-39.062500
5426,-35.156250
5427,-31.250000
5428,-27.343750
5429,-23.437500
5430,-19.531250
5431,-15.625000
5432,-11.718750
5433,-7.812500
5434,-3.906250
5435,0.000000
5436,7.812500
5437,7.812500
5438,15.625000
5439,19.531250
5440,19.531250
5441,27.343750
5442,31.250000
5443,31.250000
5444,35.156250
5445,39.062500
5446,42.968750
5447,46.875000
5448,50.781250
5449,54.687500
5450,58.593750
5451,62.500000
5452,62.500000
5453,66.406250
5454,70.312500
5455,74.218750
5456,78.125000
5457,82.031250
5458,85.937500
5459,85.937500
5460,89.843750
5461,93.750000
5462,93.750000
5463,97.656250
5464,101.562500
5465,105.468750
5466,105.468750
5467,109.375000
5468,113.281250
5469,113.281250
5470,117.187500
5471,121.093750
5472,121.093750
5473,125.000000
5474,125.000000
5475,128.906250
5476,132.812500
5477,132.812500
5478,136.718750
5479,136.718750
5480,140.625000
5481,140.625000
5482,144.531250
5483,144.531250
5484,148.437500
5485,148.437500
5486,152.343750
5487,152.343750
5488,156.250000
5489,156.250000
5490,156.250000
5491,160.156250
5492,160.156250
5493,160.156250
5494,164.062500
5495,164.062500
5496,167.968750
5497,167.968750
5498,167.968750
5499,171.875000
5500,171.875000
5501,171.875000
5502,171.875000
5503,175.781250
5504,171.875000
5505,175.781250
5506,175.781250
5507,175.781250
5508,179.687500
5509,179.687500
5510,179.687500
5511,179.687500
5512,179.687500
5513,179.687500
5514,183.593750
5515,183.593750
5516,183.593750
5517,183.593750
5518,183.593750
5519,183.593750
5520,183.593750
5521,183.593750
5522,183.593750
5523,183.593750
5524,183.593750
5525,187.500000
5526,187.500000
5527,187.500000
5528,183.593750
5529,187.500000
5530,187.500000
5531,187.500000
5532,187.500000
5533,187.500000
5534,183.593750
5535,183.593750
5536,183.593750
5537,183.593750
5538,183.593750
5539,183.593750
5540,183.593750
5541,183.593750
5542,183.593750
5543,179.687500
5544,179.687500
5545,179.687500
5546,179.687500
5547,179.687500
5548,175.781250
5549,179.687500
5550,175.781250
5551,175.781250
5552,175.781250
5553,175.781250
5554,171.875000
5555,171.875000
5556,171.875000
5557,171.875000
5558,167.968750
5559,167.968750
5560,167.968750
5561,164.062500
5562,164.062500
5563,164.062500
5564,164.062500
5565,160.156250
5566,160.156250
5567,160.156250
5568,156.250000
5569,156.250000
5570,152.343750
5571,152.343750
5572,148.437500
5573,148.437500
5574,144.531250
5575,144.531250
5576,144.531250
5577,140.625000
5578,136.718750
5579,136.718750
5580,132.812500
5581,132.812500
5582,128.906250
5583,128.906250
5584,125.000000
5585,121.093750
5586,121.093750
5587,117.187500
5588,117.187500
5589,113.281250
5590,109.375000
5591,109.375000
5592,101.562500
5593,101.562500
5594,101.562500
5595,97.656250
5596,93.750000
5597,89.843750
5598,89.843750
5599,85.937500
5600,82.031250
5601,78.125000
5602,74.218750
5603,70.312500
5604,70.312500
5605,66.406250
5606,62.500000
5607,58.593750
5608,54.687500
5609,50.781250
5610,50.781250
5611,42.968750
5612,39.062500
5613,35.156250
5614,35.156250
5615,31.250000
5616,27.343750
5617,23.437500
5618,19.531250
5619,15.625000
5620,11.718750
5621,7.812500
5622,3.906250
5623,-3.906250
5624,-3.906250
5625,-7.812500
5626,-11.718750
5627,-15.625000
5628,-23.437500
5629,-27.343750
5630,-31.250000
5631,-35.156250
5632,-39.062500
5633,-42.968750
5634,-46.875000
5635,-50.781250
5636,-54.687500
5637,-58.593750
5638,-62.500000
5639,-70.312500
5640,-74.218750
5641,-78.125000
5642,-82.031250
5643,-85.937500
5644,-89.843750
5645,-93.750000
5646,-97.656250
5647,-101.562500
5648,-109.375000
5649,-113.281250
5650,-117.187500
5651,-121.093750
5652,-125.000000
5653,-132.812500
5654,-132.812500
5655,-136.718750
5656,-140.625000
5657,-144.531250
5658,-152.343750
5659,-156.250000
5660,-160.156250
5661,-164.062500
5662,-167.968750
5663,-171.875000
5664,-175.781250
5665,-179.687500
5666,-183.593750
5667,-187.500000
5668,-191.406250
5669,-195.312500
5670,-199.218750
5671,-203.125000
5672,-207.031250
5673,-210.937500
5674,-214.843750
5675,-218.750000
5676,-222.656250
5677,-226.562500
5678,-230.468750
5679,-234.375000
5680,-238.281250
5681,-242.187500
5682,-246.093750
5683,-250.000000
5684,-253.906250
5685,-253.906250
5686,-257.812500
5687,-261.718750
5688,-265.625000
5689,-269.531250
5690,-269.531250
5691,-273.437500
5692,-277.343750
5693,-281.250000
5694,-281.250000
5695,-285.156250
5696,-289.062500
5697,-292.968750
5698,-292.968750
5699,-296.875000
5700,-296.875000
5701,-300.781250
5702,-304.687500
5703,-304.687500
5704,-308.593750
5705,-308.593750
5706,-312.500000
5707,-316.406250
5708,-316.406250
5709,-320.312500
5710,-320.312500
5711,-320.312500
5712,-324.218750
5713,-324.218750
5714,-328.125000
5715,-328.125000
5716,-332.031250
5717,-332.031250
5718,-332.031250
5719,-335.937500
5720,-335.937500
5721,-335.937500
5722,-335.937500
5723,-339.843750
5724,-339.843750
5725,-339.843750
5726,-339.843750
5727,-343.750000
5728,-343.750000
5729,-343.750000
5730,-343.750000
5731,-343.750000
5732,-343.750000
5733,-343.750000
5734,-347.656250
5735,-343.750000
5736,-347.656250
5737,-347.656250
5738,-343.750000
5739,-343.750000
5740,-343.750000
5741,-343.750000
5742,-343.750000
5743,-343.750000
5744,-343.750000
5745,-343.750000
5746,-343.750000
5747,-343.750000
5748,-343.750000
5749,-339.843750
5750,-339.843750
5751,-339.843750
5752,-339.843750
5753,-335.937500
5754,-335.937500
5755,-335.937500
5756,-335.937500
5757,-332.031250
5758,-332.031250
5759,-328.125000
5760,-328.125000
5761,-328.125000
5762,-328.125000
5763,-324.218750
5764,-324.218750
5765,-320.312500
5766,-316.406250
5767,-316.406250
5768,-312.500000
5769,-312.500000
5770,-308.593750
5771,-304.687500
5772,-304.687500
5773,-300.781250
5774,-300.781250
5775,-296.875000
5776,-292.968750
5777,-292.968750
5778,-289.062500
5779,-285.156250
5780,-285.156250
5781,-281.250000
5782,-277.343750
5783,-277.343750
5784,-273.437500
5785,-269.531250
5786,-265.625000
5787,-261.718750
5788,-261.718750
5789,-257.812500
5790,-253.906250
5791,-250.000000
5792,-246.093750
5793,-246.093750
5794,-242.187500
5795,-234.375000
5796,-230.468750
5797,-230.468750
5798,-222.656250
5799,-222.656250
5800,-218.750000
5801,-214.843750
5802,-210.937500
5803,-207.031250
5804,-203.125000
5805,-199.218750
5806,-195.312500
5807,-191.406250
5808,-187.500000
5809,-179.687500
5810,-179.687500
5811,-171.875000
5812,-167.968750
5813,-164.062500
5814,-160.156250
5815,-156.250000
5816,-152.343750
5817,-148.437500
5818,-144.531250
5819,-140.625000
5820,-136.718750
5821,-128.906250
5822,-128.906250
5823,-121.093750
5824,-117.187500
5825,-113.281250
5826,-109.375000
5827,-105.468750
5828,-101.562500
5829,-93.750000
5830,-89.843750
5831,-85.937500
5832,-82.031250
5833,-78.125000
5834,-74.218750
5835,-70.312500
5836,-62.500000
5837,-58.593750
5838,-54.687500
5839,-50.781250
5840,-46.875000
5841,-42.968750
5842,-39.062500
5843,-35.156250
5844,-31.250000
5845,-27.343750
5846,-23.437500
5847,-15.625000
5848,-15.625000
5849,-7.812500
5850,-3.906250
5851,0.000000
5852,3.906250
5853,7.812500
5854,11.718750
5855,15.625000
5856,19.531250
5857,23.437500
5858,27.343750
5859,31.250000
5860,35.156250
5861,39.062500
5862,39.062500
5863,46.875000
5864,46.875000
5865,54.687500
5866,54.687500
5867,58.593750
5868,62.500000
5869,66.406250
5870,70.312500
5871,70.312500
5872,78.125000
5873,78.125000
5874,82.031250
5875,85.937500
5876,89.843750
5877,89.843750
5878,93.750000
5879,97.656250
5880,97.656250
5881,101.562500
5882,105.468750
5883,109.375000
5884,109.375000
5885,113.281250
5886,117.187500
5887,117.187500
5888,121.093750
5889,125.000000
5890,125.000000
5891,128.906250
5892,128.906250
5893,132.812500
5894,132.812500
5895,132.812500
5896,140.625000
5897,136.718750
5898,140.625000
5899,144.531250
5900,144.531250
5901,148.437500
5902,148.437500
5903,152.343750
5904,152.343750
5905,156.250000
5906,156.250000
5907,156.250000
5908,160.156250
5909,160.156250
5910,164.062500
5911,164.062500
5912,160.156250
5913,167.968750
5914,167.968750
5915,167.968750
5916,171.875000
5917,171.875000
5918,171.875000
5919,171.875000
5920,175.781250
5921,175.781250
5922,175.781250
5923,175.781250
5924,179.687500
5925,179.687500
5926,179.687500
5927,179.687500
5928,179.687500
5929,179.687500
5930,179.687500
5931,183.593750
5932,179.687500
5933,183.593750
5934,183.593750
5935,183.593750
5936,183.593750
5937,183.593750
5938,183.593750
5939,183.593750
5940,183.593750
5941,183.593750
5942,183.593750
5943,183.593750
5944,183.593750
5945,183.593750
5946,183.593750
5947,183.593750
5948,187.500000
5949,183.593750
5950,183.593750
5951,183.593750
5952,183.593750
5953,183.593750
5954,183.593750
5955,183.593750
5956,183.593750
5957,183.593750
5958,183.593750
5959,183.593750
5960,179.687500
5961,183.593750
5962,179.687500
5963,179.687500
5964,179.687500
5965,179.687500
5966,179.687500
5967,175.781250
5968,175.781250
5969,175.781250
5970,175.781250
5971,175.781250
5972,171.875000
5973,171.875000
5974,171.875000
5975,167.968750
5976,167.968750
5977,167.968750
5978,164.062500
5979,164.062500
5980,164.062500
5981,160.156250
5982,160.156250
5983,160.156250
5984,156.250000
5985,156.250000
5986,152.343750
5987,152.343750
5988,152.343750
5989,148.437500
5990,148.437500
5991,144.531250
5992,144.531250
5993,140.625000
5994,140.625000
5995,136.718750
5996,136.718750
5997,132.812500
5998,132.812500
5999,128.906250
6000,128.906250
6001,125.000000
6002,125.000000
6003,121.093750
6004,117.187500
6005,113.281250
6006,113.281250
6007,109.375000
6008,105.468750
6009,101.562500
6010,101.562500
6011,97.656250
6012,97.656250
6013,93.750000
6014,89.843750
6015,85.937500
6016,82.031250
6017,82.031250
6018,78.125000
6019,74.218750
6020,70.312500
6021,66.406250
6022,62.500000
6023,58.593750
6024,58.593750
6025,50.781250
6026,50.781250
6027,46.875000
6028,42.968750
6029,39.062500
6030,35.156250
6031,31.250000
6032,27.343750
6033,23.437500
6034,23.437500
6035,15.625000
6036,11.718750
6037,11.718750
6038,7.812500
6039,3.906250
6040,0.000000
6041,-7.812500
6042,-11.718750
6043,-15.625000
6044,-19.531250
6045,-23.437500
6046,-27.343750
6047,-31.250000
6048,-35.156250
6049,-39.062500
6050,-42.968750
6051,-46.875000
6052,-50.781250
6053,-58.593750
6054,-62.500000
6055,-66.406250
6056,-70.312500
6057,-74.218750
6058,-78.125000
6059,-82.031250
6060,-85.937500
6061,-93.750000
6062,-97.656250
6063,-101.562500
6064,-105.468750
6065,-109.375000
6066,-113.281250
6067,-117.187500
6068,-121.093750
6069,-125.000000
6070,-132.812500
6071,-136.718750
6072,-140.625000
6073,-144.531250
6074,-148.437500
6075,-152.343750
6076,-156.250000
6077,-160.156250
6078,-164.062500
6079,-167.968750
6080,-175.781250
6081,-179.687500
6082,-183.593750
6083,-187.500000
6084,-191.406250
6085,-191.406250
6086,-199.218750
6087,-203.125000
6088,-207.031250
6089,-207.031250
6090,-210.937500
6091,-218.750000
6092,-218.750000
6093,-222.656250
6094,-226.562500
6095,-234.375000
6096,-234.375000
6097,-238.281250
6098,-242.187500
6099,-246.093750
6100,-250.000000
6101,-253.906250
6102,-257.812500
6103,-257.812500
6104,-261.718750
6105,-265.625000
6106,-269.531250
6107,-273.437500
6108,-273.437500
6109,-277.343750
6110,-281.250000
6111,-285.156250
6112,-285.156250
6113,-289.062500
6114,-292.968750
6115,-292.968750
6116,-296.875000
6117,-300.781250
6118,-300.781250
6119,-304.687500
6120,-308.593750
6121,-308.593750
6122,-312.500000
6123,-312.500000
6124,-316.406250
6125,-316.406250
6126,-320.312500
6127,-320.312500
6128,-324.218750
6129,-324.218750
6130,-328.125000
6131,-328.125000
6132,-328.125000
6133,-332.031250
6134,-332.031250
6135,-335.937500
6136,-335.937500
6137,-335.937500
6138,-335.937500
6139,-339.843750
6140,-339.843750
6141,-339.843750
6142,-339.843750
6143,-343.750000
6144,-343.750000
6145,-343.750000
6146,-343.750000
6147,-343.750000
6148,-343.750000
6149,-347.656250
6150,-343.750000
6151,-343.750000
6152,-347.656250
6153,-347.656250
6154,-347.656250
6155,-347.656250
6156,-343.750000
6157,-347.656250
6158,-343.750000
6159,-343.750000
6160,-343.750000
6161,-343.750000
6162,-343.750000
6163,-343.750000
6164,-343.750000
6165,-339.843750
6166,-339.843750
6167,-339.843750
6168,-339.843750
6169,-335.937500
6170,-335.937500
6171,-335.937500
6172,-335.937500
6173,-332.031250
6174,-332.031250
6175,-332.031250
6176,-328.125000
6177,-328.125000
6178,-324.218750
6179,-324.218750
6180,-324.218750
6181,-320.312500
6182,-316.406250
6183,-316.406250
6184,-316.406250
6185,-312.500000
6186,-312.500000
6187,-308.593750
6188,-308.593750
6189,-304.687500
6190,-300.781250
6191,-300.781250
6192,-296.875000
6193,-296.875000
6194,-292.968750
6195,-289.062500
6196,-285.156250
6197,-285.156250
6198,-281.250000
6199,-277.343750
6200,-273.437500
6201,-273.437500
6202,-269.531250
6203,-265.625000
6204,-261.718750
6205,-261.718750
6206,-257.812500
6207,-253.906250
6208,-250.000000
6209,-246.093750
6210,-242.187500
6211,-238.281250
6212,-234.375000
6213,-230.468750
6214,-226.562500
6215,-222.656250
6216,-222.656250
6217,-218.750000
6218,-210.937500
6219,-207.031250
6220,-203.125000
6221,-203.125000
6222,-195.312500
6223,-191.406250
6224,-187.500000
6225,-183.593750
6226,-179.687500
6227,-175.781250
6228,-171.875000
6229,-167.968750
6230,-164.062500
6231,-160.156250
6232,-156.250000
6233,-152.343750
6234,-144.531250
6235,-140.625000
6236,-136.718750
6237,-132.812500
6238,-128.906250
6239,-125.000000
6240,-121.093750
6241,-117.187500
6242,-113.281250
6243,-105.468750
6244,-101.562500
6245,-97.656250
6246,-93.750000
6247,-89.843750
6248,-85.937500
6249,-82.031250
6250,-78.125000
6251,-74.218750
6252,-66.406250
6253,-62.500000
6254,-58.593750
6255,-54.687500
6256,-50.781250
6257,-46.875000
6258,-42.968750
6259,-35.156250
6260,-35.156250
6261,-31.250000
6262,-23.437500
6263,-19.531250
6264,-15.625000
6265,-11.718750
6266,-7.812500
6267,-3.906250
6268,0.000000
6269,3.906250
6270,7.812500
6271,11.718750
6272,15.625000
6273,19.531250
6274,23.437500
6275,27.343750
6276,31.250000
6277,35.156250
6278,39.062500
6279,42.968750
6280,42.968750
6281,46.875000
6282,50.781250
6283,54.687500
6284,58.593750
6285,62.500000
6286,66.406250
6287,70.312500
6288,74.218750
6289,78.125000
6290,82.031250
6291,82.031250
6292,85.937500
6293,89.843750
6294,93.750000
6295,93.750000
6296,97.656250
6297,101.562500
6298,101.562500
6299,105.468750
6300,109.375000
6301,109.375000
6302,113.281250
6303,117.187500
6304,117.187500
6305,121.093750
6306,125.000000
6307,125.000000
6308,128.906250
6309,132.812500
6310,132.812500
6311,132.812500
6312,136.718750
6313,140.625000
6314,140.625000
6315,144.531250
6316,144.531250
6317,148.437500
6318,148.437500
6319,148.437500
6320,152.343750
6321,152.343750
6322,156.250000
6323,156.250000
6324,160.156250
6325,160.156250
6326,160.156250
6327,164.062500
6328,164.062500
6329,164.062500
6330,164.062500
6331,167.968750
6332,167.968750
6333,171.875000
6334,171.875000
6335,171.875000
6336,171.875000
6337,175.781250
6338,175.781250
6339,175.781250
6340,175.781250
6341,175.781250
6342,179.687500
6343,179.687500
6344,179.687500
6345,179.687500
6346,179.687500
6347,179.687500
6348,179.687500
6349,183.593750
6350,183.593750
6351,183.593750
6352,183.593750
6353,183.593750
6354,183.593750
6355,183.593750
6356,183.593750
6357,183.593750
6358,183.593750
6359,187.500000
6360,183.593750
6361,187.500000
6362,187.500000
6363,187.500000
6364,183.593750
6365,183.593750
6366,187.500000
6367,187.500000
6368,183.593750
6369,183.593750
6370,183.593750
6371,183.593750
6372,183.593750
6373,183.593750
6374,183.593750
6375,183.593750
6376,179.687500
6377,183.593750
6378,179.687500
6379,179.687500
6380,179.687500
6381,179.687500
6382,175.781250
6383,175.781250
6384,175.781250
6385,175.781250
6386,175.781250
6387,171.875000
6388,171.875000
6389,171.875000
6390,171.875000
6391,171.875000
6392,167.968750
6393,171.875000
6394,167.968750
6395,164.062500
6396,164.062500
6397,164.062500
6398,160.156250
6399,160.156250
6400,156.250000
6401,156.250000
6402,156.250000
6403,156.250000
6404,152.343750
6405,152.343750
6406,148.437500
6407,148.437500
6408,144.531250
6409,144.531250
6410,140.625000
6411,140.625000
6412,136.718750
6413,136.718750
6414,132.812500
6415,128.906250
6416,128.906250
6417,125.000000
6418,125.000000
6419,121.093750
6420,117.187500
6421,117.187500
6422,113.281250
6423,109.375000
6424,109.375000
6425,105.468750
6426,105.468750
6427,101.562500
6428,97.656250
6429,93.750000
6430,93.750000
6431,89.843750
6432,85.937500
6433,82.031250
6434,78.125000
6435,74.218750
6436,74.218750
6437,70.312500
6438,66.406250
6439,62.500000
6440,58.593750
6441,54.687500
6442,50.781250
6443,50.781250
6444,46.875000
6445,42.968750
6446,39.062500
6447,35.156250
6448,31.250000
6449,27.343750
6450,23.437500
6451,19.531250
6452,15.625000
6453,11.718750
6454,7.812500
6455,3.906250
6456,0.000000
6457,-3.906250
6458,-7.812500
6459,-11.718750
6460,-15.625000
6461,-19.531250
6462,-23.437500
6463,-31.250000
6464,-31.250000
6465,-35.156250
6466,-39.062500
6467,-46.875000
6468,-50.781250
6469,-54.687500
6470,-58.593750
6471,-62.500000
6472,-66.406250
6473,-70.312500
6474,-74.218750
6475,-78.125000
6476,-82.031250
6477,-89.843750
6478,-93.750000
6479,-97.656250
6480,-101.562500
6481,-105.468750
6482,-109.375000
6483,-113.281250
6484,-121.093750
6485,-125.000000
6486,-128.906250
6487,-132.812500
6488,-136.718750
6489,-140.625000
6490,-144.531250
6491,-148.437500
6492,-152.343750
6493,-156.250000
6494,-160.156250
6495,-167.968750
6496,-171.875000
6497,-175.781250
6498,-179.687500
6499,-183.593750
6500,-187.500000
6501,-191.406250
6502,-195.312500
6503,-199.218750
6504,-203.125000
6505,-207.031250
6506,-210.937500
6507,-214.843750
6508,-218.750000
6509,-222.656250
6510,-226.562500
6511,-230.468750
6512,-234.375000
6513,-238.281250
6514,-238.281250
6515,-242.187500
6516,-246.093750
6517,-250.000000
6518,-253.906250
6519,-257.812500
6520,-261.718750
6521,-261.718750
6522,-265.625000
6523,-269.531250
6524,-273.437500
6525,-277.343750
6526,-281.250000
6527,-281.250000
6528,-285.156250
6529,-289.062500
6530,-289.062500
6531,-292.968750
6532,-296.875000
6533,-300.781250
6534,-300.781250
6535,-300.781250
6536,-304.687500
6537,-308.593750
6538,-308.593750
6539,-312.500000
6540,-312.500000
6541,-316.406250
6542,-316.406250
6543,-320.312500
6544,-320.312500
6545,-324.218750
6546,-324.218750
6547,-328.125000
6548,-328.125000
6549,-328.125000
6550,-332.031250
6551,-332.031250
6552,-332.031250
6553,-335.937500
6554,-335.937500
6555,-335.937500
6556,-335.937500
6557,-339.843750
6558,-339.843750
6559,-339.843750
6560,-339.843750
6561,-339.843750
6562,-343.750000
6563,-343.750000
6564,-343.750000
6565,-343.750000
6566,-343.750000
6567,-343.750000
6568,-343.750000
6569,-343.750000
6570,-347.656250
6571,-343.750000
6572,-343.750000
6573,-343.750000
6574,-343.750000
6575,-343.750000
6576,-343.750000
6577,-343.750000
6578,-343.750000
6579,-343.750000
6580,-343.750000
6581,-347.656250
6582,-339.843750
6583,-339.843750
6584,-339.843750
6585,-339.843750
6586,-339.843750
6587,-335.937500
6588,-335.937500
6589,-335.937500
6590,-332.031250
6591,-332.031250
6592,-332.031250
6593,-328.125000
6594,-328.125000
6595,-328.125000
6596,-324.218750
6597,-324.218750
6598,-320.312500
6599,-320.312500
6600,-316.406250
6601,-312.500000
6602,-312.500000
6603,-312.500000
6604,-308.593750
6605,-304.687500
6606,-304.687500
6607,-300.781250
6608,-296.875000
6609,-296.875000
6610,-292.968750
6611,-289.062500
6612,-289.062500
6613,-285.156250
6614,-281.250000
6615,-281.250000
6616,-277.343750
6617,-273.437500
6618,-269.531250
6619,-269.531250
6620,-265.625000
6621,-261.718750
6622,-257.812500
6623,-253.906250
6624,-250.000000
6625,-250.000000
6626,-246.093750
6627,-242.187500
6628,-238.281250
6629,-234.375000
6630,-230.468750
6631,-226.562500
6632,-222.656250
6633,-218.750000
6634,-214.843750
6635,-210.937500
6636,-207.031250
6637,-203.125000
6638,-199.218750
6639,-195.312500
6640,-191.406250
6641,-187.500000
6642,-183.593750
6643,-179.687500
6644,-175.781250
6645,-171.875000
6646,-167.968750
6647,-164.062500
6648,-160.156250
6649,-152.343750
6650,-148.437500
6651,-144.531250
6652,-140.625000
6653,-136.718750
6654,-132.812500
6655,-128.906250
6656,-125.000000
6657,-121.093750
6658,-113.281250
6659,-109.375000
6660,-105.468750
6661,-101.562500
6662,-97.656250
6663,-93.750000
6664,-89.843750
6665,-82.031250
6666,-78.125000
6667,-74.218750
6668,-70.312500
6669,-66.406250
6670,-62.500000
6671,-58.593750
6672,-54.687500
6673,-46.875000
6674,-46.875000
6675,-42.968750
6676,-39.062500
6677,-31.250000
6678,-27.343750
6679,-23.437500
6680,-19.531250
6681,-15.625000
6682,-11.718750
6683,-7.812500
6684,-3.906250
6685,0.000000
6686,3.906250
6687,11.718750
6688,11.718750
6689,15.625000
6690,19.531250
6691,23.437500
6692,27.343750
6693,31.250000
6694,35.156250
6695,39.062500
6696,42.968750
6697,46.875000
6698,50.781250
6699,54.687500
6700,58.593750
6701,62.500000
6702,62.500000
6703,66.406250
6704,70.312500
6705,74.218750
6706,78.125000
6707,78.125000
6708,82.031250
6709,85.937500
6710,89.843750
6711,93.750000
6712,93.750000
6713,97.656250
6714,101.562500
6715,101.562500
6716,105.468750
6717,109.375000
6718,113.281250
6719,113.281250
6720,117.187500
6721,117.187500
6722,121.093750
6723,125.000000
6724,125.000000
6725,128.906250
6726,132.812500
6727,132.812500
6728,136.718750
6729,136.718750
6730,140.625000
6731,140.625000
6732,144.531250
6733,144.531250
6734,148.437500
6735,148.437500
6736,148.437500
6737,152.343750
6738,152.343750
6739,156.250000
6740,156.250000
6741,160.156250
6742,160.156250
6743,160.156250
6744,164.062500
6745,164.062500
6746,164.062500
6747,167.968750
6748,167.968750
6749,167.968750
6750,171.875000
6751,171.875000
6752,171.875000
6753,171.875000
6754,175.781250
6755,175.781250
6756,175.781250
6757,179.687500
6758,175.781250
6759,179.687500
6760,179.687500
6761,179.687500
6762,179.687500
6763,179.687500
6764,183.593750
6765,183.593750
6766,183.593750
6767,183.593750
6768,183.593750
6769,183.593750
6770,183.593750
6771,183.593750
6772,183.593750
6773,183.593750
6774,183.593750
6775,183.593750
6776,187.500000
6777,183.593750
6778,183.593750
6779,183.593750
6780,187.500000
6781,183.593750
6782,183.593750
6783,183.593750
6784,183.593750
6785,183.593750
6786,183.593750
6787,183.593750
6788,183.593750
6789,183.593750
6790,183.593750
6791,183.593750
6792,183.593750
6793,183.593750
6794,179.687500
6795,179.687500
6796,179.687500
6797,179.687500
6798,179.687500
6799,179.687500
6800,175.781250
6801,175.781250
6802,175.781250
6803,175.781250
6804,175.781250
6805,171.875000
6806,171.875000
6807,171.875000
6808,171.875000
6809,167.968750
6810,167.968750
6811,167.968750
6812,164.062500
6813,164.062500
6814,164.062500
6815,160.156250
6816,160.156250
6817,160.156250
6818,156.250000
6819,156.250000
6820,152.343750
6821,152.343750
6822,148.437500
6823,148.437500
6824,148.437500
6825,144.531250
6826,144.531250
6827,140.625000
6828,140.625000
6829,136.718750
6830,132.812500
6831,132.812500
6832,128.906250
6833,128.906250
6834,125.000000
6835,121.093750
6836,121.093750
6837,117.187500
6838,117.187500
6839,113.281250
6840,109.375000
6841,105.468750
6842,105.468750
6843,101.562500
6844,97.656250
6845,97.656250
6846,93.750000
6847,89.843750
6848,85.937500
6849,85.937500
6850,82.031250
6851,78.125000
6852,78.125000
6853,70.312500
6854,70.312500
6855,66.406250
6856,62.500000
6857,58.593750
6858,54.687500
6859,50.781250
6860,46.875000
6861,42.968750
6862,39.062500
6863,39.062500
6864,35.156250
6865,31.250000
6866,27.343750
6867,23.437500
6868,23.437500
6869,15.625000
6870,11.718750
6871,7.812500
6872,3.906250
6873,0.000000
6874,-3.906250
6875,-7.812500
6876,-11.718750
6877,-19.531250
6878,-19.531250
6879,-23.437500
6880,-31.250000
6881,-35.156250
6882,-39.062500
6883,-42.968750
6884,-46.875000
6885,-50.781250
6886,-54.687500
6887,-58.593750
6888,-62.500000
6889,-70.312500
6890,-74.218750
6891,-78.125000
6892,-82.031250
6893,-85.937500
6894,-89.843750
6895,-93.750000
6896,-97.656250
6897,-101.562500
6898,-105.468750
6899,-113.281250
6900,-117.187500
6901,-121.093750
6902,-125.000000
6903,-128.906250
6904,-132.812500
6905,-136.718750
6906,-140.625000
6907,-148.437500
6908,-148.437500
6909,-156.250000
6910,-160.156250
6911,-164.062500
6912,-167.968750
6913,-171.875000
6914,-175.781250
6915,-179.687500
6916,-183.593750
6917,-187.500000
6918,-195.312500
6919,-195.312500
6920,-199.218750
6921,-203.125000
6922,-207.031250
6923,-210.937500
6924,-214.843750
6925,-218.750000
6926,-222.656250
6927,-226.562500
6928,-230.468750
6929,-234.375000
6930,-238.281250
6931,-242.187500
6932,-246.093750
6933,-246.093750
6934,-250.000000
6935,-253.906250
6936,-257.812500
6937,-261.718750
6938,-265.625000
6939,-265.625000
6940,-269.531250
6941,-273.437500
6942,-277.343750
6943,-277.343750
6944,-281.250000
6945,-285.156250
6946,-289.062500
6947,-289.062500
6948,-292.968750
6949,-296.875000
6950,-296.875000
6951,-300.781250
6952,-304.687500
6953,-304.687500
6954,-308.593750
6955,-308.593750
6956,-312.500000
6957,-312.500000
6958,-316.406250
6959,-316.406250
6960,-320.312500
6961,-324.218750
6962,-324.218750
6963,-324.218750
6964,-328.125000
6965,-328.125000
6966,-332.031250
6967,-332.031250
6968,-332.031250
6969,-332.031250
6970,-335.937500
6971,-335.937500
6972,-335.937500
6973,-339.843750
6974,-339.843750
6975,-339.843750
6976,-339.843750
6977,-339.843750
6978,-343.750000
6979,-343.750000
6980,-343.750000
6981,-343.750000
6982,-343.750000
6983,-343.750000
6984,-343.750000
6985,-343.750000
6986,-347.656250
6987,-343.750000
6988,-343.750000
6989,-343.750000
6990,-347.656250
6991,-343.750000
6992,-343.750000
6993,-343.750000
6994,-343.750000
6995,-343.750000
6996,-343.750000
6997,-343.750000
6998,-339.843750
6999,-339.843750
7000,-339.843750
7001,-339.843750
7002,-335.937500
7003,-335.937500
7004,-335.937500
7005,-335.937500
7006,-332.031250
7007,-332.031250
7008,-332.031250
7009,-328.125000
7010,-328.125000
7011,-324.218750
7012,-324.218750
7013,-324.218750
7014,-320.312500
7015,-320.312500
7016,-316.406250
7017,-316.406250
7018,-312.500000
7019,-312.500000
7020,-308.593750
7021,-308.593750
7022,-304.687500
7023,-300.781250
7024,-300.781250
7025,-296.875000
7026,-292.968750
7027,-292.968750
7028,-289.062500
7029,-289.062500
7030,-285.156250
7031,-281.250000
7032,-277.343750
7033,-277.343750
7034,-273.437500
7035,-269.531250
7036,-265.625000
7037,-265.625000
7038,-261.718750
7039,-257.812500
7040,-253.906250
7041,-250.000000
7042,-246.093750
7043,-242.187500
7044,-238.281250
7045,-234.375000
7046,-234.375000
7047,-230.468750
7048,-226.562500
7049,-222.656250
7050,-218.750000
7051,-214.843750
7052,-210.937500
7053,-207.031250
7054,-203.125000
7055,-199.218750
7056,-191.406250
7057,-191.406250
7058,-187.500000
7059,-183.593750
7060,-175.781250
7061,-175.781250
7062,-167.968750
7063,-164.062500
7064,-160.156250
7065,-156.250000
7066,-152.343750
7067,-148.437500
7068,-144.531250
7069,-140.625000
7070,-136.718750
7071,-132.812500
7072,-125.000000
7073,-121.093750
7074,-117.187500
7075,-113.281250
7076,-109.375000
7077,-105.468750
7078,-101.562500
7079,-97.656250
7080,-89.843750
7081,-85.937500
7082,-82.031250
7083,-78.125000
7084,-74.218750
7085,-70.312500
7086,-66.406250
7087,-62.500000
7088,-54.687500
7089,-50.781250
7090,-46.875000
7091,-42.968750
7092,-39.062500
7093,-35.156250
7094,-31.250000
7095,-27.343750
7096,-23.437500
7097,-19.531250
7098,-11.718750
7099,-11.718750
7100,-3.906250
7101,0.000000
7102,0.000000
7103,3.906250
7104,7.812500
7105,15.625000
7106,19.531250
7107,23.437500
7108,27.343750
7109,27.343750
7110,31.250000
7111,35.156250
7112,39.062500
7113,42.968750
7114,46.875000
7115,50.781250
7116,54.687500
7117,58.593750
7118,62.500000
7119,66.406250
7120,66.406250
7121,74.218750
7122,74.218750
7123,78.125000
7124,82.031250
7125,85.937500
7126,89.843750
7127,89.843750
7128,93.750000
7129,97.656250
7130,97.656250
7131,101.562500
7132,105.468750
7133,109.375000
7134,109.375000
7135,113.281250
7136,113.281250
7137,117.187500
7138,121.093750
7139,121.093750
7140,125.000000
7141,128.906250
7142,128.906250
7143,128.906250
7144,132.812500
7145,136.718750
7146,140.625000
7147,140.625000
7148,140.625000
7149,144.531250
7150,144.531250
7151,148.437500
7152,148.437500
7153,152.343750
7154,152.343750
7155,152.343750
7156,156.250000
7157,156.250000
7158,160.156250
7159,160.156250
7160,160.156250
7161,164.062500
7162,164.062500
7163,167.968750
7164,167.968750
7165,167.968750
7166,167.968750
7167,167.968750
7168,171.875000
7169,171.875000
7170,175.781250
7171,175.781250
7172,175.781250
7173,175.781250
7174,175.781250
7175,179.687500
7176,179.687500
7177,179.687500
7178,179.687500
7179,179.687500
7180,183.593750
7181,183.593750
7182,183.593750
7183,183.593750
7184,183.593750
7185,183.593750
7186,183.593750
7187,183.593750
7188,183.593750
7189,187.500000
7190,183.593750
7191,187.500000
7192,183.593750
7193,183.593750
7194,187.500000
7195,183.593750
7196,187.500000
7197,191.406250
7198,183.593750
7199,183.593750
7200,187.500000
7201,183.593750
7202,183.593750
7203,183.593750
7204,183.593750
7205,183.593750
7206,183.593750
7207,183.593750
7208,183.593750
7209,183.593750
7210,183.593750
7211,183.593750
7212,179.687500
7213,179.687500
7214,179.687500
7215,179.687500
7216,179.687500
7217,175.781250
7218,175.781250
7219,175.781250
7220,175.781250
7221,171.875000
7222,171.875000
7223,171.875000
7224,171.875000
7225,167.968750
7226,167.968750
7227,167.968750
7228,164.062500
7229,164.062500
7230,164.062500
7231,164.062500
7232,160.156250
7233,160.156250
7234,156.250000
7235,156.250000
7236,156.250000
7237,152.343750
7238,152.343750
7239,148.437500
7240,148.437500
7241,144.531250
7242,144.531250
7243,140.625000
7244,140.625000
7245,136.718750
7246,136.718750
7247,132.812500
7248,132.812500
7249,128.906250
7250,125.000000
7251,125.000000
7252,121.093750
7253,121.093750
7254,117.187500
7255,117.187500
7256,113.281250
7257,109.375000
7258,109.375000
7259,105.468750
7260,101.562500
7261,97.656250
7262,97.656250
7263,93.750000
7264,89.843750
7265,85.937500
7266,85.937500
7267,82.031250
7268,78.125000
7269,74.218750
7270,70.312500
7271,70.312500
7272,66.406250
7273,62.500000
7274,58.593750
7275,54.687500
7276,50.781250
7277,46.875000
7278,42.968750
7279,39.062500
7280,39.062500
7281,31.250000
7282,27.343750
7283,23.437500
7284,19.531250
7285,19.531250
7286,11.718750
7287,11.718750
7288,7.812500
7289,0.000000
7290,-3.906250
7291,-7.812500
7292,-11.718750
7293,-15.625000
7294,-19.531250
7295,-23.437500
7296,-27.343750
7297,-31.250000
7298,-35.156250
7299,-39.062500
7300,-42.968750
7301,-46.875000
7302,-50.781250
7303,-54.687500
7304,-62.500000
7305,-66.406250
7306,-70.312500
7307,-74.218750
7308,-78.125000
7309,-82.031250
7310,-85.937500
7311,-89.843750
7312,-97.656250
7313,-101.562500
7314,-105.468750
7315,-109.375000
7316,-113.281250
7317,-117.187500
7318,-121.093750
7319,-125.000000
7320,-128.906250
7321,-136.718750
7322,-140.625000
7323,-144.531250
7324,-148.437500
7325,-152.343750
7326,-156.250000
7327,-160.156250
7328,-164.062500
7329,-167.968750
7330,-171.875000
7331,-175.781250
7332,-179.687500
7333,-183.593750
7334,-187.500000
7335,-191.406250
7336,-199.218750
7337,-203.125000
7338,-207.031250
7339,-210.937500
7340,-214.843750
7341,-218.750000
7342,-218.750000
7343,-222.656250
7344,-226.562500
7345,-230.468750
7346,-234.375000
7347,-238.281250
7348,-242.187500
7349,-246.093750
7350,-250.000000
7351,-253.906250
7352,-253.906250
7353,-253.906250
7354,-261.718750
7355,-265.625000
7356,-269.531250
7357,-269.531250
7358,-273.437500
7359,-277.343750
7360,-281.250000
7361,-281.250000
7362,-285.156250
7363,-289.062500
7364,-292.968750
7365,-292.968750
7366,-296.875000
7367,-296.875000
7368,-300.781250
7369,-304.687500
7370,-304.687500
7371,-308.593750
7372,-312.500000
7373,-312.500000
7374,-316.406250
7375,-316.406250
7376,-320.312500
7377,-320.312500
7378,-324.218750
7379,-324.218750
7380,-324.218750
7381,-328.125000
7382,-328.125000
7383,-332.031250
7384,-335.937500
7385,-332.031250
7386,-335.937500
7387,-335.937500
7388,-335.937500
7389,-335.937500
7390,-339.843750
7391,-339.843750
7392,-339.843750
7393,-343.750000
7394,-343.750000
7395,-343.750000
7396,-343.750000
7397,-343.750000
7398,-343.750000
7399,-343.750000
7400,-343.750000
7401,-343.750000
7402,-343.750000
7403,-347.656250
7404,-343.750000
7405,-343.750000
7406,-343.750000
7407,-343.750000
7408,-343.750000
7409,-343.750000
7410,-343.750000
7411,-339.843750
7412,-343.750000
7413,-343.750000
7414,-343.750000
7415,-339.843750
7416,-339.843750
7417,-339.843750
7418,-339.843750
7419,-339.843750
7420,-335.937500
7421,-335.937500
7422,-335.937500
7423,-332.031250
7424,-332.031250
7425,-328.125000
7426,-328.125000
7427,-328.125000
7428,-328.125000
7429,-324.218750
7430,-324.218750
7431,-320.312500
7432,-320.312500
7433,-316.406250
7434,-316.406250
7435,-312.500000
7436,-312.500000
7437,-308.593750
7438,-308.593750
7439,-304.687500
7440,-300.781250
7441,-296.875000
7442,-296.875000
7443,-292.968750
7444,-292.968750
7445,-289.062500
7446,-285.156250
7447,-285.156250
7448,-281.250000
7449,-277.343750
7450,-273.437500
7451,-273.437500
7452,-269.531250
7453,-265.625000
7454,-261.718750
7455,-257.812500
7456,-257.812500
7457,-253.906250
7458,-250.000000
7459,-246.093750
7460,-242.187500
7461,-238.281250
7462,-238.281250
7463,-230.468750
7464,-226.562500
7465,-226.562500
7466,-218.750000
7467,-214.843750
7468,-214.843750
7469,-210.937500
7470,-207.031250
7471,-199.218750
7472,-195.312500
7473,-195.312500
7474,-191.406250
7475,-183.593750
7476,-179.687500
7477,-175.781250
7478,-171.875000
7479,-167.968750
7480,-164.062500
7481,-160.156250
7482,-156.250000
7483,-152.343750
7484,-148.437500
7485,-144.531250
7486,-136.718750
7487,-136.718750
7488,-128.906250
7489,-125.000000
7490,-121.093750
7491,-117.187500
7492,-113.281250
7493,-109.375000
7494,-105.468750
7495,-97.656250
7496,-93.750000
7497,-89.843750
7498,-85.937500
7499,-82.031250
7500,-74.218750
7501,-74.218750
7502,-70.312500
7503,-62.500000
7504,-58.593750
7505,-54.687500
7506,-50.781250
7507,-46.875000
7508,-42.968750
7509,-39.062500
7510,-35.156250
7511,-31.250000
7512,-23.437500
7513,-19.531250
7514,-15.625000
7515,-11.718750
7516,-7.812500
7517,-3.906250
7518,0.000000
7519,3.906250
7520,7.812500
7521,11.718750
7522,15.625000
7523,19.531250
7524,23.437500
7525,27.343750
7526,31.250000
7527,35.156250
7528,39.062500
7529,42.968750
7530,46.875000
7531,50.781250
7532,50.781250
7533,54.687500
7534,58.593750
7535,62.500000
7536,66.406250
7537,70.312500
7538,74.218750
7539,78.125000
7540,78.125000
7541,82.031250
7542,85.937500
7543,89.843750
7544,89.843750
7545,93.750000
7546,97.656250
7547,101.562500
7548,101.562500
7549,105.468750
7550,105.468750
7551,113.281250
7552,113.281250
7553,117.187500
7554,117.187500
7555,121.093750
7556,125.000000
7557,125.000000
7558,128.906250
7559,132.812500
7560,132.812500
7561,136.718750
7562,136.718750
7563,140.625000
7564,140.625000
7565,144.531250
7566,144.531250
7567,148.437500
7568,148.437500
7569,148.437500
7570,152.343750
7571,152.343750
7572,156.250000
7573,156.250000
7574,156.250000
7575,160.156250
7576,160.156250
7577,164.062500
7578,164.062500
7579,164.062500
7580,167.968750
7581,167.968750
7582,167.968750
7583,171.875000
7584,171.875000
7585,171.875000
7586,171.875000
7587,175.781250
7588,175.781250
7589,175.781250
7590,175.781250
7591,179.687500
7592,179.687500
7593,179.687500
7594,179.687500
7595,179.687500
7596,179.687500
7597,183.593750
7598,183.593750
7599,183.593750
7600,183.593750
7601,183.593750
7602,183.593750
7603,183.593750
7604,183.593750
7605,183.593750
7606,183.593750
7607,187.500000
7608,187.500000
7609,187.500000
7610,183.593750
7611,183.593750
7612,187.500000
7613,183.593750
7614,187.500000
7615,183.593750
7616,187.500000
7617,183.593750
7618,183.593750
7619,183.593750
7620,183.593750
7621,183.593750
7622,183.593750
7623,183.593750
7624,183.593750
7625,183.593750
7626,183.593750
7627,179.687500
7628,179.687500
7629,179.687500
7630,179.687500
7631,179.687500
7632,179.687500
7633,179.687500
7634,179.687500
7635,175.781250
7636,175.781250
7637,175.781250
7638,171.875000
7639,171.875000
7640,171.875000
7641,171.875000
7642,167.968750
7643,167.968750
7644,167.968750
7645,164.062500
7646,167.968750
7647,164.062500
7648,160.156250
7649,160.156250
7650,160.156250
7651,156.250000
7652,160.156250
7653,156.250000
7654,152.343750
7655,152.343750
7656,148.437500
7657,148.437500
7658,148.437500
7659,144.531250
7660,144.531250
7661,140.625000
7662,136.718750
7663,136.718750
7664,132.812500
7665,132.812500
7666,128.906250
7667,128.906250
7668,125.000000
7669,121.093750
7670,121.093750
7671,117.187500
7672,113.281250
7673,113.281250
7674,109.375000
7675,105.468750
7676,101.562500
7677,101.562500
7678,97.656250
7679,97.656250
7680,93.750000
7681,89.843750
7682,85.937500
7683,82.031250
7684,82.031250
7685,78.125000
7686,74.218750
7687,70.312500
7688,66.406250
7689,62.500000
7690,58.593750
7691,58.593750
7692,54.687500
7693,50.781250
7694,46.875000
7695,42.968750
7696,39.062500
7697,35.156250
7698,31.250000
7699,27.343750
7700,23.437500
7701,19.531250
7702,15.625000
7703,11.718750
7704,7.812500
7705,3.906250
7706,0.000000
7707,-3.906250
7708,-7.812500
7709,-11.718750
7710,-15.625000
7711,-19.531250
7712,-23.437500
7713,-27.343750
7714,-31.250000
7715,-35.156250
7716,-39.062500
7717,-46.875000
7718,-50.781250
7719,-50.781250
7720,-58.593750
7721,-62.500000
7722,-66.406250
7723,-70.312500
7724,-74.218750
7725,-78.125000
7726,-82.031250
7727,-85.937500
7728,-93.750000
7729,-97.656250
7730,-101.562500
7731,-105.468750
7732,-109.375000
7733,-113.281250
7734,-117.187500
7735,-125.000000
7736,-128.906250
7737,-132.812500
7738,-136.718750
7739,-140.625000
7740,-144.531250
7741,-148.437500
7742,-152.343750
7743,-160.156250
7744,-164.062500
7745,-167.968750
7746,-171.875000
7747,-175.781250
7748,-179.687500
7749,-183.593750
7750,-183.593750
7751,-191.406250
7752,-195.312500
7753,-199.218750
7754,-203.125000
7755,-207.031250
7756,-210.937500
7757,-214.843750
7758,-218.750000
7759,-222.656250
7760,-226.562500
7761,-230.468750
7762,-230.468750
7763,-238.281250
7764,-242.187500
7765,-242.187500
7766,-246.093750
7767,-250.000000
7768,-253.906250
7769,-257.812500
7770,-261.718750
7771,-265.625000
7772,-265.625000
7773,-269.531250
7774,-273.437500
7775,-277.343750
7776,-277.343750
7777,-281.250000
7778,-285.156250
7779,-289.062500
7780,-289.062500
7781,-292.968750
7782,-296.875000
7783,-296.875000
7784,-300.781250
7785,-300.781250
7786,-304.687500
7787,-308.593750
7788,-308.593750
7789,-312.500000
7790,-312.500000
7791,-316.406250
7792,-316.406250
7793,-320.312500
7794,-324.218750
7795,-324.218750
7796,-324.218750
7797,-328.125000
7798,-328.125000
7799,-328.125000
7800,-332.031250
7801,-332.031250
7802,-335.937500
7803,-335.937500
7804,-335.937500
7805,-339.843750
7806,-339.843750
7807,-339.843750
7808,-339.843750
7809,-339.843750
7810,-343.750000
7811,-343.750000
7812,-343.750000
7813,-343.750000
7814,-343.750000
7815,-347.656250
7816,-343.750000
7817,-343.750000
7818,-347.656250
7819,-347.656250
7820,-347.656250
7821,-343.750000
7822,-347.656250
7823,-347.656250
7824,-347.656250
7825,-347.656250
7826,-343.750000
7827,-343.750000
7828,-343.750000
7829,-343.750000
7830,-343.750000
7831,-343.750000
7832,-343.750000
7833,-339.843750
7834,-339.843750
7835,-339.843750
7836,-339.843750
7837,-335.937500
7838,-335.937500
7839,-332.031250
7840,-332.031250
7841,-332.031250
7842,-332.031250
7843,-328.125000
7844,-328.125000
7845,-328.125000
7846,-324.218750
7847,-324.218750
7848,-320.312500
7849,-320.312500
7850,-316.406250
7851,-316.406250
7852,-312.500000
7853,-308.593750
7854,-308.593750
7855,-304.687500
7856,-304.687500
7857,-300.781250
7858,-300.781250
7859,-296.875000
7860,-292.968750
7861,-292.968750
7862,-289.062500
7863,-285.156250
7864,-281.250000
7865,-281.250000
7866,-277.343750
7867,-273.437500
7868,-273.437500
7869,-269.531250
7870,-265.625000
7871,-261.718750
7872,-257.812500
7873,-253.906250
7874,-253.906250
7875,-250.000000
7876,-246.093750
7877,-242.187500
7878,-242.187500
7879,-234.375000
7880,-230.468750
7881,-226.562500
7882,-222.656250
7883,-218.750000
7884,-218.750000
7885,-210.937500
7886,-207.031250
7887,-203.125000
7888,-199.218750
7889,-195.312500
7890,-191.406250
7891,-187.500000
7892,-183.593750
7893,-179.687500
7894,-175.781250
7895,-171.875000
7896,-167.968750
7897,-164.062500
7898,-160.156250
7899,-156.250000
7900,-148.437500
7901,-144.531250
7902,-140.625000
7903,-136.718750
7904,-132.812500
7905,-128.906250
7906,-125.000000
7907,-121.093750
7908,-113.281250
7909,-109.375000
7910,-105.468750
7911,-101.562500
7912,-97.656250
7913,-93.750000
7914,-89.843750
7915,-85.937500
7916,-78.125000
7917,-78.125000
7918,-70.312500
7919,-66.406250
7920,-62.500000
7921,-58.593750
7922,-54.687500
7923,-50.781250
7924,-46.875000
7925,-42.968750
7926,-39.062500
7927,-31.250000
7928,-27.343750
7929,-23.437500
7930,-19.531250
7931,-15.625000
7932,-11.718750
7933,-7.812500
7934,-3.906250
7935,0.000000
7936,3.906250
7937,7.812500
7938,11.718750
7939,15.625000
7940,19.531250
7941,23.437500
7942,27.343750
7943,31.250000
7944,35.156250
7945,39.062500
7946,46.875000
7947,46.875000
7948,50.781250
7949,54.687500
7950,58.593750
7951,62.500000
7952,62.500000
7953,66.406250
7954,70.312500
7955,74.218750
7956,78.125000
7957,82.031250
7958,82.031250
7959,85.937500
7960,89.843750
7961,93.750000
7962,93.750000
7963,97.656250
7964,101.562500
7965,105.468750
7966,105.468750
7967,109.375000
7968,113.281250
7969,113.281250
7970,117.187500
7971,117.187500
7972,121.093750
7973,125.000000
7974,128.906250
7975,128.906250
7976,132.812500
7977,132.812500
7978,136.718750
7979,136.718750
7980,140.625000
7981,140.625000
7982,144.531250
7983,144.531250
7984,148.437500
7985,148.437500
7986,152.343750
7987,152.343750
7988,152.343750
7989,156.250000
7990,156.250000
7991,160.156250
7992,160.156250
7993,160.156250
7994,164.062500
7995,164.062500
7996,167.968750
7997,167.968750
7998,167.968750
7999,167.968750
8000,167.968750
8001,171.875000
8002,171.875000
8003,175.781250
8004,175.781250
8005,175.781250
8006,175.781250
8007,175.781250
8008,179.687500
8009,179.687500
8010,179.687500
8011,179.687500
8012,179.687500
8013,179.687500
8014,183.593750
8015,183.593750
8016,183.593750
8017,183.593750
8018,183.593750
8019,183.593750
8020,183.593750
8021,183.593750
8022,183.593750
8023,183.593750
8024,183.593750
8025,187.500000
8026,183.593750
8027,187.500000
8028,187.500000
8029,187.500000
8030,187.500000
8031,187.500000
8032,183.593750
8033,187.500000
8034,187.500000
8035,187.500000
8036,183.593750
8037,183.593750
8038,183.593750
8039,183.593750
8040,183.593750
8041,183.593750
8042,183.593750
8043,183.593750
8044,179.687500
8045,179.687500
8046,179.687500
8047,179.687500
8048,179.687500
8049,179.687500
8050,175.781250
8051,175.781250
8052,175.781250
8053,175.781250
8054,175.781250
8055,171.875000
8056,171.875000
8057,171.875000
8058,171.875000
8059,167.968750
8060,167.968750
8061,167.968750
8062,164.062500
8063,164.062500
8064,164.062500
8065,164.062500
8066,160.156250
8067,160.156250
8068,156.250000
8069,156.250000
8070,152.343750
8071,156.250000
8072,148.437500
8073,148.437500
8074,148.437500
8075,144.531250
8076,144.531250
8077,140.625000
8078,140.625000
8079,136.718750
8080,136.718750
8081,132.812500
8082,128.906250
8083,128.906250
8084,125.000000
8085,125.000000
8086,121.093750
8087,117.187500
8088,117.187500
8089,113.281250
8090,113.281250
8091,109.375000
8092,105.468750
8093,105.468750
8094,101.562500
8095,97.656250
8096,93.750000
8097,93.750000
8098,89.843750
8099,85.937500
8100,82.031250
8101,78.125000
8102,78.125000
8103,74.218750
8104,70.312500
8105,66.406250
8106,62.500000
8107,58.593750
8108,54.687500
8109,54.687500
8110,50.781250
8111,46.875000
8112,42.968750
8113,39.062500
8114,35.156250
8115,31.250000
8116,27.343750
8117,23.437500
8118,19.531250
8119,15.625000
8120,11.718750
8121,7.812500
8122,3.906250
8123,0.000000
8124,-3.906250
8125,-7.812500
8126,-11.718750
8127,-15.625000
8128,-19.531250
8129,-23.437500
8130,-27.343750
8131,-35.156250
8132,-39.062500
8133,-42.968750
8134,-46.875000
8135,-50.781250
8136,-54.687500
8137,-58.593750
8138,-62.500000
8139,-66.406250
8140,-70.312500
8141,-78.125000
8142,-82.031250
8143,-85.937500
8144,-89.843750
8145,-93.750000
8146,-97.656250
8147,-101.562500
8148,-105.468750
8149,-113.281250
8150,-117.187500
8151,-121.093750
8152,-125.000000
8153,-128.906250
8154,-132.812500
8155,-136.718750
8156,-140.625000
8157,-144.531250
8158,-152.343750
8159,-156.250000
8160,-160.156250
8161,-160.156250
8162,-167.968750
8163,-171.875000
8164,-175.781250
8165,-179.687500
8166,-183.593750
8167,-187.500000
8168,-191.406250
8169,-195.312500
8170,-199.218750
8171,-203.125000
8172,-207.031250
8173,-210.937500
8174,-214.843750
8175,-218.750000
8176,-222.656250
8177,-226.562500
8178,-230.468750
8179,-234.375000
8180,-238.281250
8181,-242.187500
8182,-246.093750
8183,-250.000000
8184,-250.000000
8185,-253.906250
8186,-257.812500
8187,-261.718750
8188,-265.625000
8189,-269.531250
8190,-269.531250
8191,-273.437500
8192,-277.343750
8193,-281.250000
8194,-281.250000
8195,-289.062500
8196,-289.062500
8197,-292.968750
8198,-292.968750
8199,-296.875000
8200,-296.875000
8201,-300.781250
8202,-304.687500
8203,-304.687500
8204,-308.593750
8205,-308.593750
8206,-312.500000
8207,-316.406250
8208,-316.406250
8209,-320.312500
8210,-320.312500
8211,-324.218750
8212,-324.218750
8213,-324.218750
8214,-328.125000
8215,-328.125000
8216,-332.031250
8217,-332.031250
8218,-332.031250
8219,-335.937500
8220,-335.937500
8221,-335.937500
8222,-335.937500
8223,-339.843750
8224,-339.843750
8225,-339.843750
8226,-343.750000
8227,-343.750000
8228,-343.750000
8229,-343.750000
8230,-343.750000
8231,-343.750000
8232,-343.750000
8233,-347.656250
8234,-347.656250
8235,-347.656250
8236,-343.750000
8237,-343.750000
8238,-347.656250
8239,-343.750000
8240,-347.656250
8241,-343.750000
8242,-347.656250
8243,-343.750000
8244,-343.750000
8245,-343.750000
8246,-343.750000
8247,-343.750000
8248,-343.750000
8249,-343.750000
8250,-339.843750
8251,-339.843750
8252,-339.843750
8253,-339.843750
8254,-335.937500
8255,-335.937500
8256,-335.937500
8257,-332.031250
8258,-332.031250
8259,-332.031250
8260,-328.125000
8261,-328.125000
8262,-324.218750
8263,-324.218750
8264,-324.218750
8265,-320.312500
8266,-320.312500
8267,-316.406250
8268,-316.406250
8269,-312.500000
8270,-308.593750
8271,-308.593750
8272,-304.687500
8273,-304.687500
8274,-300.781250
8275,-300.781250
8276,-296.875000
8277,-292.968750
8278,-292.968750
8279,-289.062500
8280,-285.156250
8281,-281.250000
8282,-277.343750
8283,-277.343750
8284,-273.437500
8285,-269.531250
8286,-269.531250
8287,-265.625000
8288,-261.718750
8289,-257.812500
8290,-253.906250
8291,-250.000000
8292,-246.093750
8293,-246.093750
8294,-242.187500
8295,-238.281250
8296,-234.375000
8297,-230.468750
8298,-226.562500
8299,-222.656250
8300,-218.750000
8301,-214.843750
8302,-210.937500
8303,-207.031250
8304,-203.125000
8305,-199.218750
8306,-195.312500
8307,-191.406250
8308,-187.500000
8309,-179.687500
8310,-179.687500
8311,-175.781250
8312,-171.875000
8313,-164.062500
8314,-164.062500
8315,-156.250000
8316,-156.250000
8317,-148.437500
8318,-144.531250
8319,-140.625000
8320,-136.718750
8321,-132.812500
8322,-128.906250
8323,-125.000000
8324,-117.187500
8325,-113.281250
8326,-109.375000
8327,-105.468750
8328,-101.562500
8329,-93.750000
8330,-89.843750
8331,-85.937500
8332,-82.031250
8333,-78.125000
8334,-74.218750
8335,-70.312500
8336,-66.406250
8337,-62.500000
8338,-58.593750
8339,-54.687500
8340,-46.875000
8341,-42.968750
8342,-39.062500
8343,-35.156250
8344,-31.250000
8345,-31.250000
8346,-23.437500
8347,-19.531250
8348,-15.625000
8349,-11.718750
8350,-3.906250
8351,-3.906250
8352,0.000000
8353,3.906250
8354,11.718750
8355,15.625000
8356,19.531250
8357,23.437500
8358,23.437500
8359,31.250000
8360,31.250000
8361,35.156250
8362,39.062500
8363,42.968750
8364,46.875000
8365,50.781250
8366,54.687500
8367,58.593750
8368,62.500000
8369,62.500000
8370,70.312500
8371,70.312500
8372,74.218750
8373,78.125000
8374,82.031250
8375,85.937500
8376,85.937500
8377,89.843750
8378,93.750000
8379,93.750000
8380,97.656250
8381,101.562500
8382,105.468750
8383,105.468750
8384,109.375000
8385,113.281250
8386,113.281250
8387,117.187500
8388,121.093750
8389,121.093750
8390,125.000000
8391,128.906250
8392,128.906250
8393,132.812500
8394,136.718750
8395,136.718750
8396,136.718750
8397,140.625000
8398,140.625000
8399,144.531250
8400,144.531250
8401,148.437500
8402,148.437500
8403,152.343750
8404,152.343750
8405,152.343750
8406,156.250000
8407,156.250000
8408,160.156250
8409,160.156250
8410,160.156250
8411,164.062500
8412,164.062500
8413,167.968750
8414,167.968750
8415,167.968750
8416,171.875000
8417,171.875000
8418,171.875000
8419,175.781250
8420,171.875000
8421,175.781250
8422,175.781250
8423,175.781250
8424,175.781250
8425,179.687500
8426,179.687500
8427,179.687500
8428,179.687500
8429,179.687500
8430,179.687500
8431,183.593750
8432,183.593750
8433,183.593750
8434,183.593750
8435,183.593750
8436,183.593750
8437,183.593750
8438,183.593750
8439,187.500000
8440,187.500000
8441,187.500000
8442,183.593750
8443,187.500000
8444,187.500000
8445,187.500000
8446,187.500000
8447,183.593750
8448,187.500000
8449,187.500000
8450,187.500000
8451,183.593750
8452,183.593750
8453,183.593750
8454,187.500000
8455,183.593750
8456,183.593750
8457,183.593750
8458,183.593750
8459,183.593750
8460,179.687500
8461,179.687500
8462,179.687500
8463,179.687500
8464,179.687500
8465,179.687500
8466,179.687500
8467,175.781250
8468,175.781250
8469,175.781250
8470,175.781250
8471,171.875000
8472,171.875000
8473,171.875000
8474,171.875000
8475,171.875000
8476,167.968750
8477,167.968750
8478,167.968750
8479,164.062500
8480,164.062500
8481,164.062500
8482,160.156250
8483,160.156250
8484,160.156250
8485,156.250000
8486,156.250000
8487,152.343750
8488,152.343750
8489,152.343750
8490,148.437500
8491,144.531250
8492,144.531250
8493,144.531250
8494,140.625000
8495,136.718750
8496,136.718750
8497,136.718750
8498,132.812500
8499,132.812500
8500,128.906250
8501,125.000000
8502,125.000000
8503,121.093750
8504,117.187500
8505,117.187500
8506,113.281250
8507,113.281250
8508,109.375000
8509,105.468750
8510,101.562500
8511,101.562500
8512,97.656250
8513,93.750000
8514,89.843750
8515,89.843750
8516,85.937500
8517,82.031250
8518,78.125000
8519,74.218750
8520,70.312500
8521,70.312500
8522,66.406250
8523,62.500000
8524,58.593750
8525,54.687500
8526,50.781250
8527,46.875000
8528,46.875000
8529,39.062500
8530,35.156250
8531,35.156250
8532,31.250000
8533,27.343750
8534,23.437500
8535,19.531250
8536,15.625000
8537,11.718750
8538,7.812500
8539,3.906250
8540,0.000000
8541,-3.906250
8542,-7.812500
8543,-11.718750
8544,-15.625000
8545,-23.437500
8546,-27.343750
8547,-31.250000
8548,-35.156250
8549,-39.062500
8550,-42.968750
8551,-46.875000
8552,-50.781250
8553,-54.687500
8554,-58.593750
8555,-62.500000
8556,-66.406250
8557,-74.218750
8558,-78.125000
8559,-82.031250
8560,-85.937500
8561,-89.843750
8562,-93.750000
8563,-97.656250
8564,-101.562500
8565,-109.375000
8566,-113.281250
8567,-117.187500
8568,-121.093750
8569,-125.000000
8570,-128.906250
8571,-132.812500
8572,-136.718750
8573,-140.625000
8574,-148.437500
8575,-152.343750
8576,-156.250000
8577,-160.156250
8578,-164.062500
8579,-167.968750
8580,-171.875000
8581,-175.781250
8582,-179.687500
8583,-183.593750
8584,-187.500000
8585,-195.312500
8586,-199.218750
8587,-203.125000
8588,-207.031250
8589,-207.031250
8590,-214.843750
8591,-218.750000
8592,-222.656250
8593,-226.562500
8594,-226.562500
8595,-230.468750
8596,-238.281250
8597,-238.281250
8598,-242.187500
8599,-246.093750
8600,-250.000000
8601,-253.906250
8602,-253.906250
8603,-257.812500
8604,-261.718750
8605,-265.625000
8606,-269.531250
8607,-269.531250
8608,-273.437500
8609,-277.343750
8610,-281.250000
8611,-285.156250
8612,-285.156250
8613,-289.062500
8614,-292.968750
8615,-296.875000
8616,-296.875000
8617,-300.781250
8618,-300.781250
8619,-304.687500
8620,-304.687500
8621,-308.593750
8622,-312.500000
8623,-312.500000
8624,-316.406250
8625,-316.406250
8626,-320.312500
8627,-320.312500
8628,-324.218750
8629,-324.218750
8630,-324.218750
8631,-328.125000
8632,-328.125000
8633,-332.031250
8634,-332.031250
8635,-332.031250
8636,-335.937500
8637,-335.937500
8638,-335.937500
8639,-339.843750
8640,-339.843750
8641,-339.843750
8642,-339.843750
8643,-343.750000
8644,-343.750000
8645,-343.750000
8646,-343.750000
8647,-343.750000
8648,-343.750000
8649,-347.656250
8650,-347.656250
8651,-347.656250
8652,-347.656250
8653,-347.656250
8654,-347.656250
8655,-347.656250
8656,-347.656250
8657,-347.656250
8658,-343.750000
8659,-347.656250
8660,-347.656250
8661,-343.750000
8662,-347.656250
8663,-343.750000
8664,-343.750000
8665,-343.750000
8666,-339.843750
8667,-339.843750
8668,-339.843750
8669,-339.843750
8670,-335.937500
8671,-335.937500
8672,-335.937500
8673,-335.937500
8674,-332.031250
8675,-332.031250
8676,-332.031250
8677,-328.125000
8678,-328.125000
8679,-324.218750
8680,-324.218750
8681,-328.125000
8682,-320.312500
8683,-316.406250
8684,-316.406250
8685,-312.500000
8686,-312.500000
8687,-308.593750
8688,-308.593750
8689,-304.687500
8690,-300.781250
8691,-300.781250
8692,-296.875000
8693,-296.875000
8694,-292.968750
8695,-289.062500
8696,-289.062500
8697,-285.156250
8698,-281.250000
8699,-277.343750
8700,-277.343750
8701,-273.437500
8702,-269.531250
8703,-265.625000
8704,-261.718750
8705,-261.718750
8706,-257.812500
8707,-253.906250
8708,-250.000000
8709,-246.093750
8710,-242.187500
8711,-242.187500
8712,-238.281250
8713,-234.375000
8714,-226.562500
8715,-226.562500
8716,-222.656250
8717,-218.750000
8718,-214.843750
8719,-210.937500
8720,-207.031250
8721,-203.125000
8722,-199.218750
8723,-195.312500
8724,-191.406250
8725,-187.500000
8726,-183.593750
8727,-175.781250
8728,-171.875000
8729,-167.968750
8730,-164.062500
8731,-160.156250
8732,-156.250000
8733,-152.343750
8734,-148.437500
8735,-144.531250
8736,-140.625000
8737,-136.718750
8738,-132.812500
8739,-125.000000
8740,-121.093750
8741,-117.187500
8742,-113.281250
8743,-109.375000
8744,-105.468750
8745,-97.656250
8746,-93.750000
8747,-89.843750
8748,-85.937500
8749,-82.031250
8750,-82.031250
8751,-74.218750
8752,-70.312500
8753,-62.500000
8754,-58.593750
8755,-54.687500
8756,-50.781250
8757,-46.875000
8758,-42.968750
8759,-39.062500
8760,-35.156250
8761,-31.250000
8762,-27.343750
8763,-19.531250
8764,-15.625000
8765,-11.718750
8766,-7.812500
8767,-3.906250
8768,0.000000
8769,3.906250
8770,7.812500
8771,11.718750
8772,15.625000
8773,19.531250
8774,23.437500
8775,27.343750
8776,31.250000
8777,31.250000
8778,39.062500
8779,42.968750
8780,42.968750
8781,46.875000
8782,50.781250
8783,54.687500
8784,58.593750
8785,62.500000
8786,66.406250
8787,66.406250
8788,74.218750
8789,78.125000
8790,78.125000
8791,82.031250
8792,85.937500
8793,89.843750
8794,89.843750
8795,93.750000
8796,97.656250
8797,101.562500
8798,101.562500
8799,105.468750
8800,109.375000
8801,109.375000
8802,113.281250
8803,117.187500
8804,117.187500
8805,121.093750
8806,125.000000
8807,125.000000
8808,128.906250
8809,128.906250
8810,132.812500
8811,132.812500
8812,136.718750
8813,140.625000
8814,140.625000
8815,144.531250
8816,144.531250
8817,144.531250
8818,148.437500
8819,152.343750
8820,152.343750
8821,152.343750
8822,156.250000
8823,156.250000
8824,160.156250
8825,160.156250
8826,160.156250
8827,164.062500
8828,164.062500
8829,164.062500
8830,167.968750
8831,164.062500
8832,167.968750
8833,167.968750
8834,171.875000
8835,171.875000
8836,171.875000
8837,175.781250
8838,175.781250
8839,175.781250
8840,175.781250
8841,175.781250
8842,179.687500
8843,179.687500
8844,179.687500
8845,179.687500
8846,179.687500
8847,183.593750
8848,183.593750
8849,183.593750
8850,183.593750
8851,183.593750
8852,183.593750
8853,183.593750
8854,183.593750
8855,183.593750
8856,183.593750
8857,183.593750
8858,183.593750
8859,187.500000
8860,187.500000
8861,183.593750
8862,183.593750
8863,187.500000
8864,187.500000
8865,187.500000
8866,187.500000
8867,183.593750
8868,183.593750
8869,183.593750
8870,187.500000
8871,183.593750
8872,183.593750
8873,183.593750
8874,183.593750
8875,183.593750
8876,183.593750
8877,179.687500
8878,183.593750
8879,179.687500
8880,179.687500
8881,179.687500
8882,179.687500
8883,179.687500
8884,175.781250
8885,175.781250
8886,175.781250
8887,175.781250
8888,175.781250
8889,171.875000
8890,171.875000
8891,171.875000
8892,167.968750
8893,167.968750
8894,167.968750
8895,167.968750
8896,164.062500
8897,164.062500
8898,164.062500
8899,160.156250
8900,160.156250
8901,156.250000
8902,156.250000
8903,156.250000
8904,152.343750
8905,152.343750
8906,148.437500
8907,148.437500
8908,144.531250
8909,144.531250
8910,140.625000
8911,140.625000
8912,136.718750
8913,136.718750
8914,132.812500
8915,132.812500
8916,128.906250
8917,128.906250
8918,125.000000
8919,121.093750
8920,121.093750
8921,117.187500
8922,117.187500
8923,113.281250
8924,109.375000
8925,109.375000
8926,105.468750
8927,101.562500
8928,97.656250
8929,97.656250
8930,93.750000
8931,89.843750
8932,85.937500
8933,85.937500
8934,82.031250
8935,78.125000
8936,74.218750
8937,70.312500
8938,66.406250
8939,66.406250
8940,62.500000
8941,58.593750
8942,54.687500
8943,50.781250
8944,46.875000
8945,42.968750
8946,39.062500
8947,35.156250
8948,31.250000
8949,27.343750
8950,23.437500
8951,23.437500
8952,15.625000
8953,11.718750
8954,7.812500
8955,3.906250
8956,3.906250
8957,-3.906250
8958,-7.812500
8959,-11.718750
8960,-15.625000
8961,-19.531250
8962,-23.437500
8963,-27.343750
8964,-31.250000
8965,-35.156250
8966,-39.062500
8967,-42.968750
8968,-46.875000
8969,-54.687500
8970,-54.687500
8971,-62.500000
8972,-66.406250
8973,-70.312500
8974,-74.218750
8975,-78.125000
8976,-82.031250
8977,-85.937500
8978,-93.750000
8979,-97.656250
8980,-101.562500
8981,-105.468750
8982,-109.375000
8983,-113.281250
8984,-117.187500
8985,-121.093750
8986,-125.000000
8987,-132.812500
8988,-136.718750
8989,-140.625000
8990,-144.531250
8991,-148.437500
8992,-152.343750
8993,-156.250000
8994,-160.156250
8995,-167.968750
8996,-167.968750
8997,-171.875000
8998,-175.781250
8999,-183.593750
9000,-187.500000
9001,-195.312500
9002,-195.312500
9003,-199.218750
9004,-203.125000
9005,-207.031250
9006,-210.937500
9007,-214.843750
9008,-218.750000
9009,-222.656250
9010,-226.562500
9011,-230.468750
9012,-230.468750
9013,-234.375000
9014,-238.281250
9015,-242.187500
9016,-246.093750
9017,-250.000000
9018,-253.906250
9019,-257.812500
9020,-261.718750
9021,-261.718750
9022,-265.625000
9023,-269.531250
9024,-273.437500
9025,-277.343750
9026,-281.250000
9027,-281.250000
9028,-285.156250
9029,-289.062500
9030,-289.062500
9031,-292.968750
9032,-296.875000
9033,-300.781250
9034,-300.781250
9035,-300.781250
9036,-304.687500
9037,-308.593750
9038,-308.593750
9039,-312.500000
9040,-312.500000
9041,-316.406250
9042,-320.312500
9043,-320.312500
9044,-320.312500
9045,-324.218750
9046,-324.218750
9047,-328.125000
9048,-328.125000
9049,-328.125000
9050,-332.031250
9051,-332.031250
9052,-335.937500
9053,-335.937500
9054,-335.937500
9055,-339.843750
9056,-339.843750
9057,-339.843750
9058,-339.843750
9059,-339.843750
9060,-343.750000
9061,-343.750000
9062,-343.750000
9063,-343.750000
9064,-343.750000
9065,-347.656250
9066,-347.656250
9067,-347.656250
9068,-347.656250
9069,-347.656250
9070,-347.656250
9071,-347.656250
9072,-347.656250
9073,-347.656250
9074,-347.656250
9075,-347.656250
9076,-343.750000
9077,-343.750000
9078,-347.656250
9079,-343.750000
9080,-343.750000
9081,-343.750000
9082,-343.750000
9083,-343.750000
9084,-339.843750
9085,-339.843750
9086,-339.843750
9087,-335.937500
9088,-335.937500
9089,-335.937500
9090,-335.937500
9091,-332.031250
9092,-332.031250
9093,-328.125000
9094,-328.125000
9095,-328.125000
9096,-324.218750
9097,-324.218750
9098,-320.312500
9099,-320.312500
9100,-316.406250
9101,-316.406250
9102,-312.500000
9103,-312.500000
9104,-308.593750
9105,-308.593750
9106,-304.687500
9107,-300.781250
9108,-300.781250
9109,-296.875000
9110,-296.875000
9111,-292.968750
9112,-289.062500
9113,-289.062500
9114,-285.156250
9115,-281.250000
9116,-277.343750
9117,-273.437500
9118,-273.437500
9119,-269.531250
9120,-265.625000
9121,-261.718750
9122,-257.812500
9123,-257.812500
9124,-253.906250
9125,-250.000000
9126,-246.093750
9127,-242.187500
9128,-242.187500
9129,-234.375000
9130,-230.468750
9131,-230.468750
9132,-226.562500
9133,-218.750000
9134,-218.750000
9135,-214.843750
9136,-207.031250
9137,-207.031250
9138,-203.125000
9139,-195.312500
9140,-195.312500
9141,-187.500000
9142,-183.593750
9143,-179.687500
9144,-175.781250
9145,-171.875000
9146,-167.968750
9147,-164.062500
9148,-160.156250
9149,-152.343750
9150,-152.343750
9151,-148.437500
9152,-144.531250
9153,-136.718750
9154,-132.812500
9155,-128.906250
9156,-125.000000
9157,-121.093750
9158,-117.187500
9159,-113.281250
9160,-109.375000
9161,-101.562500
9162,-97.656250
9163,-93.750000
9164,-89.843750
9165,-85.937500
9166,-82.031250
9167,-78.125000
9168,-74.218750
9169,-66.406250
9170,-66.406250
9171,-58.593750
9172,-54.687500
9173,-50.781250
9174,-46.875000
9175,-42.968750
9176,-39.062500
9177,-31.250000
9178,-27.343750
9179,-27.343750
9180,-23.437500
9181,-15.625000
9182,-11.718750
9183,-7.812500
9184,-3.906250
9185,0.000000
9186,3.906250
9187,7.812500
9188,11.718750
9189,15.625000
9190,19.531250
9191,23.437500
9192,27.343750
9193,31.250000
9194,35.156250
9195,39.062500
9196,42.968750
9197,46.875000
9198,50.781250
9199,50.781250
9200,58.593750
9201,58.593750
9202,62.500000
9203,66.406250
9204,70.312500
9205,74.218750
9206,78.125000
9207,78.125000
9208,82.031250
9209,85.937500
9210,89.843750
9211,89.843750
9212,93.750000
9213,97.656250
9214,101.562500
9215,101.562500
9216,105.468750
9217,109.375000
9218,113.281250
9219,113.281250
9220,117.187500
9221,117.187500
9222,121.093750
9223,125.000000
9224,125.000000
9225,128.906250
9226,128.906250
9227,132.812500
9228,132.812500
9229,136.718750
9230,140.625000
9231,140.625000
9232,144.531250
9233,144.531250
9234,148.437500
9235,148.437500
9236,148.437500
9237,152.343750
9238,152.343750
9239,156.250000
9240,156.250000
9241,160.156250
9242,160.156250
9243,160.156250
9244,164.062500
9245,164.062500
9246,164.062500
9247,167.968750
9248,167.968750
9249,171.875000
9250,171.875000
9251,171.875000
9252,171.875000
9253,171.875000
9254,175.781250
9255,175.781250
9256,175.781250
9257,175.781250
9258,179.687500
9259,179.687500
9260,179.687500
9261,179.687500
9262,179.687500
9263,179.687500
9264,183.593750
9265,183.593750
9266,183.593750
9267,183.593750
9268,183.593750
9269,183.593750
9270,183.593750
9271,183.593750
9272,183.593750
9273,187.500000
9274,187.500000
9275,187.500000
9276,187.500000
9277,187.500000
9278,187.500000
9279,183.593750
9280,187.500000
9281,187.500000
9282,187.500000
9283,183.593750
9284,183.593750
9285,183.593750
9286,183.593750
9287,183.593750
9288,183.593750
9289,183.593750
9290,183.593750
9291,183.593750
9292,183.593750
9293,183.593750
9294,183.593750
9295,179.687500
9296,183.593750
9297,179.687500
9298,179.687500
9299,179.687500
9300,179.687500
9301,175.781250
9302,175.781250
9303,175.781250
9304,175.781250
9305,175.781250
9306,171.875000
9307,171.875000
9308,171.875000
9309,167.968750
9310,167.968750
9311,167.968750
9312,164.062500
9313,164.062500
9314,164.062500
9315,160.156250
9316,160.156250
9317,156.250000
9318,156.250000
9319,156.250000
9320,156.250000
9321,152.343750
9322,152.343750
9323,148.437500
9324,148.437500
9325,144.531250
9326,144.531250
9327,140.625000
9328,140.625000
9329,136.718750
9330,136.718750
9331,132.812500
9332,132.812500
9333,128.906250
9334,128.906250
9335,125.000000
9336,121.093750
9337,121.093750
9338,117.187500
9339,117.187500
9340,113.281250
9341,109.375000
9342,105.468750
9343,105.468750
9344,101.562500
9345,97.656250
9346,97.656250
9347,93.750000
9348,89.843750
9349,85.937500
9350,85.937500
9351,82.031250
9352,78.125000
9353,74.218750
9354,70.312500
9355,66.406250
9356,62.500000
9357,58.593750
9358,58.593750
9359,54.687500
9360,50.781250
9361,46.875000
9362,42.968750
9363,39.062500
9364,35.156250
9365,31.250000
9366,27.343750
9367,23.437500
9368,19.531250
9369,15.625000
9370,11.718750
9371,7.812500
9372,3.906250
9373,0.000000
9374,-3.906250
9375,-7.812500
9376,-11.718750
9377,-15.625000
9378,-19.531250
9379,-23.437500
9380,-27.343750
9381,-31.250000
9382,-35.156250
9383,-39.062500
9384,-42.968750
9385,-50.781250
9386,-54.687500
9387,-58.593750
9388,-62.500000
9389,-66.406250
9390,-70.312500
9391,-74.218750
9392,-78.125000
9393,-85.937500
9394,-89.843750
9395,-93.750000
9396,-97.656250
9397,-101.562500
9398,-105.468750
9399,-109.375000
9400,-113.281250
9401,-121.093750
9402,-125.000000
9403,-128.906250
9404,-132.812500
9405,-136.718750
9406,-140.625000
9407,-144.531250
9408,-148.437500
9409,-156.250000
9410,-160.156250
9411,-164.062500
9412,-167.968750
9413,-171.875000
9414,-175.781250
9415,-179.687500
9416,-183.593750
9417,-187.500000
9418,-191.406250
9419,-195.312500
9420,-199.218750
9421,-203.125000
9422,-207.031250
9423,-210.937500
9424,-214.843750
9425,-218.750000
9426,-222.656250
9427,-226.562500
9428,-230.468750
9429,-234.375000
9430,-238.281250
9431,-242.187500
9432,-246.093750
9433,-246.093750
9434,-253.906250
9435,-253.906250
9436,-257.812500
9437,-261.718750
9438,-265.625000
9439,-265.625000
9440,-269.531250
9441,-273.437500
9442,-277.343750
9443,-277.343750
9444,-285.156250
9445,-285.156250
9446,-289.062500
9447,-289.062500
9448,-292.968750
9449,-296.875000
9450,-296.875000
9451,-300.781250
9452,-304.687500
9453,-304.687500
9454,-308.593750
9455,-308.593750
9456,-312.500000
9457,-312.500000
9458,-316.406250
9459,-316.406250
9460,-320.312500
9461,-324.218750
9462,-328.125000
9463,-328.125000
9464,-328.125000
9465,-328.125000
9466,-332.031250
9467,-332.031250
9468,-332.031250
9469,-335.937500
9470,-335.937500
9471,-335.937500
9472,-339.843750
9473,-339.843750
9474,-339.843750
9475,-339.843750
9476,-343.750000
9477,-343.750000
9478,-343.750000
9479,-343.750000
9480,-343.750000
9481,-343.750000
9482,-347.656250
9483,-347.656250
9484,-347.656250
9485,-347.656250
9486,-347.656250
9487,-347.656250
9488,-347.656250
9489,-347.656250
9490,-347.656250
9491,-347.656250
9492,-347.656250
9493,-347.656250
9494,-343.750000
9495,-347.656250
9496,-343.750000
9497,-343.750000
9498,-343.750000
9499,-343.750000
9500,-339.843750
9501,-339.843750
9502,-339.843750
9503,-339.843750
9504,-335.937500
9505,-335.937500
9506,-335.937500
9507,-332.031250
9508,-332.031250
9509,-332.031250
9510,-328.125000
9511,-328.125000
9512,-328.125000
9513,-324.218750
9514,-324.218750
9515,-320.312500
9516,-320.312500
9517,-316.406250
9518,-316.406250
9519,-316.406250
9520,-312.500000
9521,-308.593750
9522,-304.687500
9523,-304.687500
9524,-300.781250
9525,-300.781250
9526,-296.875000
9527,-292.968750
9528,-292.968750
9529,-289.062500
9530,-285.156250
9531,-285.156250
9532,-281.250000
9533,-277.343750
9534,-273.437500
9535,-273.437500
9536,-269.531250
9537,-265.625000
9538,-261.718750
9539,-257.812500
9540,-253.906250
9541,-253.906250
9542,-250.000000
9543,-246.093750
9544,-242.187500
9545,-238.281250
9546,-234.375000
9547,-230.468750
9548,-226.562500
9549,-222.656250
9550,-218.750000
9551,-214.843750
9552,-210.937500
9553,-207.031250
9554,-203.125000
9555,-199.218750
9556,-195.312500
9557,-191.406250
9558,-187.500000
9559,-183.593750
9560,-179.687500
9561,-175.781250
9562,-171.875000
9563,-167.968750
9564,-164.062500
9565,-160.156250
9566,-156.250000
9567,-152.343750
9568,-144.531250
9569,-140.625000
9570,-136.718750
9571,-132.812500
9572,-128.906250
9573,-125.000000
9574,-117.187500
9575,-113.281250
9576,-109.375000
9577,-105.468750
9578,-101.562500
9579,-97.656250
9580,-93.750000
9581,-85.937500
9582,-82.031250
9583,-78.125000
9584,-74.218750
9585,-70.312500
9586,-70.312500
9587,-62.500000
9588,-58.593750
9589,-50.781250
9590,-46.875000
9591,-42.968750
9592,-39.062500
9593,-39.062500
9594,-31.250000
9595,-27.343750
9596,-23.437500
9597,-19.531250
9598,-15.625000
9599,-11.718750
9600,-7.812500
9601,-3.906250
9602,0.000000
9603,3.906250
9604,7.812500
9605,11.718750
9606,15.625000
9607,23.437500
9608,23.437500
9609,27.343750
9610,31.250000
9611,35.156250
9612,39.062500
9613,42.968750
9614,46.875000
9615,50.781250
9616,54.687500
9617,58.593750
9618,62.500000
9619,62.500000
9620,66.406250
9621,70.312500
9622,74.218750
9623,78.125000
9624,82.031250
9625,82.031250
9626,85.937500
9627,89.843750
9628,93.750000
9629,97.656250
9630,97.656250
9631,101.562500
9632,105.468750
9633,105.468750
9634,109.375000
9635,113.281250
9636,113.281250
9637,117.187500
9638,121.093750
9639,121.093750
9640,125.000000
9641,128.906250
9642,128.906250
9643,132.812500
9644,132.812500
9645,136.718750
9646,140.625000
9647,140.625000
9648,144.531250
9649,144.531250
9650,148.437500
9651,148.437500
9652,148.437500
9653,152.343750
9654,152.343750
9655,156.250000
9656,156.250000
9657,156.250000
9658,160.156250
9659,160.156250
9660,160.156250
9661,164.062500
9662,164.062500
9663,167.968750
9664,167.968750
9665,167.968750
9666,167.968750
9667,171.875000
9668,171.875000
9669,171.875000
9670,175.781250
9671,175.781250
9672,175.781250
9673,175.781250
9674,179.687500
9675,179.687500
9676,179.687500
9677,179.687500
9678,179.687500
9679,179.687500
9680,183.593750
9681,183.593750
9682,183.593750
9683,183.593750
9684,183.593750
9685,183.593750
9686,183.593750
9687,183.593750
9688,183.593750
9689,183.593750
9690,187.500000
9691,183.593750
9692,187.500000
9693,187.500000
9694,187.500000
9695,187.500000
9696,183.593750
9697,187.500000
9698,187.500000
9699,187.500000
9700,187.500000
9701,187.500000
9702,183.593750
9703,183.593750
9704,183.593750
9705,187.500000
9706,183.593750
9707,183.593750
9708,183.593750
9709,183.593750
9710,183.593750
9711,183.593750
9712,179.687500
9713,179.687500
9714,179.687500
9715,179.687500
9716,179.687500
9717,179.687500
9718,175.781250
9719,175.781250
9720,175.781250
9721,175.781250
9722,175.781250
9723,171.875000
9724,171.875000
9725,171.875000
9726,167.968750
9727,167.968750
9728,167.968750
9729,164.062500
9730,164.062500
9731,164.062500
9732,160.156250
9733,160.156250
9734,160.156250
9735,156.250000
9736,156.250000
9737,152.343750
9738,152.343750
9739,148.437500
9740,148.437500
9741,148.437500
9742,144.531250
9743,144.531250
9744,140.625000
9745,140.625000
9746,136.718750
9747,136.718750
9748,132.812500
9749,128.906250
9750,128.906250
9751,125.000000
9752,125.000000
9753,121.093750
9754,121.093750
9755,117.187500
9756,113.281250
9757,113.281250
9758,109.375000
9759,105.468750
9760,101.562500
9761,101.562500
9762,97.656250
9763,93.750000
9764,89.843750
9765,89.843750
9766,85.937500
9767,82.031250
9768,78.125000
9769,74.218750
9770,74.218750
9771,70.312500
9772,66.406250
9773,62.500000
9774,58.593750
9775,54.687500
9776,54.687500
9777,50.781250
9778,42.968750
9779,42.968750
9780,39.062500
9781,35.156250
9782,31.250000
9783,27.343750
9784,23.437500
9785,19.531250
9786,15.625000
9787,11.718750
9788,7.812500
9789,3.906250
9790,0.000000
9791,-3.906250
9792,-7.812500
9793,-11.718750
9794,-15.625000
9795,-19.531250
9796,-23.437500
9797,-31.250000
9798,-31.250000
9799,-39.062500
9800,-42.968750
9801,-46.875000
9802,-50.781250
9803,-54.687500
9804,-58.593750
9805,-62.500000
9806,-66.406250
9807,-70.312500
9808,-78.125000
9809,-82.031250
9810,-85.937500
9811,-89.843750
9812,-93.750000
9813,-97.656250
9814,-101.562500
9815,-109.375000
9816,-113.281250
9817,-117.187500
9818,-121.093750
9819,-125.000000
9820,-125.000000
9821,-132.812500
9822,-136.718750
9823,-144.531250
9824,-148.437500
9825,-152.343750
9826,-156.250000
9827,-160.156250
9828,-164.062500
9829,-167.968750
9830,-171.875000
9831,-175.781250
9832,-179.687500
9833,-183.593750
9834,-187.500000
9835,-191.406250
9836,-195.312500
9837,-199.218750
9838,-203.125000
9839,-207.031250
9840,-210.937500
9841,-214.843750
9842,-218.750000
9843,-222.656250
9844,-226.562500
9845,-230.468750
9846,-234.375000
9847,-238.281250
9848,-242.187500
9849,-242.187500
9850,-250.000000
9851,-250.000000
9852,-253.906250
9853,-257.812500
9854,-261.718750
9855,-265.625000
9856,-269.531250
9857,-269.531250
9858,-273.437500
9859,-277.343750
9860,-281.250000
9861,-285.156250
9862,-285.156250
9863,-289.062500
9864,-292.968750
9865,-292.968750
9866,-296.875000
9867,-300.781250
9868,-300.781250
9869,-304.687500
9870,-304.687500
9871,-308.593750
9872,-312.500000
9873,-312.500000
9874,-316.406250
9875,-316.406250
9876,-320.312500
9877,-320.312500
9878,-324.218750
9879,-324.218750
9880,-328.125000
9881,-328.125000
9882,-328.125000
9883,-332.031250
9884,-332.031250
9885,-332.031250
9886,-335.937500
9887,-335.937500
9888,-339.843750
9889,-339.843750
9890,-339.843750
9891,-339.843750
9892,-339.843750
9893,-343.750000
9894,-343.750000
9895,-343.750000
9896,-343.750000
9897,-343.750000
9898,-343.750000
9899,-343.750000
9900,-347.656250
9901,-347.656250
9902,-347.656250
9903,-347.656250
9904,-347.656250
9905,-347.656250
9906,-347.656250
9907,-343.750000
9908,-347.656250
9909,-343.750000
9910,-347.656250
9911,-343.750000
9912,-343.750000
9913,-343.750000
9914,-343.750000
9915,-343.750000
9916,-343.750000
9917,-339.843750
9918,-339.843750
9919,-339.843750
9920,-339.843750
9921,-335.937500
9922,-335.937500
9923,-335.937500
9924,-332.031250
9925,-332.031250
9926,-332.031250
9927,-328.125000
9928,-328.125000
9929,-324.218750
9930,-324.218750
9931,-320.312500
9932,-320.312500
9933,-320.312500
9934,-316.406250
9935,-316.406250
9936,-312.500000
9937,-308.593750
9938,-308.593750
9939,-308.593750
9940,-304.687500
9941,-300.781250
9942,-300.781250
9943,-296.875000
9944,-296.875000
9945,-292.968750
9946,-289.062500
9947,-285.156250
9948,-285.156250
9949,-281.250000
9950,-277.343750
9951,-273.437500
9952,-269.531250
9953,-269.531250
9954,-265.625000
9955,-261.718750
9956,-257.812500
9957,-253.906250
9958,-250.000000
9959,-250.000000
9960,-246.093750
9961,-242.187500
9962,-238.281250
9963,-234.375000
9964,-230.468750
9965,-226.562500
9966,-222.656250
9967,-218.750000
9968,-214.843750
9969,-210.937500
9970,-207.031250
9971,-203.125000
9972,-199.218750
9973,-195.312500
9974,-191.406250
9975,-187.500000
9976,-183.593750
9977,-179.687500
9978,-175.781250
9979,-171.875000
9980,-167.968750
9981,-160.156250
9982,-156.250000
9983,-152.343750
9984,-148.437500
9985,-144.531250
9986,-140.625000
9987,-136.718750
9988,-132.812500
9989,-125.000000
9990,-125.000000
9991,-117.187500
9992,-113.281250
9993,-109.375000
9994,-105.468750
9995,-101.562500
9996,-97.656250
9997,-93.750000
9998,-89.843750
9999,-82.031250
10000,-78.125000
