Channel              :,CH1
Frequency            :,924.2Hz
Period               :,1.082ms
PK-PK                :,21.48mV
Probe attenuation    :,1X
Voltage per ADC value:,0.122070mV
Time interval        :,2.00000us

index,CH1_Voltage(mV)
1,-1.953125
2,-1.953125
3,-1.953125
4,-1.953125
5,-1.953125
6,-1.953125
7,-3.906250
8,-3.906250
9,-3.906250
10,-3.906250
11,-3.906250
12,-3.906250
13,-3.906250
14,-3.906250
15,-3.906250
16,-3.906250
17,-3.906250
18,-3.906250
19,-3.906250
20,-3.906250
21,-5.859375
22,-5.859375
23,-5.859375
24,-5.859375
25,-5.859375
26,-5.859375
27,-5.859375
28,-5.859375
29,-5.859375
30,-5.859375
31,-7.812500
32,-7.812500
33,-7.812500
34,-7.812500
35,-7.812500
36,-7.812500
37,-7.812500
38,-7.812500
39,-7.812500
40,-7.812500
41,-7.812500
42,-9.765625
43,-9.765625
44,-9.765625
45,-7.812500
46,-9.765625
47,-9.765625
48,-9.765625
49,-9.765625
50,-9.765625
51,-9.765625
52,-9.765625
53,-9.765625
54,-9.765625
55,-9.765625
56,-9.765625
57,-9.765625
58,-11.718750
59,-11.718750
60,-11.718750
61,-11.718750
62,-11.718750
63,-11.718750
64,-11.718750
65,-11.718750
66,-11.718750
67,-11.718750
68,-11.718750
69,-11.718750
70,-11.718750
71,-13.671875
72,-11.718750
73,-13.671875
74,-13.671875
75,-11.718750
76,-11.718750
77,-13.671875
78,-11.718750
79,-13.671875
80,-13.671875
81,-13.671875
82,-13.671875
83,-13.671875
84,-11.718750
85,-13.671875
86,-11.718750
87,-11.718750
88,-13.671875
89,-13.671875
90,-11.718750
91,-13.671875
92,-13.671875
93,-13.671875
94,-13.671875
95,-13.671875
96,-13.671875
97,-13.671875
98,-13.671875
99,-13.671875
100,-13.671875
101,-13.671875
102,-13.671875
103,-11.718750
104,-11.718750
105,-13.671875
106,-11.718750
107,-11.718750
108,-11.718750
109,-11.718750
110,-11.718750
111,-11.718750
112,-11.718750
113,-11.718750
114,-11.718750
115,-11.718750
116,-11.718750
117,-11.718750
118,-11.718750
119,-11.718750
120,-11.718750
121,-11.718750
122,-11.718750
123,-9.765625
124,-11.718750
125,-11.718750
126,-11.718750
127,-11.718750
128,-11.718750
129,-9.765625
130,-9.765625
131,-9.765625
132,-9.765625
133,-9.765625
134,-9.765625
135,-9.765625
136,-9.765625
137,-9.765625
138,-9.765625
139,-9.765625
140,-7.812500
141,-7.812500
142,-7.812500
143,-7.812500
144,-7.812500
145,-7.812500
146,-7.812500
147,-7.812500
148,-7.812500
149,-5.859375
150,-7.812500
151,-7.812500
152,-7.812500
153,-5.859375
154,-5.859375
155,-5.859375
156,-5.859375
157,-5.859375
158,-5.859375
159,-5.859375
160,-3.906250
161,-3.906250
162,-3.906250
163,-3.906250
164,-5.859375
165,-3.906250
166,-3.906250
167,-3.906250
168,-3.906250
169,-3.906250
170,-3.906250
171,-1.953125
172,-1.953125
173,-1.953125
174,-1.953125
175,-1.953125
176,-1.953125
177,-1.953125
178,-1.953125
179,-1.953125
180,-1.953125
181,-1.953125
182,-1.953125
183,-1.953125
184,0.000000
185,0.000000
186,0.000000
187,0.000000
188,0.000000
189,0.000000
190,0.000000
191,0.000000
192,0.000000
193,0.000000
194,0.000000
195,0.000000
196,0.000000
197,1.953125
198,1.953125
199,1.953125
200,1.953125
201,1.953125
202,1.953125
203,1.953125
204,1.953125
205,1.953125
206,1.953125
207,1.953125
208,1.953125
209,1.953125
210,1.953125
211,1.953125
212,3.906250
213,1.953125
214,3.906250
215,1.953125
216,3.906250
217,3.906250
218,3.906250
219,3.906250
220,3.906250
221,3.906250
222,3.906250
223,3.906250
224,3.906250
225,3.906250
226,3.906250
227,3.906250
228,3.906250
229,3.906250
230,3.906250
231,3.906250
232,3.906250
233,3.906250
234,3.906250
235,3.906250
236,3.906250
237,3.906250
238,3.906250
239,3.906250
240,3.906250
241,3.906250
242,3.906250
243,3.906250
244,3.906250
245,3.906250
246,3.906250
247,1.953125
248,3.906250
249,3.906250
250,1.953125
251,1.953125
252,1.953125
253,3.906250
254,1.953125
255,1.953125
256,1.953125
257,1.953125
258,1.953125
259,1.953125
260,1.953125
261,1.953125
262,1.953125
263,1.953125
264,1.953125
265,1.953125
266,1.953125
267,1.953125
268,0.000000
269,0.000000
270,0.000000
271,0.000000
272,0.000000
273,0.000000
274,0.000000
275,0.000000
276,0.000000
277,0.000000
278,0.000000
279,0.000000
280,0.000000
281,0.000000
282,0.000000
283,-1.953125
284,0.000000
285,-3.906250
286,-1.953125
287,-1.953125
288,-1.953125
289,-1.953125
290,-1.953125
291,-1.953125
292,-1.953125
293,-1.953125
294,-3.906250
295,-3.906250
296,-3.906250
297,-3.906250
298,-3.906250
299,-3.906250
300,-3.906250
301,-3.906250
302,-3.906250
303,-3.906250
304,-3.906250
305,-5.859375
306,-3.906250
307,-5.859375
308,-3.906250
309,-5.859375
310,-5.859375
311,-5.859375
312,-5.859375
313,-5.859375
314,-5.859375
315,-5.859375
316,-7.812500
317,-7.812500
318,-7.812500
319,-7.812500
320,-7.812500
321,-7.812500
322,-7.812500
323,-7.812500
324,-7.812500
325,-9.765625
326,-7.812500
327,-9.765625
328,-9.765625
329,-9.765625
330,-9.765625
331,-9.765625
332,-9.765625
333,-9.765625
334,-9.765625
335,-9.765625
336,-9.765625
337,-9.765625
338,-9.765625
339,-9.765625
340,-11.718750
341,-9.765625
342,-9.765625
343,-11.718750
344,-11.718750
345,-11.718750
346,-11.718750
347,-11.718750
348,-11.718750
349,-11.718750
350,-11.718750
351,-11.718750
352,-11.718750
353,-11.718750
354,-11.718750
355,-11.718750
356,-11.718750
357,-11.718750
358,-11.718750
359,-11.718750
360,-11.718750
361,-11.718750
362,-11.718750
363,-13.671875
364,-13.671875
365,-11.718750
366,-11.718750
367,-13.671875
368,-13.671875
369,-11.718750
370,-13.671875
371,-11.718750
372,-11.718750
373,-13.671875
374,-13.671875
375,-13.671875
376,-13.671875
377,-13.671875
378,-13.671875
379,-11.718750
380,-13.671875
381,-13.671875
382,-11.718750
383,-13.671875
384,-13.671875
385,-13.671875
386,-11.718750
387,-11.718750
388,-13.671875
389,-11.718750
390,-11.718750
391,-11.718750
392,-11.718750
393,-11.718750
394,-11.718750
395,-11.718750
396,-11.718750
397,-11.718750
398,-11.718750
399,-11.718750
400,-11.718750
401,-11.718750
402,-11.718750
403,-11.718750
404,-11.718750
405,-11.718750
406,-9.765625
407,-11.718750
408,-11.718750
409,-9.765625
410,-9.765625
411,-9.765625
412,-9.765625
413,-9.765625
414,-9.765625
415,-9.765625
416,-9.765625
417,-9.765625
418,-9.765625
419,-9.765625
420,-9.765625
421,-9.765625
422,-7.812500
423,-7.812500
424,-7.812500
425,-7.812500
426,-7.812500
427,-7.812500
428,-7.812500
429,-7.812500
430,-7.812500
431,-5.859375
432,-7.812500
433,-5.859375
434,-5.859375
435,-7.812500
436,-5.859375
437,-5.859375
438,-5.859375
439,-5.859375
440,-5.859375
441,-5.859375
442,-5.859375
443,-5.859375
444,-5.859375
445,-3.906250
446,-3.906250
447,-3.906250
448,-3.906250
449,-3.906250
450,-3.906250
451,-3.906250
452,-3.906250
453,-3.906250
454,-3.906250
455,-3.906250
456,-1.953125
457,-3.906250
458,-1.953125
459,-3.906250
460,-1.953125
461,-1.953125
462,-1.953125
463,-1.953125
464,-1.953125
465,0.000000
466,-1.953125
467,0.000000
468,-1.953125
469,0.000000
470,0.000000
471,0.000000
472,0.000000
473,0.000000
474,0.000000
475,0.000000
476,1.953125
477,0.000000
478,1.953125
479,0.000000
480,0.000000
481,1.953125
482,1.953125
483,1.953125
484,1.953125
485,1.953125
486,1.953125
487,1.953125
488,1.953125
489,1.953125
490,1.953125
491,1.953125
492,1.953125
493,1.953125
494,1.953125
495,1.953125
496,1.953125
497,3.906250
498,3.906250
499,1.953125
500,1.953125
501,1.953125
502,1.953125
503,3.906250
504,3.906250
505,1.953125
506,3.906250
507,1.953125
508,3.906250
509,3.906250
510,3.906250
511,1.953125
512,1.953125
513,1.953125
514,3.906250
515,3.906250
516,3.906250
517,3.906250
518,1.953125
519,1.953125
520,1.953125
521,3.906250
522,1.953125
523,3.906250
524,3.906250
525,1.953125
526,1.953125
527,3.906250
528,1.953125
529,1.953125
530,1.953125
531,1.953125
532,1.953125
533,1.953125
534,1.953125
535,1.953125
536,1.953125
537,1.953125
538,1.953125
539,1.953125
540,1.953125
541,1.953125
542,1.953125
543,1.953125
544,1.953125
545,1.953125
546,1.953125
547,1.953125
548,1.953125
549,1.953125
550,1.953125
551,0.000000
552,0.000000
553,0.000000
554,1.953125
555,0.000000
556,0.000000
557,0.000000
558,0.000000
559,0.000000
560,0.000000
561,0.000000
562,0.000000
563,0.000000
564,0.000000
565,-1.953125
566,-1.953125
567,-1.953125
568,-1.953125
569,-1.953125
570,-1.953125
571,-1.953125
572,-1.953125
573,-3.906250
574,-1.953125
575,-3.906250
576,-1.953125
577,-3.906250
578,-3.906250
579,-3.906250
580,-3.906250
581,-3.906250
582,-3.906250
583,-3.906250
584,-3.906250
585,-5.859375
586,-3.906250
587,-3.906250
588,-5.859375
589,-5.859375
590,-5.859375
591,-5.859375
592,-5.859375
593,-5.859375
594,-5.859375
595,-7.812500
596,-5.859375
597,-7.812500
598,-7.812500
599,-5.859375
600,-7.812500
601,-7.812500
602,-7.812500
603,-7.812500
604,-7.812500
605,-7.812500
606,-7.812500
607,-7.812500
608,-7.812500
609,-7.812500
610,-9.765625
611,-7.812500
612,-7.812500
613,-9.765625
614,-9.765625
615,-9.765625
616,-9.765625
617,-9.765625
618,-9.765625
619,-9.765625
620,-9.765625
621,-9.765625
622,-11.718750
623,-9.765625
624,-9.765625
625,-11.718750
626,-11.718750
627,-11.718750
628,-9.765625
629,-11.718750
630,-11.718750
631,-11.718750
632,-11.718750
633,-11.718750
634,-11.718750
635,-11.718750
636,-11.718750
637,-11.718750
638,-13.671875
639,-11.718750
640,-11.718750
641,-13.671875
642,-13.671875
643,-13.671875
644,-11.718750
645,-11.718750
646,-11.718750
647,-13.671875
648,-11.718750
649,-13.671875
650,-13.671875
651,-13.671875
652,-13.671875
653,-13.671875
654,-13.671875
655,-13.671875
656,-13.671875
657,-13.671875
658,-13.671875
659,-13.671875
660,-13.671875
661,-13.671875
662,-13.671875
663,-13.671875
664,-13.671875
665,-13.671875
666,-13.671875
667,-13.671875
668,-13.671875
669,-13.671875
670,-13.671875
671,-11.718750
672,-13.671875
673,-11.718750
674,-11.718750
675,-11.718750
676,-13.671875
677,-11.718750
678,-9.765625
679,-13.671875
680,-11.718750
681,-13.671875
682,-11.718750
683,-11.718750
684,-11.718750
685,-11.718750
686,-11.718750
687,-11.718750
688,-11.718750
689,-11.718750
690,-11.718750
691,-11.718750
692,-11.718750
693,-11.718750
694,-9.765625
695,-9.765625
696,-11.718750
697,-9.765625
698,-9.765625
699,-9.765625
700,-9.765625
701,-9.765625
702,-9.765625
703,-9.765625
704,-9.765625
705,-9.765625
706,-7.812500
707,-9.765625
708,-7.812500
709,-7.812500
710,-7.812500
711,-7.812500
712,-9.765625
713,-7.812500
714,-7.812500
715,-5.859375
716,-7.812500
717,-7.812500
718,-7.812500
719,-7.812500
720,-5.859375
721,-5.859375
722,-5.859375
723,-5.859375
724,-5.859375
725,-5.859375
726,-5.859375
727,-5.859375
728,-5.859375
729,-3.906250
730,-3.906250
731,-3.906250
732,-3.906250
733,-3.906250
734,-3.906250
735,-3.906250
736,-3.906250
737,-3.906250
738,-3.906250
739,-1.953125
740,-1.953125
741,-1.953125
742,-1.953125
743,-1.953125
744,-1.953125
745,-1.953125
746,-1.953125
747,-1.953125
748,-1.953125
749,0.000000
750,0.000000
751,0.000000
752,0.000000
753,0.000000
754,0.000000
755,0.000000
756,0.000000
757,0.000000
758,0.000000
759,0.000000
760,0.000000
761,1.953125
762,0.000000
763,0.000000
764,1.953125
765,1.953125
766,1.953125
767,1.953125
768,1.953125
769,1.953125
770,1.953125
771,1.953125
772,1.953125
773,1.953125
774,1.953125
775,1.953125
776,1.953125
777,1.953125
778,1.953125
779,1.953125
780,1.953125
781,1.953125
782,1.953125
783,1.953125
784,3.906250
785,3.906250
786,1.953125
787,1.953125
788,3.906250
789,3.906250
790,3.906250
791,3.906250
792,3.906250
793,3.906250
794,3.906250
795,3.906250
796,3.906250
797,3.906250
798,3.906250
799,3.906250
800,3.906250
801,3.906250
802,3.906250
803,3.906250
804,3.906250
805,3.906250
806,3.906250
807,3.906250
808,3.906250
809,3.906250
810,3.906250
811,1.953125
812,3.906250
813,3.906250
814,1.953125
815,3.906250
816,3.906250
817,3.906250
818,3.906250
819,3.906250
820,1.953125
821,1.953125
822,1.953125
823,1.953125
824,1.953125
825,1.953125
826,1.953125
827,1.953125
828,1.953125
829,1.953125
830,1.953125
831,1.953125
832,1.953125
833,1.953125
834,0.000000
835,0.000000
836,0.000000
837,0.000000
838,0.000000
839,0.000000
840,0.000000
841,0.000000
842,0.000000
843,-1.953125
844,0.000000
845,0.000000
846,-1.953125
847,0.000000
848,0.000000
849,-1.953125
850,-1.953125
851,-1.953125
852,0.000000
853,-1.953125
854,-1.953125
855,-1.953125
856,-1.953125
857,-1.953125
858,-1.953125
859,-1.953125
860,-1.953125
861,-1.953125
862,-1.953125
863,-3.906250
864,-3.906250
865,-3.906250
866,-3.906250
867,-3.906250
868,-3.906250
869,-3.906250
870,-3.906250
871,-5.859375
872,-3.906250
873,-3.906250
874,-3.906250
875,-5.859375
876,-5.859375
877,-5.859375
878,-5.859375
879,-5.859375
880,-5.859375
881,-5.859375
882,-5.859375
883,-5.859375
884,-7.812500
885,-7.812500
886,-7.812500
887,-7.812500
888,-7.812500
889,-7.812500
890,-7.812500
891,-7.812500
892,-7.812500
893,-7.812500
894,-9.765625
895,-7.812500
896,-9.765625
897,-9.765625
898,-9.765625
899,-9.765625
900,-9.765625
901,-9.765625
902,-9.765625
903,-9.765625
904,-9.765625
905,-9.765625
906,-9.765625
907,-9.765625
908,-11.718750
909,-11.718750
910,-11.718750
911,-11.718750
912,-11.718750
913,-11.718750
914,-11.718750
915,-11.718750
916,-11.718750
917,-11.718750
918,-11.718750
919,-11.718750
920,-11.718750
921,-11.718750
922,-11.718750
923,-11.718750
924,-11.718750
925,-11.718750
926,-13.671875
927,-11.718750
928,-13.671875
929,-11.718750
930,-13.671875
931,-13.671875
932,-11.718750
933,-13.671875
934,-11.718750
935,-13.671875
936,-13.671875
937,-13.671875
938,-11.718750
939,-13.671875
940,-13.671875
941,-13.671875
942,-13.671875
943,-13.671875
944,-13.671875
945,-13.671875
946,-13.671875
947,-13.671875
948,-13.671875
949,-13.671875
950,-13.671875
951,-13.671875
952,-13.671875
953,-13.671875
954,-13.671875
955,-13.671875
956,-13.671875
957,-13.671875
958,-11.718750
959,-13.671875
960,-13.671875
961,-13.671875
962,-13.671875
963,-11.718750
964,-11.718750
965,-11.718750
966,-11.718750
967,-11.718750
968,-11.718750
969,-11.718750
970,-11.718750
971,-11.718750
972,-11.718750
973,-11.718750
974,-11.718750
975,-11.718750
976,-11.718750
977,-11.718750
978,-11.718750
979,-11.718750
980,-9.765625
981,-9.765625
982,-9.765625
983,-9.765625
984,-9.765625
985,-9.765625
986,-9.765625
987,-9.765625
988,-9.765625
989,-7.812500
990,-9.765625
991,-7.812500
992,-7.812500
993,-7.812500
994,-7.812500
995,-7.812500
996,-7.812500
997,-7.812500
998,-7.812500
999,-7.812500
1000,-7.812500
1001,-5.859375
1002,-7.812500
1003,-7.812500
1004,-5.859375
1005,-5.859375
1006,-5.859375
1007,-5.859375
1008,-5.859375
1009,-5.859375
1010,-5.859375
1011,-5.859375
1012,-5.859375
1013,-3.906250
1014,-3.906250
1015,-3.906250
1016,-3.906250
1017,-3.906250
1018,-3.906250
1019,-3.906250
1020,-3.906250
1021,-3.906250
1022,-3.906250
1023,-3.906250
1024,-3.906250
1025,-1.953125
1026,-1.953125
1027,-1.953125
1028,-1.953125
1029,-1.953125
1030,-1.953125
1031,-1.953125
1032,-1.953125
1033,-1.953125
1034,-1.953125
1035,0.000000
1036,-1.953125
1037,0.000000
1038,0.000000
1039,0.000000
1040,0.000000
1041,0.000000
1042,0.000000
1043,0.000000
1044,0.000000
1045,0.000000
1046,0.000000
1047,0.000000
1048,0.000000
1049,0.000000
1050,0.000000
1051,1.953125
1052,1.953125
1053,0.000000
1054,1.953125
1055,1.953125
1056,1.953125
1057,1.953125
1058,1.953125
1059,1.953125
1060,1.953125
1061,1.953125
1062,1.953125
1063,1.953125
1064,3.906250
1065,1.953125
1066,1.953125
1067,3.906250
1068,1.953125
1069,1.953125
1070,1.953125
1071,1.953125
1072,3.906250
1073,1.953125
1074,3.906250
1075,3.906250
1076,3.906250
1077,3.906250
1078,3.906250
1079,3.906250
1080,1.953125
1081,3.906250
1082,3.906250
1083,1.953125
1084,3.906250
1085,1.953125
1086,3.906250
1087,3.906250
1088,1.953125
1089,3.906250
1090,3.906250
1091,1.953125
1092,3.906250
1093,1.953125
1094,1.953125
1095,1.953125
1096,3.906250
1097,1.953125
1098,1.953125
1099,1.953125
1100,1.953125
1101,1.953125
1102,1.953125
1103,1.953125
1104,1.953125
1105,1.953125
1106,1.953125
1107,1.953125
1108,1.953125
1109,1.953125
1110,1.953125
1111,1.953125
1112,1.953125
1113,1.953125
1114,1.953125
1115,1.953125
1116,1.953125
1117,0.000000
1118,0.000000
1119,1.953125
1120,1.953125
1121,0.000000
1122,0.000000
1123,0.000000
1124,0.000000
1125,0.000000
1126,0.000000
1127,0.000000
1128,0.000000
1129,0.000000
1130,0.000000
1131,0.000000
1132,0.000000
1133,-1.953125
1134,-1.953125
1135,0.000000
1136,-1.953125
1137,-1.953125
1138,-1.953125
1139,-1.953125
1140,-1.953125
1141,-1.953125
1142,-1.953125
1143,-1.953125
1144,-1.953125
1145,-1.953125
1146,-3.906250
1147,-1.953125
1148,-3.906250
1149,-3.906250
1150,-3.906250
1151,-3.906250
1152,-3.906250
1153,-3.906250
1154,-5.859375
1155,-5.859375
1156,-3.906250
1157,-3.906250
1158,-5.859375
1159,-5.859375
1160,-5.859375
1161,-5.859375
1162,-5.859375
1163,-5.859375
1164,-5.859375
1165,-7.812500
1166,-7.812500
1167,-5.859375
1168,-7.812500
1169,-7.812500
1170,-7.812500
1171,-7.812500
1172,-7.812500
1173,-7.812500
1174,-7.812500
1175,-7.812500
1176,-9.765625
1177,-9.765625
1178,-9.765625
1179,-9.765625
1180,-9.765625
1181,-9.765625
1182,-9.765625
1183,-9.765625
1184,-9.765625
1185,-9.765625
1186,-9.765625
1187,-9.765625
1188,-9.765625
1189,-9.765625
1190,-9.765625
1191,-9.765625
1192,-9.765625
1193,-9.765625
1194,-11.718750
1195,-11.718750
1196,-9.765625
1197,-11.718750
1198,-11.718750
1199,-11.718750
1200,-11.718750
1201,-11.718750
1202,-11.718750
1203,-11.718750
1204,-11.718750
1205,-11.718750
1206,-11.718750
1207,-11.718750
1208,-11.718750
1209,-11.718750
1210,-11.718750
1211,-13.671875
1212,-13.671875
1213,-11.718750
1214,-13.671875
1215,-13.671875
1216,-13.671875
1217,-13.671875
1218,-11.718750
1219,-13.671875
1220,-13.671875
1221,-13.671875
1222,-13.671875
1223,-13.671875
1224,-13.671875
1225,-13.671875
1226,-13.671875
1227,-13.671875
1228,-13.671875
1229,-13.671875
1230,-13.671875
1231,-13.671875
1232,-13.671875
1233,-13.671875
1234,-13.671875
1235,-13.671875
1236,-13.671875
1237,-13.671875
1238,-11.718750
1239,-13.671875
1240,-11.718750
1241,-13.671875
1242,-11.718750
1243,-13.671875
1244,-11.718750
1245,-11.718750
1246,-11.718750
1247,-11.718750
1248,-11.718750
1249,-11.718750
1250,-11.718750
1251,-11.718750
1252,-11.718750
1253,-11.718750
1254,-11.718750
1255,-11.718750
1256,-11.718750
1257,-11.718750
1258,-11.718750
1259,-11.718750
1260,-11.718750
1261,-11.718750
1262,-9.765625
1263,-9.765625
1264,-9.765625
1265,-9.765625
1266,-9.765625
1267,-9.765625
1268,-9.765625
1269,-9.765625
1270,-9.765625
1271,-9.765625
1272,-9.765625
1273,-9.765625
1274,-7.812500
1275,-9.765625
1276,-9.765625
1277,-7.812500
1278,-7.812500
1279,-7.812500
1280,-7.812500
1281,-7.812500
1282,-7.812500
1283,-7.812500
1284,-7.812500
1285,-7.812500
1286,-7.812500
1287,-7.812500
1288,-5.859375
1289,-5.859375
1290,-5.859375
1291,-5.859375
1292,-5.859375
1293,-5.859375
1294,-5.859375
1295,-5.859375
1296,-5.859375
1297,-5.859375
1298,-5.859375
1299,-3.906250
1300,-3.906250
1301,-3.906250
1302,-3.906250
1303,-3.906250
1304,-3.906250
1305,-3.906250
1306,-3.906250
1307,-1.953125
1308,-3.906250
1309,-3.906250
1310,-1.953125
1311,-1.953125
1312,-1.953125
1313,-1.953125
1314,-1.953125
1315,-1.953125
1316,-1.953125
1317,-1.953125
1318,0.000000
1319,-1.953125
1320,-1.953125
1321,0.000000
1322,0.000000
1323,0.000000
1324,0.000000
1325,0.000000
1326,0.000000
1327,0.000000
1328,1.953125
1329,0.000000
1330,0.000000
1331,0.000000
1332,1.953125
1333,1.953125
1334,1.953125
1335,1.953125
1336,0.000000
1337,1.953125
1338,1.953125
1339,1.953125
1340,1.953125
1341,1.953125
1342,1.953125
1343,1.953125
1344,1.953125
1345,1.953125
1346,1.953125
1347,1.953125
1348,1.953125
1349,1.953125
1350,1.953125
1351,3.906250
1352,1.953125
1353,1.953125
1354,1.953125
1355,1.953125
1356,1.953125
1357,1.953125
1358,3.906250
1359,3.906250
1360,1.953125
1361,1.953125
1362,3.906250
1363,3.906250
1364,3.906250
1365,1.953125
1366,3.906250
1367,1.953125
1368,1.953125
1369,3.906250
1370,3.906250
1371,3.906250
1372,3.906250
1373,3.906250
1374,3.906250
1375,3.906250
1376,3.906250
1377,3.906250
1378,3.906250
1379,3.906250
1380,3.906250
1381,3.906250
1382,1.953125
1383,3.906250
1384,3.906250
1385,3.906250
1386,1.953125
1387,1.953125
1388,3.906250
1389,1.953125
1390,3.906250
1391,3.906250
1392,1.953125
1393,1.953125
1394,1.953125
1395,1.953125
1396,1.953125
1397,1.953125
1398,1.953125
1399,1.953125
1400,3.906250
1401,1.953125
1402,0.000000
1403,1.953125
1404,0.000000
1405,0.000000
1406,0.000000
1407,0.000000
1408,0.000000
1409,0.000000
1410,0.000000
1411,0.000000
1412,0.000000
1413,0.000000
1414,-1.953125
1415,0.000000
1416,0.000000
1417,-1.953125
1418,-1.953125
1419,-1.953125
1420,-1.953125
1421,-1.953125
1422,-1.953125
1423,-1.953125
1424,-1.953125
1425,-1.953125
1426,-1.953125
1427,-1.953125
1428,-3.906250
1429,-1.953125
1430,-3.906250
1431,-3.906250
1432,-3.906250
1433,-1.953125
1434,-3.906250
1435,-3.906250
1436,-3.906250
1437,-3.906250
1438,-3.906250
1439,-3.906250
1440,-5.859375
1441,-5.859375
1442,-5.859375
1443,-5.859375
1444,-5.859375
1445,-5.859375
1446,-5.859375
1447,-5.859375
1448,-5.859375
1449,-5.859375
1450,-5.859375
1451,-5.859375
1452,-7.812500
1453,-7.812500
1454,-7.812500
1455,-7.812500
1456,-7.812500
1457,-7.812500
1458,-7.812500
1459,-7.812500
1460,-7.812500
1461,-9.765625
1462,-7.812500
1463,-7.812500
1464,-7.812500
1465,-9.765625
1466,-7.812500
1467,-9.765625
1468,-9.765625
1469,-9.765625
1470,-9.765625
1471,-9.765625
1472,-9.765625
1473,-9.765625
1474,-9.765625
1475,-9.765625
1476,-11.718750
1477,-9.765625
1478,-11.718750
1479,-11.718750
1480,-11.718750
1481,-11.718750
1482,-11.718750
1483,-11.718750
1484,-11.718750
1485,-11.718750
1486,-11.718750
1487,-11.718750
1488,-11.718750
1489,-11.718750
1490,-13.671875
1491,-11.718750
1492,-11.718750
1493,-13.671875
1494,-11.718750
1495,-13.671875
1496,-11.718750
1497,-13.671875
1498,-13.671875
1499,-11.718750
1500,-13.671875
1501,-13.671875
1502,-13.671875
1503,-13.671875
1504,-13.671875
1505,-13.671875
1506,-13.671875
1507,-13.671875
1508,-13.671875
1509,-13.671875
1510,-13.671875
1511,-13.671875
1512,-13.671875
1513,-13.671875
1514,-13.671875
1515,-13.671875
1516,-11.718750
1517,-13.671875
1518,-13.671875
1519,-13.671875
1520,-13.671875
1521,-11.718750
1522,-11.718750
1523,-11.718750
1524,-13.671875
1525,-11.718750
1526,-11.718750
1527,-11.718750
1528,-11.718750
1529,-11.718750
1530,-11.718750
1531,-11.718750
1532,-11.718750
1533,-11.718750
1534,-11.718750
1535,-11.718750
1536,-11.718750
1537,-11.718750
1538,-11.718750
1539,-11.718750
1540,-11.718750
1541,-11.718750
1542,-11.718750
1543,-11.718750
1544,-11.718750
1545,-11.718750
1546,-9.765625
1547,-9.765625
1548,-9.765625
1549,-9.765625
1550,-9.765625
1551,-9.765625
1552,-9.765625
1553,-9.765625
1554,-9.765625
1555,-9.765625
1556,-9.765625
1557,-9.765625
1558,-9.765625
1559,-9.765625
1560,-9.765625
1561,-7.812500
1562,-7.812500
1563,-7.812500
1564,-7.812500
1565,-7.812500
1566,-7.812500
1567,-7.812500
1568,-7.812500
1569,-5.859375
1570,-7.812500
1571,-5.859375
1572,-7.812500
1573,-5.859375
1574,-5.859375
1575,-5.859375
1576,-5.859375
1577,-5.859375
1578,-5.859375
1579,-5.859375
1580,-3.906250
1581,-3.906250
1582,-3.906250
1583,-3.906250
1584,-3.906250
1585,-3.906250
1586,-3.906250
1587,-3.906250
1588,-3.906250
1589,-3.906250
1590,-1.953125
1591,-3.906250
1592,-1.953125
1593,-1.953125
1594,-1.953125
1595,-1.953125
1596,-1.953125
1597,-1.953125
1598,-1.953125
1599,-1.953125
1600,-1.953125
1601,0.000000
1602,-1.953125
1603,-1.953125
1604,0.000000
1605,0.000000
1606,0.000000
1607,0.000000
1608,0.000000
1609,0.000000
1610,0.000000
1611,0.000000
1612,1.953125
1613,0.000000
1614,0.000000
1615,1.953125
1616,0.000000
1617,1.953125
1618,0.000000
1619,1.953125
1620,1.953125
1621,1.953125
1622,1.953125
1623,1.953125
1624,1.953125
1625,1.953125
1626,1.953125
1627,1.953125
1628,1.953125
1629,1.953125
1630,1.953125
1631,1.953125
1632,3.906250
1633,3.906250
1634,1.953125
1635,0.000000
1636,1.953125
1637,3.906250
1638,3.906250
1639,1.953125
1640,3.906250
1641,3.906250
1642,3.906250
1643,3.906250
1644,3.906250
1645,3.906250
1646,3.906250
1647,3.906250
1648,3.906250
1649,3.906250
1650,3.906250
1651,3.906250
1652,3.906250
1653,3.906250
1654,3.906250
1655,3.906250
1656,3.906250
1657,3.906250
1658,3.906250
1659,3.906250
1660,3.906250
1661,3.906250
1662,3.906250
1663,3.906250
1664,3.906250
1665,3.906250
1666,3.906250
1667,3.906250
1668,1.953125
1669,1.953125
1670,1.953125
1671,1.953125
1672,1.953125
1673,1.953125
1674,1.953125
1675,1.953125
1676,1.953125
1677,1.953125
1678,1.953125
1679,1.953125
1680,1.953125
1681,1.953125
1682,1.953125
1683,1.953125
1684,1.953125
1685,1.953125
1686,1.953125
1687,1.953125
1688,0.000000
1689,0.000000
1690,0.000000
1691,1.953125
1692,0.000000
1693,0.000000
1694,0.000000
1695,0.000000
1696,0.000000
1697,0.000000
1698,0.000000
1699,0.000000
1700,0.000000
1701,-1.953125
1702,-1.953125
1703,0.000000
1704,0.000000
1705,-1.953125
1706,-1.953125
1707,-1.953125
1708,-1.953125
1709,-1.953125
1710,-1.953125
1711,-1.953125
1712,-1.953125
1713,-1.953125
1714,-3.906250
1715,-3.906250
1716,-1.953125
1717,-3.906250
1718,-3.906250
1719,-3.906250
1720,-3.906250
1721,-3.906250
1722,-3.906250
1723,-3.906250
1724,-3.906250
1725,-3.906250
1726,-5.859375
1727,-5.859375
1728,-5.859375
1729,-5.859375
1730,-5.859375
1731,-5.859375
1732,-5.859375
1733,-5.859375
1734,-5.859375
1735,-7.812500
1736,-5.859375
1737,-5.859375
1738,-7.812500
1739,-7.812500
1740,-7.812500
1741,-7.812500
1742,-7.812500
1743,-7.812500
1744,-7.812500
1745,-7.812500
1746,-9.765625
1747,-7.812500
1748,-9.765625
1749,-9.765625
1750,-9.765625
1751,-9.765625
1752,-9.765625
1753,-9.765625
1754,-9.765625
1755,-9.765625
1756,-9.765625
1757,-9.765625
1758,-9.765625
1759,-11.718750
1760,-9.765625
1761,-11.718750
1762,-11.718750
1763,-9.765625
1764,-11.718750
1765,-11.718750
1766,-11.718750
1767,-11.718750
1768,-11.718750
1769,-11.718750
1770,-11.718750
1771,-11.718750
1772,-11.718750
1773,-11.718750
1774,-11.718750
1775,-11.718750
1776,-11.718750
1777,-11.718750
1778,-11.718750
1779,-11.718750
1780,-11.718750
1781,-11.718750
1782,-11.718750
1783,-11.718750
1784,-11.718750
1785,-13.671875
1786,-13.671875
1787,-11.718750
1788,-13.671875
1789,-13.671875
1790,-13.671875
1791,-13.671875
1792,-11.718750
1793,-13.671875
1794,-11.718750
1795,-13.671875
1796,-13.671875
1797,-13.671875
1798,-11.718750
1799,-13.671875
1800,-11.718750
1801,-11.718750
1802,-11.718750
1803,-13.671875
1804,-11.718750
1805,-11.718750
1806,-13.671875
1807,-13.671875
1808,-11.718750
1809,-11.718750
1810,-11.718750
1811,-11.718750
1812,-11.718750
1813,-11.718750
1814,-11.718750
1815,-11.718750
1816,-11.718750
1817,-11.718750
1818,-11.718750
1819,-11.718750
1820,-11.718750
1821,-11.718750
1822,-11.718750
1823,-11.718750
1824,-11.718750
1825,-11.718750
1826,-11.718750
1827,-11.718750
1828,-11.718750
1829,-9.765625
1830,-9.765625
1831,-9.765625
1832,-9.765625
1833,-9.765625
1834,-9.765625
1835,-9.765625
1836,-9.765625
1837,-9.765625
1838,-9.765625
1839,-9.765625
1840,-9.765625
1841,-9.765625
1842,-9.765625
1843,-7.812500
1844,-7.812500
1845,-7.812500
1846,-7.812500
1847,-7.812500
1848,-7.812500
1849,-7.812500
1850,-7.812500
1851,-7.812500
1852,-5.859375
1853,-5.859375
1854,-5.859375
1855,-5.859375
1856,-5.859375
1857,-5.859375
1858,-5.859375
1859,-5.859375
1860,-5.859375
1861,-5.859375
1862,-5.859375
1863,-5.859375
1864,-3.906250
1865,-3.906250
1866,-3.906250
1867,-3.906250
1868,-3.906250
1869,-3.906250
1870,-3.906250
1871,-3.906250
1872,-3.906250
1873,-3.906250
1874,-3.906250
1875,-1.953125
1876,-1.953125
1877,-3.906250
1878,-1.953125
1879,-1.953125
1880,-1.953125
1881,-1.953125
1882,-1.953125
1883,-1.953125
1884,-1.953125
1885,-1.953125
1886,-1.953125
1887,0.000000
1888,0.000000
1889,0.000000
1890,0.000000
1891,0.000000
1892,0.000000
1893,0.000000
1894,0.000000
1895,1.953125
1896,0.000000
1897,0.000000
1898,0.000000
1899,1.953125
1900,1.953125
1901,1.953125
1902,1.953125
1903,1.953125
1904,1.953125
1905,1.953125
1906,1.953125
1907,1.953125
1908,1.953125
1909,1.953125
1910,1.953125
1911,1.953125
1912,1.953125
1913,3.906250
1914,1.953125
1915,1.953125
1916,1.953125
1917,3.906250
1918,3.906250
1919,3.906250
1920,1.953125
1921,3.906250
1922,3.906250
1923,1.953125
1924,3.906250
1925,3.906250
1926,3.906250
1927,3.906250
1928,3.906250
1929,3.906250
1930,3.906250
1931,3.906250
1932,3.906250
1933,3.906250
1934,3.906250
1935,3.906250
1936,3.906250
1937,3.906250
1938,3.906250
1939,3.906250
1940,3.906250
1941,3.906250
1942,3.906250
1943,3.906250
1944,3.906250
1945,3.906250
1946,3.906250
1947,3.906250
1948,3.906250
1949,3.906250
1950,3.906250
1951,3.906250
1952,1.953125
1953,3.906250
1954,3.906250
1955,1.953125
1956,1.953125
1957,1.953125
1958,3.906250
1959,3.906250
1960,1.953125
1961,1.953125
1962,1.953125
1963,1.953125
1964,1.953125
1965,1.953125
1966,1.953125
1967,1.953125
1968,1.953125
1969,1.953125
1970,1.953125
1971,1.953125
1972,1.953125
1973,1.953125
1974,1.953125
1975,1.953125
1976,0.000000
1977,0.000000
1978,0.000000
1979,0.000000
1980,0.000000
1981,0.000000
1982,0.000000
1983,0.000000
1984,0.000000
1985,0.000000
1986,0.000000
1987,-1.953125
1988,-1.953125
1989,-1.953125
1990,-1.953125
1991,-1.953125
1992,-1.953125
1993,-1.953125
1994,-1.953125
1995,-1.953125
1996,-1.953125
1997,-3.906250
1998,-1.953125
1999,-1.953125
2000,-3.906250
2001,-3.906250
2002,-3.906250
2003,-3.906250
2004,-3.906250
2005,-3.906250
2006,-3.906250
2007,-3.906250
2008,-3.906250
2009,-3.906250
2010,-5.859375
2011,-3.906250
2012,-5.859375
2013,-5.859375
2014,-5.859375
2015,-5.859375
2016,-5.859375
2017,-5.859375
2018,-5.859375
2019,-5.859375
2020,-5.859375
2021,-7.812500
2022,-5.859375
2023,-7.812500
2024,-7.812500
2025,-7.812500
2026,-7.812500
2027,-7.812500
2028,-7.812500
2029,-7.812500
2030,-7.812500
2031,-7.812500
2032,-7.812500
2033,-9.765625
2034,-9.765625
2035,-9.765625
2036,-9.765625
2037,-9.765625
2038,-9.765625
2039,-9.765625
2040,-9.765625
2041,-9.765625
2042,-9.765625
2043,-9.765625
2044,-9.765625
2045,-9.765625
2046,-9.765625
2047,-11.718750
2048,-9.765625
2049,-11.718750
2050,-11.718750
2051,-11.718750
2052,-11.718750
2053,-9.765625
2054,-11.718750
2055,-11.718750
2056,-11.718750
2057,-11.718750
2058,-11.718750
2059,-11.718750
2060,-11.718750
2061,-11.718750
2062,-11.718750
2063,-11.718750
2064,-11.718750
2065,-11.718750
2066,-11.718750
2067,-13.671875
2068,-13.671875
2069,-13.671875
2070,-11.718750
2071,-13.671875
2072,-13.671875
2073,-13.671875
2074,-13.671875
2075,-13.671875
2076,-13.671875
2077,-13.671875
2078,-13.671875
2079,-13.671875
2080,-13.671875
2081,-13.671875
2082,-13.671875
2083,-13.671875
2084,-13.671875
2085,-13.671875
2086,-13.671875
2087,-13.671875
2088,-13.671875
2089,-11.718750
2090,-13.671875
2091,-13.671875
2092,-13.671875
2093,-11.718750
2094,-11.718750
2095,-11.718750
2096,-11.718750
2097,-11.718750
2098,-11.718750
2099,-11.718750
2100,-11.718750
2101,-11.718750
2102,-11.718750
2103,-11.718750
2104,-11.718750
2105,-11.718750
2106,-11.718750
2107,-11.718750
2108,-11.718750
2109,-11.718750
2110,-9.765625
2111,-11.718750
2112,-11.718750
2113,-9.765625
2114,-9.765625
2115,-9.765625
2116,-9.765625
2117,-9.765625
2118,-9.765625
2119,-9.765625
2120,-9.765625
2121,-9.765625
2122,-9.765625
2123,-9.765625
2124,-9.765625
2125,-9.765625
2126,-7.812500
2127,-9.765625
2128,-9.765625
2129,-7.812500
2130,-7.812500
2131,-7.812500
2132,-7.812500
2133,-7.812500
2134,-7.812500
2135,-7.812500
2136,-7.812500
2137,-7.812500
2138,-7.812500
2139,-5.859375
2140,-5.859375
2141,-5.859375
2142,-5.859375
2143,-5.859375
2144,-5.859375
2145,-5.859375
2146,-5.859375
2147,-5.859375
2148,-3.906250
2149,-5.859375
2150,-3.906250
2151,-3.906250
2152,-3.906250
2153,-3.906250
2154,-3.906250
2155,-3.906250
2156,-3.906250
2157,-3.906250
2158,-3.906250
2159,-1.953125
2160,-1.953125
2161,-1.953125
2162,-1.953125
2163,-1.953125
2164,-1.953125
2165,-1.953125
2166,-1.953125
2167,-1.953125
2168,-1.953125
2169,0.000000
2170,0.000000
2171,0.000000
2172,0.000000
2173,-1.953125
2174,0.000000
2175,0.000000
2176,0.000000
2177,0.000000
2178,0.000000
2179,0.000000
2180,0.000000
2181,1.953125
2182,1.953125
2183,0.000000
2184,1.953125
2185,1.953125
2186,1.953125
2187,1.953125
2188,1.953125
2189,1.953125
2190,1.953125
2191,1.953125
2192,1.953125
2193,1.953125
2194,1.953125
2195,1.953125
2196,1.953125
2197,1.953125
2198,1.953125
2199,3.906250
2200,1.953125
2201,1.953125
2202,3.906250
2203,3.906250
2204,1.953125
2205,3.906250
2206,3.906250
2207,1.953125
2208,3.906250
2209,3.906250
2210,3.906250
2211,3.906250
2212,3.906250
2213,3.906250
2214,3.906250
2215,3.906250
2216,3.906250
2217,3.906250
2218,3.906250
2219,3.906250
2220,3.906250
2221,3.906250
2222,3.906250
2223,3.906250
2224,3.906250
2225,3.906250
2226,3.906250
2227,3.906250
2228,3.906250
2229,3.906250
2230,3.906250
2231,3.906250
2232,3.906250
2233,3.906250
2234,3.906250
2235,3.906250
2236,1.953125
2237,3.906250
2238,3.906250
2239,3.906250
2240,3.906250
2241,1.953125
2242,1.953125
2243,1.953125
2244,1.953125
2245,1.953125
2246,1.953125
2247,3.906250
2248,1.953125
2249,1.953125
2250,1.953125
2251,1.953125
2252,1.953125
2253,1.953125
2254,1.953125
2255,1.953125
2256,1.953125
2257,1.953125
2258,1.953125
2259,0.000000
2260,0.000000
2261,0.000000
2262,0.000000
2263,0.000000
2264,0.000000
2265,0.000000
2266,0.000000
2267,0.000000
2268,0.000000
2269,0.000000
2270,-1.953125
2271,-1.953125
2272,-1.953125
2273,-1.953125
2274,-1.953125
2275,-1.953125
2276,-1.953125
2277,-1.953125
2278,-1.953125
2279,-1.953125
2280,-1.953125
2281,-1.953125
2282,-1.953125
2283,-3.906250
2284,-1.953125
2285,-3.906250
2286,-1.953125
2287,-3.906250
2288,-3.906250
2289,-3.906250
2290,-3.906250
2291,-5.859375
2292,-3.906250
2293,-3.906250
2294,-3.906250
2295,-3.906250
2296,-5.859375
2297,-5.859375
2298,-5.859375
2299,-5.859375
2300,-5.859375
2301,-5.859375
2302,-5.859375
2303,-5.859375
2304,-5.859375
2305,-5.859375
2306,-7.812500
2307,-7.812500
2308,-7.812500
2309,-7.812500
2310,-7.812500
2311,-7.812500
2312,-7.812500
2313,-7.812500
2314,-7.812500
2315,-7.812500
2316,-9.765625
2317,-7.812500
2318,-9.765625
2319,-9.765625
2320,-9.765625
2321,-9.765625
2322,-9.765625
2323,-9.765625
2324,-9.765625
2325,-9.765625
2326,-9.765625
2327,-9.765625
2328,-9.765625
2329,-9.765625
2330,-9.765625
2331,-11.718750
2332,-11.718750
2333,-9.765625
2334,-11.718750
2335,-11.718750
2336,-11.718750
2337,-11.718750
2338,-11.718750
2339,-11.718750
2340,-11.718750
2341,-11.718750
2342,-11.718750
2343,-11.718750
2344,-11.718750
2345,-11.718750
2346,-11.718750
2347,-11.718750
2348,-11.718750
2349,-11.718750
2350,-11.718750
2351,-11.718750
2352,-11.718750
2353,-11.718750
2354,-11.718750
2355,-13.671875
2356,-11.718750
2357,-11.718750
2358,-11.718750
2359,-11.718750
2360,-11.718750
2361,-11.718750
2362,-11.718750
2363,-13.671875
2364,-11.718750
2365,-11.718750
2366,-11.718750
2367,-11.718750
2368,-13.671875
2369,-13.671875
2370,-11.718750
2371,-11.718750
2372,-11.718750
2373,-11.718750
2374,-13.671875
2375,-11.718750
2376,-11.718750
2377,-11.718750
2378,-11.718750
2379,-13.671875
2380,-11.718750
2381,-11.718750
2382,-11.718750
2383,-11.718750
2384,-11.718750
2385,-11.718750
2386,-11.718750
2387,-11.718750
2388,-11.718750
2389,-11.718750
2390,-11.718750
2391,-11.718750
2392,-11.718750
2393,-11.718750
2394,-11.718750
2395,-11.718750
2396,-11.718750
2397,-9.765625
2398,-9.765625
2399,-11.718750
2400,-9.765625
2401,-9.765625
2402,-9.765625
2403,-9.765625
2404,-11.718750
2405,-9.765625
2406,-9.765625
2407,-9.765625
2408,-9.765625
2409,-11.718750
2410,-7.812500
2411,-7.812500
2412,-7.812500
2413,-7.812500
2414,-9.765625
2415,-7.812500
2416,-7.812500
2417,-7.812500
2418,-5.859375
2419,-7.812500
2420,-7.812500
2421,-7.812500
2422,-5.859375
2423,-5.859375
2424,-5.859375
2425,-5.859375
2426,-5.859375
2427,-5.859375
2428,-5.859375
2429,-5.859375
2430,-5.859375
2431,-5.859375
2432,-3.906250
2433,-3.906250
2434,-3.906250
2435,-3.906250
2436,-3.906250
2437,-3.906250
2438,-3.906250
2439,-3.906250
2440,-3.906250
2441,-3.906250
2442,-3.906250
2443,-3.906250
2444,-3.906250
2445,-3.906250
2446,-1.953125
2447,-1.953125
2448,-1.953125
2449,-1.953125
2450,-1.953125
2451,-1.953125
2452,-1.953125
2453,-1.953125
2454,-1.953125
2455,-1.953125
2456,-1.953125
2457,-1.953125
2458,0.000000
2459,0.000000
2460,0.000000
2461,0.000000
2462,0.000000
2463,0.000000
2464,0.000000
2465,0.000000
2466,0.000000
2467,0.000000
2468,0.000000
2469,1.953125
2470,1.953125
2471,0.000000
2472,1.953125
2473,1.953125
2474,1.953125
2475,1.953125
2476,1.953125
2477,1.953125
2478,1.953125
2479,1.953125
2480,1.953125
2481,1.953125
2482,1.953125
2483,1.953125
2484,3.906250
2485,1.953125
2486,3.906250
2487,1.953125
2488,1.953125
2489,3.906250
2490,3.906250
2491,3.906250
2492,3.906250
2493,3.906250
2494,3.906250
2495,3.906250
2496,3.906250
2497,3.906250
2498,3.906250
2499,3.906250
2500,3.906250
2501,3.906250
2502,3.906250
2503,3.906250
2504,3.906250
2505,3.906250
2506,3.906250
2507,3.906250
2508,3.906250
2509,3.906250
2510,3.906250
2511,3.906250
2512,3.906250
2513,3.906250
2514,3.906250
2515,1.953125
2516,1.953125
2517,3.906250
2518,1.953125
2519,1.953125
2520,1.953125
2521,1.953125
2522,1.953125
2523,3.906250
2524,3.906250
2525,1.953125
2526,1.953125
2527,1.953125
2528,1.953125
2529,1.953125
2530,1.953125
2531,1.953125
2532,1.953125
2533,1.953125
2534,1.953125
2535,1.953125
2536,1.953125
2537,1.953125
2538,1.953125
2539,0.000000
2540,1.953125
2541,0.000000
2542,-1.953125
2543,0.000000
2544,0.000000
2545,0.000000
2546,0.000000
2547,0.000000
2548,0.000000
2549,0.000000
2550,0.000000
2551,0.000000
2552,0.000000
2553,0.000000
2554,0.000000
2555,-1.953125
2556,0.000000
2557,0.000000
2558,-1.953125
2559,0.000000
2560,-1.953125
2561,-1.953125
2562,-1.953125
2563,-1.953125
2564,-1.953125
2565,-1.953125
2566,-3.906250
2567,-3.906250
2568,-3.906250
2569,-3.906250
2570,-3.906250
2571,-3.906250
2572,-1.953125
2573,-5.859375
2574,-3.906250
2575,-3.906250
2576,-3.906250
2577,-5.859375
2578,-5.859375
2579,-5.859375
2580,-5.859375
2581,-5.859375
2582,-5.859375
2583,-5.859375
2584,-5.859375
2585,-7.812500
2586,-5.859375
2587,-5.859375
2588,-7.812500
2589,-5.859375
2590,-9.765625
2591,-7.812500
2592,-5.859375
2593,-7.812500
2594,-7.812500
2595,-7.812500
2596,-7.812500
2597,-9.765625
2598,-7.812500
2599,-7.812500
2600,-9.765625
2601,-9.765625
2602,-9.765625
2603,-9.765625
2604,-9.765625
2605,-9.765625
2606,-9.765625
2607,-11.718750
2608,-9.765625
2609,-5.859375
2610,-9.765625
2611,-9.765625
2612,-9.765625
2613,-11.718750
2614,-11.718750
2615,-9.765625
2616,-11.718750
2617,-11.718750
2618,-11.718750
2619,-11.718750
2620,-11.718750
2621,-11.718750
2622,-11.718750
2623,-11.718750
2624,-11.718750
2625,-11.718750
2626,-11.718750
2627,-11.718750
2628,-11.718750
2629,-11.718750
2630,-13.671875
2631,-11.718750
2632,-11.718750
2633,-13.671875
2634,-11.718750
2635,-13.671875
2636,-13.671875
2637,-11.718750
2638,-13.671875
2639,-13.671875
2640,-13.671875
2641,-11.718750
2642,-13.671875
2643,-13.671875
2644,-13.671875
2645,-13.671875
2646,-13.671875
2647,-13.671875
2648,-13.671875
2649,-13.671875
2650,-13.671875
2651,-13.671875
2652,-13.671875
2653,-13.671875
2654,-13.671875
2655,-13.671875
2656,-15.625000
2657,-13.671875
2658,-13.671875
2659,-13.671875
2660,-13.671875
2661,-13.671875
2662,-13.671875
2663,-13.671875
2664,-13.671875
2665,-11.718750
2666,-11.718750
2667,-11.718750
2668,-11.718750
2669,-11.718750
2670,-11.718750
2671,-13.671875
2672,-11.718750
2673,-11.718750
2674,-11.718750
2675,-11.718750
2676,-11.718750
2677,-11.718750
2678,-11.718750
2679,-11.718750
2680,-11.718750
2681,-9.765625
2682,-9.765625
2683,-9.765625
2684,-9.765625
2685,-9.765625
2686,-9.765625
2687,-9.765625
2688,-9.765625
2689,-9.765625
2690,-9.765625
2691,-9.765625
2692,-9.765625
2693,-9.765625
2694,-7.812500
2695,-7.812500
2696,-7.812500
2697,-7.812500
2698,-7.812500
2699,-7.812500
2700,-7.812500
2701,-7.812500
2702,-7.812500
2703,-7.812500
2704,-7.812500
2705,-5.859375
2706,-7.812500
2707,-7.812500
2708,-5.859375
2709,-5.859375
2710,-5.859375
2711,-5.859375
2712,-5.859375
2713,-5.859375
2714,-5.859375
2715,-5.859375
2716,-5.859375
2717,-3.906250
2718,-5.859375
2719,-3.906250
2720,-3.906250
2721,-3.906250
2722,-3.906250
2723,-3.906250
2724,-3.906250
2725,-3.906250
2726,-3.906250
2727,-3.906250
2728,-1.953125
2729,-1.953125
2730,-1.953125
2731,-1.953125
2732,-1.953125
2733,-1.953125
2734,-1.953125
2735,-1.953125
2736,-1.953125
2737,0.000000
2738,0.000000
2739,0.000000
2740,0.000000
2741,0.000000
2742,0.000000
2743,0.000000
2744,0.000000
2745,0.000000
2746,0.000000
2747,0.000000
2748,0.000000
2749,0.000000
2750,0.000000
2751,1.953125
2752,1.953125
2753,1.953125
2754,1.953125
2755,1.953125
2756,1.953125
2757,1.953125
2758,1.953125
2759,1.953125
2760,1.953125
2761,1.953125
2762,1.953125
2763,1.953125
2764,1.953125
2765,3.906250
2766,1.953125
2767,1.953125
2768,1.953125
2769,1.953125
2770,1.953125
2771,3.906250
2772,1.953125
2773,3.906250
2774,3.906250
2775,3.906250
2776,3.906250
2777,3.906250
2778,3.906250
2779,3.906250
2780,3.906250
2781,3.906250
2782,3.906250
2783,3.906250
2784,3.906250
2785,3.906250
2786,3.906250
2787,1.953125
2788,3.906250
2789,3.906250
2790,3.906250
2791,3.906250
2792,3.906250
2793,3.906250
2794,3.906250
2795,3.906250
2796,3.906250
2797,3.906250
2798,3.906250
2799,3.906250
2800,3.906250
2801,3.906250
2802,1.953125
2803,1.953125
2804,3.906250
2805,1.953125
2806,3.906250
2807,3.906250
2808,3.906250
2809,1.953125
2810,1.953125
2811,1.953125
2812,1.953125
2813,1.953125
2814,1.953125
2815,1.953125
2816,1.953125
2817,1.953125
2818,1.953125
2819,1.953125
2820,1.953125
2821,1.953125
2822,1.953125
2823,1.953125
2824,1.953125
2825,1.953125
2826,1.953125
2827,0.000000
2828,1.953125
2829,0.000000
2830,0.000000
2831,0.000000
2832,0.000000
2833,0.000000
2834,0.000000
2835,0.000000
2836,0.000000
2837,0.000000
2838,0.000000
2839,-1.953125
2840,-1.953125
2841,-1.953125
2842,-1.953125
2843,-1.953125
2844,-1.953125
2845,-1.953125
2846,-1.953125
2847,-3.906250
2848,-1.953125
2849,-1.953125
2850,-3.906250
2851,-3.906250
2852,-3.906250
2853,-3.906250
2854,-3.906250
2855,-3.906250
2856,-3.906250
2857,-5.859375
2858,-3.906250
2859,-5.859375
2860,-3.906250
2861,-5.859375
2862,-3.906250
2863,-5.859375
2864,-5.859375
2865,-5.859375
2866,-5.859375
2867,-5.859375
2868,-5.859375
2869,-5.859375
2870,-5.859375
2871,-5.859375
2872,-7.812500
2873,-7.812500
2874,-7.812500
2875,-7.812500
2876,-5.859375
2877,-7.812500
2878,-7.812500
2879,-7.812500
2880,-7.812500
2881,-7.812500
2882,-7.812500
2883,-7.812500
2884,-9.765625
2885,-7.812500
2886,-9.765625
2887,-9.765625
2888,-7.812500
2889,-9.765625
2890,-9.765625
2891,-9.765625
2892,-9.765625
2893,-9.765625
2894,-9.765625
2895,-9.765625
2896,-9.765625
2897,-9.765625
2898,-11.718750
2899,-11.718750
2900,-9.765625
2901,-11.718750
2902,-11.718750
2903,-11.718750
2904,-11.718750
2905,-11.718750
2906,-11.718750
2907,-11.718750
2908,-11.718750
2909,-11.718750
2910,-11.718750
2911,-11.718750
2912,-11.718750
2913,-11.718750
2914,-11.718750
2915,-13.671875
2916,-11.718750
2917,-11.718750
2918,-11.718750
2919,-11.718750
2920,-13.671875
2921,-13.671875
2922,-13.671875
2923,-13.671875
2924,-13.671875
2925,-13.671875
2926,-11.718750
2927,-13.671875
2928,-13.671875
2929,-13.671875
2930,-13.671875
2931,-11.718750
2932,-11.718750
2933,-13.671875
2934,-11.718750
2935,-11.718750
2936,-13.671875
2937,-11.718750
2938,-13.671875
2939,-13.671875
2940,-11.718750
2941,-13.671875
2942,-11.718750
2943,-11.718750
2944,-13.671875
2945,-13.671875
2946,-13.671875
2947,-11.718750
2948,-11.718750
2949,-11.718750
2950,-11.718750
2951,-11.718750
2952,-11.718750
2953,-11.718750
2954,-11.718750
2955,-11.718750
2956,-11.718750
2957,-11.718750
2958,-11.718750
2959,-11.718750
2960,-11.718750
2961,-11.718750
2962,-11.718750
2963,-11.718750
2964,-11.718750
2965,-11.718750
2966,-11.718750
2967,-9.765625
2968,-9.765625
2969,-9.765625
2970,-9.765625
2971,-9.765625
2972,-9.765625
2973,-9.765625
2974,-9.765625
2975,-9.765625
2976,-9.765625
2977,-9.765625
2978,-7.812500
2979,-7.812500
2980,-7.812500
2981,-7.812500
2982,-7.812500
2983,-7.812500
2984,-7.812500
2985,-7.812500
2986,-7.812500
2987,-7.812500
2988,-7.812500
2989,-7.812500
2990,-7.812500
2991,-7.812500
2992,-7.812500
2993,-5.859375
2994,-5.859375
2995,-5.859375
2996,-5.859375
2997,-5.859375
2998,-5.859375
2999,-5.859375
3000,-5.859375
3001,-3.906250
3002,-3.906250
3003,-3.906250
3004,-3.906250
3005,-3.906250
3006,-3.906250
3007,-3.906250
3008,-3.906250
3009,-3.906250
3010,-3.906250
3011,-1.953125
3012,-1.953125
3013,-1.953125
3014,-1.953125
3015,-1.953125
3016,-1.953125
3017,-1.953125
3018,-1.953125
3019,-1.953125
3020,-1.953125
3021,-1.953125
3022,0.000000
3023,0.000000
3024,0.000000
3025,0.000000
3026,0.000000
3027,0.000000
3028,0.000000
3029,0.000000
3030,0.000000
3031,0.000000
3032,0.000000
3033,0.000000
3034,0.000000
3035,0.000000
3036,0.000000
3037,1.953125
3038,0.000000
3039,1.953125
3040,0.000000
3041,1.953125
3042,1.953125
3043,1.953125
3044,1.953125
3045,1.953125
3046,1.953125
3047,1.953125
3048,1.953125
3049,1.953125
3050,1.953125
3051,1.953125
3052,1.953125
3053,1.953125
3054,1.953125
3055,1.953125
3056,3.906250
3057,1.953125
3058,3.906250
3059,3.906250
3060,3.906250
3061,3.906250
3062,3.906250
3063,3.906250
3064,3.906250
3065,3.906250
3066,3.906250
3067,3.906250
3068,3.906250
3069,1.953125
3070,3.906250
3071,3.906250
3072,3.906250
3073,3.906250
3074,3.906250
3075,3.906250
3076,3.906250
3077,3.906250
3078,1.953125
3079,3.906250
3080,3.906250
3081,3.906250
3082,3.906250
3083,3.906250
3084,3.906250
3085,3.906250
3086,3.906250
3087,3.906250
3088,3.906250
3089,1.953125
3090,3.906250
3091,1.953125
3092,1.953125
3093,1.953125
3094,1.953125
3095,3.906250
3096,1.953125
3097,1.953125
3098,1.953125
3099,1.953125
3100,1.953125
3101,1.953125
3102,1.953125
3103,1.953125
3104,1.953125
3105,0.000000
3106,1.953125
3107,1.953125
3108,0.000000
3109,1.953125
3110,0.000000
3111,0.000000
3112,0.000000
3113,0.000000
3114,0.000000
3115,0.000000
3116,0.000000
3117,0.000000
3118,0.000000
3119,0.000000
3120,0.000000
3121,0.000000
3122,-1.953125
3123,-1.953125
3124,-1.953125
3125,-1.953125
3126,-1.953125
3127,-1.953125
3128,-1.953125
3129,-1.953125
3130,-1.953125
3131,-1.953125
3132,-1.953125
3133,-1.953125
3134,-1.953125
3135,-1.953125
3136,-3.906250
3137,-3.906250
3138,-3.906250
3139,-3.906250
3140,-3.906250
3141,-3.906250
3142,-3.906250
3143,-3.906250
3144,-3.906250
3145,-3.906250
3146,-3.906250
3147,-3.906250
3148,-5.859375
3149,-5.859375
3150,-5.859375
3151,-5.859375
3152,-5.859375
3153,-5.859375
3154,-7.812500
3155,-5.859375
3156,-5.859375
3157,-5.859375
3158,-7.812500
3159,-7.812500
3160,-7.812500
3161,-7.812500
3162,-7.812500
3163,-7.812500
3164,-7.812500
3165,-7.812500
3166,-9.765625
3167,-7.812500
3168,-7.812500
3169,-9.765625
3170,-9.765625
3171,-9.765625
3172,-9.765625
3173,-9.765625
3174,-9.765625
3175,-9.765625
3176,-9.765625
3177,-9.765625
3178,-9.765625
3179,-9.765625
3180,-9.765625
3181,-9.765625
3182,-11.718750
3183,-11.718750
3184,-11.718750
3185,-11.718750
3186,-11.718750
3187,-11.718750
3188,-11.718750
3189,-11.718750
3190,-11.718750
3191,-11.718750
3192,-11.718750
3193,-11.718750
3194,-11.718750
3195,-11.718750
3196,-11.718750
3197,-11.718750
3198,-11.718750
3199,-11.718750
3200,-11.718750
3201,-11.718750
3202,-11.718750
3203,-11.718750
3204,-13.671875
3205,-13.671875
3206,-13.671875
3207,-11.718750
3208,-13.671875
3209,-13.671875
3210,-11.718750
3211,-11.718750
3212,-11.718750
3213,-13.671875
3214,-13.671875
3215,-13.671875
3216,-11.718750
3217,-13.671875
3218,-13.671875
3219,-13.671875
3220,-13.671875
3221,-13.671875
3222,-13.671875
3223,-13.671875
3224,-13.671875
3225,-13.671875
3226,-13.671875
3227,-13.671875
3228,-13.671875
3229,-11.718750
3230,-11.718750
3231,-13.671875
3232,-11.718750
3233,-11.718750
3234,-13.671875
3235,-11.718750
3236,-11.718750
3237,-11.718750
3238,-11.718750
3239,-11.718750
3240,-11.718750
3241,-11.718750
3242,-11.718750
3243,-11.718750
3244,-11.718750
3245,-11.718750
3246,-11.718750
3247,-11.718750
3248,-11.718750
3249,-9.765625
3250,-9.765625
3251,-9.765625
3252,-9.765625
3253,-9.765625
3254,-9.765625
3255,-9.765625
3256,-9.765625
3257,-9.765625
3258,-9.765625
3259,-9.765625
3260,-7.812500
3261,-9.765625
3262,-7.812500
3263,-7.812500
3264,-7.812500
3265,-7.812500
3266,-7.812500
3267,-7.812500
3268,-7.812500
3269,-7.812500
3270,-7.812500
3271,-7.812500
3272,-7.812500
3273,-7.812500
3274,-5.859375
3275,-7.812500
3276,-5.859375
3277,-5.859375
3278,-5.859375
3279,-5.859375
3280,-5.859375
3281,-5.859375
3282,-5.859375
3283,-5.859375
3284,-5.859375
3285,-3.906250
3286,-3.906250
3287,-3.906250
3288,-3.906250
3289,-3.906250
3290,-3.906250
3291,-3.906250
3292,-3.906250
3293,-3.906250
3294,-3.906250
3295,-3.906250
3296,-1.953125
3297,-1.953125
3298,-1.953125
3299,-1.953125
3300,-1.953125
3301,-1.953125
3302,-1.953125
3303,-1.953125
3304,-1.953125
3305,-1.953125
3306,-1.953125
3307,0.000000
3308,0.000000
3309,0.000000
3310,0.000000
3311,0.000000
3312,0.000000
3313,0.000000
3314,0.000000
3315,0.000000
3316,0.000000
3317,1.953125
3318,0.000000
3319,1.953125
3320,1.953125
3321,1.953125
3322,1.953125
3323,0.000000
3324,1.953125
3325,1.953125
3326,1.953125
3327,1.953125
3328,1.953125
3329,1.953125
3330,1.953125
3331,1.953125
3332,1.953125
3333,1.953125
3334,3.906250
3335,3.906250
3336,1.953125
3337,3.906250
3338,3.906250
3339,1.953125
3340,3.906250
3341,3.906250
3342,3.906250
3343,3.906250
3344,3.906250
3345,3.906250
3346,3.906250
3347,3.906250
3348,3.906250
3349,3.906250
3350,3.906250
3351,3.906250
3352,3.906250
3353,3.906250
3354,3.906250
3355,3.906250
3356,3.906250
3357,3.906250
3358,3.906250
3359,3.906250
3360,3.906250
3361,3.906250
3362,3.906250
3363,3.906250
3364,3.906250
3365,3.906250
3366,3.906250
3367,3.906250
3368,3.906250
3369,3.906250
3370,3.906250
3371,3.906250
3372,3.906250
3373,3.906250
3374,3.906250
3375,3.906250
3376,1.953125
3377,1.953125
3378,3.906250
3379,1.953125
3380,1.953125
3381,1.953125
3382,1.953125
3383,1.953125
3384,1.953125
3385,1.953125
3386,1.953125
3387,1.953125
3388,1.953125
3389,1.953125
3390,1.953125
3391,1.953125
3392,1.953125
3393,1.953125
3394,1.953125
3395,1.953125
3396,0.000000
3397,1.953125
3398,1.953125
3399,0.000000
3400,0.000000
3401,0.000000
3402,0.000000
3403,0.000000
3404,0.000000
3405,0.000000
3406,0.000000
3407,0.000000
3408,-1.953125
3409,-1.953125
3410,-1.953125
3411,-1.953125
3412,-1.953125
3413,-1.953125
3414,-1.953125
3415,-1.953125
3416,-1.953125
3417,-1.953125
3418,-1.953125
3419,-1.953125
3420,-3.906250
3421,-1.953125
3422,-3.906250
3423,-3.906250
3424,-3.906250
3425,-3.906250
3426,-3.906250
3427,-3.906250
3428,-3.906250
3429,-3.906250
3430,-5.859375
3431,-5.859375
3432,-5.859375
3433,-5.859375
3434,-5.859375
3435,-5.859375
3436,-5.859375
3437,-5.859375
3438,-5.859375
3439,-5.859375
3440,-5.859375
3441,-7.812500
3442,-7.812500
3443,-7.812500
3444,-7.812500
3445,-7.812500
3446,-7.812500
3447,-7.812500
3448,-7.812500
3449,-7.812500
3450,-7.812500
3451,-7.812500
3452,-9.765625
3453,-7.812500
3454,-9.765625
3455,-7.812500
3456,-9.765625
3457,-9.765625
3458,-9.765625
3459,-9.765625
3460,-9.765625
3461,-9.765625
3462,-9.765625
3463,-9.765625
3464,-9.765625
3465,-9.765625
3466,-11.718750
3467,-9.765625
3468,-9.765625
3469,-11.718750
3470,-11.718750
3471,-11.718750
3472,-11.718750
3473,-11.718750
3474,-11.718750
3475,-11.718750
3476,-11.718750
3477,-11.718750
3478,-11.718750
3479,-11.718750
3480,-11.718750
3481,-11.718750
3482,-11.718750
3483,-11.718750
3484,-11.718750
3485,-13.671875
3486,-13.671875
3487,-11.718750
3488,-11.718750
3489,-13.671875
3490,-13.671875
3491,-13.671875
3492,-13.671875
3493,-13.671875
3494,-13.671875
3495,-13.671875
3496,-13.671875
3497,-13.671875
3498,-13.671875
3499,-13.671875
3500,-13.671875
3501,-13.671875
3502,-13.671875
3503,-13.671875
3504,-13.671875
3505,-13.671875
3506,-13.671875
3507,-13.671875
3508,-13.671875
3509,-13.671875
3510,-11.718750
3511,-11.718750
3512,-11.718750
3513,-13.671875
3514,-13.671875
3515,-11.718750
3516,-11.718750
3517,-11.718750
3518,-11.718750
3519,-11.718750
3520,-11.718750
3521,-11.718750
3522,-11.718750
3523,-11.718750
3524,-11.718750
3525,-11.718750
3526,-11.718750
3527,-11.718750
3528,-11.718750
3529,-11.718750
3530,-11.718750
3531,-11.718750
3532,-9.765625
3533,-9.765625
3534,-9.765625
3535,-11.718750
3536,-9.765625
3537,-9.765625
3538,-9.765625
3539,-9.765625
3540,-9.765625
3541,-9.765625
3542,-9.765625
3543,-9.765625
3544,-9.765625
3545,-9.765625
3546,-9.765625
3547,-9.765625
3548,-9.765625
3549,-7.812500
3550,-7.812500
3551,-7.812500
3552,-7.812500
3553,-7.812500
3554,-7.812500
3555,-7.812500
3556,-7.812500
3557,-7.812500
3558,-7.812500
3559,-5.859375
3560,-5.859375
3561,-5.859375
3562,-5.859375
3563,-5.859375
3564,-5.859375
3565,-5.859375
3566,-5.859375
3567,-5.859375
3568,-3.906250
3569,-5.859375
3570,-3.906250
3571,-3.906250
3572,-3.906250
3573,-3.906250
3574,-3.906250
3575,-3.906250
3576,-3.906250
3577,-3.906250
3578,-3.906250
3579,-3.906250
3580,-1.953125
3581,-1.953125
3582,-1.953125
3583,-1.953125
3584,-1.953125
3585,-1.953125
3586,-1.953125
3587,-1.953125
3588,-1.953125
3589,-1.953125
3590,0.000000
3591,-1.953125
3592,0.000000
3593,0.000000
3594,0.000000
3595,1.953125
3596,0.000000
3597,0.000000
3598,0.000000
3599,0.000000
3600,0.000000
3601,0.000000
3602,0.000000
3603,0.000000
3604,1.953125
3605,1.953125
3606,1.953125
3607,1.953125
3608,1.953125
3609,1.953125
3610,1.953125
3611,1.953125
3612,1.953125
3613,1.953125
3614,1.953125
3615,1.953125
3616,1.953125
3617,1.953125
3618,1.953125
3619,1.953125
3620,1.953125
3621,1.953125
3622,1.953125
3623,1.953125
3624,1.953125
3625,1.953125
3626,1.953125
3627,1.953125
3628,1.953125
3629,1.953125
3630,3.906250
3631,1.953125
3632,3.906250
3633,1.953125
3634,3.906250
3635,3.906250
3636,3.906250
3637,3.906250
3638,3.906250
3639,1.953125
3640,3.906250
3641,3.906250
3642,3.906250
3643,3.906250
3644,3.906250
3645,3.906250
3646,3.906250
3647,3.906250
3648,3.906250
3649,3.906250
3650,3.906250
3651,3.906250
3652,3.906250
3653,3.906250
3654,3.906250
3655,3.906250
3656,1.953125
3657,1.953125
3658,3.906250
3659,1.953125
3660,1.953125
3661,1.953125
3662,1.953125
3663,1.953125
3664,1.953125
3665,1.953125
3666,1.953125
3667,1.953125
3668,1.953125
3669,1.953125
3670,1.953125
3671,1.953125
3672,1.953125
3673,1.953125
3674,1.953125
3675,1.953125
3676,0.000000
3677,0.000000
3678,0.000000
3679,0.000000
3680,0.000000
3681,0.000000
3682,0.000000
3683,0.000000
3684,0.000000
3685,0.000000
3686,0.000000
3687,0.000000
3688,-1.953125
3689,0.000000
3690,-1.953125
3691,-1.953125
3692,-1.953125
3693,-1.953125
3694,-1.953125
3695,-1.953125
3696,-1.953125
3697,-1.953125
3698,-1.953125
3699,-1.953125
3700,-3.906250
3701,-1.953125
3702,-3.906250
3703,-1.953125
3704,-3.906250
3705,-3.906250
3706,-3.906250
3707,-3.906250
3708,-3.906250
3709,-3.906250
3710,-3.906250
3711,-3.906250
3712,-3.906250
3713,-3.906250
3714,-5.859375
3715,-5.859375
3716,-5.859375
3717,-5.859375
3718,-5.859375
3719,-5.859375
3720,-5.859375
3721,-5.859375
3722,-5.859375
3723,-5.859375
3724,-7.812500
3725,-7.812500
3726,-5.859375
3727,-7.812500
3728,-7.812500
3729,-7.812500
3730,-7.812500
3731,-7.812500
3732,-7.812500
3733,-7.812500
3734,-7.812500
3735,-7.812500
3736,-7.812500
3737,-7.812500
3738,-9.765625
3739,-9.765625
3740,-9.765625
3741,-9.765625
3742,-9.765625
3743,-9.765625
3744,-9.765625
3745,-9.765625
3746,-9.765625
3747,-9.765625
3748,-9.765625
3749,-9.765625
3750,-11.718750
3751,-11.718750
3752,-11.718750
3753,-11.718750
3754,-11.718750
3755,-11.718750
3756,-11.718750
3757,-11.718750
3758,-11.718750
3759,-11.718750
3760,-11.718750
3761,-11.718750
3762,-11.718750
3763,-11.718750
3764,-11.718750
3765,-13.671875
3766,-13.671875
3767,-11.718750
3768,-11.718750
3769,-11.718750
3770,-11.718750
3771,-11.718750
3772,-13.671875
3773,-11.718750
3774,-13.671875
3775,-13.671875
3776,-13.671875
3777,-13.671875
3778,-13.671875
3779,-13.671875
3780,-13.671875
3781,-13.671875
3782,-13.671875
3783,-13.671875
3784,-13.671875
3785,-13.671875
3786,-13.671875
3787,-13.671875
3788,-13.671875
3789,-13.671875
3790,-13.671875
3791,-13.671875
3792,-13.671875
3793,-13.671875
3794,-13.671875
3795,-13.671875
3796,-13.671875
3797,-11.718750
3798,-13.671875
3799,-11.718750
3800,-13.671875
3801,-11.718750
3802,-13.671875
3803,-11.718750
3804,-11.718750
3805,-11.718750
3806,-11.718750
3807,-11.718750
3808,-11.718750
3809,-11.718750
3810,-11.718750
3811,-11.718750
3812,-11.718750
3813,-11.718750
3814,-11.718750
3815,-11.718750
3816,-11.718750
3817,-11.718750
3818,-11.718750
3819,-9.765625
3820,-9.765625
3821,-11.718750
3822,-9.765625
3823,-9.765625
3824,-9.765625
3825,-9.765625
3826,-9.765625
3827,-9.765625
3828,-9.765625
3829,-9.765625
3830,-9.765625
3831,-9.765625
3832,-7.812500
3833,-9.765625
3834,-7.812500
3835,-7.812500
3836,-7.812500
3837,-7.812500
3838,-7.812500
3839,-7.812500
3840,-7.812500
3841,-7.812500
3842,-5.859375
3843,-7.812500
3844,-5.859375
3845,-5.859375
3846,-5.859375
3847,-5.859375
3848,-5.859375
3849,-5.859375
3850,-5.859375
3851,-5.859375
3852,-5.859375
3853,-5.859375
3854,-3.906250
3855,-3.906250
3856,-3.906250
3857,-3.906250
3858,-3.906250
3859,-3.906250
3860,-3.906250
3861,-3.906250
3862,-3.906250
3863,-3.906250
3864,-3.906250
3865,-1.953125
3866,-1.953125
3867,-1.953125
3868,-1.953125
3869,-1.953125
3870,-1.953125
3871,-1.953125
3872,-1.953125
3873,0.000000
3874,-1.953125
3875,-1.953125
3876,0.000000
3877,-1.953125
3878,0.000000
3879,0.000000
3880,0.000000
3881,0.000000
3882,0.000000
3883,0.000000
3884,0.000000
3885,0.000000
3886,0.000000
3887,1.953125
3888,0.000000
3889,0.000000
3890,1.953125
3891,1.953125
3892,1.953125
3893,1.953125
3894,1.953125
3895,1.953125
3896,1.953125
3897,1.953125
3898,1.953125
3899,1.953125
3900,1.953125
3901,1.953125
3902,1.953125
3903,1.953125
3904,1.953125
3905,3.906250
3906,3.906250
3907,1.953125
3908,3.906250
3909,3.906250
3910,3.906250
3911,3.906250
3912,3.906250
3913,3.906250
3914,3.906250
3915,3.906250
3916,3.906250
3917,3.906250
3918,3.906250
3919,3.906250
3920,3.906250
3921,3.906250
3922,3.906250
3923,3.906250
3924,3.906250
3925,3.906250
3926,3.906250
3927,3.906250
3928,3.906250
3929,3.906250
3930,3.906250
3931,3.906250
3932,1.953125
3933,3.906250
3934,3.906250
3935,1.953125
3936,1.953125
3937,1.953125
3938,3.906250
3939,3.906250
3940,1.953125
3941,1.953125
3942,1.953125
3943,1.953125
3944,1.953125
3945,1.953125
3946,1.953125
3947,1.953125
3948,1.953125
3949,1.953125
3950,1.953125
3951,1.953125
3952,1.953125
3953,1.953125
3954,1.953125
3955,1.953125
3956,1.953125
3957,0.000000
3958,0.000000
3959,1.953125
3960,1.953125
3961,1.953125
3962,0.000000
3963,0.000000
3964,0.000000
3965,0.000000
3966,0.000000
3967,0.000000
3968,0.000000
3969,0.000000
3970,0.000000
3971,0.000000
3972,0.000000
3973,0.000000
3974,0.000000
3975,0.000000
3976,-1.953125
3977,-1.953125
3978,0.000000
3979,-1.953125
3980,-1.953125
3981,-1.953125
3982,-1.953125
3983,-1.953125
3984,-1.953125
3985,-3.906250
3986,-1.953125
3987,-1.953125
3988,-1.953125
3989,-3.906250
3990,-3.906250
3991,-3.906250
3992,-3.906250
3993,-3.906250
3994,-3.906250
3995,-3.906250
3996,-5.859375
3997,-5.859375
3998,-5.859375
3999,-5.859375
4000,-5.859375
4001,-5.859375
4002,-5.859375
4003,-5.859375
4004,-5.859375
4005,-5.859375
4006,-5.859375
4007,-7.812500
4008,-7.812500
4009,-7.812500
4010,-7.812500
4011,-7.812500
4012,-7.812500
4013,-7.812500
4014,-7.812500
4015,-7.812500
4016,-7.812500
4017,-7.812500
4018,-9.765625
4019,-7.812500
4020,-7.812500
4021,-9.765625
4022,-9.765625
4023,-9.765625
4024,-9.765625
4025,-9.765625
4026,-9.765625
4027,-9.765625
4028,-9.765625
4029,-9.765625
4030,-9.765625
4031,-9.765625
4032,-11.718750
4033,-11.718750
4034,-11.718750
4035,-11.718750
4036,-11.718750
4037,-11.718750
4038,-11.718750
4039,-11.718750
4040,-11.718750
4041,-11.718750
4042,-11.718750
4043,-11.718750
4044,-11.718750
4045,-11.718750
4046,-11.718750
4047,-11.718750
4048,-11.718750
4049,-11.718750
4050,-11.718750
4051,-13.671875
4052,-11.718750
4053,-11.718750
4054,-13.671875
4055,-13.671875
4056,-13.671875
4057,-13.671875
4058,-11.718750
4059,-13.671875
4060,-13.671875
4061,-13.671875
4062,-13.671875
4063,-13.671875
4064,-13.671875
4065,-13.671875
4066,-13.671875
4067,-13.671875
4068,-13.671875
4069,-13.671875
4070,-13.671875
4071,-13.671875
4072,-13.671875
4073,-13.671875
4074,-13.671875
4075,-13.671875
4076,-13.671875
4077,-13.671875
4078,-13.671875
4079,-13.671875
4080,-13.671875
4081,-13.671875
4082,-13.671875
4083,-13.671875
4084,-13.671875
4085,-13.671875
4086,-13.671875
4087,-13.671875
4088,-11.718750
4089,-11.718750
4090,-11.718750
4091,-11.718750
4092,-11.718750
4093,-11.718750
4094,-11.718750
4095,-11.718750
4096,-11.718750
4097,-11.718750
4098,-11.718750
4099,-11.718750
4100,-11.718750
4101,-9.765625
4102,-11.718750
4103,-9.765625
4104,-11.718750
4105,-9.765625
4106,-9.765625
4107,-9.765625
4108,-9.765625
4109,-9.765625
4110,-9.765625
4111,-9.765625
4112,-9.765625
4113,-9.765625
4114,-7.812500
4115,-9.765625
4116,-7.812500
4117,-7.812500
4118,-7.812500
4119,-7.812500
4120,-7.812500
4121,-7.812500
4122,-7.812500
4123,-7.812500
4124,-7.812500
4125,-7.812500
4126,-7.812500
4127,-7.812500
4128,-7.812500
4129,-7.812500
4130,-5.859375
4131,-5.859375
4132,-5.859375
4133,-5.859375
4134,-5.859375
4135,-5.859375
4136,-5.859375
4137,-5.859375
4138,-5.859375
4139,-3.906250
4140,-5.859375
4141,-3.906250
4142,-5.859375
4143,-3.906250
4144,-3.906250
4145,-3.906250
4146,-3.906250
4147,-3.906250
4148,-1.953125
4149,-1.953125
4150,-3.906250
4151,-3.906250
4152,-1.953125
4153,-1.953125
4154,-1.953125
4155,-1.953125
4156,-1.953125
4157,-1.953125
4158,-1.953125
4159,-1.953125
4160,0.000000
4161,0.000000
4162,0.000000
4163,0.000000
4164,0.000000
4165,0.000000
4166,0.000000
4167,0.000000
4168,0.000000
4169,0.000000
4170,0.000000
4171,1.953125
4172,0.000000
4173,0.000000
4174,1.953125
4175,1.953125
4176,1.953125
4177,1.953125
4178,0.000000
4179,1.953125
4180,1.953125
4181,1.953125
4182,1.953125
4183,1.953125
4184,1.953125
4185,1.953125
4186,1.953125
4187,1.953125
4188,1.953125
4189,1.953125
4190,1.953125
4191,1.953125
4192,1.953125
4193,1.953125
4194,1.953125
4195,3.906250
4196,1.953125
4197,1.953125
4198,1.953125
4199,1.953125
4200,3.906250
4201,3.906250
4202,1.953125
4203,1.953125
4204,1.953125
4205,3.906250
4206,3.906250
4207,1.953125
4208,3.906250
4209,1.953125
4210,1.953125
4211,3.906250
4212,3.906250
4213,3.906250
4214,3.906250
4215,1.953125
4216,3.906250
4217,1.953125
4218,3.906250
4219,1.953125
4220,1.953125
4221,1.953125
4222,3.906250
4223,1.953125
4224,3.906250
4225,3.906250
4226,1.953125
4227,1.953125
4228,1.953125
4229,1.953125
4230,3.906250
4231,1.953125
4232,1.953125
4233,1.953125
4234,1.953125
4235,1.953125
4236,1.953125
4237,1.953125
4238,1.953125
4239,1.953125
4240,1.953125
4241,1.953125
4242,1.953125
4243,1.953125
4244,0.000000
4245,0.000000
4246,0.000000
4247,0.000000
4248,0.000000
4249,0.000000
4250,0.000000
4251,0.000000
4252,0.000000
4253,-1.953125
4254,0.000000
4255,0.000000
4256,0.000000
4257,-1.953125
4258,0.000000
4259,-1.953125
4260,-1.953125
4261,-1.953125
4262,-1.953125
4263,-1.953125
4264,-1.953125
4265,-1.953125
4266,-1.953125
4267,-1.953125
4268,-1.953125
4269,-3.906250
4270,-1.953125
4271,-3.906250
4272,-3.906250
4273,-3.906250
4274,-3.906250
4275,-3.906250
4276,-3.906250
4277,-3.906250
4278,-3.906250
4279,-3.906250
4280,-3.906250
4281,-5.859375
4282,-5.859375
4283,-3.906250
4284,-5.859375
4285,-5.859375
4286,-5.859375
4287,-5.859375
4288,-7.812500
4289,-5.859375
4290,-7.812500
4291,-5.859375
4292,-5.859375
4293,-5.859375
4294,-7.812500
4295,-7.812500
4296,-7.812500
4297,-7.812500
4298,-7.812500
4299,-7.812500
4300,-7.812500
4301,-7.812500
4302,-7.812500
4303,-7.812500
4304,-7.812500
4305,-7.812500
4306,-9.765625
4307,-9.765625
4308,-9.765625
4309,-9.765625
4310,-9.765625
4311,-9.765625
4312,-9.765625
4313,-9.765625
4314,-9.765625
4315,-9.765625
4316,-9.765625
4317,-11.718750
4318,-11.718750
4319,-11.718750
4320,-9.765625
4321,-9.765625
4322,-9.765625
4323,-11.718750
4324,-11.718750
4325,-11.718750
4326,-11.718750
4327,-11.718750
4328,-11.718750
4329,-11.718750
4330,-11.718750
4331,-11.718750
4332,-13.671875
4333,-13.671875
4334,-11.718750
4335,-11.718750
4336,-11.718750
4337,-11.718750
4338,-13.671875
4339,-13.671875
4340,-13.671875
4341,-13.671875
4342,-13.671875
4343,-11.718750
4344,-13.671875
4345,-13.671875
4346,-13.671875
4347,-13.671875
4348,-13.671875
4349,-13.671875
4350,-11.718750
4351,-13.671875
4352,-13.671875
4353,-13.671875
4354,-13.671875
4355,-13.671875
4356,-13.671875
4357,-13.671875
4358,-11.718750
4359,-13.671875
4360,-13.671875
4361,-13.671875
4362,-11.718750
4363,-11.718750
4364,-13.671875
4365,-13.671875
4366,-11.718750
4367,-13.671875
4368,-11.718750
4369,-11.718750
4370,-11.718750
4371,-11.718750
4372,-11.718750
4373,-11.718750
4374,-11.718750
4375,-11.718750
4376,-11.718750
4377,-11.718750
4378,-11.718750
4379,-11.718750
4380,-11.718750
4381,-11.718750
4382,-11.718750
4383,-11.718750
4384,-11.718750
4385,-11.718750
4386,-11.718750
4387,-9.765625
4388,-9.765625
4389,-13.671875
4390,-9.765625
4391,-9.765625
4392,-9.765625
4393,-9.765625
4394,-9.765625
4395,-9.765625
4396,-11.718750
4397,-9.765625
4398,-9.765625
4399,-9.765625
4400,-9.765625
4401,-7.812500
4402,-7.812500
4403,-9.765625
4404,-9.765625
4405,-7.812500
4406,-7.812500
4407,-7.812500
4408,-7.812500
4409,-7.812500
4410,-7.812500
4411,-5.859375
4412,-5.859375
4413,-5.859375
4414,-5.859375
4415,-5.859375
4416,-5.859375
4417,-5.859375
4418,-5.859375
4419,-5.859375
4420,-5.859375
4421,-5.859375
4422,-5.859375
4423,-3.906250
4424,-3.906250
4425,-3.906250
4426,-3.906250
4427,-3.906250
4428,-3.906250
4429,-3.906250
4430,-1.953125
4431,-1.953125
4432,-1.953125
4433,-3.906250
4434,-1.953125
4435,-1.953125
4436,-1.953125
4437,-1.953125
4438,-1.953125
4439,-1.953125
4440,-1.953125
4441,-1.953125
4442,-1.953125
4443,0.000000
4444,0.000000
4445,-1.953125
4446,0.000000
4447,0.000000
4448,0.000000
4449,0.000000
4450,0.000000
4451,0.000000
4452,0.000000
4453,0.000000
4454,0.000000
4455,0.000000
4456,0.000000
4457,0.000000
4458,1.953125
4459,1.953125
4460,1.953125
4461,1.953125
4462,1.953125
4463,1.953125
4464,1.953125
4465,1.953125
4466,1.953125
4467,1.953125
4468,1.953125
4469,1.953125
4470,1.953125
4471,1.953125
4472,1.953125
4473,1.953125
4474,3.906250
4475,3.906250
4476,3.906250
4477,3.906250
4478,1.953125
4479,3.906250
4480,3.906250
4481,3.906250
4482,3.906250
4483,3.906250
4484,3.906250
4485,3.906250
4486,3.906250
4487,3.906250
4488,3.906250
4489,3.906250
4490,3.906250
4491,3.906250
4492,3.906250
4493,3.906250
4494,3.906250
4495,3.906250
4496,3.906250
4497,3.906250
4498,3.906250
4499,3.906250
4500,3.906250
4501,3.906250
4502,3.906250
4503,3.906250
4504,3.906250
4505,3.906250
4506,3.906250
4507,3.906250
4508,3.906250
4509,3.906250
4510,3.906250
4511,1.953125
4512,3.906250
4513,1.953125
4514,1.953125
4515,1.953125
4516,1.953125
4517,1.953125
4518,1.953125
4519,1.953125
4520,1.953125
4521,1.953125
4522,1.953125
4523,1.953125
4524,1.953125
4525,1.953125
4526,1.953125
4527,1.953125
4528,0.000000
4529,0.000000
4530,3.906250
4531,0.000000
4532,0.000000
4533,0.000000
4534,0.000000
4535,0.000000
4536,0.000000
4537,0.000000
4538,0.000000
4539,1.953125
4540,0.000000
4541,-1.953125
4542,-1.953125
4543,-1.953125
4544,1.953125
4545,-1.953125
4546,-1.953125
4547,-1.953125
4548,-1.953125
4549,0.000000
4550,-1.953125
4551,-1.953125
4552,-1.953125
4553,-1.953125
4554,-1.953125
4555,-1.953125
4556,-3.906250
4557,-3.906250
4558,-1.953125
4559,-3.906250
4560,-3.906250
4561,-3.906250
4562,-3.906250
4563,-3.906250
4564,-3.906250
4565,-3.906250
4566,-5.859375
4567,-3.906250
4568,-5.859375
4569,-5.859375
4570,-5.859375
4571,-5.859375
4572,-7.812500
4573,-5.859375
4574,-5.859375
4575,-5.859375
4576,-5.859375
4577,-7.812500
4578,-5.859375
4579,-7.812500
4580,-7.812500
4581,-7.812500
4582,-9.765625
4583,-7.812500
4584,-7.812500
4585,-7.812500
4586,-7.812500
4587,-7.812500
4588,-7.812500
4589,-9.765625
4590,-9.765625
4591,-9.765625
4592,-9.765625
4593,-9.765625
4594,-9.765625
4595,-9.765625
4596,-9.765625
4597,-11.718750
4598,-11.718750
4599,-9.765625
4600,-11.718750
4601,-9.765625
4602,-11.718750
4603,-11.718750
4604,-11.718750
4605,-11.718750
4606,-11.718750
4607,-11.718750
4608,-11.718750
4609,-11.718750
4610,-11.718750
4611,-11.718750
4612,-11.718750
4613,-11.718750
4614,-11.718750
4615,-11.718750
4616,-11.718750
4617,-11.718750
4618,-11.718750
4619,-11.718750
4620,-11.718750
4621,-11.718750
4622,-11.718750
4623,-11.718750
4624,-13.671875
4625,-13.671875
4626,-11.718750
4627,-13.671875
4628,-13.671875
4629,-13.671875
4630,-11.718750
4631,-11.718750
4632,-13.671875
4633,-13.671875
4634,-11.718750
4635,-13.671875
4636,-13.671875
4637,-13.671875
4638,-13.671875
4639,-13.671875
4640,-13.671875
4641,-13.671875
4642,-13.671875
4643,-13.671875
4644,-13.671875
4645,-11.718750
4646,-13.671875
4647,-11.718750
4648,-13.671875
4649,-13.671875
4650,-11.718750
4651,-13.671875
4652,-11.718750
4653,-11.718750
4654,-11.718750
4655,-13.671875
4656,-11.718750
4657,-11.718750
4658,-11.718750
4659,-11.718750
4660,-11.718750
4661,-11.718750
4662,-11.718750
4663,-11.718750
4664,-11.718750
4665,-11.718750
4666,-11.718750
4667,-11.718750
4668,-11.718750
4669,-11.718750
4670,-9.765625
4671,-9.765625
4672,-9.765625
4673,-9.765625
4674,-9.765625
4675,-9.765625
4676,-9.765625
4677,-9.765625
4678,-9.765625
4679,-9.765625
4680,-9.765625
4681,-9.765625
4682,-9.765625
4683,-9.765625
4684,-7.812500
4685,-7.812500
4686,-7.812500
4687,-7.812500
4688,-7.812500
4689,-7.812500
4690,-7.812500
4691,-7.812500
4692,-7.812500
4693,-7.812500
4694,-7.812500
4695,-5.859375
4696,-5.859375
4697,-5.859375
4698,-5.859375
4699,-5.859375
4700,-5.859375
4701,-5.859375
4702,-5.859375
4703,-5.859375
4704,-5.859375
4705,-5.859375
4706,-3.906250
4707,-3.906250
4708,-3.906250
4709,-3.906250
4710,-3.906250
4711,-3.906250
4712,-3.906250
4713,-3.906250
4714,-3.906250
4715,-3.906250
4716,-3.906250
4717,-3.906250
4718,-1.953125
4719,-1.953125
4720,-1.953125
4721,-1.953125
4722,-1.953125
4723,-1.953125
4724,-1.953125
4725,-1.953125
4726,0.000000
4727,-1.953125
4728,-1.953125
4729,0.000000
4730,0.000000
4731,0.000000
4732,0.000000
4733,-1.953125
4734,0.000000
4735,0.000000
4736,0.000000
4737,0.000000
4738,0.000000
4739,1.953125
4740,1.953125
4741,1.953125
4742,0.000000
4743,1.953125
4744,1.953125
4745,1.953125
4746,1.953125
4747,1.953125
4748,1.953125
4749,1.953125
4750,1.953125
4751,1.953125
4752,1.953125
4753,1.953125
4754,3.906250
4755,3.906250
4756,1.953125
4757,1.953125
4758,3.906250
4759,3.906250
4760,1.953125
4761,3.906250
4762,3.906250
4763,3.906250
4764,3.906250
4765,3.906250
4766,3.906250
4767,3.906250
4768,1.953125
4769,3.906250
4770,3.906250
4771,3.906250
4772,3.906250
4773,1.953125
4774,3.906250
4775,1.953125
4776,3.906250
4777,3.906250
4778,3.906250
4779,3.906250
4780,3.906250
4781,3.906250
4782,3.906250
4783,3.906250
4784,3.906250
4785,3.906250
4786,3.906250
4787,3.906250
4788,3.906250
4789,3.906250
4790,1.953125
4791,1.953125
4792,3.906250
4793,3.906250
4794,1.953125
4795,3.906250
4796,1.953125
4797,1.953125
4798,1.953125
4799,1.953125
4800,1.953125
4801,1.953125
4802,1.953125
4803,1.953125
4804,1.953125
4805,1.953125
4806,1.953125
4807,1.953125
4808,1.953125
4809,1.953125
4810,1.953125
4811,1.953125
4812,1.953125
4813,1.953125
4814,1.953125
4815,1.953125
4816,1.953125
4817,1.953125
4818,0.000000
4819,0.000000
4820,0.000000
4821,0.000000
4822,0.000000
4823,0.000000
4824,0.000000
4825,0.000000
4826,0.000000
4827,0.000000
4828,0.000000
4829,0.000000
4830,-1.953125
4831,-1.953125
4832,-1.953125
4833,-1.953125
4834,-1.953125
4835,-1.953125
4836,-1.953125
4837,-1.953125
4838,-1.953125
4839,-1.953125
4840,-3.906250
4841,-3.906250
4842,-3.906250
4843,-3.906250
4844,-3.906250
4845,-3.906250
4846,-3.906250
4847,-5.859375
4848,-3.906250
4849,-3.906250
4850,-3.906250
4851,-5.859375
4852,-5.859375
4853,-5.859375
4854,-5.859375
4855,-5.859375
4856,-5.859375
4857,-5.859375
4858,-5.859375
4859,-5.859375
4860,-5.859375
4861,-5.859375
4862,-5.859375
4863,-7.812500
4864,-7.812500
4865,-7.812500
4866,-5.859375
4867,-7.812500
4868,-7.812500
4869,-7.812500
4870,-7.812500
4871,-7.812500
4872,-7.812500
4873,-7.812500
4874,-7.812500
4875,-9.765625
4876,-7.812500
4877,-9.765625
4878,-9.765625
4879,-7.812500
4880,-9.765625
4881,-9.765625
4882,-9.765625
4883,-9.765625
4884,-9.765625
4885,-9.765625
4886,-9.765625
4887,-9.765625
4888,-9.765625
4889,-9.765625
4890,-11.718750
4891,-11.718750
4892,-9.765625
4893,-9.765625
4894,-11.718750
4895,-11.718750
4896,-11.718750
4897,-11.718750
4898,-11.718750
4899,-11.718750
4900,-11.718750
4901,-11.718750
4902,-11.718750
4903,-11.718750
4904,-11.718750
4905,-11.718750
4906,-11.718750
4907,-11.718750
4908,-13.671875
4909,-11.718750
4910,-11.718750
4911,-13.671875
4912,-13.671875
4913,-13.671875
4914,-13.671875
4915,-13.671875
4916,-13.671875
4917,-11.718750
4918,-11.718750
4919,-13.671875
4920,-11.718750
4921,-13.671875
4922,-11.718750
4923,-11.718750
4924,-13.671875
4925,-13.671875
4926,-11.718750
4927,-13.671875
4928,-11.718750
4929,-11.718750
4930,-11.718750
4931,-13.671875
4932,-11.718750
4933,-11.718750
4934,-11.718750
4935,-11.718750
4936,-11.718750
4937,-11.718750
4938,-11.718750
4939,-11.718750
4940,-11.718750
4941,-11.718750
4942,-11.718750
4943,-11.718750
4944,-11.718750
4945,-11.718750
4946,-9.765625
4947,-11.718750
4948,-11.718750
4949,-9.765625
4950,-11.718750
4951,-11.718750
4952,-9.765625
4953,-9.765625
4954,-9.765625
4955,-9.765625
4956,-9.765625
4957,-11.718750
4958,-9.765625
4959,-9.765625
4960,-9.765625
4961,-9.765625
4962,-9.765625
4963,-9.765625
4964,-9.765625
4965,-9.765625
4966,-9.765625
4967,-7.812500
4968,-9.765625
4969,-7.812500
4970,-7.812500
4971,-7.812500
4972,-7.812500
4973,-7.812500
4974,-7.812500
4975,-7.812500
4976,-7.812500
4977,-7.812500
4978,-7.812500
4979,-5.859375
4980,-5.859375
4981,-5.859375
4982,-5.859375
4983,-5.859375
4984,-5.859375
4985,-5.859375
4986,-5.859375
4987,-5.859375
4988,-5.859375
4989,-5.859375
4990,-3.906250
4991,-3.906250
4992,-3.906250
4993,-3.906250
4994,-3.906250
4995,-3.906250
4996,-3.906250
4997,-3.906250
4998,-3.906250
4999,-1.953125
5000,-1.953125
5001,-1.953125
5002,-1.953125
5003,-1.953125
5004,-1.953125
5005,-1.953125
5006,-1.953125
5007,-1.953125
5008,0.000000
5009,-1.953125
5010,0.000000
5011,0.000000
5012,0.000000
5013,0.000000
5014,0.000000
5015,0.000000
5016,0.000000
5017,0.000000
5018,0.000000
5019,0.000000
5020,0.000000
5021,0.000000
5022,0.000000
5023,1.953125
5024,0.000000
5025,1.953125
5026,1.953125
5027,0.000000
5028,1.953125
5029,1.953125
5030,1.953125
5031,1.953125
5032,1.953125
5033,1.953125
5034,1.953125
5035,1.953125
5036,1.953125
5037,1.953125
5038,1.953125
5039,1.953125
5040,1.953125
5041,1.953125
5042,1.953125
5043,1.953125
5044,3.906250
5045,3.906250
5046,1.953125
5047,1.953125
5048,3.906250
5049,1.953125
5050,3.906250
5051,3.906250
5052,3.906250
5053,3.906250
5054,3.906250
5055,3.906250
5056,3.906250
5057,3.906250
5058,3.906250
5059,3.906250
5060,3.906250
5061,3.906250
5062,3.906250
5063,3.906250
5064,3.906250
5065,3.906250
5066,3.906250
5067,3.906250
5068,3.906250
5069,3.906250
5070,3.906250
5071,3.906250
5072,3.906250
5073,3.906250
5074,3.906250
5075,3.906250
5076,3.906250
5077,3.906250
5078,1.953125
5079,3.906250
5080,3.906250
5081,1.953125
5082,1.953125
5083,1.953125
5084,3.906250
5085,1.953125
5086,1.953125
5087,1.953125
5088,1.953125
5089,1.953125
5090,1.953125
5091,1.953125
5092,1.953125
5093,1.953125
5094,1.953125
5095,1.953125
5096,0.000000
5097,1.953125
5098,0.000000
5099,0.000000
5100,0.000000
5101,0.000000
5102,0.000000
5103,0.000000
5104,0.000000
5105,0.000000
5106,0.000000
5107,0.000000
5108,0.000000
5109,0.000000
5110,0.000000
5111,-1.953125
5112,-1.953125
5113,0.000000
5114,-1.953125
5115,-1.953125
5116,-1.953125
5117,-1.953125
5118,-1.953125
5119,-1.953125
5120,-1.953125
5121,-1.953125
5122,-1.953125
5123,-1.953125
5124,-1.953125
5125,-3.906250
5126,-3.906250
5127,-3.906250
5128,-3.906250
5129,-3.906250
5130,-3.906250
5131,-5.859375
5132,-3.906250
5133,-3.906250
5134,-3.906250
5135,-5.859375
5136,-3.906250
5137,-5.859375
5138,-5.859375
5139,-5.859375
5140,-5.859375
5141,-5.859375
5142,-5.859375
5143,-5.859375
5144,-5.859375
5145,-5.859375
5146,-5.859375
5147,-7.812500
5148,-7.812500
5149,-7.812500
5150,-7.812500
5151,-7.812500
5152,-7.812500
5153,-7.812500
5154,-7.812500
5155,-7.812500
5156,-7.812500
5157,-7.812500
5158,-9.765625
5159,-7.812500
5160,-9.765625
5161,-9.765625
5162,-9.765625
5163,-9.765625
5164,-9.765625
5165,-9.765625
5166,-9.765625
5167,-11.718750
5168,-11.718750
5169,-9.765625
5170,-9.765625
5171,-11.718750
5172,-11.718750
5173,-11.718750
5174,-11.718750
5175,-11.718750
5176,-11.718750
5177,-11.718750
5178,-11.718750
5179,-11.718750
5180,-11.718750
5181,-11.718750
5182,-11.718750
5183,-11.718750
5184,-11.718750
5185,-11.718750
5186,-11.718750
5187,-11.718750
5188,-11.718750
5189,-11.718750
5190,-11.718750
5191,-11.718750
5192,-11.718750
5193,-11.718750
5194,-11.718750
5195,-11.718750
5196,-11.718750
5197,-13.671875
5198,-11.718750
5199,-13.671875
5200,-13.671875
5201,-11.718750
5202,-13.671875
5203,-13.671875
5204,-13.671875
5205,-13.671875
5206,-13.671875
5207,-13.671875
5208,-11.718750
5209,-13.671875
5210,-13.671875
5211,-13.671875
5212,-13.671875
5213,-11.718750
5214,-13.671875
5215,-13.671875
5216,-13.671875
5217,-11.718750
5218,-13.671875
5219,-13.671875
5220,-11.718750
5221,-11.718750
5222,-13.671875
5223,-13.671875
5224,-11.718750
5225,-11.718750
5226,-11.718750
5227,-11.718750
5228,-11.718750
5229,-11.718750
5230,-11.718750
5231,-11.718750
5232,-11.718750
5233,-11.718750
5234,-11.718750
5235,-11.718750
5236,-11.718750
5237,-11.718750
5238,-11.718750
5239,-11.718750
5240,-9.765625
5241,-9.765625
5242,-9.765625
5243,-9.765625
5244,-9.765625
5245,-9.765625
5246,-9.765625
5247,-9.765625
5248,-9.765625
5249,-9.765625
5250,-9.765625
5251,-7.812500
5252,-7.812500
5253,-7.812500
5254,-7.812500
5255,-7.812500
5256,-7.812500
5257,-7.812500
5258,-7.812500
5259,-7.812500
5260,-7.812500
5261,-7.812500
5262,-5.859375
5263,-5.859375
5264,-5.859375
5265,-5.859375
5266,-5.859375
5267,-5.859375
5268,-5.859375
5269,-5.859375
5270,-5.859375
5271,-3.906250
5272,-3.906250
5273,-3.906250
5274,-3.906250
5275,-3.906250
5276,-3.906250
5277,-3.906250
5278,-3.906250
5279,-3.906250
5280,-3.906250
5281,-3.906250
5282,-3.906250
5283,-1.953125
5284,-1.953125
5285,-3.906250
5286,-1.953125
5287,-1.953125
5288,-1.953125
5289,-1.953125
5290,-1.953125
5291,-1.953125
5292,-1.953125
5293,-1.953125
5294,-1.953125
5295,-1.953125
5296,-1.953125
5297,0.000000
5298,0.000000
5299,0.000000
5300,0.000000
5301,0.000000
5302,0.000000
5303,0.000000
5304,0.000000
5305,0.000000
5306,0.000000
5307,0.000000
5308,0.000000
5309,1.953125
5310,1.953125
5311,1.953125
5312,1.953125
5313,1.953125
5314,1.953125
5315,1.953125
5316,1.953125
5317,1.953125
5318,1.953125
5319,1.953125
5320,1.953125
5321,1.953125
5322,1.953125
5323,3.906250
5324,3.906250
5325,3.906250
5326,1.953125
5327,3.906250
5328,3.906250
5329,3.906250
5330,3.906250
5331,3.906250
5332,3.906250
5333,3.906250
5334,3.906250
5335,3.906250
5336,3.906250
5337,3.906250
5338,3.906250
5339,3.906250
5340,3.906250
5341,3.906250
5342,3.906250
5343,3.906250
5344,3.906250
5345,3.906250
5346,3.906250
5347,3.906250
5348,3.906250
5349,3.906250
5350,3.906250
5351,3.906250
5352,3.906250
5353,3.906250
5354,3.906250
5355,1.953125
5356,3.906250
5357,1.953125
5358,1.953125
5359,1.953125
5360,3.906250
5361,1.953125
5362,1.953125
5363,1.953125
5364,1.953125
5365,1.953125
5366,1.953125
5367,1.953125
5368,1.953125
5369,1.953125
5370,1.953125
5371,1.953125
5372,1.953125
5373,1.953125
5374,1.953125
5375,1.953125
5376,1.953125
5377,1.953125
5378,1.953125
5379,1.953125
5380,0.000000
5381,1.953125
5382,0.000000
5383,1.953125
5384,1.953125
5385,0.000000
5386,0.000000
5387,0.000000
5388,0.000000
5389,0.000000
5390,0.000000
5391,0.000000
5392,0.000000
5393,0.000000
5394,0.000000
5395,-1.953125
5396,-1.953125
5397,-1.953125
5398,-1.953125
5399,-1.953125
5400,-1.953125
5401,-1.953125
5402,-1.953125
5403,-1.953125
5404,-1.953125
5405,-1.953125
5406,-1.953125
5407,-1.953125
5408,-3.906250
5409,-3.906250
5410,-3.906250
5411,-3.906250
5412,-3.906250
5413,-3.906250
5414,-3.906250
5415,-3.906250
5416,-3.906250
5417,-3.906250
5418,-3.906250
5419,-5.859375
5420,-5.859375
5421,-5.859375
5422,-5.859375
5423,-5.859375
5424,-5.859375
5425,-5.859375
5426,-5.859375
5427,-7.812500
5428,-5.859375
5429,-7.812500
5430,-7.812500
5431,-7.812500
5432,-7.812500
5433,-7.812500
5434,-7.812500
5435,-7.812500
5436,-7.812500
5437,-7.812500
5438,-7.812500
5439,-7.812500
5440,-7.812500
5441,-9.765625
5442,-7.812500
5443,-7.812500
5444,-9.765625
5445,-9.765625
5446,-9.765625
5447,-9.765625
5448,-9.765625
5449,-9.765625
5450,-9.765625
5451,-9.765625
5452,-9.765625
5453,-9.765625
5454,-9.765625
5455,-9.765625
5456,-9.765625
5457,-11.718750
5458,-11.718750
5459,-11.718750
5460,-11.718750
5461,-11.718750
5462,-11.718750
5463,-11.718750
5464,-11.718750
5465,-11.718750
5466,-11.718750
5467,-11.718750
5468,-11.718750
5469,-11.718750
5470,-11.718750
5471,-11.718750
5472,-11.718750
5473,-11.718750
5474,-11.718750
5475,-11.718750
5476,-11.718750
5477,-13.671875
5478,-13.671875
5479,-11.718750
5480,-13.671875
5481,-11.718750
5482,-13.671875
5483,-13.671875
5484,-11.718750
5485,-13.671875
5486,-13.671875
5487,-11.718750
5488,-13.671875
5489,-13.671875
5490,-13.671875
5491,-13.671875
5492,-13.671875
5493,-11.718750
5494,-13.671875
5495,-13.671875
5496,-13.671875
5497,-13.671875
5498,-13.671875
5499,-11.718750
5500,-13.671875
5501,-11.718750
5502,-11.718750
5503,-11.718750
5504,-11.718750
5505,-11.718750
5506,-11.718750
5507,-11.718750
5508,-11.718750
5509,-13.671875
5510,-11.718750
5511,-11.718750
5512,-11.718750
5513,-11.718750
5514,-11.718750
5515,-11.718750
5516,-11.718750
5517,-11.718750
5518,-11.718750
5519,-11.718750
5520,-11.718750
5521,-11.718750
5522,-11.718750
5523,-9.765625
5524,-9.765625
5525,-9.765625
5526,-9.765625
5527,-9.765625
5528,-9.765625
5529,-9.765625
5530,-9.765625
5531,-9.765625
5532,-9.765625
5533,-9.765625
5534,-9.765625
5535,-9.765625
5536,-9.765625
5537,-7.812500
5538,-7.812500
5539,-7.812500
5540,-7.812500
5541,-7.812500
5542,-7.812500
5543,-7.812500
5544,-7.812500
5545,-7.812500
5546,-7.812500
5547,-7.812500
5548,-7.812500
5549,-5.859375
5550,-5.859375
5551,-5.859375
5552,-5.859375
5553,-5.859375
5554,-5.859375
5555,-5.859375
5556,-5.859375
5557,-5.859375
5558,-5.859375
5559,-5.859375
5560,-3.906250
5561,-3.906250
5562,-3.906250
5563,-3.906250
5564,-3.906250
5565,-3.906250
5566,-3.906250
5567,-3.906250
5568,-3.906250
5569,-3.906250
5570,-1.953125
5571,-1.953125
5572,-3.906250
5573,-1.953125
5574,-1.953125
5575,-1.953125
5576,-1.953125
5577,-1.953125
5578,-1.953125
5579,0.000000
5580,-1.953125
5581,0.000000
5582,0.000000
5583,0.000000
5584,0.000000
5585,0.000000
5586,0.000000
5587,0.000000
5588,0.000000
5589,0.000000
5590,1.953125
5591,1.953125
5592,0.000000
5593,1.953125
5594,0.000000
5595,1.953125
5596,1.953125
5597,1.953125
5598,1.953125
5599,1.953125
5600,1.953125
5601,1.953125
5602,1.953125
5603,1.953125
5604,1.953125
5605,1.953125
5606,1.953125
5607,1.953125
5608,1.953125
5609,1.953125
5610,1.953125
5611,1.953125
5612,3.906250
5613,1.953125
5614,1.953125
5615,1.953125
5616,3.906250
5617,3.906250
5618,1.953125
5619,3.906250
5620,3.906250
5621,1.953125
5622,1.953125
5623,1.953125
5624,3.906250
5625,3.906250
5626,3.906250
5627,3.906250
5628,1.953125
5629,1.953125
5630,3.906250
5631,3.906250
5632,3.906250
5633,1.953125
5634,3.906250
5635,3.906250
5636,1.953125
5637,3.906250
5638,3.906250
5639,3.906250
5640,3.906250
5641,1.953125
5642,3.906250
5643,3.906250
5644,3.906250
5645,1.953125
5646,1.953125
5647,1.953125
5648,1.953125
5649,1.953125
5650,3.906250
5651,3.906250
5652,1.953125
5653,1.953125
5654,1.953125
5655,1.953125
5656,1.953125
5657,1.953125
5658,1.953125
5659,1.953125
5660,1.953125
5661,1.953125
5662,1.953125
5663,1.953125
5664,1.953125
5665,1.953125
5666,0.000000
5667,1.953125
5668,0.000000
5669,0.000000
5670,0.000000
5671,0.000000
5672,0.000000
5673,0.000000
5674,0.000000
5675,0.000000
5676,0.000000
5677,0.000000
5678,0.000000
5679,-1.953125
5680,0.000000
5681,-1.953125
5682,-1.953125
5683,-1.953125
5684,-1.953125
5685,-1.953125
5686,-1.953125
5687,-1.953125
5688,-1.953125
5689,-1.953125
5690,-1.953125
5691,-1.953125
5692,-3.906250
5693,-3.906250
5694,-3.906250
5695,-3.906250
5696,-3.906250
5697,-3.906250
5698,-3.906250
5699,-3.906250
5700,-3.906250
5701,-3.906250
5702,-5.859375
5703,-5.859375
5704,-5.859375
5705,-5.859375
5706,-5.859375
5707,-5.859375
5708,-5.859375
5709,-5.859375
5710,-3.906250
5711,-5.859375
5712,-5.859375
5713,-7.812500
5714,-5.859375
5715,-9.765625
5716,-7.812500
5717,-7.812500
5718,-7.812500
5719,-7.812500
5720,-7.812500
5721,-7.812500
5722,-7.812500
5723,-7.812500
5724,-7.812500
5725,-7.812500
5726,-9.765625
5727,-9.765625
5728,-7.812500
5729,-9.765625
5730,-9.765625
5731,-9.765625
5732,-9.765625
5733,-9.765625
5734,-9.765625
5735,-9.765625
5736,-9.765625
5737,-11.718750
5738,-9.765625
5739,-11.718750
5740,-11.718750
5741,-11.718750
5742,-11.718750
5743,-11.718750
5744,-11.718750
5745,-11.718750
5746,-11.718750
5747,-11.718750
5748,-11.718750
5749,-11.718750
5750,-11.718750
5751,-11.718750
5752,-11.718750
5753,-13.671875
5754,-13.671875
5755,-13.671875
5756,-13.671875
5757,-11.718750
5758,-13.671875
5759,-13.671875
5760,-11.718750
5761,-13.671875
5762,-11.718750
5763,-13.671875
5764,-13.671875
5765,-13.671875
5766,-13.671875
5767,-13.671875
5768,-13.671875
5769,-13.671875
5770,-13.671875
5771,-13.671875
5772,-13.671875
5773,-13.671875
5774,-13.671875
5775,-13.671875
5776,-13.671875
5777,-11.718750
5778,-13.671875
5779,-13.671875
5780,-11.718750
5781,-13.671875
5782,-13.671875
5783,-13.671875
5784,-13.671875
5785,-11.718750
5786,-13.671875
5787,-13.671875
5788,-11.718750
5789,-11.718750
5790,-11.718750
5791,-11.718750
5792,-11.718750
5793,-11.718750
5794,-11.718750
5795,-11.718750
5796,-11.718750
5797,-11.718750
5798,-11.718750
5799,-11.718750
5800,-11.718750
5801,-11.718750
5802,-11.718750
5803,-11.718750
5804,-11.718750
5805,-11.718750
5806,-9.765625
5807,-11.718750
5808,-11.718750
5809,-9.765625
5810,-9.765625
5811,-9.765625
5812,-9.765625
5813,-9.765625
5814,-9.765625
5815,-9.765625
5816,-9.765625
5817,-9.765625
5818,-9.765625
5819,-7.812500
5820,-9.765625
5821,-9.765625
5822,-7.812500
5823,-7.812500
5824,-7.812500
5825,-7.812500
5826,-7.812500
5827,-7.812500
5828,-7.812500
5829,-7.812500
5830,-7.812500
5831,-5.859375
5832,-5.859375
5833,-5.859375
5834,-5.859375
5835,-5.859375
5836,-5.859375
5837,-5.859375
5838,-5.859375
5839,-5.859375
5840,-5.859375
5841,-3.906250
5842,-3.906250
5843,-3.906250
5844,-3.906250
5845,-3.906250
5846,-3.906250
5847,-3.906250
5848,-3.906250
5849,-3.906250
5850,-3.906250
5851,-3.906250
5852,-3.906250
5853,-1.953125
5854,-1.953125
5855,-1.953125
5856,-1.953125
5857,-1.953125
5858,-1.953125
5859,-1.953125
5860,-1.953125
5861,0.000000
5862,-1.953125
5863,-1.953125
5864,0.000000
5865,0.000000
5866,0.000000
5867,0.000000
5868,0.000000
5869,0.000000
5870,0.000000
5871,0.000000
5872,0.000000
5873,0.000000
5874,0.000000
5875,0.000000
5876,0.000000
5877,1.953125
5878,1.953125
5879,1.953125
5880,1.953125
5881,1.953125
5882,1.953125
5883,1.953125
5884,1.953125
5885,1.953125
5886,1.953125
5887,1.953125
5888,1.953125
5889,1.953125
5890,1.953125
5891,1.953125
5892,3.906250
5893,3.906250
5894,1.953125
5895,3.906250
5896,3.906250
5897,1.953125
5898,3.906250
5899,1.953125
5900,1.953125
5901,3.906250
5902,3.906250
5903,3.906250
5904,3.906250
5905,3.906250
5906,3.906250
5907,3.906250
5908,3.906250
5909,1.953125
5910,3.906250
5911,1.953125
5912,3.906250
5913,3.906250
5914,3.906250
5915,3.906250
5916,3.906250
5917,3.906250
5918,3.906250
5919,3.906250
5920,3.906250
5921,3.906250
5922,3.906250
5923,3.906250
5924,3.906250
5925,1.953125
5926,3.906250
5927,1.953125
5928,3.906250
5929,3.906250
5930,3.906250
5931,3.906250
5932,3.906250
5933,1.953125
5934,1.953125
5935,1.953125
5936,1.953125
5937,1.953125
5938,1.953125
5939,1.953125
5940,1.953125
5941,1.953125
5942,1.953125
5943,1.953125
5944,1.953125
5945,1.953125
5946,1.953125
5947,0.000000
5948,0.000000
5949,0.000000
5950,1.953125
5951,0.000000
5952,0.000000
5953,0.000000
5954,0.000000
5955,0.000000
5956,0.000000
5957,0.000000
5958,0.000000
5959,0.000000
5960,0.000000
5961,0.000000
5962,0.000000
5963,0.000000
5964,0.000000
5965,-1.953125
5966,-1.953125
5967,-1.953125
5968,-1.953125
5969,-1.953125
5970,-1.953125
5971,-1.953125
5972,-1.953125
5973,-1.953125
5974,-1.953125
5975,-1.953125
5976,-3.906250
5977,-3.906250
5978,-3.906250
5979,-3.906250
5980,-3.906250
5981,-3.906250
5982,-3.906250
5983,-3.906250
5984,-3.906250
5985,-3.906250
5986,-3.906250
5987,-5.859375
5988,-5.859375
5989,-5.859375
5990,-5.859375
5991,-5.859375
5992,-5.859375
5993,-5.859375
5994,-5.859375
5995,-5.859375
5996,-5.859375
5997,-5.859375
5998,-7.812500
5999,-7.812500
6000,-7.812500
6001,-7.812500
6002,-7.812500
6003,-7.812500
6004,-7.812500
6005,-7.812500
6006,-7.812500
6007,-9.765625
6008,-7.812500
6009,-9.765625
6010,-9.765625
6011,-9.765625
6012,-9.765625
6013,-9.765625
6014,-9.765625
6015,-9.765625
6016,-9.765625
6017,-9.765625
6018,-9.765625
6019,-9.765625
6020,-9.765625
6021,-9.765625
6022,-9.765625
6023,-11.718750
6024,-9.765625
6025,-9.765625
6026,-9.765625
6027,-9.765625
6028,-11.718750
6029,-11.718750
6030,-11.718750
6031,-11.718750
6032,-11.718750
6033,-11.718750
6034,-11.718750
6035,-11.718750
6036,-11.718750
6037,-11.718750
6038,-11.718750
6039,-11.718750
6040,-11.718750
6041,-11.718750
6042,-11.718750
6043,-11.718750
6044,-11.718750
6045,-13.671875
6046,-13.671875
6047,-11.718750
6048,-11.718750
6049,-11.718750
6050,-11.718750
6051,-13.671875
6052,-11.718750
6053,-13.671875
6054,-13.671875
6055,-11.718750
6056,-13.671875
6057,-11.718750
6058,-11.718750
6059,-11.718750
6060,-13.671875
6061,-11.718750
6062,-11.718750
6063,-13.671875
6064,-13.671875
6065,-11.718750
6066,-11.718750
6067,-13.671875
6068,-13.671875
6069,-13.671875
6070,-13.671875
6071,-11.718750
6072,-13.671875
6073,-11.718750
6074,-11.718750
6075,-11.718750
6076,-11.718750
6077,-11.718750
6078,-11.718750
6079,-11.718750
6080,-11.718750
6081,-11.718750
6082,-11.718750
6083,-11.718750
6084,-11.718750
6085,-11.718750
6086,-11.718750
6087,-11.718750
6088,-11.718750
6089,-11.718750
6090,-9.765625
6091,-9.765625
6092,-9.765625
6093,-9.765625
6094,-9.765625
6095,-9.765625
6096,-9.765625
6097,-9.765625
6098,-9.765625
6099,-9.765625
6100,-9.765625
6101,-7.812500
6102,-9.765625
6103,-9.765625
6104,-7.812500
6105,-7.812500
6106,-7.812500
6107,-7.812500
6108,-7.812500
6109,-7.812500
6110,-7.812500
6111,-7.812500
6112,-7.812500
6113,-7.812500
6114,-7.812500
6115,-7.812500
6116,-5.859375
6117,-5.859375
6118,-5.859375
6119,-5.859375
6120,-5.859375
6121,-5.859375
6122,-5.859375
6123,-5.859375
6124,-5.859375
6125,-5.859375
6126,-5.859375
6127,-3.906250
6128,-3.906250
6129,-5.859375
6130,-3.906250
6131,-3.906250
6132,-3.906250
6133,-3.906250
6134,-3.906250
6135,-3.906250
6136,-3.906250
6137,-3.906250
6138,-1.953125
6139,-3.906250
6140,-1.953125
6141,-1.953125
6142,-1.953125
6143,-1.953125
6144,-1.953125
6145,-1.953125
6146,-1.953125
6147,-1.953125
6148,-1.953125
6149,-1.953125
6150,0.000000
6151,0.000000
6152,-1.953125
6153,0.000000
6154,0.000000
6155,0.000000
6156,0.000000
6157,0.000000
6158,0.000000
6159,0.000000
6160,0.000000
6161,1.953125
6162,1.953125
6163,0.000000
6164,0.000000
6165,1.953125
6166,1.953125
6167,1.953125
6168,1.953125
6169,1.953125
6170,1.953125
6171,1.953125
6172,1.953125
6173,1.953125
6174,1.953125
6175,1.953125
6176,3.906250
6177,1.953125
6178,3.906250
6179,1.953125
6180,3.906250
6181,3.906250
6182,3.906250
6183,3.906250
6184,1.953125
6185,1.953125
6186,3.906250
6187,3.906250
6188,3.906250
6189,3.906250
6190,3.906250
6191,3.906250
6192,3.906250
6193,1.953125
6194,1.953125
6195,3.906250
6196,3.906250
6197,3.906250
6198,1.953125
6199,1.953125
6200,3.906250
6201,3.906250
6202,3.906250
6203,3.906250
6204,1.953125
6205,3.906250
6206,3.906250
6207,3.906250
6208,3.906250
6209,3.906250
6210,1.953125
6211,3.906250
6212,3.906250
6213,3.906250
6214,3.906250
6215,1.953125
6216,1.953125
6217,1.953125
6218,1.953125
6219,1.953125
6220,1.953125
6221,1.953125
6222,1.953125
6223,1.953125
6224,1.953125
6225,1.953125
6226,1.953125
6227,1.953125
6228,1.953125
6229,1.953125
6230,1.953125
6231,1.953125
6232,1.953125
6233,1.953125
6234,1.953125
6235,0.000000
6236,1.953125
6237,1.953125
6238,0.000000
6239,0.000000
6240,0.000000
6241,0.000000
6242,0.000000
6243,0.000000
6244,0.000000
6245,0.000000
6246,0.000000
6247,0.000000
6248,0.000000
6249,-1.953125
6250,-1.953125
6251,-1.953125
6252,-1.953125
6253,-1.953125
6254,-1.953125
6255,-1.953125
6256,-1.953125
6257,-1.953125
6258,-1.953125
6259,-1.953125
6260,-3.906250
6261,-3.906250
6262,-3.906250
6263,-3.906250
6264,-3.906250
6265,-3.906250
6266,-3.906250
6267,-3.906250
6268,-5.859375
6269,-3.906250
6270,-3.906250
6271,-5.859375
6272,-5.859375
6273,-5.859375
6274,-5.859375
6275,-5.859375
6276,-5.859375
6277,-5.859375
6278,-5.859375
6279,-5.859375
6280,-7.812500
6281,-5.859375
6282,-7.812500
6283,-7.812500
6284,-7.812500
6285,-5.859375
6286,-7.812500
6287,-7.812500
6288,-7.812500
6289,-7.812500
6290,-7.812500
6291,-7.812500
6292,-7.812500
6293,-7.812500
6294,-9.765625
6295,-7.812500
6296,-9.765625
6297,-9.765625
6298,-9.765625
6299,-9.765625
6300,-9.765625
6301,-9.765625
6302,-9.765625
6303,-9.765625
6304,-9.765625
6305,-9.765625
6306,-9.765625
6307,-9.765625
6308,-11.718750
6309,-11.718750
6310,-11.718750
6311,-11.718750
6312,-11.718750
6313,-11.718750
6314,-11.718750
6315,-11.718750
6316,-11.718750
6317,-11.718750
6318,-11.718750
6319,-11.718750
6320,-11.718750
6321,-11.718750
6322,-11.718750
6323,-11.718750
6324,-11.718750
6325,-13.671875
6326,-11.718750
6327,-11.718750
6328,-13.671875
6329,-13.671875
6330,-13.671875
6331,-11.718750
6332,-13.671875
6333,-13.671875
6334,-13.671875
6335,-13.671875
6336,-13.671875
6337,-13.671875
6338,-13.671875
6339,-13.671875
6340,-13.671875
6341,-13.671875
6342,-13.671875
6343,-13.671875
6344,-13.671875
6345,-13.671875
6346,-13.671875
6347,-13.671875
6348,-11.718750
6349,-11.718750
6350,-13.671875
6351,-13.671875
6352,-11.718750
6353,-11.718750
6354,-11.718750
6355,-11.718750
6356,-11.718750
6357,-11.718750
6358,-11.718750
6359,-13.671875
6360,-11.718750
6361,-11.718750
6362,-11.718750
6363,-11.718750
6364,-11.718750
6365,-11.718750
6366,-11.718750
6367,-11.718750
6368,-9.765625
6369,-11.718750
6370,-11.718750
6371,-9.765625
6372,-9.765625
6373,-9.765625
6374,-11.718750
6375,-9.765625
6376,-9.765625
6377,-9.765625
6378,-9.765625
6379,-9.765625
6380,-9.765625
6381,-9.765625
6382,-9.765625
6383,-9.765625
6384,-9.765625
6385,-9.765625
6386,-7.812500
6387,-9.765625
6388,-7.812500
6389,-9.765625
6390,-9.765625
6391,-7.812500
6392,-9.765625
6393,-7.812500
6394,-7.812500
6395,-7.812500
6396,-7.812500
6397,-7.812500
6398,-7.812500
6399,-7.812500
6400,-7.812500
6401,-5.859375
6402,-7.812500
6403,-5.859375
6404,-5.859375
6405,-5.859375
6406,-5.859375
6407,-5.859375
6408,-5.859375
6409,-3.906250
6410,-5.859375
6411,-3.906250
6412,-3.906250
6413,-3.906250
6414,-3.906250
6415,-3.906250
6416,-3.906250
6417,-3.906250
6418,-3.906250
6419,-3.906250
6420,-3.906250
6421,-1.953125
6422,-1.953125
6423,-1.953125
6424,-1.953125
6425,-1.953125
6426,-1.953125
6427,-1.953125
6428,-1.953125
6429,-1.953125
6430,0.000000
6431,0.000000
6432,-1.953125
6433,0.000000
6434,0.000000
6435,0.000000
6436,0.000000
6437,0.000000
6438,0.000000
6439,0.000000
6440,1.953125
6441,0.000000
6442,0.000000
6443,0.000000
6444,1.953125
6445,1.953125
6446,1.953125
6447,1.953125
6448,1.953125
6449,1.953125
6450,1.953125
6451,1.953125
6452,1.953125
6453,1.953125
6454,1.953125
6455,1.953125
6456,1.953125
6457,1.953125
6458,1.953125
6459,1.953125
6460,3.906250
6461,1.953125
6462,1.953125
6463,1.953125
6464,1.953125
6465,3.906250
6466,3.906250
6467,1.953125
6468,3.906250
6469,3.906250
6470,3.906250
6471,3.906250
6472,1.953125
6473,3.906250
6474,3.906250
6475,3.906250
6476,3.906250
6477,3.906250
6478,3.906250
6479,3.906250
6480,3.906250
6481,3.906250
6482,3.906250
6483,3.906250
6484,3.906250
6485,3.906250
6486,3.906250
6487,3.906250
6488,3.906250
6489,3.906250
6490,3.906250
6491,3.906250
6492,3.906250
6493,3.906250
6494,3.906250
6495,3.906250
6496,3.906250
6497,3.906250
6498,3.906250
6499,3.906250
6500,3.906250
6501,1.953125
6502,3.906250
6503,1.953125
6504,1.953125
6505,1.953125
6506,1.953125
6507,1.953125
6508,1.953125
6509,1.953125
6510,1.953125
6511,1.953125
6512,1.953125
6513,1.953125
6514,1.953125
6515,1.953125
6516,1.953125
6517,0.000000
6518,0.000000
6519,1.953125
6520,1.953125
6521,0.000000
6522,0.000000
6523,0.000000
6524,0.000000
6525,0.000000
6526,0.000000
6527,0.000000
6528,0.000000
6529,-1.953125
6530,-1.953125
6531,-1.953125
6532,-1.953125
6533,-1.953125
6534,-1.953125
6535,-1.953125
6536,-1.953125
6537,-1.953125
6538,-1.953125
6539,-1.953125
6540,-1.953125
6541,-1.953125
6542,-1.953125
6543,-1.953125
6544,-1.953125
6545,-3.906250
6546,-3.906250
6547,-3.906250
6548,-3.906250
6549,-3.906250
6550,-3.906250
6551,-3.906250
6552,-3.906250
6553,-3.906250
6554,-3.906250
6555,-3.906250
6556,-3.906250
6557,-5.859375
6558,-3.906250
6559,-5.859375
6560,-5.859375
6561,-5.859375
6562,-5.859375
6563,-5.859375
6564,-5.859375
6565,-5.859375
6566,-5.859375
6567,-7.812500
6568,-7.812500
6569,-7.812500
6570,-7.812500
6571,-7.812500
6572,-7.812500
6573,-7.812500
6574,-7.812500
6575,-7.812500
6576,-7.812500
6577,-7.812500
6578,-9.765625
6579,-9.765625
6580,-9.765625
6581,-9.765625
6582,-9.765625
6583,-9.765625
6584,-9.765625
6585,-9.765625
6586,-9.765625
6587,-9.765625
6588,-9.765625
6589,-11.718750
6590,-9.765625
6591,-9.765625
6592,-11.718750
6593,-11.718750
6594,-11.718750
6595,-11.718750
6596,-11.718750
6597,-11.718750
6598,-11.718750
6599,-11.718750
6600,-11.718750
6601,-11.718750
6602,-11.718750
6603,-11.718750
6604,-11.718750
6605,-11.718750
6606,-13.671875
6607,-11.718750
6608,-13.671875
6609,-11.718750
6610,-11.718750
6611,-11.718750
6612,-11.718750
6613,-11.718750
6614,-11.718750
6615,-13.671875
6616,-13.671875
6617,-13.671875
6618,-13.671875
6619,-13.671875
6620,-13.671875
6621,-13.671875
6622,-13.671875
6623,-11.718750
6624,-11.718750
6625,-11.718750
6626,-13.671875
6627,-13.671875
6628,-11.718750
6629,-13.671875
6630,-11.718750
6631,-13.671875
6632,-13.671875
6633,-13.671875
6634,-11.718750
6635,-11.718750
6636,-11.718750
6637,-11.718750
6638,-13.671875
6639,-13.671875
6640,-13.671875
6641,-11.718750
6642,-13.671875
6643,-11.718750
6644,-11.718750
6645,-11.718750
6646,-11.718750
6647,-11.718750
6648,-11.718750
6649,-11.718750
6650,-11.718750
6651,-11.718750
6652,-11.718750
6653,-11.718750
6654,-11.718750
6655,-11.718750
6656,-11.718750
6657,-11.718750
6658,-9.765625
6659,-9.765625
6660,-11.718750
6661,-9.765625
6662,-11.718750
6663,-9.765625
6664,-9.765625
6665,-9.765625
6666,-9.765625
6667,-9.765625
6668,-9.765625
6669,-9.765625
6670,-9.765625
6671,-9.765625
6672,-9.765625
6673,-7.812500
6674,-7.812500
6675,-7.812500
6676,-7.812500
6677,-7.812500
6678,-7.812500
6679,-7.812500
6680,-7.812500
6681,-7.812500
6682,-7.812500
6683,-7.812500
6684,-7.812500
6685,-5.859375
6686,-5.859375
6687,-5.859375
6688,-5.859375
6689,-5.859375
6690,-5.859375
6691,-5.859375
6692,-5.859375
6693,-5.859375
6694,-3.906250
6695,-5.859375
6696,-3.906250
6697,-3.906250
6698,-3.906250
6699,-3.906250
6700,-3.906250
6701,-3.906250
6702,-3.906250
6703,-3.906250
6704,-3.906250
6705,-1.953125
6706,-1.953125
6707,-1.953125
6708,-1.953125
6709,-1.953125
6710,-1.953125
6711,-1.953125
6712,-1.953125
6713,-1.953125
6714,-1.953125
6715,-1.953125
6716,-1.953125
6717,0.000000
6718,0.000000
6719,-1.953125
6720,0.000000
6721,-1.953125
6722,0.000000
6723,0.000000
6724,0.000000
6725,0.000000
6726,0.000000
6727,0.000000
6728,0.000000
6729,0.000000
6730,1.953125
6731,0.000000
6732,1.953125
6733,1.953125
6734,1.953125
6735,1.953125
6736,1.953125
6737,1.953125
6738,1.953125
6739,1.953125
6740,1.953125
6741,1.953125
6742,1.953125
6743,1.953125
6744,1.953125
6745,1.953125
6746,1.953125
6747,1.953125
6748,3.906250
6749,3.906250
6750,3.906250
6751,3.906250
6752,3.906250
6753,3.906250
6754,1.953125
6755,3.906250
6756,3.906250
6757,3.906250
6758,3.906250
6759,3.906250
6760,3.906250
6761,3.906250
6762,3.906250
6763,3.906250
6764,3.906250
6765,3.906250
6766,3.906250
6767,3.906250
6768,1.953125
6769,3.906250
6770,3.906250
6771,3.906250
6772,3.906250
6773,3.906250
6774,3.906250
6775,3.906250
6776,1.953125
6777,1.953125
6778,1.953125
6779,3.906250
6780,3.906250
6781,1.953125
6782,1.953125
6783,1.953125
6784,1.953125
6785,1.953125
6786,1.953125
6787,1.953125
6788,1.953125
6789,1.953125
6790,1.953125
6791,1.953125
6792,1.953125
6793,1.953125
6794,1.953125
6795,1.953125
6796,1.953125
6797,1.953125
6798,1.953125
6799,1.953125
6800,1.953125
6801,1.953125
6802,1.953125
6803,1.953125
6804,1.953125
6805,0.000000
6806,0.000000
6807,0.000000
6808,0.000000
6809,0.000000
6810,0.000000
6811,0.000000
6812,0.000000
6813,0.000000
6814,0.000000
6815,0.000000
6816,-1.953125
6817,0.000000
6818,0.000000
6819,-1.953125
6820,-1.953125
6821,-1.953125
6822,-1.953125
6823,-1.953125
6824,-1.953125
6825,-3.906250
6826,-1.953125
6827,-3.906250
6828,-1.953125
6829,-3.906250
6830,-3.906250
6831,-3.906250
6832,-3.906250
6833,-3.906250
6834,-3.906250
6835,-3.906250
6836,-3.906250
6837,-5.859375
6838,-5.859375
6839,-5.859375
6840,-5.859375
6841,-3.906250
6842,-5.859375
6843,-5.859375
6844,-5.859375
6845,-5.859375
6846,-5.859375
6847,-5.859375
6848,-5.859375
6849,-7.812500
6850,-7.812500
6851,-7.812500
6852,-7.812500
6853,-7.812500
6854,-7.812500
6855,-7.812500
6856,-7.812500
6857,-7.812500
6858,-7.812500
6859,-7.812500
6860,-7.812500
6861,-7.812500
6862,-7.812500
6863,-9.765625
6864,-9.765625
6865,-9.765625
6866,-9.765625
6867,-9.765625
6868,-7.812500
6869,-9.765625
6870,-9.765625
6871,-9.765625
6872,-9.765625
6873,-9.765625
6874,-9.765625
6875,-9.765625
6876,-11.718750
6877,-9.765625
6878,-11.718750
6879,-11.718750
6880,-11.718750
6881,-11.718750
6882,-11.718750
6883,-11.718750
6884,-11.718750
6885,-11.718750
6886,-11.718750
6887,-11.718750
6888,-11.718750
6889,-11.718750
6890,-11.718750
6891,-11.718750
6892,-13.671875
6893,-11.718750
6894,-9.765625
6895,-11.718750
6896,-11.718750
6897,-11.718750
6898,-13.671875
6899,-13.671875
6900,-13.671875
6901,-13.671875
6902,-13.671875
6903,-13.671875
6904,-13.671875
6905,-13.671875
6906,-13.671875
6907,-13.671875
6908,-11.718750
6909,-13.671875
6910,-13.671875
6911,-13.671875
6912,-13.671875
6913,-13.671875
6914,-13.671875
6915,-13.671875
6916,-13.671875
6917,-13.671875
6918,-13.671875
6919,-13.671875
6920,-13.671875
6921,-11.718750
6922,-13.671875
6923,-13.671875
6924,-13.671875
6925,-13.671875
6926,-13.671875
6927,-13.671875
6928,-11.718750
6929,-11.718750
6930,-11.718750
6931,-11.718750
6932,-11.718750
6933,-11.718750
6934,-11.718750
6935,-11.718750
6936,-11.718750
6937,-11.718750
6938,-11.718750
6939,-11.718750
6940,-11.718750
6941,-11.718750
6942,-11.718750
6943,-9.765625
6944,-11.718750
6945,-9.765625
6946,-9.765625
6947,-9.765625
6948,-9.765625
6949,-9.765625
6950,-9.765625
6951,-9.765625
6952,-9.765625
6953,-9.765625
6954,-9.765625
6955,-9.765625
6956,-9.765625
6957,-7.812500
6958,-7.812500
6959,-7.812500
6960,-7.812500
6961,-7.812500
6962,-7.812500
6963,-7.812500
6964,-7.812500
6965,-7.812500
6966,-7.812500
6967,-5.859375
6968,-7.812500
6969,-7.812500
6970,-7.812500
6971,-5.859375
6972,-5.859375
6973,-5.859375
6974,-5.859375
6975,-5.859375
6976,-5.859375
6977,-5.859375
6978,-5.859375
6979,-5.859375
6980,-3.906250
6981,-3.906250
6982,-3.906250
6983,-3.906250
6984,-3.906250
6985,-3.906250
6986,-3.906250
6987,-3.906250
6988,-3.906250
6989,-3.906250
6990,-1.953125
6991,-1.953125
6992,-1.953125
6993,-1.953125
6994,-1.953125
6995,-1.953125
6996,-1.953125
6997,-1.953125
6998,-1.953125
6999,0.000000
7000,-1.953125
7001,-1.953125
7002,-1.953125
7003,0.000000
7004,0.000000
7005,0.000000
7006,0.000000
7007,0.000000
7008,0.000000
7009,0.000000
7010,0.000000
7011,0.000000
7012,1.953125
7013,0.000000
7014,1.953125
7015,1.953125
7016,1.953125
7017,1.953125
7018,1.953125
7019,1.953125
7020,1.953125
7021,1.953125
7022,1.953125
7023,1.953125
7024,1.953125
7025,3.906250
7026,1.953125
7027,1.953125
7028,1.953125
7029,3.906250
7030,1.953125
7031,1.953125
7032,1.953125
7033,1.953125
7034,1.953125
7035,3.906250
7036,1.953125
7037,3.906250
7038,1.953125
7039,3.906250
7040,3.906250
7041,1.953125
7042,3.906250
7043,3.906250
7044,3.906250
7045,3.906250
7046,1.953125
7047,3.906250
7048,3.906250
7049,3.906250
7050,3.906250
7051,3.906250
7052,3.906250
7053,3.906250
7054,3.906250
7055,3.906250
7056,3.906250
7057,1.953125
7058,1.953125
7059,3.906250
7060,1.953125
7061,1.953125
7062,1.953125
7063,1.953125
7064,1.953125
7065,1.953125
7066,1.953125
7067,1.953125
7068,1.953125
7069,1.953125
7070,1.953125
7071,1.953125
7072,1.953125
7073,1.953125
7074,1.953125
7075,1.953125
7076,1.953125
7077,1.953125
7078,1.953125
7079,1.953125
7080,1.953125
7081,1.953125
7082,1.953125
7083,1.953125
7084,0.000000
7085,0.000000
7086,1.953125
7087,0.000000
7088,0.000000
7089,0.000000
7090,0.000000
7091,0.000000
7092,0.000000
7093,0.000000
7094,1.953125
7095,0.000000
7096,0.000000
7097,-1.953125
7098,0.000000
7099,-1.953125
7100,-1.953125
7101,-1.953125
7102,-1.953125
7103,-1.953125
7104,-1.953125
7105,-1.953125
7106,-1.953125
7107,-1.953125
7108,-1.953125
7109,-3.906250
7110,-3.906250
7111,-3.906250
7112,-3.906250
7113,-3.906250
7114,-3.906250
7115,-3.906250
7116,-3.906250
7117,-3.906250
7118,-3.906250
7119,-3.906250
7120,-3.906250
7121,-3.906250
7122,-5.859375
7123,-5.859375
7124,-5.859375
7125,-5.859375
7126,-5.859375
7127,-5.859375
7128,-5.859375
7129,-5.859375
7130,-5.859375
7131,-5.859375
7132,-7.812500
7133,-7.812500
7134,-7.812500
7135,-7.812500
7136,-7.812500
7137,-7.812500
7138,-7.812500
7139,-7.812500
7140,-7.812500
7141,-7.812500
7142,-7.812500
7143,-7.812500
7144,-9.765625
7145,-9.765625
7146,-9.765625
7147,-9.765625
7148,-9.765625
7149,-9.765625
7150,-9.765625
7151,-9.765625
7152,-9.765625
7153,-9.765625
7154,-9.765625
7155,-9.765625
7156,-11.718750
7157,-9.765625
7158,-9.765625
7159,-11.718750
7160,-11.718750
7161,-11.718750
7162,-11.718750
7163,-11.718750
7164,-11.718750
7165,-11.718750
7166,-11.718750
7167,-11.718750
7168,-11.718750
7169,-13.671875
7170,-13.671875
7171,-11.718750
7172,-13.671875
7173,-13.671875
7174,-13.671875
7175,-11.718750
7176,-13.671875
7177,-13.671875
7178,-13.671875
7179,-13.671875
7180,-13.671875
7181,-13.671875
7182,-13.671875
7183,-13.671875
7184,-13.671875
7185,-13.671875
7186,-13.671875
7187,-13.671875
7188,-13.671875
7189,-13.671875
7190,-13.671875
7191,-13.671875
7192,-13.671875
7193,-13.671875
7194,-13.671875
7195,-13.671875
7196,-13.671875
7197,-13.671875
7198,-13.671875
7199,-13.671875
7200,-13.671875
7201,-13.671875
7202,-13.671875
7203,-13.671875
7204,-13.671875
7205,-13.671875
7206,-11.718750
7207,-11.718750
7208,-11.718750
7209,-13.671875
7210,-11.718750
7211,-13.671875
7212,-11.718750
7213,-11.718750
7214,-11.718750
7215,-11.718750
7216,-11.718750
7217,-11.718750
7218,-13.671875
7219,-11.718750
7220,-11.718750
7221,-11.718750
7222,-11.718750
7223,-11.718750
7224,-11.718750
7225,-11.718750
7226,-11.718750
7227,-11.718750
7228,-9.765625
7229,-9.765625
7230,-9.765625
7231,-9.765625
7232,-9.765625
7233,-11.718750
7234,-9.765625
7235,-9.765625
7236,-9.765625
7237,-9.765625
7238,-9.765625
7239,-9.765625
7240,-9.765625
7241,-9.765625
7242,-9.765625
7243,-9.765625
7244,-7.812500
7245,-7.812500
7246,-7.812500
7247,-7.812500
7248,-7.812500
7249,-7.812500
7250,-7.812500
7251,-7.812500
7252,-7.812500
7253,-7.812500
7254,-5.859375
7255,-5.859375
7256,-5.859375
7257,-5.859375
7258,-5.859375
7259,-5.859375
7260,-5.859375
7261,-5.859375
7262,-5.859375
7263,-3.906250
7264,-3.906250
7265,-3.906250
7266,-3.906250
7267,-3.906250
7268,-3.906250
7269,-3.906250
7270,-3.906250
7271,-1.953125
7272,-3.906250
7273,-3.906250
7274,-3.906250
7275,-1.953125
7276,-1.953125
7277,-1.953125
7278,-1.953125
7279,-1.953125
7280,-1.953125
7281,-1.953125
7282,-1.953125
7283,0.000000
7284,0.000000
7285,-1.953125
7286,0.000000
7287,0.000000
7288,0.000000
7289,0.000000
7290,0.000000
7291,0.000000
7292,0.000000
7293,0.000000
7294,0.000000
7295,0.000000
7296,0.000000
7297,0.000000
7298,0.000000
7299,1.953125
7300,0.000000
7301,1.953125
7302,1.953125
7303,1.953125
7304,1.953125
7305,1.953125
7306,1.953125
7307,1.953125
7308,1.953125
7309,1.953125
7310,1.953125
7311,1.953125
7312,1.953125
7313,1.953125
7314,1.953125
7315,1.953125
7316,1.953125
7317,1.953125
7318,1.953125
7319,1.953125
7320,1.953125
7321,3.906250
7322,3.906250
7323,3.906250
7324,3.906250
7325,3.906250
7326,3.906250
7327,1.953125
7328,3.906250
7329,3.906250
7330,3.906250
7331,3.906250
7332,3.906250
7333,3.906250
7334,3.906250
7335,3.906250
7336,3.906250
7337,3.906250
7338,3.906250
7339,3.906250
7340,3.906250
7341,3.906250
7342,3.906250
7343,3.906250
7344,1.953125
7345,3.906250
7346,3.906250
7347,3.906250
7348,3.906250
7349,3.906250
7350,1.953125
7351,1.953125
7352,1.953125
7353,1.953125
7354,1.953125
7355,1.953125
7356,1.953125
7357,1.953125
7358,1.953125
7359,1.953125
7360,1.953125
7361,1.953125
7362,1.953125
7363,1.953125
7364,0.000000
7365,0.000000
7366,1.953125
7367,1.953125
7368,1.953125
7369,0.000000
7370,0.000000
7371,0.000000
7372,0.000000
7373,0.000000
7374,0.000000
7375,0.000000
7376,0.000000
7377,0.000000
7378,0.000000
7379,0.000000
7380,0.000000
7381,0.000000
7382,-1.953125
7383,0.000000
7384,-1.953125
7385,0.000000
7386,-1.953125
7387,-1.953125
7388,-1.953125
7389,-1.953125
7390,-1.953125
7391,-1.953125
7392,-1.953125
7393,-1.953125
7394,-1.953125
7395,-1.953125
7396,-3.906250
7397,-3.906250
7398,-3.906250
7399,-3.906250
7400,-3.906250
7401,-3.906250
7402,-3.906250
7403,-3.906250
7404,-3.906250
7405,-3.906250
7406,-5.859375
7407,-5.859375
7408,-5.859375
7409,-3.906250
7410,-5.859375
7411,-5.859375
7412,-5.859375
7413,-5.859375
7414,-5.859375
7415,-5.859375
7416,-7.812500
7417,-5.859375
7418,-7.812500
7419,-7.812500
7420,-7.812500
7421,-7.812500
7422,-7.812500
7423,-7.812500
7424,-7.812500
7425,-7.812500
7426,-7.812500
7427,-7.812500
7428,-7.812500
7429,-9.765625
7430,-9.765625
7431,-9.765625
7432,-9.765625
7433,-9.765625
7434,-9.765625
7435,-9.765625
7436,-9.765625
7437,-9.765625
7438,-9.765625
7439,-9.765625
7440,-9.765625
7441,-9.765625
7442,-11.718750
7443,-11.718750
7444,-11.718750
7445,-11.718750
7446,-11.718750
7447,-11.718750
7448,-11.718750
7449,-11.718750
7450,-11.718750
7451,-11.718750
7452,-11.718750
7453,-11.718750
7454,-11.718750
7455,-11.718750
7456,-11.718750
7457,-11.718750
7458,-11.718750
7459,-11.718750
7460,-11.718750
7461,-11.718750
7462,-11.718750
7463,-11.718750
7464,-13.671875
7465,-13.671875
7466,-11.718750
7467,-11.718750
7468,-11.718750
7469,-11.718750
7470,-13.671875
7471,-11.718750
7472,-13.671875
7473,-13.671875
7474,-11.718750
7475,-13.671875
7476,-13.671875
7477,-13.671875
7478,-13.671875
7479,-13.671875
7480,-13.671875
7481,-13.671875
7482,-13.671875
7483,-13.671875
7484,-13.671875
7485,-13.671875
7486,-13.671875
7487,-13.671875
7488,-13.671875
7489,-13.671875
7490,-13.671875
7491,-13.671875
7492,-13.671875
7493,-11.718750
7494,-11.718750
7495,-13.671875
7496,-13.671875
7497,-13.671875
7498,-11.718750
7499,-11.718750
7500,-11.718750
7501,-11.718750
7502,-11.718750
7503,-11.718750
7504,-11.718750
7505,-11.718750
7506,-11.718750
7507,-11.718750
7508,-11.718750
7509,-11.718750
7510,-11.718750
7511,-11.718750
7512,-9.765625
7513,-9.765625
7514,-9.765625
7515,-9.765625
7516,-9.765625
7517,-9.765625
7518,-9.765625
7519,-9.765625
7520,-9.765625
7521,-9.765625
7522,-9.765625
7523,-9.765625
7524,-9.765625
7525,-7.812500
7526,-7.812500
7527,-7.812500
7528,-7.812500
7529,-7.812500
7530,-7.812500
7531,-7.812500
7532,-7.812500
7533,-7.812500
7534,-7.812500
7535,-7.812500
7536,-5.859375
7537,-5.859375
7538,-7.812500
7539,-5.859375
7540,-5.859375
7541,-5.859375
7542,-5.859375
7543,-5.859375
7544,-5.859375
7545,-5.859375
7546,-3.906250
7547,-3.906250
7548,-3.906250
7549,-5.859375
7550,-3.906250
7551,-3.906250
7552,-3.906250
7553,-3.906250
7554,-3.906250
7555,-3.906250
7556,-3.906250
7557,-3.906250
7558,-3.906250
7559,-1.953125
7560,-1.953125
7561,-1.953125
7562,-1.953125
7563,-1.953125
7564,-1.953125
7565,-1.953125
7566,-1.953125
7567,-1.953125
7568,-1.953125
7569,0.000000
7570,0.000000
7571,-1.953125
7572,0.000000
7573,0.000000
7574,0.000000
7575,0.000000
7576,0.000000
7577,0.000000
7578,0.000000
7579,0.000000
7580,0.000000
7581,1.953125
7582,1.953125
7583,1.953125
7584,0.000000
7585,1.953125
7586,1.953125
7587,1.953125
7588,1.953125
7589,1.953125
7590,1.953125
7591,1.953125
7592,1.953125
7593,1.953125
7594,1.953125
7595,3.906250
7596,3.906250
7597,1.953125
7598,3.906250
7599,3.906250
7600,1.953125
7601,1.953125
7602,1.953125
7603,3.906250
7604,3.906250
7605,3.906250
7606,3.906250
7607,3.906250
7608,3.906250
7609,1.953125
7610,3.906250
7611,3.906250
7612,3.906250
7613,3.906250
7614,3.906250
7615,3.906250
7616,1.953125
7617,3.906250
7618,3.906250
7619,3.906250
7620,1.953125
7621,3.906250
7622,3.906250
7623,3.906250
7624,1.953125
7625,3.906250
7626,3.906250
7627,3.906250
7628,3.906250
7629,1.953125
7630,1.953125
7631,3.906250
7632,3.906250
7633,1.953125
7634,1.953125
7635,1.953125
7636,3.906250
7637,1.953125
7638,1.953125
7639,3.906250
7640,1.953125
7641,3.906250
7642,1.953125
7643,1.953125
7644,1.953125
7645,1.953125
7646,1.953125
7647,1.953125
7648,1.953125
7649,3.906250
7650,1.953125
7651,1.953125
7652,1.953125
7653,0.000000
7654,1.953125
7655,1.953125
7656,1.953125
7657,1.953125
7658,1.953125
7659,0.000000
7660,0.000000
7661,0.000000
7662,0.000000
7663,0.000000
7664,0.000000
7665,0.000000
7666,0.000000
7667,0.000000
7668,0.000000
7669,-1.953125
7670,-1.953125
7671,-1.953125
7672,-1.953125
7673,-1.953125
7674,-1.953125
7675,-1.953125
7676,-1.953125
7677,-1.953125
7678,-3.906250
7679,-1.953125
7680,-1.953125
7681,-3.906250
7682,-3.906250
7683,-3.906250
7684,-3.906250
7685,-3.906250
7686,-3.906250
7687,-3.906250
7688,-3.906250
7689,-7.812500
7690,-5.859375
7691,-5.859375
7692,-5.859375
7693,-5.859375
7694,-5.859375
7695,-5.859375
7696,-5.859375
7697,-5.859375
7698,-5.859375
7699,-5.859375
7700,-7.812500
7701,-5.859375
7702,-7.812500
7703,-7.812500
7704,-7.812500
7705,-5.859375
7706,-7.812500
7707,-7.812500
7708,-7.812500
7709,-7.812500
7710,-7.812500
7711,-7.812500
7712,-7.812500
7713,-7.812500
7714,-9.765625
7715,-9.765625
7716,-7.812500
7717,-9.765625
7718,-7.812500
7719,-9.765625
7720,-9.765625
7721,-9.765625
7722,-9.765625
7723,-9.765625
7724,-9.765625
7725,-9.765625
7726,-9.765625
7727,-9.765625
7728,-9.765625
7729,-11.718750
7730,-11.718750
7731,-11.718750
7732,-11.718750
7733,-11.718750
7734,-11.718750
7735,-11.718750
7736,-11.718750
7737,-11.718750
7738,-11.718750
7739,-11.718750
7740,-11.718750
7741,-11.718750
7742,-11.718750
7743,-11.718750
7744,-11.718750
7745,-13.671875
7746,-11.718750
7747,-13.671875
7748,-11.718750
7749,-13.671875
7750,-13.671875
7751,-11.718750
7752,-13.671875
7753,-13.671875
7754,-13.671875
7755,-13.671875
7756,-13.671875
7757,-13.671875
7758,-13.671875
7759,-13.671875
7760,-13.671875
7761,-13.671875
7762,-11.718750
7763,-13.671875
7764,-13.671875
7765,-13.671875
7766,-13.671875
7767,-13.671875
7768,-11.718750
7769,-13.671875
7770,-13.671875
7771,-11.718750
7772,-13.671875
7773,-13.671875
7774,-13.671875
7775,-13.671875
7776,-11.718750
7777,-11.718750
7778,-11.718750
7779,-11.718750
7780,-11.718750
7781,-11.718750
7782,-11.718750
7783,-11.718750
7784,-11.718750
7785,-11.718750
7786,-11.718750
7787,-11.718750
7788,-11.718750
7789,-9.765625
7790,-11.718750
7791,-11.718750
7792,-11.718750
7793,-11.718750
7794,-11.718750
7795,-9.765625
7796,-11.718750
7797,-11.718750
7798,-9.765625
7799,-9.765625
7800,-9.765625
7801,-9.765625
7802,-9.765625
7803,-9.765625
7804,-9.765625
7805,-9.765625
7806,-7.812500
7807,-9.765625
7808,-7.812500
7809,-7.812500
7810,-7.812500
7811,-7.812500
7812,-7.812500
7813,-7.812500
7814,-7.812500
7815,-7.812500
7816,-7.812500
7817,-7.812500
7818,-7.812500
7819,-5.859375
7820,-7.812500
7821,-5.859375
7822,-5.859375
7823,-7.812500
7824,-5.859375
7825,-5.859375
7826,-5.859375
7827,-5.859375
7828,-3.906250
7829,-5.859375
7830,-3.906250
7831,-3.906250
7832,-3.906250
7833,-3.906250
7834,-3.906250
7835,-3.906250
7836,-3.906250
7837,-3.906250
7838,-1.953125
7839,-3.906250
7840,-3.906250
7841,-1.953125
7842,-1.953125
7843,-1.953125
7844,-1.953125
7845,-1.953125
7846,-1.953125
7847,-1.953125
7848,-1.953125
7849,0.000000
7850,-1.953125
7851,-1.953125
7852,0.000000
7853,0.000000
7854,-1.953125
7855,0.000000
7856,0.000000
7857,0.000000
7858,0.000000
7859,0.000000
7860,0.000000
7861,0.000000
7862,0.000000
7863,0.000000
7864,1.953125
7865,1.953125
7866,0.000000
7867,3.906250
7868,1.953125
7869,1.953125
7870,1.953125
7871,1.953125
7872,1.953125
7873,1.953125
7874,1.953125
7875,1.953125
7876,1.953125
7877,3.906250
7878,1.953125
7879,1.953125
7880,3.906250
7881,1.953125
7882,3.906250
7883,1.953125
7884,3.906250
7885,3.906250
7886,3.906250
7887,1.953125
7888,3.906250
7889,3.906250
7890,3.906250
7891,3.906250
7892,1.953125
7893,1.953125
7894,3.906250
7895,3.906250
7896,3.906250
7897,3.906250
7898,3.906250
7899,3.906250
7900,3.906250
7901,3.906250
7902,3.906250
7903,3.906250
7904,3.906250
7905,3.906250
7906,3.906250
7907,3.906250
7908,3.906250
7909,3.906250
7910,1.953125
7911,3.906250
7912,3.906250
7913,3.906250
7914,3.906250
7915,3.906250
7916,3.906250
7917,3.906250
7918,3.906250
7919,3.906250
7920,1.953125
7921,1.953125
7922,1.953125
7923,3.906250
7924,1.953125
7925,1.953125
7926,1.953125
7927,1.953125
7928,1.953125
7929,1.953125
7930,1.953125
7931,1.953125
7932,1.953125
7933,1.953125
7934,1.953125
7935,1.953125
7936,1.953125
7937,1.953125
7938,0.000000
7939,0.000000
7940,0.000000
7941,0.000000
7942,0.000000
7943,1.953125
7944,0.000000
7945,0.000000
7946,0.000000
7947,0.000000
7948,0.000000
7949,0.000000
7950,0.000000
7951,0.000000
7952,0.000000
7953,-1.953125
7954,-1.953125
7955,0.000000
7956,-1.953125
7957,-1.953125
7958,-1.953125
7959,-1.953125
7960,-1.953125
7961,-1.953125
7962,-3.906250
7963,-1.953125
7964,-1.953125
7965,-1.953125
7966,-1.953125
7967,-3.906250
7968,-3.906250
7969,-3.906250
7970,-3.906250
7971,-3.906250
7972,-3.906250
7973,-3.906250
7974,-3.906250
7975,-3.906250
7976,-3.906250
7977,-5.859375
7978,-3.906250
7979,-3.906250
7980,-5.859375
7981,-5.859375
7982,-5.859375
7983,-5.859375
7984,-5.859375
7985,-5.859375
7986,-5.859375
7987,-5.859375
7988,-5.859375
7989,-7.812500
7990,-5.859375
7991,-7.812500
7992,-7.812500
7993,-7.812500
7994,-7.812500
7995,-7.812500
7996,-7.812500
7997,-7.812500
7998,-7.812500
7999,-7.812500
8000,-7.812500
8001,-9.765625
8002,-9.765625
8003,-7.812500
8004,-9.765625
8005,-9.765625
8006,-9.765625
8007,-9.765625
8008,-9.765625
8009,-9.765625
8010,-9.765625
8011,-9.765625
8012,-11.718750
8013,-9.765625
8014,-11.718750
8015,-11.718750
8016,-11.718750
8017,-11.718750
8018,-11.718750
8019,-11.718750
8020,-11.718750
8021,-11.718750
8022,-11.718750
8023,-11.718750
8024,-11.718750
8025,-11.718750
8026,-11.718750
8027,-11.718750
8028,-11.718750
8029,-15.625000
8030,-9.765625
8031,-11.718750
8032,-11.718750
8033,-11.718750
8034,-11.718750
8035,-15.625000
8036,-11.718750
8037,-13.671875
8038,-11.718750
8039,-13.671875
8040,-11.718750
8041,-13.671875
8042,-11.718750
8043,-11.718750
8044,-13.671875
8045,-13.671875
8046,-13.671875
8047,-11.718750
8048,-11.718750
8049,-11.718750
8050,-13.671875
8051,-13.671875
8052,-11.718750
8053,-11.718750
8054,-11.718750
8055,-13.671875
8056,-11.718750
8057,-11.718750
8058,-11.718750
8059,-11.718750
8060,-11.718750
8061,-11.718750
8062,-13.671875
8063,-13.671875
8064,-11.718750
8065,-11.718750
8066,-11.718750
8067,-11.718750
8068,-11.718750
8069,-11.718750
8070,-11.718750
8071,-11.718750
8072,-11.718750
8073,-11.718750
8074,-11.718750
8075,-11.718750
8076,-11.718750
8077,-11.718750
8078,-7.812500
8079,-11.718750
8080,-11.718750
8081,-9.765625
8082,-9.765625
8083,-9.765625
8084,-9.765625
8085,-9.765625
8086,-9.765625
8087,-9.765625
8088,-9.765625
8089,-9.765625
8090,-9.765625
8091,-9.765625
8092,-9.765625
8093,-7.812500
8094,-7.812500
8095,-7.812500
8096,-7.812500
8097,-7.812500
8098,-7.812500
8099,-7.812500
8100,-7.812500
8101,-7.812500
8102,-7.812500
8103,-5.859375
8104,-7.812500
8105,-5.859375
8106,-5.859375
8107,-5.859375
8108,-5.859375
8109,-5.859375
8110,-5.859375
8111,-5.859375
8112,-3.906250
8113,-3.906250
8114,-3.906250
8115,-5.859375
8116,-3.906250
8117,-3.906250
8118,-3.906250
8119,-3.906250
8120,-3.906250
8121,-3.906250
8122,-3.906250
8123,-3.906250
8124,-1.953125
8125,-3.906250
8126,-1.953125
8127,-1.953125
8128,-1.953125
8129,-1.953125
8130,-1.953125
8131,-1.953125
8132,0.000000
8133,-1.953125
8134,-1.953125
8135,-1.953125
8136,0.000000
8137,0.000000
8138,0.000000
8139,0.000000
8140,0.000000
8141,0.000000
8142,0.000000
8143,0.000000
8144,0.000000
8145,0.000000
8146,0.000000
8147,0.000000
8148,0.000000
8149,0.000000
8150,0.000000
8151,1.953125
8152,0.000000
8153,1.953125
8154,1.953125
8155,1.953125
8156,1.953125
8157,1.953125
8158,1.953125
8159,1.953125
8160,1.953125
8161,1.953125
8162,1.953125
8163,1.953125
8164,1.953125
8165,3.906250
8166,3.906250
8167,1.953125
8168,1.953125
8169,3.906250
8170,1.953125
8171,1.953125
8172,3.906250
8173,3.906250
8174,3.906250
8175,3.906250
8176,3.906250
8177,3.906250
8178,3.906250
8179,3.906250
8180,3.906250
8181,3.906250
8182,3.906250
8183,1.953125
8184,3.906250
8185,3.906250
8186,3.906250
8187,3.906250
8188,3.906250
8189,3.906250
8190,3.906250
8191,3.906250
8192,3.906250
8193,3.906250
8194,3.906250
8195,3.906250
8196,3.906250
8197,3.906250
8198,3.906250
8199,3.906250
8200,3.906250
8201,3.906250
8202,3.906250
8203,1.953125
8204,1.953125
8205,1.953125
8206,1.953125
8207,1.953125
8208,1.953125
8209,1.953125
8210,1.953125
8211,1.953125
8212,1.953125
8213,1.953125
8214,1.953125
8215,1.953125
8216,1.953125
8217,1.953125
8218,1.953125
8219,1.953125
8220,1.953125
8221,1.953125
8222,1.953125
8223,0.000000
8224,0.000000
8225,0.000000
8226,0.000000
8227,0.000000
8228,0.000000
8229,0.000000
8230,0.000000
8231,0.000000
8232,0.000000
8233,0.000000
8234,0.000000
8235,0.000000
8236,-1.953125
8237,0.000000
8238,-1.953125
8239,0.000000
8240,-1.953125
8241,-1.953125
8242,-1.953125
8243,-1.953125
8244,-1.953125
8245,-1.953125
8246,-1.953125
8247,-3.906250
8248,-1.953125
8249,-1.953125
8250,-3.906250
8251,-3.906250
8252,-3.906250
8253,-3.906250
8254,-3.906250
8255,-3.906250
8256,-3.906250
8257,-3.906250
8258,-5.859375
8259,-5.859375
8260,-5.859375
8261,-5.859375
8262,-5.859375
8263,-5.859375
8264,-5.859375
8265,-5.859375
8266,-5.859375
8267,-5.859375
8268,-5.859375
8269,-7.812500
8270,-7.812500
8271,-7.812500
8272,-7.812500
8273,-7.812500
8274,-7.812500
8275,-7.812500
8276,-7.812500
8277,-7.812500
8278,-7.812500
8279,-7.812500
8280,-7.812500
8281,-9.765625
8282,-9.765625
8283,-7.812500
8284,-9.765625
8285,-9.765625
8286,-9.765625
8287,-9.765625
8288,-9.765625
8289,-9.765625
8290,-9.765625
8291,-9.765625
8292,-9.765625
8293,-9.765625
8294,-9.765625
8295,-11.718750
8296,-11.718750
8297,-11.718750
8298,-11.718750
8299,-11.718750
8300,-11.718750
8301,-11.718750
8302,-11.718750
8303,-11.718750
8304,-11.718750
8305,-11.718750
8306,-11.718750
8307,-11.718750
8308,-11.718750
8309,-11.718750
8310,-11.718750
8311,-11.718750
8312,-11.718750
8313,-11.718750
8314,-11.718750
8315,-13.671875
8316,-11.718750
8317,-11.718750
8318,-13.671875
8319,-13.671875
8320,-13.671875
8321,-13.671875
8322,-13.671875
8323,-13.671875
8324,-13.671875
8325,-13.671875
8326,-13.671875
8327,-13.671875
8328,-13.671875
8329,-13.671875
8330,-13.671875
8331,-13.671875
8332,-13.671875
8333,-13.671875
8334,-13.671875
8335,-13.671875
8336,-13.671875
8337,-13.671875
8338,-13.671875
8339,-13.671875
8340,-13.671875
8341,-13.671875
8342,-11.718750
8343,-13.671875
8344,-11.718750
8345,-13.671875
8346,-13.671875
8347,-11.718750
8348,-11.718750
8349,-11.718750
8350,-11.718750
8351,-11.718750
8352,-11.718750
8353,-11.718750
8354,-11.718750
8355,-11.718750
8356,-11.718750
8357,-11.718750
8358,-11.718750
8359,-11.718750
8360,-11.718750
8361,-9.765625
8362,-9.765625
8363,-9.765625
8364,-9.765625
8365,-9.765625
8366,-9.765625
8367,-9.765625
8368,-9.765625
8369,-9.765625
8370,-9.765625
8371,-9.765625
8372,-9.765625
8373,-9.765625
8374,-9.765625
8375,-9.765625
8376,-9.765625
8377,-7.812500
8378,-7.812500
8379,-7.812500
8380,-7.812500
8381,-9.765625
8382,-7.812500
8383,-7.812500
8384,-7.812500
8385,-7.812500
8386,-7.812500
8387,-7.812500
8388,-5.859375
8389,-5.859375
8390,-5.859375
8391,-5.859375
8392,-5.859375
8393,-5.859375
8394,-5.859375
8395,-5.859375
8396,-5.859375
8397,-5.859375
8398,-5.859375
8399,-5.859375
8400,-3.906250
8401,-3.906250
8402,-3.906250
8403,-3.906250
8404,-3.906250
8405,-3.906250
8406,-3.906250
8407,-1.953125
8408,-3.906250
8409,-3.906250
8410,-1.953125
8411,-3.906250
8412,-1.953125
8413,-3.906250
8414,-1.953125
8415,-1.953125
8416,-1.953125
8417,-1.953125
8418,0.000000
8419,-1.953125
8420,0.000000
8421,-1.953125
8422,0.000000
8423,0.000000
8424,0.000000
8425,0.000000
8426,0.000000
8427,0.000000
8428,0.000000
8429,1.953125
8430,0.000000
8431,0.000000
8432,1.953125
8433,1.953125
8434,1.953125
8435,1.953125
8436,1.953125
8437,1.953125
8438,1.953125
8439,1.953125
8440,1.953125
8441,1.953125
8442,1.953125
8443,1.953125
8444,1.953125
8445,1.953125
8446,1.953125
8447,1.953125
8448,1.953125
8449,1.953125
8450,1.953125
8451,3.906250
8452,3.906250
8453,1.953125
8454,1.953125
8455,3.906250
8456,1.953125
8457,3.906250
8458,3.906250
8459,3.906250
8460,3.906250
8461,3.906250
8462,1.953125
8463,3.906250
8464,5.859375
8465,3.906250
8466,3.906250
8467,3.906250
8468,3.906250
8469,3.906250
8470,3.906250
8471,3.906250
8472,1.953125
8473,3.906250
8474,3.906250
8475,1.953125
8476,3.906250
8477,1.953125
8478,1.953125
8479,3.906250
8480,1.953125
8481,3.906250
8482,3.906250
8483,3.906250
8484,1.953125
8485,3.906250
8486,3.906250
8487,3.906250
8488,1.953125
8489,1.953125
8490,1.953125
8491,1.953125
8492,1.953125
8493,3.906250
8494,3.906250
8495,1.953125
8496,1.953125
8497,1.953125
8498,1.953125
8499,1.953125
8500,1.953125
8501,1.953125
8502,1.953125
8503,1.953125
8504,1.953125
8505,1.953125
8506,0.000000
8507,1.953125
8508,1.953125
8509,1.953125
8510,0.000000
8511,0.000000
8512,0.000000
8513,0.000000
8514,0.000000
8515,0.000000
8516,0.000000
8517,0.000000
8518,0.000000
8519,0.000000
8520,0.000000
8521,0.000000
8522,-1.953125
8523,-1.953125
8524,-1.953125
8525,-1.953125
8526,-1.953125
8527,-1.953125
8528,-1.953125
8529,-1.953125
8530,-1.953125
8531,-3.906250
8532,-3.906250
8533,-3.906250
8534,-3.906250
8535,-3.906250
8536,-3.906250
8537,-3.906250
8538,-3.906250
8539,-3.906250
8540,-3.906250
8541,-3.906250
8542,-3.906250
8543,-3.906250
8544,-3.906250
8545,-5.859375
8546,-5.859375
8547,-5.859375
8548,-5.859375
8549,-5.859375
8550,-5.859375
8551,-5.859375
8552,-5.859375
8553,-5.859375
8554,-5.859375
8555,-5.859375
8556,-5.859375
8557,-7.812500
8558,-7.812500
8559,-7.812500
8560,-7.812500
8561,-7.812500
8562,-7.812500
8563,-7.812500
8564,-7.812500
8565,-7.812500
8566,-7.812500
8567,-9.765625
8568,-7.812500
8569,-9.765625
8570,-9.765625
8571,-9.765625
8572,-9.765625
8573,-9.765625
8574,-11.718750
8575,-7.812500
8576,-9.765625
8577,-9.765625
8578,-9.765625
8579,-11.718750
8580,-11.718750
8581,-9.765625
8582,-11.718750
8583,-11.718750
8584,-11.718750
8585,-11.718750
8586,-11.718750
8587,-11.718750
8588,-11.718750
8589,-11.718750
8590,-11.718750
8591,-11.718750
8592,-11.718750
8593,-13.671875
8594,-11.718750
8595,-13.671875
8596,-11.718750
8597,-13.671875
8598,-11.718750
8599,-13.671875
8600,-11.718750
8601,-13.671875
8602,-13.671875
8603,-13.671875
8604,-13.671875
8605,-13.671875
8606,-13.671875
8607,-13.671875
8608,-11.718750
8609,-9.765625
8610,-13.671875
8611,-13.671875
8612,-13.671875
8613,-13.671875
8614,-11.718750
8615,-13.671875
8616,-13.671875
8617,-13.671875
8618,-11.718750
8619,-13.671875
8620,-13.671875
8621,-13.671875
8622,-11.718750
8623,-13.671875
8624,-13.671875
8625,-13.671875
8626,-13.671875
8627,-11.718750
8628,-11.718750
8629,-11.718750
8630,-11.718750
8631,-13.671875
8632,-9.765625
8633,-11.718750
8634,-11.718750
8635,-11.718750
8636,-11.718750
8637,-11.718750
8638,-11.718750
8639,-11.718750
8640,-11.718750
8641,-11.718750
8642,-11.718750
8643,-9.765625
8644,-11.718750
8645,-11.718750
8646,-9.765625
8647,-9.765625
8648,-13.671875
8649,-11.718750
8650,-9.765625
8651,-9.765625
8652,-9.765625
8653,-9.765625
8654,-9.765625
8655,-9.765625
8656,-9.765625
8657,-9.765625
8658,-9.765625
8659,-9.765625
8660,-9.765625
8661,-9.765625
8662,-9.765625
8663,-7.812500
8664,-9.765625
8665,-7.812500
8666,-7.812500
8667,-7.812500
8668,-7.812500
8669,-7.812500
8670,-7.812500
8671,-7.812500
8672,-7.812500
8673,-7.812500
8674,-7.812500
8675,-5.859375
8676,-5.859375
8677,-5.859375
8678,-5.859375
8679,-5.859375
8680,-5.859375
8681,-3.906250
8682,-5.859375
8683,-3.906250
8684,-5.859375
8685,-3.906250
8686,-3.906250
8687,-5.859375
8688,-3.906250
8689,-3.906250
8690,-3.906250
8691,-3.906250
8692,-3.906250
8693,-3.906250
8694,-1.953125
8695,-1.953125
8696,-1.953125
8697,-1.953125
8698,-1.953125
8699,-1.953125
8700,-1.953125
8701,-1.953125
8702,-1.953125
8703,-1.953125
8704,-1.953125
8705,0.000000
8706,0.000000
8707,0.000000
8708,0.000000
8709,0.000000
8710,0.000000
8711,0.000000
8712,0.000000
8713,0.000000
8714,0.000000
8715,0.000000
8716,0.000000
8717,1.953125
8718,1.953125
8719,1.953125
8720,0.000000
8721,1.953125
8722,0.000000
8723,1.953125
8724,1.953125
8725,1.953125
8726,1.953125
8727,1.953125
8728,1.953125
8729,1.953125
8730,1.953125
8731,1.953125
8732,1.953125
8733,1.953125
8734,1.953125
8735,1.953125
8736,1.953125
8737,1.953125
8738,1.953125
8739,1.953125
8740,3.906250
8741,3.906250
8742,3.906250
8743,3.906250
8744,3.906250
8745,3.906250
8746,3.906250
8747,3.906250
8748,3.906250
8749,3.906250
8750,3.906250
8751,3.906250
8752,3.906250
8753,3.906250
8754,3.906250
8755,3.906250
8756,3.906250
8757,3.906250
8758,3.906250
8759,3.906250
8760,3.906250
8761,3.906250
8762,3.906250
8763,3.906250
8764,3.906250
8765,3.906250
8766,1.953125
8767,1.953125
8768,3.906250
8769,3.906250
8770,3.906250
8771,1.953125
8772,1.953125
8773,1.953125
8774,1.953125
8775,3.906250
8776,3.906250
8777,1.953125
8778,1.953125
8779,1.953125
8780,1.953125
8781,1.953125
8782,1.953125
8783,1.953125
8784,1.953125
8785,1.953125
8786,1.953125
8787,0.000000
8788,1.953125
8789,1.953125
8790,1.953125
8791,0.000000
8792,0.000000
8793,0.000000
8794,0.000000
8795,0.000000
8796,0.000000
8797,0.000000
8798,0.000000
8799,0.000000
8800,-1.953125
8801,0.000000
8802,-1.953125
8803,0.000000
8804,-1.953125
8805,-1.953125
8806,-1.953125
8807,-1.953125
8808,-1.953125
8809,-1.953125
8810,-1.953125
8811,-1.953125
8812,-1.953125
8813,-1.953125
8814,-1.953125
8815,-1.953125
8816,-3.906250
8817,-1.953125
8818,-3.906250
8819,-3.906250
8820,-3.906250
8821,-3.906250
8822,-3.906250
8823,-3.906250
8824,-3.906250
8825,-3.906250
8826,-3.906250
8827,-5.859375
8828,-5.859375
8829,-5.859375
8830,-5.859375
8831,-5.859375
8832,-5.859375
8833,-5.859375
8834,-5.859375
8835,-5.859375
8836,-5.859375
8837,-5.859375
8838,-7.812500
8839,-7.812500
8840,-5.859375
8841,-7.812500
8842,-7.812500
8843,-7.812500
8844,-7.812500
8845,-7.812500
8846,-7.812500
8847,-9.765625
8848,-7.812500
8849,-9.765625
8850,-9.765625
8851,-9.765625
8852,-9.765625
8853,-9.765625
8854,-9.765625
8855,-9.765625
8856,-9.765625
8857,-9.765625
8858,-9.765625
8859,-9.765625
8860,-9.765625
8861,-11.718750
8862,-11.718750
8863,-9.765625
8864,-11.718750
8865,-11.718750
8866,-11.718750
8867,-11.718750
8868,-11.718750
8869,-11.718750
8870,-11.718750
8871,-11.718750
8872,-11.718750
8873,-11.718750
8874,-11.718750
8875,-11.718750
8876,-11.718750
8877,-11.718750
8878,-11.718750
8879,-11.718750
8880,-11.718750
8881,-11.718750
8882,-11.718750
8883,-13.671875
8884,-11.718750
8885,-11.718750
8886,-11.718750
8887,-13.671875
8888,-13.671875
8889,-11.718750
8890,-13.671875
8891,-13.671875
8892,-13.671875
8893,-11.718750
8894,-13.671875
8895,-13.671875
8896,-13.671875
8897,-13.671875
8898,-13.671875
8899,-13.671875
8900,-13.671875
8901,-13.671875
8902,-13.671875
8903,-13.671875
8904,-13.671875
8905,-13.671875
8906,-13.671875
8907,-11.718750
8908,-13.671875
8909,-13.671875
8910,-13.671875
8911,-11.718750
8912,-13.671875
8913,-11.718750
8914,-13.671875
8915,-13.671875
8916,-11.718750
8917,-11.718750
8918,-11.718750
8919,-11.718750
8920,-11.718750
8921,-11.718750
8922,-11.718750
8923,-11.718750
8924,-11.718750
8925,-11.718750
8926,-11.718750
8927,-11.718750
8928,-11.718750
8929,-11.718750
8930,-9.765625
8931,-9.765625
8932,-11.718750
8933,-11.718750
8934,-9.765625
8935,-9.765625
8936,-9.765625
8937,-9.765625
8938,-9.765625
8939,-9.765625
8940,-9.765625
8941,-9.765625
8942,-9.765625
8943,-9.765625
8944,-9.765625
8945,-7.812500
8946,-9.765625
8947,-7.812500
8948,-7.812500
8949,-7.812500
8950,-7.812500
8951,-7.812500
8952,-7.812500
8953,-5.859375
8954,-5.859375
8955,-7.812500
8956,-5.859375
8957,-5.859375
8958,-5.859375
8959,-5.859375
8960,-5.859375
8961,-5.859375
8962,-5.859375
8963,-5.859375
8964,-5.859375
8965,-3.906250
8966,-3.906250
8967,-3.906250
8968,-3.906250
8969,-3.906250
8970,-3.906250
8971,-3.906250
8972,-3.906250
8973,-3.906250
8974,-3.906250
8975,-1.953125
8976,-3.906250
8977,-3.906250
8978,-1.953125
8979,-1.953125
8980,-1.953125
8981,-1.953125
8982,-3.906250
8983,-1.953125
8984,-1.953125
8985,-1.953125
8986,-1.953125
8987,-1.953125
8988,-1.953125
8989,0.000000
8990,-1.953125
8991,0.000000
8992,-1.953125
8993,0.000000
8994,0.000000
8995,0.000000
8996,0.000000
8997,0.000000
8998,1.953125
8999,0.000000
9000,1.953125
9001,0.000000
9002,1.953125
9003,1.953125
9004,1.953125
9005,1.953125
9006,1.953125
9007,1.953125
9008,1.953125
9009,1.953125
9010,1.953125
9011,1.953125
9012,1.953125
9013,1.953125
9014,1.953125
9015,1.953125
9016,3.906250
9017,3.906250
9018,1.953125
9019,1.953125
9020,3.906250
9021,3.906250
9022,3.906250
9023,3.906250
9024,3.906250
9025,3.906250
9026,3.906250
9027,3.906250
9028,3.906250
9029,3.906250
9030,3.906250
9031,3.906250
9032,3.906250
9033,3.906250
9034,3.906250
9035,3.906250
9036,3.906250
9037,3.906250
9038,3.906250
9039,3.906250
9040,3.906250
9041,1.953125
9042,3.906250
9043,3.906250
9044,3.906250
9045,1.953125
9046,3.906250
9047,1.953125
9048,3.906250
9049,3.906250
9050,1.953125
9051,1.953125
9052,3.906250
9053,1.953125
9054,3.906250
9055,1.953125
9056,1.953125
9057,1.953125
9058,1.953125
9059,1.953125
9060,1.953125
9061,1.953125
9062,1.953125
9063,1.953125
9064,1.953125
9065,1.953125
9066,1.953125
9067,1.953125
9068,1.953125
9069,1.953125
9070,1.953125
9071,1.953125
9072,1.953125
9073,1.953125
9074,1.953125
9075,1.953125
9076,0.000000
9077,0.000000
9078,0.000000
9079,0.000000
9080,0.000000
9081,0.000000
9082,0.000000
9083,0.000000
9084,0.000000
9085,0.000000
9086,0.000000
9087,0.000000
9088,0.000000
9089,0.000000
9090,-1.953125
9091,-1.953125
9092,0.000000
9093,-1.953125
9094,-1.953125
9095,-1.953125
9096,-1.953125
9097,-1.953125
9098,-3.906250
9099,-1.953125
9100,-1.953125
9101,-3.906250
9102,-3.906250
9103,-3.906250
9104,-3.906250
9105,-3.906250
9106,-3.906250
9107,-3.906250
9108,-3.906250
9109,-3.906250
9110,-3.906250
9111,-5.859375
9112,-3.906250
9113,-5.859375
9114,-5.859375
9115,-5.859375
9116,-5.859375
9117,-5.859375
9118,-5.859375
9119,-5.859375
9120,-5.859375
9121,-5.859375
9122,-7.812500
9123,-7.812500
9124,-7.812500
9125,-7.812500
9126,-7.812500
9127,-7.812500
9128,-7.812500
9129,-7.812500
9130,-7.812500
9131,-7.812500
9132,-7.812500
9133,-7.812500
9134,-9.765625
9135,-9.765625
9136,-9.765625
9137,-9.765625
9138,-9.765625
9139,-9.765625
9140,-9.765625
9141,-9.765625
9142,-9.765625
9143,-9.765625
9144,-9.765625
9145,-9.765625
9146,-9.765625
9147,-11.718750
9148,-9.765625
9149,-9.765625
9150,-11.718750
9151,-11.718750
9152,-11.718750
9153,-9.765625
9154,-11.718750
9155,-11.718750
9156,-11.718750
9157,-11.718750
9158,-11.718750
9159,-11.718750
9160,-11.718750
9161,-11.718750
9162,-11.718750
9163,-11.718750
9164,-11.718750
9165,-13.671875
9166,-13.671875
9167,-13.671875
9168,-13.671875
9169,-13.671875
9170,-13.671875
9171,-11.718750
9172,-13.671875
9173,-13.671875
9174,-13.671875
9175,-13.671875
9176,-13.671875
9177,-11.718750
9178,-13.671875
9179,-13.671875
9180,-13.671875
9181,-13.671875
9182,-13.671875
9183,-11.718750
9184,-13.671875
9185,-13.671875
9186,-13.671875
9187,-13.671875
9188,-13.671875
9189,-13.671875
9190,-15.625000
9191,-13.671875
9192,-13.671875
9193,-13.671875
9194,-13.671875
9195,-13.671875
9196,-13.671875
9197,-13.671875
9198,-11.718750
9199,-11.718750
9200,-11.718750
9201,-13.671875
9202,-11.718750
9203,-11.718750
9204,-11.718750
9205,-11.718750
9206,-11.718750
9207,-11.718750
9208,-11.718750
9209,-11.718750
9210,-11.718750
9211,-11.718750
9212,-11.718750
9213,-11.718750
9214,-11.718750
9215,-9.765625
9216,-11.718750
9217,-9.765625
9218,-9.765625
9219,-9.765625
9220,-9.765625
9221,-9.765625
9222,-9.765625
9223,-9.765625
9224,-9.765625
9225,-9.765625
9226,-9.765625
9227,-9.765625
9228,-9.765625
9229,-9.765625
9230,-9.765625
9231,-9.765625
9232,-7.812500
9233,-7.812500
9234,-9.765625
9235,-7.812500
9236,-7.812500
9237,-7.812500
9238,-7.812500
9239,-5.859375
9240,-5.859375
9241,-7.812500
9242,-7.812500
9243,-7.812500
9244,-5.859375
9245,-5.859375
9246,-5.859375
9247,-5.859375
9248,-5.859375
9249,-5.859375
9250,-5.859375
9251,-5.859375
9252,-3.906250
9253,-3.906250
9254,-3.906250
9255,-3.906250
9256,-3.906250
9257,-3.906250
9258,-3.906250
9259,-3.906250
9260,-3.906250
9261,-3.906250
9262,-1.953125
9263,-1.953125
9264,-1.953125
9265,-1.953125
9266,-1.953125
9267,-1.953125
9268,-1.953125
9269,-1.953125
9270,-1.953125
9271,-1.953125
9272,0.000000
9273,0.000000
9274,0.000000
9275,0.000000
9276,-1.953125
9277,0.000000
9278,0.000000
9279,-1.953125
9280,0.000000
9281,0.000000
9282,0.000000
9283,0.000000
9284,0.000000
9285,0.000000
9286,0.000000
9287,1.953125
9288,1.953125
9289,1.953125
9290,1.953125
9291,1.953125
9292,1.953125
9293,1.953125
9294,1.953125
9295,1.953125
9296,1.953125
9297,1.953125
9298,1.953125
9299,1.953125
9300,1.953125
9301,1.953125
9302,1.953125
9303,1.953125
9304,1.953125
9305,1.953125
9306,3.906250
9307,1.953125
9308,1.953125
9309,3.906250
9310,1.953125
9311,3.906250
9312,3.906250
9313,1.953125
9314,1.953125
9315,3.906250
9316,3.906250
9317,3.906250
9318,3.906250
9319,3.906250
9320,3.906250
9321,3.906250
9322,3.906250
9323,3.906250
9324,3.906250
9325,3.906250
9326,3.906250
9327,3.906250
9328,3.906250
9329,3.906250
9330,3.906250
9331,3.906250
9332,3.906250
9333,3.906250
9334,3.906250
9335,3.906250
9336,1.953125
9337,3.906250
9338,3.906250
9339,3.906250
9340,1.953125
9341,1.953125
9342,3.906250
9343,3.906250
9344,1.953125
9345,1.953125
9346,1.953125
9347,1.953125
9348,1.953125
9349,1.953125
9350,1.953125
9351,1.953125
9352,1.953125
9353,1.953125
9354,1.953125
9355,1.953125
9356,1.953125
9357,0.000000
9358,0.000000
9359,1.953125
9360,0.000000
9361,0.000000
9362,0.000000
9363,0.000000
9364,0.000000
9365,0.000000
9366,-1.953125
9367,-1.953125
9368,0.000000
9369,0.000000
9370,-1.953125
9371,-1.953125
9372,-1.953125
9373,-1.953125
9374,0.000000
9375,-1.953125
9376,-1.953125
9377,-1.953125
9378,-1.953125
9379,-1.953125
9380,-1.953125
9381,-1.953125
9382,-1.953125
9383,-1.953125
9384,-1.953125
9385,-7.812500
9386,-3.906250
9387,-1.953125
9388,0.000000
9389,-3.906250
9390,-3.906250
9391,-3.906250
9392,-3.906250
9393,-3.906250
9394,-3.906250
9395,-3.906250
9396,-3.906250
9397,-3.906250
9398,-5.859375
9399,-5.859375
9400,-3.906250
9401,-5.859375
9402,-5.859375
9403,-5.859375
9404,-5.859375
9405,-5.859375
9406,-5.859375
9407,-5.859375
9408,-7.812500
9409,-7.812500
9410,-7.812500
9411,-7.812500
9412,-7.812500
9413,-7.812500
9414,-7.812500
9415,-7.812500
9416,-7.812500
9417,-7.812500
9418,-7.812500
9419,-9.765625
9420,-7.812500
9421,-7.812500
9422,-9.765625
9423,-9.765625
9424,-9.765625
9425,-9.765625
9426,-9.765625
9427,-9.765625
9428,-9.765625
9429,-9.765625
9430,-9.765625
9431,-11.718750
9432,-11.718750
9433,-11.718750
9434,-13.671875
9435,-9.765625
9436,-11.718750
9437,-9.765625
9438,-9.765625
9439,-11.718750
9440,-11.718750
9441,-11.718750
9442,-11.718750
9443,-11.718750
9444,-11.718750
9445,-11.718750
9446,-11.718750
9447,-11.718750
9448,-11.718750
9449,-11.718750
9450,-11.718750
9451,-13.671875
9452,-11.718750
9453,-11.718750
9454,-11.718750
9455,-11.718750
9456,-11.718750
9457,-11.718750
9458,-13.671875
9459,-11.718750
9460,-13.671875
9461,-11.718750
9462,-11.718750
9463,-11.718750
9464,-11.718750
9465,-13.671875
9466,-13.671875
9467,-13.671875
9468,-13.671875
9469,-11.718750
9470,-13.671875
9471,-13.671875
9472,-11.718750
9473,-13.671875
9474,-11.718750
9475,-13.671875
9476,-11.718750
9477,-11.718750
9478,-11.718750
9479,-11.718750
9480,-11.718750
9481,-11.718750
9482,-13.671875
9483,-11.718750
9484,-11.718750
9485,-11.718750
9486,-11.718750
9487,-11.718750
9488,-11.718750
9489,-11.718750
9490,-11.718750
9491,-11.718750
9492,-11.718750
9493,-11.718750
9494,-11.718750
9495,-11.718750
9496,-11.718750
9497,-9.765625
9498,-11.718750
9499,-11.718750
9500,-9.765625
9501,-9.765625
9502,-9.765625
9503,-9.765625
9504,-9.765625
9505,-9.765625
9506,-9.765625
9507,-9.765625
9508,-9.765625
9509,-9.765625
9510,-9.765625
9511,-9.765625
9512,-9.765625
9513,-7.812500
9514,-7.812500
9515,-7.812500
9516,-7.812500
9517,-7.812500
9518,-7.812500
9519,-7.812500
9520,-7.812500
9521,-7.812500
9522,-5.859375
9523,-5.859375
9524,-7.812500
9525,-5.859375
9526,-5.859375
9527,-5.859375
9528,-5.859375
9529,-5.859375
9530,-5.859375
9531,-5.859375
9532,-3.906250
9533,-3.906250
9534,-5.859375
9535,-3.906250
9536,-3.906250
9537,-3.906250
9538,-3.906250
9539,-3.906250
9540,-3.906250
9541,-1.953125
9542,-1.953125
9543,-3.906250
9544,-1.953125
9545,-3.906250
9546,-1.953125
9547,-1.953125
9548,-1.953125
9549,-1.953125
9550,-1.953125
9551,-1.953125
9552,-1.953125
9553,-1.953125
9554,-1.953125
9555,-1.953125
9556,-1.953125
9557,-1.953125
9558,-1.953125
9559,0.000000
9560,0.000000
9561,0.000000
9562,0.000000
9563,0.000000
9564,0.000000
9565,0.000000
9566,0.000000
9567,0.000000
9568,0.000000
9569,1.953125
9570,0.000000
9571,1.953125
9572,1.953125
9573,1.953125
9574,1.953125
9575,1.953125
9576,1.953125
9577,1.953125
9578,1.953125
9579,1.953125
9580,1.953125
9581,1.953125
9582,1.953125
9583,1.953125
9584,1.953125
9585,1.953125
9586,1.953125
9587,1.953125
9588,1.953125
9589,3.906250
9590,3.906250
9591,3.906250
9592,3.906250
9593,3.906250
9594,3.906250
9595,3.906250
9596,3.906250
9597,3.906250
9598,3.906250
9599,3.906250
9600,3.906250
9601,3.906250
9602,3.906250
9603,3.906250
9604,3.906250
9605,3.906250
9606,3.906250
9607,3.906250
9608,3.906250
9609,1.953125
9610,3.906250
9611,3.906250
9612,3.906250
9613,3.906250
9614,3.906250
9615,3.906250
9616,3.906250
9617,3.906250
9618,3.906250
9619,3.906250
9620,3.906250
9621,1.953125
9622,3.906250
9623,1.953125
9624,1.953125
9625,1.953125
9626,1.953125
9627,1.953125
9628,1.953125
9629,1.953125
9630,1.953125
9631,1.953125
9632,3.906250
9633,1.953125
9634,1.953125
9635,1.953125
9636,1.953125
9637,1.953125
9638,1.953125
9639,0.000000
9640,1.953125
9641,0.000000
9642,1.953125
9643,0.000000
9644,0.000000
9645,0.000000
9646,0.000000
9647,0.000000
9648,0.000000
9649,0.000000
9650,0.000000
9651,0.000000
9652,0.000000
9653,0.000000
9654,0.000000
9655,0.000000
9656,0.000000
9657,-1.953125
9658,-1.953125
9659,-1.953125
9660,-1.953125
9661,-1.953125
9662,-1.953125
9663,-1.953125
9664,-1.953125
9665,-1.953125
9666,-1.953125
9667,-1.953125
9668,-1.953125
9669,-3.906250
9670,-3.906250
9671,-3.906250
9672,-3.906250
9673,-3.906250
9674,-3.906250
9675,-3.906250
9676,-3.906250
9677,-5.859375
9678,-3.906250
9679,-3.906250
9680,-5.859375
9681,-5.859375
9682,-5.859375
9683,-5.859375
9684,-5.859375
9685,-5.859375
9686,-5.859375
9687,-5.859375
9688,-5.859375
9689,-5.859375
9690,-7.812500
9691,-7.812500
9692,-7.812500
9693,-7.812500
9694,-7.812500
9695,-7.812500
9696,-7.812500
9697,-7.812500
9698,-7.812500
9699,-9.765625
9700,-7.812500
9701,-9.765625
9702,-9.765625
9703,-9.765625
9704,-9.765625
9705,-9.765625
9706,-9.765625
9707,-9.765625
9708,-9.765625
9709,-9.765625
9710,-9.765625
9711,-9.765625
9712,-9.765625
9713,-11.718750
9714,-9.765625
9715,-9.765625
9716,-11.718750
9717,-11.718750
9718,-9.765625
9719,-9.765625
9720,-11.718750
9721,-11.718750
9722,-11.718750
9723,-11.718750
9724,-11.718750
9725,-11.718750
9726,-11.718750
9727,-11.718750
9728,-11.718750
9729,-11.718750
9730,-11.718750
9731,-11.718750
9732,-11.718750
9733,-11.718750
9734,-13.671875
9735,-11.718750
9736,-11.718750
9737,-11.718750
9738,-11.718750
9739,-11.718750
9740,-13.671875
9741,-13.671875
9742,-13.671875
9743,-13.671875
9744,-13.671875
9745,-13.671875
9746,-13.671875
9747,-13.671875
9748,-13.671875
9749,-13.671875
9750,-13.671875
9751,-13.671875
9752,-13.671875
9753,-13.671875
9754,-13.671875
9755,-13.671875
9756,-11.718750
9757,-13.671875
9758,-13.671875
9759,-13.671875
9760,-13.671875
9761,-11.718750
9762,-13.671875
9763,-13.671875
9764,-13.671875
9765,-13.671875
9766,-11.718750
9767,-11.718750
9768,-11.718750
9769,-11.718750
9770,-13.671875
9771,-11.718750
9772,-11.718750
9773,-11.718750
9774,-11.718750
9775,-11.718750
9776,-11.718750
9777,-11.718750
9778,-11.718750
9779,-11.718750
9780,-11.718750
9781,-11.718750
9782,-11.718750
9783,-9.765625
9784,-11.718750
9785,-11.718750
9786,-9.765625
9787,-9.765625
9788,-9.765625
9789,-9.765625
9790,-9.765625
9791,-9.765625
9792,-9.765625
9793,-9.765625
9794,-9.765625
9795,-9.765625
9796,-7.812500
9797,-7.812500
9798,-7.812500
9799,-7.812500
9800,-7.812500
9801,-7.812500
9802,-7.812500
9803,-7.812500
9804,-7.812500
9805,-7.812500
9806,-5.859375
9807,-7.812500
9808,-7.812500
9809,-5.859375
9810,-7.812500
9811,-7.812500
9812,-5.859375
9813,-5.859375
9814,-5.859375
9815,-5.859375
9816,-5.859375
9817,-5.859375
9818,-5.859375
9819,-5.859375
9820,-3.906250
9821,-3.906250
9822,-3.906250
9823,-3.906250
9824,-3.906250
9825,-3.906250
9826,-3.906250
9827,-3.906250
9828,-3.906250
9829,-3.906250
9830,-3.906250
9831,-1.953125
9832,-1.953125
9833,-1.953125
9834,-1.953125
9835,-1.953125
9836,-1.953125
9837,-1.953125
9838,-1.953125
9839,-1.953125
9840,-1.953125
9841,0.000000
9842,0.000000
9843,0.000000
9844,0.000000
9845,0.000000
9846,0.000000
9847,0.000000
9848,0.000000
9849,0.000000
9850,0.000000
9851,0.000000
9852,1.953125
9853,0.000000
9854,0.000000
9855,0.000000
9856,1.953125
9857,0.000000
9858,1.953125
9859,0.000000
9860,1.953125
9861,1.953125
9862,1.953125
9863,1.953125
9864,1.953125
9865,1.953125
9866,1.953125
9867,1.953125
9868,1.953125
9869,1.953125
9870,1.953125
9871,3.906250
9872,1.953125
9873,1.953125
9874,1.953125
9875,1.953125
9876,3.906250
9877,3.906250
9878,3.906250
9879,1.953125
9880,1.953125
9881,3.906250
9882,3.906250
9883,3.906250
9884,3.906250
9885,3.906250
9886,3.906250
9887,1.953125
9888,3.906250
9889,3.906250
9890,3.906250
9891,3.906250
9892,1.953125
9893,1.953125
9894,1.953125
9895,3.906250
9896,3.906250
9897,3.906250
9898,1.953125
9899,3.906250
9900,1.953125
9901,3.906250
9902,3.906250
9903,3.906250
9904,3.906250
9905,3.906250
9906,3.906250
9907,1.953125
9908,1.953125
9909,1.953125
9910,1.953125
9911,3.906250
9912,1.953125
9913,1.953125
9914,1.953125
9915,1.953125
9916,1.953125
9917,1.953125
9918,1.953125
9919,1.953125
9920,1.953125
9921,1.953125
9922,1.953125
9923,1.953125
9924,1.953125
9925,1.953125
9926,1.953125
9927,1.953125
9928,0.000000
9929,0.000000
9930,0.000000
9931,0.000000
9932,0.000000
9933,0.000000
9934,0.000000
9935,0.000000
9936,0.000000
9937,0.000000
9938,0.000000
9939,0.000000
9940,0.000000
9941,0.000000
9942,-1.953125
9943,-1.953125
9944,-1.953125
9945,-1.953125
9946,-1.953125
9947,-1.953125
9948,-1.953125
9949,-1.953125
9950,-1.953125
9951,-3.906250
9952,-3.906250
9953,-3.906250
9954,-3.906250
9955,-3.906250
9956,-3.906250
9957,-3.906250
9958,-3.906250
9959,-3.906250
9960,-3.906250
9961,-3.906250
9962,-3.906250
9963,-5.859375
9964,-5.859375
9965,-5.859375
9966,-5.859375
9967,-5.859375
9968,-5.859375
9969,-5.859375
9970,-5.859375
9971,-5.859375
9972,-5.859375
9973,-5.859375
9974,-7.812500
9975,-5.859375
9976,-7.812500
9977,-7.812500
9978,-7.812500
9979,-7.812500
9980,-7.812500
9981,-7.812500
9982,-7.812500
9983,-7.812500
9984,-7.812500
9985,-7.812500
9986,-7.812500
9987,-7.812500
9988,-7.812500
9989,-9.765625
9990,-9.765625
9991,-7.812500
9992,-9.765625
9993,-9.765625
9994,-9.765625
9995,-9.765625
9996,-9.765625
9997,-9.765625
9998,-9.765625
9999,-9.765625
10000,-9.765625
