Channel              :,CH1
Frequency            :,1.759kHz
Period               :,0.568ms
PK-PK                :,160.2mV
Probe attenuation    :,1X
Voltage per ADC value:,0.122070mV
Time interval        :,2.00000us

index,CH1_Voltage(mV)
1,52.734375
2,52.734375
3,52.734375
4,50.781250
5,50.781250
6,48.828125
7,48.828125
8,46.875000
9,44.921875
10,44.921875
11,42.968750
12,41.015625
13,41.015625
14,39.062500
15,39.062500
16,37.109375
17,35.156250
18,33.203125
19,33.203125
20,31.250000
21,29.296875
22,27.343750
23,27.343750
24,25.390625
25,23.437500
26,21.484375
27,19.531250
28,19.531250
29,17.578125
30,15.625000
31,13.671875
32,11.718750
33,9.765625
34,7.812500
35,7.812500
36,5.859375
37,3.906250
38,1.953125
39,0.000000
40,-1.953125
41,-3.906250
42,-5.859375
43,-7.812500
44,-7.812500
45,-9.765625
46,-11.718750
47,-13.671875
48,-15.625000
49,-17.578125
50,-19.531250
51,-21.484375
52,-23.437500
53,-23.437500
54,-25.390625
55,-29.296875
56,-29.296875
57,-31.250000
58,-33.203125
59,-35.156250
60,-37.109375
61,-39.062500
62,-39.062500
63,-41.015625
64,-42.968750
65,-44.921875
66,-46.875000
67,-46.875000
68,-48.828125
69,-50.781250
70,-52.734375
71,-52.734375
72,-54.687500
73,-56.640625
74,-58.593750
75,-58.593750
76,-60.546875
77,-62.500000
78,-62.500000
79,-64.453125
80,-66.406250
81,-66.406250
82,-68.359375
83,-68.359375
84,-70.312500
85,-70.312500
86,-72.265625
87,-72.265625
88,-74.218750
89,-76.171875
90,-74.218750
91,-76.171875
92,-76.171875
93,-78.125000
94,-78.125000
95,-78.125000
96,-80.078125
97,-80.078125
98,-82.031250
99,-82.031250
100,-82.031250
101,-82.031250
102,-83.984375
103,-83.984375
104,-83.984375
105,-83.984375
106,-83.984375
107,-83.984375
108,-83.984375
109,-85.937500
110,-83.984375
111,-85.937500
112,-85.937500
113,-85.937500
114,-85.937500
115,-83.984375
116,-83.984375
117,-85.937500
118,-83.984375
119,-83.984375
120,-83.984375
121,-83.984375
122,-83.984375
123,-83.984375
124,-82.031250
125,-82.031250
126,-80.078125
127,-80.078125
128,-80.078125
129,-80.078125
130,-78.125000
131,-78.125000
132,-78.125000
133,-76.171875
134,-76.171875
135,-74.218750
136,-74.218750
137,-72.265625
138,-72.265625
139,-70.312500
140,-68.359375
141,-68.359375
142,-68.359375
143,-66.406250
144,-64.453125
145,-62.500000
146,-62.500000
147,-60.546875
148,-58.593750
149,-58.593750
150,-56.640625
151,-56.640625
152,-54.687500
153,-52.734375
154,-50.781250
155,-48.828125
156,-48.828125
157,-46.875000
158,-44.921875
159,-42.968750
160,-42.968750
161,-41.015625
162,-39.062500
163,-37.109375
164,-35.156250
165,-33.203125
166,-31.250000
167,-31.250000
168,-29.296875
169,-27.343750
170,-25.390625
171,-23.437500
172,-21.484375
173,-19.531250
174,-17.578125
175,-17.578125
176,-15.625000
177,-13.671875
178,-11.718750
179,-9.765625
180,-7.812500
181,-5.859375
182,-5.859375
183,-1.953125
184,-1.953125
185,0.000000
186,1.953125
187,3.906250
188,5.859375
189,7.812500
190,7.812500
191,11.718750
192,11.718750
193,13.671875
194,15.625000
195,17.578125
196,19.531250
197,21.484375
198,21.484375
199,23.437500
200,25.390625
201,27.343750
202,27.343750
203,31.250000
204,31.250000
205,33.203125
206,33.203125
207,35.156250
208,37.109375
209,39.062500
210,39.062500
211,41.015625
212,42.968750
213,42.968750
214,44.921875
215,46.875000
216,46.875000
217,48.828125
218,48.828125
219,50.781250
220,52.734375
221,52.734375
222,54.687500
223,54.687500
224,56.640625
225,56.640625
226,58.593750
227,58.593750
228,60.546875
229,60.546875
230,60.546875
231,62.500000
232,62.500000
233,64.453125
234,64.453125
235,64.453125
236,66.406250
237,66.406250
238,66.406250
239,66.406250
240,68.359375
241,68.359375
242,68.359375
243,70.312500
244,68.359375
245,70.312500
246,70.312500
247,70.312500
248,70.312500
249,70.312500
250,70.312500
251,70.312500
252,72.265625
253,70.312500
254,70.312500
255,70.312500
256,70.312500
257,70.312500
258,70.312500
259,70.312500
260,70.312500
261,72.265625
262,70.312500
263,70.312500
264,70.312500
265,68.359375
266,68.359375
267,68.359375
268,68.359375
269,68.359375
270,66.406250
271,66.406250
272,64.453125
273,64.453125
274,64.453125
275,64.453125
276,62.500000
277,62.500000
278,60.546875
279,60.546875
280,60.546875
281,58.593750
282,58.593750
283,54.687500
284,56.640625
285,54.687500
286,54.687500
287,52.734375
288,50.781250
289,50.781250
290,48.828125
291,48.828125
292,46.875000
293,44.921875
294,42.968750
295,42.968750
296,42.968750
297,41.015625
298,39.062500
299,37.109375
300,37.109375
301,35.156250
302,33.203125
303,31.250000
304,29.296875
305,29.296875
306,27.343750
307,27.343750
308,25.390625
309,23.437500
310,21.484375
311,19.531250
312,17.578125
313,15.625000
314,15.625000
315,13.671875
316,11.718750
317,9.765625
318,7.812500
319,5.859375
320,3.906250
321,3.906250
322,1.953125
323,0.000000
324,-1.953125
325,-3.906250
326,-5.859375
327,-7.812500
328,-7.812500
329,-11.718750
330,-11.718750
331,-13.671875
332,-15.625000
333,-17.578125
334,-19.531250
335,-21.484375
336,-23.437500
337,-25.390625
338,-25.390625
339,-27.343750
340,-29.296875
341,-31.250000
342,-33.203125
343,-35.156250
344,-35.156250
345,-37.109375
346,-39.062500
347,-41.015625
348,-42.968750
349,-44.921875
350,-44.921875
351,-46.875000
352,-48.828125
353,-50.781250
354,-50.781250
355,-52.734375
356,-52.734375
357,-56.640625
358,-56.640625
359,-58.593750
360,-60.546875
361,-60.546875
362,-62.500000
363,-64.453125
364,-64.453125
365,-66.406250
366,-68.359375
367,-68.359375
368,-68.359375
369,-70.312500
370,-72.265625
371,-72.265625
372,-74.218750
373,-74.218750
374,-76.171875
375,-76.171875
376,-76.171875
377,-78.125000
378,-78.125000
379,-80.078125
380,-80.078125
381,-80.078125
382,-82.031250
383,-82.031250
384,-82.031250
385,-82.031250
386,-83.984375
387,-83.984375
388,-83.984375
389,-83.984375
390,-83.984375
391,-85.937500
392,-83.984375
393,-85.937500
394,-85.937500
395,-83.984375
396,-83.984375
397,-85.937500
398,-85.937500
399,-83.984375
400,-83.984375
401,-83.984375
402,-83.984375
403,-83.984375
404,-82.031250
405,-83.984375
406,-82.031250
407,-82.031250
408,-82.031250
409,-80.078125
410,-80.078125
411,-80.078125
412,-80.078125
413,-78.125000
414,-78.125000
415,-78.125000
416,-76.171875
417,-76.171875
418,-74.218750
419,-74.218750
420,-74.218750
421,-72.265625
422,-70.312500
423,-70.312500
424,-68.359375
425,-68.359375
426,-66.406250
427,-66.406250
428,-64.453125
429,-62.500000
430,-62.500000
431,-60.546875
432,-60.546875
433,-58.593750
434,-56.640625
435,-54.687500
436,-54.687500
437,-52.734375
438,-50.781250
439,-48.828125
440,-48.828125
441,-46.875000
442,-44.921875
443,-42.968750
444,-42.968750
445,-41.015625
446,-39.062500
447,-37.109375
448,-35.156250
449,-33.203125
450,-31.250000
451,-29.296875
452,-29.296875
453,-27.343750
454,-25.390625
455,-23.437500
456,-21.484375
457,-19.531250
458,-19.531250
459,-15.625000
460,-15.625000
461,-13.671875
462,-11.718750
463,-9.765625
464,-7.812500
465,-5.859375
466,-3.906250
467,-1.953125
468,-1.953125
469,0.000000
470,1.953125
471,3.906250
472,5.859375
473,7.812500
474,7.812500
475,11.718750
476,13.671875
477,15.625000
478,15.625000
479,17.578125
480,19.531250
481,21.484375
482,21.484375
483,23.437500
484,25.390625
485,27.343750
486,29.296875
487,29.296875
488,31.250000
489,33.203125
490,35.156250
491,35.156250
492,37.109375
493,39.062500
494,41.015625
495,41.015625
496,42.968750
497,42.968750
498,44.921875
499,46.875000
500,46.875000
501,48.828125
502,48.828125
503,50.781250
504,52.734375
505,52.734375
506,54.687500
507,54.687500
508,56.640625
509,56.640625
510,58.593750
511,58.593750
512,58.593750
513,60.546875
514,60.546875
515,62.500000
516,62.500000
517,64.453125
518,64.453125
519,64.453125
520,66.406250
521,66.406250
522,66.406250
523,66.406250
524,66.406250
525,68.359375
526,68.359375
527,68.359375
528,68.359375
529,70.312500
530,70.312500
531,70.312500
532,70.312500
533,70.312500
534,70.312500
535,70.312500
536,72.265625
537,70.312500
538,70.312500
539,70.312500
540,70.312500
541,70.312500
542,70.312500
543,70.312500
544,70.312500
545,70.312500
546,70.312500
547,70.312500
548,70.312500
549,68.359375
550,68.359375
551,68.359375
552,68.359375
553,66.406250
554,66.406250
555,66.406250
556,66.406250
557,64.453125
558,64.453125
559,64.453125
560,62.500000
561,62.500000
562,62.500000
563,60.546875
564,60.546875
565,58.593750
566,58.593750
567,56.640625
568,54.687500
569,54.687500
570,54.687500
571,52.734375
572,50.781250
573,50.781250
574,48.828125
575,48.828125
576,46.875000
577,44.921875
578,44.921875
579,42.968750
580,41.015625
581,41.015625
582,39.062500
583,37.109375
584,37.109375
585,35.156250
586,33.203125
587,33.203125
588,31.250000
589,29.296875
590,27.343750
591,25.390625
592,25.390625
593,23.437500
594,21.484375
595,19.531250
596,17.578125
597,17.578125
598,15.625000
599,13.671875
600,11.718750
601,9.765625
602,9.765625
603,5.859375
604,5.859375
605,3.906250
606,1.953125
607,0.000000
608,-1.953125
609,-3.906250
610,-3.906250
611,-5.859375
612,-7.812500
613,-9.765625
614,-11.718750
615,-13.671875
616,-15.625000
617,-17.578125
618,-19.531250
619,-21.484375
620,-21.484375
621,-23.437500
622,-25.390625
623,-27.343750
624,-29.296875
625,-31.250000
626,-33.203125
627,-33.203125
628,-37.109375
629,-37.109375
630,-39.062500
631,-41.015625
632,-42.968750
633,-42.968750
634,-44.921875
635,-46.875000
636,-48.828125
637,-50.781250
638,-50.781250
639,-52.734375
640,-54.687500
641,-56.640625
642,-56.640625
643,-58.593750
644,-60.546875
645,-62.500000
646,-62.500000
647,-64.453125
648,-64.453125
649,-66.406250
650,-66.406250
651,-68.359375
652,-70.312500
653,-70.312500
654,-72.265625
655,-72.265625
656,-74.218750
657,-74.218750
658,-74.218750
659,-76.171875
660,-78.125000
661,-78.125000
662,-78.125000
663,-80.078125
664,-80.078125
665,-80.078125
666,-80.078125
667,-82.031250
668,-82.031250
669,-83.984375
670,-83.984375
671,-83.984375
672,-83.984375
673,-83.984375
674,-83.984375
675,-83.984375
676,-83.984375
677,-83.984375
678,-85.937500
679,-85.937500
680,-85.937500
681,-83.984375
682,-85.937500
683,-85.937500
684,-83.984375
685,-83.984375
686,-83.984375
687,-83.984375
688,-83.984375
689,-83.984375
690,-83.984375
691,-82.031250
692,-82.031250
693,-82.031250
694,-82.031250
695,-82.031250
696,-80.078125
697,-80.078125
698,-78.125000
699,-78.125000
700,-78.125000
701,-76.171875
702,-76.171875
703,-74.218750
704,-74.218750
705,-74.218750
706,-72.265625
707,-70.312500
708,-70.312500
709,-68.359375
710,-68.359375
711,-66.406250
712,-66.406250
713,-64.453125
714,-62.500000
715,-62.500000
716,-60.546875
717,-58.593750
718,-56.640625
719,-56.640625
720,-54.687500
721,-52.734375
722,-50.781250
723,-48.828125
724,-48.828125
725,-46.875000
726,-44.921875
727,-42.968750
728,-42.968750
729,-41.015625
730,-39.062500
731,-37.109375
732,-35.156250
733,-35.156250
734,-33.203125
735,-31.250000
736,-29.296875
737,-27.343750
738,-25.390625
739,-23.437500
740,-21.484375
741,-19.531250
742,-19.531250
743,-17.578125
744,-15.625000
745,-13.671875
746,-11.718750
747,-9.765625
748,-7.812500
749,-5.859375
750,-3.906250
751,-1.953125
752,-1.953125
753,0.000000
754,1.953125
755,3.906250
756,5.859375
757,5.859375
758,7.812500
759,9.765625
760,11.718750
761,13.671875
762,15.625000
763,17.578125
764,19.531250
765,21.484375
766,21.484375
767,23.437500
768,25.390625
769,27.343750
770,27.343750
771,29.296875
772,29.296875
773,33.203125
774,33.203125
775,35.156250
776,37.109375
777,37.109375
778,39.062500
779,41.015625
780,41.015625
781,42.968750
782,44.921875
783,46.875000
784,46.875000
785,46.875000
786,48.828125
787,50.781250
788,52.734375
789,52.734375
790,52.734375
791,54.687500
792,56.640625
793,56.640625
794,58.593750
795,58.593750
796,60.546875
797,60.546875
798,60.546875
799,62.500000
800,62.500000
801,64.453125
802,64.453125
803,64.453125
804,66.406250
805,66.406250
806,66.406250
807,68.359375
808,68.359375
809,68.359375
810,68.359375
811,68.359375
812,70.312500
813,70.312500
814,70.312500
815,70.312500
816,70.312500
817,70.312500
818,72.265625
819,70.312500
820,70.312500
821,70.312500
822,72.265625
823,70.312500
824,70.312500
825,70.312500
826,70.312500
827,70.312500
828,70.312500
829,70.312500
830,70.312500
831,70.312500
832,70.312500
833,70.312500
834,68.359375
835,68.359375
836,68.359375
837,66.406250
838,66.406250
839,66.406250
840,66.406250
841,64.453125
842,64.453125
843,64.453125
844,62.500000
845,62.500000
846,62.500000
847,60.546875
848,58.593750
849,58.593750
850,58.593750
851,58.593750
852,56.640625
853,54.687500
854,52.734375
855,52.734375
856,52.734375
857,50.781250
858,50.781250
859,48.828125
860,46.875000
861,46.875000
862,44.921875
863,42.968750
864,42.968750
865,41.015625
866,39.062500
867,39.062500
868,37.109375
869,35.156250
870,33.203125
871,33.203125
872,31.250000
873,29.296875
874,27.343750
875,27.343750
876,25.390625
877,23.437500
878,21.484375
879,21.484375
880,19.531250
881,17.578125
882,15.625000
883,15.625000
884,11.718750
885,9.765625
886,9.765625
887,7.812500
888,5.859375
889,3.906250
890,1.953125
891,0.000000
892,0.000000
893,-1.953125
894,-3.906250
895,-5.859375
896,-7.812500
897,-9.765625
898,-11.718750
899,-13.671875
900,-15.625000
901,-17.578125
902,-19.531250
903,-21.484375
904,-21.484375
905,-23.437500
906,-25.390625
907,-27.343750
908,-29.296875
909,-31.250000
910,-33.203125
911,-35.156250
912,-35.156250
913,-37.109375
914,-39.062500
915,-41.015625
916,-42.968750
917,-42.968750
918,-44.921875
919,-46.875000
920,-48.828125
921,-50.781250
922,-50.781250
923,-52.734375
924,-54.687500
925,-54.687500
926,-56.640625
927,-58.593750
928,-60.546875
929,-60.546875
930,-62.500000
931,-62.500000
932,-64.453125
933,-66.406250
934,-66.406250
935,-68.359375
936,-68.359375
937,-70.312500
938,-72.265625
939,-72.265625
940,-74.218750
941,-74.218750
942,-74.218750
943,-76.171875
944,-76.171875
945,-78.125000
946,-78.125000
947,-78.125000
948,-80.078125
949,-80.078125
950,-82.031250
951,-82.031250
952,-82.031250
953,-82.031250
954,-82.031250
955,-83.984375
956,-83.984375
957,-83.984375
958,-83.984375
959,-83.984375
960,-85.937500
961,-85.937500
962,-85.937500
963,-85.937500
964,-83.984375
965,-85.937500
966,-85.937500
967,-85.937500
968,-83.984375
969,-83.984375
970,-83.984375
971,-85.937500
972,-83.984375
973,-83.984375
974,-82.031250
975,-82.031250
976,-82.031250
977,-82.031250
978,-82.031250
979,-80.078125
980,-80.078125
981,-80.078125
982,-78.125000
983,-78.125000
984,-76.171875
985,-76.171875
986,-76.171875
987,-74.218750
988,-74.218750
989,-72.265625
990,-70.312500
991,-70.312500
992,-68.359375
993,-68.359375
994,-66.406250
995,-66.406250
996,-64.453125
997,-62.500000
998,-62.500000
999,-60.546875
1000,-58.593750
1001,-58.593750
1002,-56.640625
1003,-54.687500
1004,-54.687500
1005,-52.734375
1006,-50.781250
1007,-50.781250
1008,-46.875000
1009,-46.875000
1010,-44.921875
1011,-42.968750
1012,-42.968750
1013,-41.015625
1014,-39.062500
1015,-37.109375
1016,-35.156250
1017,-35.156250
1018,-33.203125
1019,-31.250000
1020,-29.296875
1021,-27.343750
1022,-25.390625
1023,-23.437500
1024,-23.437500
1025,-21.484375
1026,-19.531250
1027,-17.578125
1028,-15.625000
1029,-13.671875
1030,-11.718750
1031,-9.765625
1032,-7.812500
1033,-7.812500
1034,-3.906250
1035,-3.906250
1036,-1.953125
1037,0.000000
1038,1.953125
1039,3.906250
1040,5.859375
1041,5.859375
1042,9.765625
1043,9.765625
1044,11.718750
1045,15.625000
1046,15.625000
1047,17.578125
1048,17.578125
1049,19.531250
1050,21.484375
1051,23.437500
1052,25.390625
1053,27.343750
1054,27.343750
1055,29.296875
1056,31.250000
1057,33.203125
1058,35.156250
1059,37.109375
1060,37.109375
1061,39.062500
1062,39.062500
1063,41.015625
1064,42.968750
1065,42.968750
1066,44.921875
1067,46.875000
1068,46.875000
1069,48.828125
1070,48.828125
1071,50.781250
1072,50.781250
1073,52.734375
1074,54.687500
1075,54.687500
1076,56.640625
1077,56.640625
1078,56.640625
1079,58.593750
1080,60.546875
1081,60.546875
1082,60.546875
1083,62.500000
1084,62.500000
1085,64.453125
1086,64.453125
1087,64.453125
1088,66.406250
1089,66.406250
1090,66.406250
1091,66.406250
1092,66.406250
1093,68.359375
1094,68.359375
1095,68.359375
1096,68.359375
1097,68.359375
1098,70.312500
1099,70.312500
1100,70.312500
1101,70.312500
1102,70.312500
1103,70.312500
1104,70.312500
1105,70.312500
1106,70.312500
1107,70.312500
1108,70.312500
1109,70.312500
1110,70.312500
1111,70.312500
1112,70.312500
1113,70.312500
1114,70.312500
1115,70.312500
1116,70.312500
1117,70.312500
1118,68.359375
1119,68.359375
1120,68.359375
1121,66.406250
1122,66.406250
1123,66.406250
1124,66.406250
1125,66.406250
1126,64.453125
1127,64.453125
1128,62.500000
1129,60.546875
1130,62.500000
1131,60.546875
1132,60.546875
1133,58.593750
1134,58.593750
1135,56.640625
1136,56.640625
1137,54.687500
1138,54.687500
1139,54.687500
1140,52.734375
1141,50.781250
1142,48.828125
1143,48.828125
1144,46.875000
1145,46.875000
1146,44.921875
1147,42.968750
1148,42.968750
1149,41.015625
1150,39.062500
1151,39.062500
1152,37.109375
1153,35.156250
1154,35.156250
1155,33.203125
1156,31.250000
1157,29.296875
1158,27.343750
1159,27.343750
1160,25.390625
1161,23.437500
1162,21.484375
1163,19.531250
1164,19.531250
1165,17.578125
1166,15.625000
1167,13.671875
1168,11.718750
1169,9.765625
1170,9.765625
1171,7.812500
1172,5.859375
1173,3.906250
1174,1.953125
1175,0.000000
1176,-1.953125
1177,-3.906250
1178,-3.906250
1179,-7.812500
1180,-7.812500
1181,-9.765625
1182,-11.718750
1183,-13.671875
1184,-15.625000
1185,-15.625000
1186,-19.531250
1187,-19.531250
1188,-21.484375
1189,-23.437500
1190,-25.390625
1191,-27.343750
1192,-29.296875
1193,-31.250000
1194,-33.203125
1195,-33.203125
1196,-35.156250
1197,-37.109375
1198,-39.062500
1199,-41.015625
1200,-41.015625
1201,-42.968750
1202,-44.921875
1203,-46.875000
1204,-48.828125
1205,-48.828125
1206,-50.781250
1207,-52.734375
1208,-54.687500
1209,-54.687500
1210,-56.640625
1211,-58.593750
1212,-60.546875
1213,-60.546875
1214,-62.500000
1215,-64.453125
1216,-64.453125
1217,-66.406250
1218,-66.406250
1219,-68.359375
1220,-70.312500
1221,-70.312500
1222,-72.265625
1223,-74.218750
1224,-74.218750
1225,-74.218750
1226,-74.218750
1227,-76.171875
1228,-78.125000
1229,-78.125000
1230,-78.125000
1231,-80.078125
1232,-80.078125
1233,-80.078125
1234,-82.031250
1235,-82.031250
1236,-82.031250
1237,-82.031250
1238,-83.984375
1239,-83.984375
1240,-83.984375
1241,-83.984375
1242,-83.984375
1243,-83.984375
1244,-85.937500
1245,-85.937500
1246,-85.937500
1247,-85.937500
1248,-85.937500
1249,-83.984375
1250,-83.984375
1251,-85.937500
1252,-83.984375
1253,-83.984375
1254,-83.984375
1255,-83.984375
1256,-83.984375
1257,-83.984375
1258,-80.078125
1259,-82.031250
1260,-82.031250
1261,-82.031250
1262,-80.078125
1263,-80.078125
1264,-80.078125
1265,-80.078125
1266,-78.125000
1267,-78.125000
1268,-76.171875
1269,-76.171875
1270,-76.171875
1271,-74.218750
1272,-74.218750
1273,-72.265625
1274,-72.265625
1275,-70.312500
1276,-70.312500
1277,-68.359375
1278,-66.406250
1279,-66.406250
1280,-64.453125
1281,-64.453125
1282,-62.500000
1283,-60.546875
1284,-60.546875
1285,-58.593750
1286,-56.640625
1287,-56.640625
1288,-54.687500
1289,-54.687500
1290,-50.781250
1291,-50.781250
1292,-48.828125
1293,-46.875000
1294,-46.875000
1295,-42.968750
1296,-42.968750
1297,-41.015625
1298,-39.062500
1299,-37.109375
1300,-37.109375
1301,-35.156250
1302,-33.203125
1303,-31.250000
1304,-29.296875
1305,-27.343750
1306,-25.390625
1307,-25.390625
1308,-23.437500
1309,-21.484375
1310,-19.531250
1311,-17.578125
1312,-15.625000
1313,-13.671875
1314,-11.718750
1315,-9.765625
1316,-9.765625
1317,-5.859375
1318,-3.906250
1319,-3.906250
1320,-1.953125
1321,0.000000
1322,1.953125
1323,3.906250
1324,5.859375
1325,7.812500
1326,9.765625
1327,9.765625
1328,11.718750
1329,13.671875
1330,15.625000
1331,17.578125
1332,19.531250
1333,19.531250
1334,21.484375
1335,23.437500
1336,25.390625
1337,25.390625
1338,27.343750
1339,29.296875
1340,31.250000
1341,33.203125
1342,33.203125
1343,35.156250
1344,37.109375
1345,39.062500
1346,39.062500
1347,41.015625
1348,41.015625
1349,42.968750
1350,44.921875
1351,46.875000
1352,46.875000
1353,48.828125
1354,48.828125
1355,50.781250
1356,52.734375
1357,52.734375
1358,54.687500
1359,54.687500
1360,54.687500
1361,56.640625
1362,58.593750
1363,58.593750
1364,58.593750
1365,60.546875
1366,60.546875
1367,62.500000
1368,62.500000
1369,62.500000
1370,64.453125
1371,64.453125
1372,66.406250
1373,66.406250
1374,66.406250
1375,66.406250
1376,68.359375
1377,68.359375
1378,68.359375
1379,68.359375
1380,70.312500
1381,70.312500
1382,70.312500
1383,70.312500
1384,70.312500
1385,70.312500
1386,70.312500
1387,70.312500
1388,72.265625
1389,70.312500
1390,72.265625
1391,72.265625
1392,72.265625
1393,70.312500
1394,70.312500
1395,70.312500
1396,72.265625
1397,70.312500
1398,70.312500
1399,70.312500
1400,68.359375
1401,68.359375
1402,68.359375
1403,68.359375
1404,68.359375
1405,68.359375
1406,66.406250
1407,64.453125
1408,66.406250
1409,66.406250
1410,64.453125
1411,64.453125
1412,64.453125
1413,62.500000
1414,60.546875
1415,60.546875
1416,60.546875
1417,58.593750
1418,58.593750
1419,56.640625
1420,56.640625
1421,54.687500
1422,54.687500
1423,52.734375
1424,50.781250
1425,50.781250
1426,50.781250
1427,48.828125
1428,46.875000
1429,46.875000
1430,44.921875
1431,44.921875
1432,42.968750
1433,41.015625
1434,42.968750
1435,39.062500
1436,37.109375
1437,37.109375
1438,35.156250
1439,33.203125
1440,31.250000
1441,29.296875
1442,27.343750
1443,27.343750
1444,25.390625
1445,23.437500
1446,21.484375
1447,21.484375
1448,19.531250
1449,19.531250
1450,15.625000
1451,13.671875
1452,11.718750
1453,11.718750
1454,9.765625
1455,7.812500
1456,5.859375
1457,3.906250
1458,1.953125
1459,0.000000
1460,0.000000
1461,-1.953125
1462,-3.906250
1463,-5.859375
1464,-7.812500
1465,-9.765625
1466,-9.765625
1467,-13.671875
1468,-15.625000
1469,-17.578125
1470,-17.578125
1471,-19.531250
1472,-21.484375
1473,-23.437500
1474,-25.390625
1475,-27.343750
1476,-29.296875
1477,-31.250000
1478,-31.250000
1479,-33.203125
1480,-35.156250
1481,-37.109375
1482,-39.062500
1483,-41.015625
1484,-42.968750
1485,-42.968750
1486,-44.921875
1487,-46.875000
1488,-48.828125
1489,-48.828125
1490,-50.781250
1491,-52.734375
1492,-54.687500
1493,-54.687500
1494,-56.640625
1495,-58.593750
1496,-58.593750
1497,-60.546875
1498,-62.500000
1499,-64.453125
1500,-64.453125
1501,-66.406250
1502,-68.359375
1503,-68.359375
1504,-70.312500
1505,-70.312500
1506,-72.265625
1507,-72.265625
1508,-72.265625
1509,-74.218750
1510,-74.218750
1511,-76.171875
1512,-76.171875
1513,-78.125000
1514,-78.125000
1515,-78.125000
1516,-80.078125
1517,-80.078125
1518,-82.031250
1519,-82.031250
1520,-82.031250
1521,-82.031250
1522,-82.031250
1523,-83.984375
1524,-83.984375
1525,-83.984375
1526,-83.984375
1527,-83.984375
1528,-85.937500
1529,-85.937500
1530,-85.937500
1531,-85.937500
1532,-85.937500
1533,-83.984375
1534,-85.937500
1535,-83.984375
1536,-83.984375
1537,-83.984375
1538,-83.984375
1539,-83.984375
1540,-83.984375
1541,-83.984375
1542,-83.984375
1543,-82.031250
1544,-82.031250
1545,-82.031250
1546,-82.031250
1547,-80.078125
1548,-80.078125
1549,-80.078125
1550,-78.125000
1551,-78.125000
1552,-78.125000
1553,-76.171875
1554,-76.171875
1555,-74.218750
1556,-74.218750
1557,-72.265625
1558,-72.265625
1559,-70.312500
1560,-70.312500
1561,-68.359375
1562,-68.359375
1563,-66.406250
1564,-64.453125
1565,-64.453125
1566,-62.500000
1567,-60.546875
1568,-60.546875
1569,-58.593750
1570,-56.640625
1571,-54.687500
1572,-54.687500
1573,-52.734375
1574,-52.734375
1575,-48.828125
1576,-48.828125
1577,-46.875000
1578,-44.921875
1579,-44.921875
1580,-42.968750
1581,-41.015625
1582,-39.062500
1583,-37.109375
1584,-35.156250
1585,-33.203125
1586,-33.203125
1587,-31.250000
1588,-29.296875
1589,-27.343750
1590,-25.390625
1591,-25.390625
1592,-23.437500
1593,-19.531250
1594,-19.531250
1595,-17.578125
1596,-15.625000
1597,-13.671875
1598,-11.718750
1599,-9.765625
1600,-9.765625
1601,-7.812500
1602,-5.859375
1603,-3.906250
1604,-1.953125
1605,0.000000
1606,1.953125
1607,3.906250
1608,3.906250
1609,5.859375
1610,7.812500
1611,9.765625
1612,11.718750
1613,13.671875
1614,15.625000
1615,15.625000
1616,17.578125
1617,19.531250
1618,21.484375
1619,23.437500
1620,25.390625
1621,25.390625
1622,27.343750
1623,29.296875
1624,31.250000
1625,31.250000
1626,31.250000
1627,33.203125
1628,35.156250
1629,37.109375
1630,39.062500
1631,41.015625
1632,41.015625
1633,42.968750
1634,44.921875
1635,46.875000
1636,46.875000
1637,46.875000
1638,48.828125
1639,50.781250
1640,52.734375
1641,52.734375
1642,54.687500
1643,54.687500
1644,56.640625
1645,56.640625
1646,56.640625
1647,58.593750
1648,60.546875
1649,60.546875
1650,62.500000
1651,62.500000
1652,62.500000
1653,64.453125
1654,64.453125
1655,64.453125
1656,66.406250
1657,66.406250
1658,66.406250
1659,66.406250
1660,68.359375
1661,68.359375
1662,68.359375
1663,68.359375
1664,68.359375
1665,70.312500
1666,68.359375
1667,70.312500
1668,70.312500
1669,70.312500
1670,70.312500
1671,70.312500
1672,70.312500
1673,70.312500
1674,70.312500
1675,70.312500
1676,70.312500
1677,74.218750
1678,70.312500
1679,70.312500
1680,70.312500
1681,70.312500
1682,70.312500
1683,70.312500
1684,70.312500
1685,68.359375
1686,68.359375
1687,68.359375
1688,68.359375
1689,66.406250
1690,66.406250
1691,66.406250
1692,66.406250
1693,64.453125
1694,64.453125
1695,64.453125
1696,62.500000
1697,62.500000
1698,60.546875
1699,60.546875
1700,60.546875
1701,58.593750
1702,58.593750
1703,56.640625
1704,56.640625
1705,54.687500
1706,54.687500
1707,52.734375
1708,52.734375
1709,50.781250
1710,50.781250
1711,48.828125
1712,46.875000
1713,46.875000
1714,44.921875
1715,44.921875
1716,42.968750
1717,41.015625
1718,39.062500
1719,39.062500
1720,37.109375
1721,37.109375
1722,33.203125
1723,33.203125
1724,31.250000
1725,29.296875
1726,29.296875
1727,27.343750
1728,25.390625
1729,23.437500
1730,21.484375
1731,21.484375
1732,19.531250
1733,17.578125
1734,15.625000
1735,13.671875
1736,11.718750
1737,11.718750
1738,9.765625
1739,7.812500
1740,5.859375
1741,3.906250
1742,1.953125
1743,0.000000
1744,-1.953125
1745,-3.906250
1746,-3.906250
1747,-5.859375
1748,-7.812500
1749,-9.765625
1750,-11.718750
1751,-13.671875
1752,-15.625000
1753,-17.578125
1754,-19.531250
1755,-19.531250
1756,-21.484375
1757,-23.437500
1758,-25.390625
1759,-27.343750
1760,-29.296875
1761,-29.296875
1762,-31.250000
1763,-33.203125
1764,-35.156250
1765,-37.109375
1766,-39.062500
1767,-39.062500
1768,-41.015625
1769,-42.968750
1770,-44.921875
1771,-46.875000
1772,-48.828125
1773,-48.828125
1774,-50.781250
1775,-52.734375
1776,-52.734375
1777,-54.687500
1778,-56.640625
1779,-56.640625
1780,-58.593750
1781,-60.546875
1782,-62.500000
1783,-62.500000
1784,-64.453125
1785,-64.453125
1786,-66.406250
1787,-68.359375
1788,-70.312500
1789,-70.312500
1790,-70.312500
1791,-72.265625
1792,-72.265625
1793,-74.218750
1794,-76.171875
1795,-74.218750
1796,-76.171875
1797,-78.125000
1798,-78.125000
1799,-78.125000
1800,-80.078125
1801,-80.078125
1802,-80.078125
1803,-82.031250
1804,-82.031250
1805,-82.031250
1806,-83.984375
1807,-83.984375
1808,-83.984375
1809,-83.984375
1810,-83.984375
1811,-83.984375
1812,-83.984375
1813,-85.937500
1814,-85.937500
1815,-85.937500
1816,-85.937500
1817,-85.937500
1818,-83.984375
1819,-85.937500
1820,-83.984375
1821,-83.984375
1822,-83.984375
1823,-83.984375
1824,-83.984375
1825,-83.984375
1826,-83.984375
1827,-83.984375
1828,-82.031250
1829,-82.031250
1830,-80.078125
1831,-80.078125
1832,-80.078125
1833,-80.078125
1834,-78.125000
1835,-78.125000
1836,-78.125000
1837,-76.171875
1838,-76.171875
1839,-74.218750
1840,-74.218750
1841,-72.265625
1842,-72.265625
1843,-70.312500
1844,-70.312500
1845,-68.359375
1846,-68.359375
1847,-66.406250
1848,-64.453125
1849,-64.453125
1850,-62.500000
1851,-60.546875
1852,-60.546875
1853,-58.593750
1854,-56.640625
1855,-56.640625
1856,-54.687500
1857,-52.734375
1858,-52.734375
1859,-50.781250
1860,-48.828125
1861,-46.875000
1862,-44.921875
1863,-44.921875
1864,-42.968750
1865,-41.015625
1866,-39.062500
1867,-37.109375
1868,-37.109375
1869,-35.156250
1870,-33.203125
1871,-31.250000
1872,-29.296875
1873,-27.343750
1874,-27.343750
1875,-25.390625
1876,-23.437500
1877,-21.484375
1878,-19.531250
1879,-17.578125
1880,-15.625000
1881,-13.671875
1882,-13.671875
1883,-9.765625
1884,-9.765625
1885,-7.812500
1886,-5.859375
1887,-3.906250
1888,-1.953125
1889,0.000000
1890,1.953125
1891,3.906250
1892,3.906250
1893,5.859375
1894,7.812500
1895,9.765625
1896,11.718750
1897,13.671875
1898,13.671875
1899,17.578125
1900,17.578125
1901,19.531250
1902,21.484375
1903,23.437500
1904,25.390625
1905,25.390625
1906,27.343750
1907,29.296875
1908,31.250000
1909,31.250000
1910,33.203125
1911,35.156250
1912,37.109375
1913,39.062500
1914,39.062500
1915,41.015625
1916,41.015625
1917,42.968750
1918,44.921875
1919,46.875000
1920,46.875000
1921,48.828125
1922,48.828125
1923,50.781250
1924,50.781250
1925,52.734375
1926,52.734375
1927,54.687500
1928,54.687500
1929,56.640625
1930,56.640625
1931,58.593750
1932,58.593750
1933,60.546875
1934,60.546875
1935,60.546875
1936,62.500000
1937,62.500000
1938,64.453125
1939,64.453125
1940,64.453125
1941,66.406250
1942,66.406250
1943,66.406250
1944,68.359375
1945,68.359375
1946,66.406250
1947,68.359375
1948,68.359375
1949,70.312500
1950,70.312500
1951,70.312500
1952,70.312500
1953,70.312500
1954,70.312500
1955,70.312500
1956,70.312500
1957,72.265625
1958,72.265625
1959,72.265625
1960,72.265625
1961,70.312500
1962,70.312500
1963,70.312500
1964,70.312500
1965,70.312500
1966,70.312500
1967,70.312500
1968,70.312500
1969,68.359375
1970,68.359375
1971,68.359375
1972,68.359375
1973,68.359375
1974,68.359375
1975,66.406250
1976,66.406250
1977,66.406250
1978,64.453125
1979,66.406250
1980,62.500000
1981,62.500000
1982,62.500000
1983,60.546875
1984,60.546875
1985,60.546875
1986,58.593750
1987,58.593750
1988,56.640625
1989,54.687500
1990,54.687500
1991,52.734375
1992,52.734375
1993,50.781250
1994,50.781250
1995,48.828125
1996,48.828125
1997,46.875000
1998,46.875000
1999,44.921875
2000,42.968750
2001,41.015625
2002,41.015625
2003,39.062500
2004,37.109375
2005,35.156250
2006,35.156250
2007,31.250000
2008,31.250000
2009,29.296875
2010,27.343750
2011,27.343750
2012,25.390625
2013,23.437500
2014,23.437500
2015,21.484375
2016,19.531250
2017,17.578125
2018,15.625000
2019,15.625000
2020,13.671875
2021,11.718750
2022,9.765625
2023,7.812500
2024,5.859375
2025,3.906250
2026,1.953125
2027,1.953125
2028,0.000000
2029,-5.859375
2030,-3.906250
2031,-5.859375
2032,-7.812500
2033,-9.765625
2034,-11.718750
2035,-11.718750
2036,-15.625000
2037,-15.625000
2038,-17.578125
2039,-19.531250
2040,-21.484375
2041,-23.437500
2042,-25.390625
2043,-25.390625
2044,-29.296875
2045,-29.296875
2046,-31.250000
2047,-33.203125
2048,-35.156250
2049,-37.109375
2050,-39.062500
2051,-39.062500
2052,-41.015625
2053,-42.968750
2054,-44.921875
2055,-46.875000
2056,-48.828125
2057,-48.828125
2058,-50.781250
2059,-52.734375
2060,-52.734375
2061,-54.687500
2062,-56.640625
2063,-58.593750
2064,-60.546875
2065,-60.546875
2066,-62.500000
2067,-62.500000
2068,-64.453125
2069,-64.453125
2070,-66.406250
2071,-68.359375
2072,-68.359375
2073,-70.312500
2074,-70.312500
2075,-72.265625
2076,-74.218750
2077,-74.218750
2078,-74.218750
2079,-76.171875
2080,-78.125000
2081,-78.125000
2082,-78.125000
2083,-80.078125
2084,-80.078125
2085,-80.078125
2086,-80.078125
2087,-82.031250
2088,-82.031250
2089,-82.031250
2090,-83.984375
2091,-83.984375
2092,-83.984375
2093,-83.984375
2094,-83.984375
2095,-83.984375
2096,-83.984375
2097,-85.937500
2098,-85.937500
2099,-85.937500
2100,-83.984375
2101,-85.937500
2102,-83.984375
2103,-85.937500
2104,-83.984375
2105,-85.937500
2106,-83.984375
2107,-83.984375
2108,-83.984375
2109,-83.984375
2110,-83.984375
2111,-82.031250
2112,-82.031250
2113,-82.031250
2114,-80.078125
2115,-80.078125
2116,-80.078125
2117,-80.078125
2118,-80.078125
2119,-78.125000
2120,-78.125000
2121,-76.171875
2122,-76.171875
2123,-74.218750
2124,-74.218750
2125,-72.265625
2126,-72.265625
2127,-70.312500
2128,-70.312500
2129,-68.359375
2130,-68.359375
2131,-66.406250
2132,-66.406250
2133,-64.453125
2134,-62.500000
2135,-62.500000
2136,-60.546875
2137,-58.593750
2138,-58.593750
2139,-56.640625
2140,-56.640625
2141,-52.734375
2142,-52.734375
2143,-50.781250
2144,-48.828125
2145,-46.875000
2146,-46.875000
2147,-44.921875
2148,-42.968750
2149,-41.015625
2150,-39.062500
2151,-37.109375
2152,-37.109375
2153,-35.156250
2154,-33.203125
2155,-31.250000
2156,-29.296875
2157,-27.343750
2158,-27.343750
2159,-25.390625
2160,-23.437500
2161,-21.484375
2162,-19.531250
2163,-17.578125
2164,-15.625000
2165,-13.671875
2166,-11.718750
2167,-11.718750
2168,-9.765625
2169,-7.812500
2170,-5.859375
2171,-3.906250
2172,-1.953125
2173,0.000000
2174,3.906250
2175,3.906250
2176,5.859375
2177,5.859375
2178,7.812500
2179,9.765625
2180,11.718750
2181,13.671875
2182,13.671875
2183,15.625000
2184,17.578125
2185,19.531250
2186,21.484375
2187,23.437500
2188,25.390625
2189,25.390625
2190,27.343750
2191,29.296875
2192,29.296875
2193,31.250000
2194,33.203125
2195,35.156250
2196,35.156250
2197,37.109375
2198,39.062500
2199,41.015625
2200,41.015625
2201,42.968750
2202,42.968750
2203,44.921875
2204,46.875000
2205,46.875000
2206,48.828125
2207,48.828125
2208,50.781250
2209,52.734375
2210,52.734375
2211,54.687500
2212,54.687500
2213,56.640625
2214,56.640625
2215,58.593750
2216,58.593750
2217,60.546875
2218,60.546875
2219,62.500000
2220,62.500000
2221,64.453125
2222,64.453125
2223,62.500000
2224,64.453125
2225,66.406250
2226,66.406250
2227,66.406250
2228,68.359375
2229,68.359375
2230,68.359375
2231,68.359375
2232,68.359375
2233,70.312500
2234,70.312500
2235,70.312500
2236,70.312500
2237,70.312500
2238,70.312500
2239,70.312500
2240,70.312500
2241,70.312500
2242,70.312500
2243,70.312500
2244,70.312500
2245,72.265625
2246,70.312500
2247,70.312500
2248,70.312500
2249,70.312500
2250,70.312500
2251,70.312500
2252,70.312500
2253,68.359375
2254,68.359375
2255,68.359375
2256,68.359375
2257,68.359375
2258,66.406250
2259,66.406250
2260,66.406250
2261,64.453125
2262,64.453125
2263,64.453125
2264,62.500000
2265,62.500000
2266,60.546875
2267,60.546875
2268,60.546875
2269,58.593750
2270,58.593750
2271,56.640625
2272,56.640625
2273,54.687500
2274,54.687500
2275,52.734375
2276,52.734375
2277,50.781250
2278,48.828125
2279,48.828125
2280,46.875000
2281,46.875000
2282,44.921875
2283,42.968750
2284,42.968750
2285,41.015625
2286,41.015625
2287,39.062500
2288,37.109375
2289,35.156250
2290,35.156250
2291,33.203125
2292,33.203125
2293,31.250000
2294,29.296875
2295,27.343750
2296,25.390625
2297,23.437500
2298,21.484375
2299,21.484375
2300,19.531250
2301,17.578125
2302,15.625000
2303,15.625000
2304,13.671875
2305,11.718750
2306,9.765625
2307,7.812500
2308,5.859375
2309,5.859375
2310,1.953125
2311,1.953125
2312,0.000000
2313,-3.906250
2314,-3.906250
2315,-5.859375
2316,-7.812500
2317,-9.765625
2318,-11.718750
2319,-13.671875
2320,-15.625000
2321,-17.578125
2322,-17.578125
2323,-19.531250
2324,-21.484375
2325,-23.437500
2326,-25.390625
2327,-27.343750
2328,-27.343750
2329,-29.296875
2330,-31.250000
2331,-35.156250
2332,-33.203125
2333,-37.109375
2334,-39.062500
2335,-39.062500
2336,-41.015625
2337,-42.968750
2338,-44.921875
2339,-46.875000
2340,-46.875000
2341,-50.781250
2342,-50.781250
2343,-52.734375
2344,-52.734375
2345,-54.687500
2346,-56.640625
2347,-58.593750
2348,-58.593750
2349,-60.546875
2350,-60.546875
2351,-62.500000
2352,-64.453125
2353,-66.406250
2354,-66.406250
2355,-68.359375
2356,-68.359375
2357,-70.312500
2358,-70.312500
2359,-70.312500
2360,-72.265625
2361,-74.218750
2362,-76.171875
2363,-76.171875
2364,-76.171875
2365,-76.171875
2366,-76.171875
2367,-80.078125
2368,-80.078125
2369,-80.078125
2370,-80.078125
2371,-82.031250
2372,-82.031250
2373,-82.031250
2374,-82.031250
2375,-82.031250
2376,-83.984375
2377,-83.984375
2378,-83.984375
2379,-83.984375
2380,-83.984375
2381,-83.984375
2382,-85.937500
2383,-85.937500
2384,-83.984375
2385,-85.937500
2386,-85.937500
2387,-85.937500
2388,-83.984375
2389,-83.984375
2390,-83.984375
2391,-83.984375
2392,-83.984375
2393,-83.984375
2394,-83.984375
2395,-82.031250
2396,-82.031250
2397,-82.031250
2398,-82.031250
2399,-80.078125
2400,-80.078125
2401,-80.078125
2402,-80.078125
2403,-78.125000
2404,-78.125000
2405,-76.171875
2406,-76.171875
2407,-74.218750
2408,-72.265625
2409,-72.265625
2410,-72.265625
2411,-70.312500
2412,-70.312500
2413,-68.359375
2414,-68.359375
2415,-66.406250
2416,-64.453125
2417,-62.500000
2418,-62.500000
2419,-60.546875
2420,-60.546875
2421,-58.593750
2422,-56.640625
2423,-56.640625
2424,-54.687500
2425,-52.734375
2426,-52.734375
2427,-50.781250
2428,-48.828125
2429,-46.875000
2430,-46.875000
2431,-44.921875
2432,-42.968750
2433,-41.015625
2434,-41.015625
2435,-37.109375
2436,-37.109375
2437,-35.156250
2438,-33.203125
2439,-31.250000
2440,-29.296875
2441,-27.343750
2442,-27.343750
2443,-25.390625
2444,-23.437500
2445,-21.484375
2446,-19.531250
2447,-17.578125
2448,-15.625000
2449,-13.671875
2450,-13.671875
2451,-13.671875
2452,-9.765625
2453,-7.812500
2454,-5.859375
2455,-3.906250
2456,-1.953125
2457,-1.953125
2458,1.953125
2459,3.906250
2460,3.906250
2461,5.859375
2462,7.812500
2463,9.765625
2464,11.718750
2465,13.671875
2466,13.671875
2467,15.625000
2468,17.578125
2469,19.531250
2470,21.484375
2471,21.484375
2472,25.390625
2473,25.390625
2474,27.343750
2475,29.296875
2476,31.250000
2477,31.250000
2478,33.203125
2479,35.156250
2480,37.109375
2481,37.109375
2482,39.062500
2483,41.015625
2484,42.968750
2485,42.968750
2486,44.921875
2487,44.921875
2488,46.875000
2489,48.828125
2490,48.828125
2491,50.781250
2492,50.781250
2493,52.734375
2494,52.734375
2495,54.687500
2496,56.640625
2497,56.640625
2498,56.640625
2499,58.593750
2500,58.593750
2501,60.546875
2502,60.546875
2503,62.500000
2504,62.500000
2505,64.453125
2506,64.453125
2507,64.453125
2508,64.453125
2509,66.406250
2510,66.406250
2511,66.406250
2512,68.359375
2513,68.359375
2514,68.359375
2515,68.359375
2516,70.312500
2517,70.312500
2518,68.359375
2519,70.312500
2520,70.312500
2521,70.312500
2522,70.312500
2523,70.312500
2524,70.312500
2525,70.312500
2526,70.312500
2527,72.265625
2528,70.312500
2529,70.312500
2530,70.312500
2531,70.312500
2532,70.312500
2533,70.312500
2534,70.312500
2535,70.312500
2536,70.312500
2537,70.312500
2538,68.359375
2539,68.359375
2540,68.359375
2541,66.406250
2542,68.359375
2543,66.406250
2544,66.406250
2545,66.406250
2546,64.453125
2547,64.453125
2548,64.453125
2549,62.500000
2550,64.453125
2551,62.500000
2552,60.546875
2553,60.546875
2554,58.593750
2555,58.593750
2556,56.640625
2557,56.640625
2558,54.687500
2559,54.687500
2560,52.734375
2561,52.734375
2562,50.781250
2563,50.781250
2564,50.781250
2565,46.875000
2566,44.921875
2567,44.921875
2568,42.968750
2569,41.015625
2570,41.015625
2571,39.062500
2572,39.062500
2573,37.109375
2574,35.156250
2575,33.203125
2576,31.250000
2577,31.250000
2578,29.296875
2579,27.343750
2580,25.390625
2581,23.437500
2582,21.484375
2583,21.484375
2584,19.531250
2585,17.578125
2586,17.578125
2587,15.625000
2588,13.671875
2589,11.718750
2590,9.765625
2591,9.765625
2592,5.859375
2593,3.906250
2594,3.906250
2595,1.953125
2596,0.000000
2597,-1.953125
2598,-3.906250
2599,-5.859375
2600,-7.812500
2601,-9.765625
2602,-11.718750
2603,-11.718750
2604,-13.671875
2605,-15.625000
2606,-17.578125
2607,-19.531250
2608,-19.531250
2609,-23.437500
2610,-23.437500
2611,-27.343750
2612,-27.343750
2613,-29.296875
2614,-31.250000
2615,-33.203125
2616,-35.156250
2617,-37.109375
2618,-39.062500
2619,-39.062500
2620,-41.015625
2621,-42.968750
2622,-44.921875
2623,-44.921875
2624,-46.875000
2625,-48.828125
2626,-50.781250
2627,-50.781250
2628,-52.734375
2629,-54.687500
2630,-56.640625
2631,-58.593750
2632,-60.546875
2633,-60.546875
2634,-60.546875
2635,-62.500000
2636,-64.453125
2637,-66.406250
2638,-66.406250
2639,-68.359375
2640,-70.312500
2641,-70.312500
2642,-70.312500
2643,-72.265625
2644,-72.265625
2645,-74.218750
2646,-74.218750
2647,-76.171875
2648,-76.171875
2649,-78.125000
2650,-78.125000
2651,-80.078125
2652,-80.078125
2653,-82.031250
2654,-82.031250
2655,-82.031250
2656,-82.031250
2657,-83.984375
2658,-83.984375
2659,-83.984375
2660,-83.984375
2661,-85.937500
2662,-83.984375
2663,-83.984375
2664,-83.984375
2665,-85.937500
2666,-85.937500
2667,-85.937500
2668,-85.937500
2669,-85.937500
2670,-85.937500
2671,-85.937500
2672,-85.937500
2673,-85.937500
2674,-83.984375
2675,-83.984375
2676,-83.984375
2677,-83.984375
2678,-83.984375
2679,-83.984375
2680,-82.031250
2681,-82.031250
2682,-82.031250
2683,-80.078125
2684,-80.078125
2685,-80.078125
2686,-78.125000
2687,-78.125000
2688,-78.125000
2689,-76.171875
2690,-76.171875
2691,-74.218750
2692,-74.218750
2693,-74.218750
2694,-72.265625
2695,-70.312500
2696,-70.312500
2697,-68.359375
2698,-68.359375
2699,-68.359375
2700,-66.406250
2701,-64.453125
2702,-62.500000
2703,-62.500000
2704,-60.546875
2705,-58.593750
2706,-58.593750
2707,-56.640625
2708,-54.687500
2709,-54.687500
2710,-52.734375
2711,-50.781250
2712,-48.828125
2713,-48.828125
2714,-46.875000
2715,-44.921875
2716,-42.968750
2717,-42.968750
2718,-41.015625
2719,-39.062500
2720,-39.062500
2721,-35.156250
2722,-35.156250
2723,-31.250000
2724,-29.296875
2725,-29.296875
2726,-27.343750
2727,-25.390625
2728,-23.437500
2729,-21.484375
2730,-19.531250
2731,-17.578125
2732,-15.625000
2733,-13.671875
2734,-13.671875
2735,-9.765625
2736,-9.765625
2737,-7.812500
2738,-5.859375
2739,-3.906250
2740,-1.953125
2741,-1.953125
2742,0.000000
2743,1.953125
2744,3.906250
2745,5.859375
2746,7.812500
2747,9.765625
2748,11.718750
2749,13.671875
2750,13.671875
2751,15.625000
2752,17.578125
2753,19.531250
2754,21.484375
2755,21.484375
2756,23.437500
2757,25.390625
2758,27.343750
2759,29.296875
2760,29.296875
2761,31.250000
2762,35.156250
2763,35.156250
2764,37.109375
2765,39.062500
2766,39.062500
2767,39.062500
2768,41.015625
2769,42.968750
2770,42.968750
2771,44.921875
2772,46.875000
2773,46.875000
2774,48.828125
2775,48.828125
2776,50.781250
2777,52.734375
2778,52.734375
2779,54.687500
2780,54.687500
2781,56.640625
2782,56.640625
2783,58.593750
2784,58.593750
2785,58.593750
2786,60.546875
2787,62.500000
2788,62.500000
2789,62.500000
2790,64.453125
2791,64.453125
2792,64.453125
2793,64.453125
2794,66.406250
2795,66.406250
2796,66.406250
2797,68.359375
2798,68.359375
2799,68.359375
2800,68.359375
2801,70.312500
2802,70.312500
2803,70.312500
2804,70.312500
2805,70.312500
2806,70.312500
2807,70.312500
2808,70.312500
2809,72.265625
2810,72.265625
2811,70.312500
2812,70.312500
2813,72.265625
2814,70.312500
2815,70.312500
2816,70.312500
2817,70.312500
2818,70.312500
2819,70.312500
2820,70.312500
2821,72.265625
2822,68.359375
2823,68.359375
2824,68.359375
2825,68.359375
2826,66.406250
2827,66.406250
2828,66.406250
2829,66.406250
2830,66.406250
2831,64.453125
2832,64.453125
2833,64.453125
2834,62.500000
2835,60.546875
2836,60.546875
2837,58.593750
2838,58.593750
2839,56.640625
2840,56.640625
2841,56.640625
2842,54.687500
2843,54.687500
2844,52.734375
2845,52.734375
2846,50.781250
2847,48.828125
2848,48.828125
2849,46.875000
2850,44.921875
2851,42.968750
2852,42.968750
2853,41.015625
2854,41.015625
2855,39.062500
2856,37.109375
2857,37.109375
2858,35.156250
2859,33.203125
2860,31.250000
2861,31.250000
2862,29.296875
2863,27.343750
2864,25.390625
2865,25.390625
2866,23.437500
2867,21.484375
2868,19.531250
2869,19.531250
2870,15.625000
2871,15.625000
2872,13.671875
2873,11.718750
2874,9.765625
2875,7.812500
2876,7.812500
2877,5.859375
2878,1.953125
2879,1.953125
2880,0.000000
2881,-1.953125
2882,-3.906250
2883,-5.859375
2884,-7.812500
2885,-9.765625
2886,-9.765625
2887,-11.718750
2888,-13.671875
2889,-15.625000
2890,-17.578125
2891,-19.531250
2892,-21.484375
2893,-23.437500
2894,-25.390625
2895,-25.390625
2896,-27.343750
2897,-29.296875
2898,-31.250000
2899,-33.203125
2900,-35.156250
2901,-37.109375
2902,-39.062500
2903,-39.062500
2904,-41.015625
2905,-42.968750
2906,-44.921875
2907,-46.875000
2908,-46.875000
2909,-48.828125
2910,-50.781250
2911,-52.734375
2912,-52.734375
2913,-54.687500
2914,-56.640625
2915,-58.593750
2916,-58.593750
2917,-60.546875
2918,-60.546875
2919,-62.500000
2920,-64.453125
2921,-66.406250
2922,-66.406250
2923,-68.359375
2924,-68.359375
2925,-70.312500
2926,-70.312500
2927,-70.312500
2928,-72.265625
2929,-72.265625
2930,-74.218750
2931,-74.218750
2932,-76.171875
2933,-76.171875
2934,-78.125000
2935,-78.125000
2936,-80.078125
2937,-80.078125
2938,-80.078125
2939,-82.031250
2940,-82.031250
2941,-82.031250
2942,-82.031250
2943,-82.031250
2944,-82.031250
2945,-83.984375
2946,-83.984375
2947,-83.984375
2948,-83.984375
2949,-83.984375
2950,-83.984375
2951,-83.984375
2952,-83.984375
2953,-83.984375
2954,-83.984375
2955,-85.937500
2956,-83.984375
2957,-83.984375
2958,-83.984375
2959,-83.984375
2960,-83.984375
2961,-83.984375
2962,-82.031250
2963,-82.031250
2964,-83.984375
2965,-82.031250
2966,-82.031250
2967,-80.078125
2968,-80.078125
2969,-80.078125
2970,-78.125000
2971,-78.125000
2972,-78.125000
2973,-76.171875
2974,-76.171875
2975,-74.218750
2976,-74.218750
2977,-72.265625
2978,-72.265625
2979,-70.312500
2980,-70.312500
2981,-68.359375
2982,-68.359375
2983,-66.406250
2984,-64.453125
2985,-64.453125
2986,-62.500000
2987,-62.500000
2988,-60.546875
2989,-58.593750
2990,-58.593750
2991,-56.640625
2992,-54.687500
2993,-54.687500
2994,-52.734375
2995,-50.781250
2996,-48.828125
2997,-46.875000
2998,-44.921875
2999,-44.921875
3000,-42.968750
3001,-41.015625
3002,-41.015625
3003,-39.062500
3004,-37.109375
3005,-35.156250
3006,-33.203125
3007,-31.250000
3008,-31.250000
3009,-27.343750
3010,-27.343750
3011,-25.390625
3012,-23.437500
3013,-21.484375
3014,-19.531250
3015,-17.578125
3016,-15.625000
3017,-15.625000
3018,-13.671875
3019,-11.718750
3020,-9.765625
3021,-7.812500
3022,-5.859375
3023,-7.812500
3024,-1.953125
3025,-1.953125
3026,0.000000
3027,1.953125
3028,3.906250
3029,5.859375
3030,7.812500
3031,9.765625
3032,9.765625
3033,11.718750
3034,13.671875
3035,15.625000
3036,17.578125
3037,21.484375
3038,19.531250
3039,21.484375
3040,21.484375
3041,25.390625
3042,27.343750
3043,27.343750
3044,29.296875
3045,31.250000
3046,33.203125
3047,35.156250
3048,35.156250
3049,37.109375
3050,39.062500
3051,41.015625
3052,41.015625
3053,42.968750
3054,42.968750
3055,44.921875
3056,46.875000
3057,46.875000
3058,48.828125
3059,50.781250
3060,50.781250
3061,52.734375
3062,54.687500
3063,54.687500
3064,54.687500
3065,56.640625
3066,56.640625
3067,58.593750
3068,58.593750
3069,60.546875
3070,60.546875
3071,60.546875
3072,62.500000
3073,62.500000
3074,64.453125
3075,64.453125
3076,64.453125
3077,64.453125
3078,66.406250
3079,66.406250
3080,66.406250
3081,68.359375
3082,68.359375
3083,68.359375
3084,68.359375
3085,68.359375
3086,70.312500
3087,70.312500
3088,70.312500
3089,70.312500
3090,70.312500
3091,70.312500
3092,70.312500
3093,70.312500
3094,70.312500
3095,70.312500
3096,70.312500
3097,70.312500
3098,70.312500
3099,70.312500
3100,70.312500
3101,70.312500
3102,70.312500
3103,70.312500
3104,68.359375
3105,70.312500
3106,68.359375
3107,68.359375
3108,68.359375
3109,68.359375
3110,66.406250
3111,66.406250
3112,66.406250
3113,66.406250
3114,64.453125
3115,64.453125
3116,62.500000
3117,64.453125
3118,62.500000
3119,62.500000
3120,58.593750
3121,58.593750
3122,58.593750
3123,56.640625
3124,56.640625
3125,56.640625
3126,54.687500
3127,54.687500
3128,52.734375
3129,52.734375
3130,50.781250
3131,48.828125
3132,48.828125
3133,48.828125
3134,44.921875
3135,44.921875
3136,42.968750
3137,42.968750
3138,41.015625
3139,39.062500
3140,37.109375
3141,37.109375
3142,35.156250
3143,33.203125
3144,33.203125
3145,31.250000
3146,29.296875
3147,27.343750
3148,25.390625
3149,25.390625
3150,23.437500
3151,21.484375
3152,19.531250
3153,17.578125
3154,15.625000
3155,15.625000
3156,13.671875
3157,11.718750
3158,9.765625
3159,7.812500
3160,5.859375
3161,3.906250
3162,1.953125
3163,1.953125
3164,0.000000
3165,-1.953125
3166,-3.906250
3167,-5.859375
3168,-7.812500
3169,-9.765625
3170,-11.718750
3171,-11.718750
3172,-13.671875
3173,-17.578125
3174,-17.578125
3175,-19.531250
3176,-21.484375
3177,-23.437500
3178,-25.390625
3179,-25.390625
3180,-27.343750
3181,-29.296875
3182,-31.250000
3183,-33.203125
3184,-35.156250
3185,-37.109375
3186,-37.109375
3187,-39.062500
3188,-41.015625
3189,-42.968750
3190,-44.921875
3191,-46.875000
3192,-48.828125
3193,-48.828125
3194,-50.781250
3195,-52.734375
3196,-52.734375
3197,-54.687500
3198,-56.640625
3199,-58.593750
3200,-58.593750
3201,-60.546875
3202,-60.546875
3203,-62.500000
3204,-64.453125
3205,-64.453125
3206,-66.406250
3207,-68.359375
3208,-68.359375
3209,-70.312500
3210,-70.312500
3211,-72.265625
3212,-72.265625
3213,-74.218750
3214,-74.218750
3215,-76.171875
3216,-76.171875
3217,-78.125000
3218,-78.125000
3219,-78.125000
3220,-80.078125
3221,-80.078125
3222,-80.078125
3223,-82.031250
3224,-82.031250
3225,-82.031250
3226,-83.984375
3227,-83.984375
3228,-83.984375
3229,-83.984375
3230,-83.984375
3231,-83.984375
3232,-83.984375
3233,-85.937500
3234,-85.937500
3235,-85.937500
3236,-85.937500
3237,-85.937500
3238,-85.937500
3239,-85.937500
3240,-85.937500
3241,-85.937500
3242,-83.984375
3243,-83.984375
3244,-83.984375
3245,-83.984375
3246,-83.984375
3247,-83.984375
3248,-82.031250
3249,-82.031250
3250,-82.031250
3251,-82.031250
3252,-80.078125
3253,-80.078125
3254,-78.125000
3255,-78.125000
3256,-78.125000
3257,-76.171875
3258,-76.171875
3259,-76.171875
3260,-74.218750
3261,-74.218750
3262,-72.265625
3263,-70.312500
3264,-70.312500
3265,-68.359375
3266,-68.359375
3267,-66.406250
3268,-66.406250
3269,-64.453125
3270,-62.500000
3271,-62.500000
3272,-60.546875
3273,-60.546875
3274,-58.593750
3275,-56.640625
3276,-54.687500
3277,-54.687500
3278,-52.734375
3279,-50.781250
3280,-48.828125
3281,-48.828125
3282,-46.875000
3283,-44.921875
3284,-42.968750
3285,-42.968750
3286,-41.015625
3287,-39.062500
3288,-37.109375
3289,-35.156250
3290,-33.203125
3291,-33.203125
3292,-31.250000
3293,-29.296875
3294,-27.343750
3295,-25.390625
3296,-23.437500
3297,-21.484375
3298,-19.531250
3299,-19.531250
3300,-17.578125
3301,-15.625000
3302,-13.671875
3303,-11.718750
3304,-9.765625
3305,-7.812500
3306,-5.859375
3307,-3.906250
3308,-3.906250
3309,-1.953125
3310,0.000000
3311,1.953125
3312,3.906250
3313,5.859375
3314,7.812500
3315,9.765625
3316,9.765625
3317,11.718750
3318,13.671875
3319,15.625000
3320,17.578125
3321,19.531250
3322,19.531250
3323,21.484375
3324,23.437500
3325,25.390625
3326,27.343750
3327,27.343750
3328,31.250000
3329,31.250000
3330,33.203125
3331,35.156250
3332,35.156250
3333,37.109375
3334,39.062500
3335,39.062500
3336,41.015625
3337,42.968750
3338,44.921875
3339,44.921875
3340,46.875000
3341,48.828125
3342,48.828125
3343,50.781250
3344,50.781250
3345,52.734375
3346,54.687500
3347,54.687500
3348,54.687500
3349,56.640625
3350,56.640625
3351,58.593750
3352,58.593750
3353,58.593750
3354,60.546875
3355,60.546875
3356,62.500000
3357,62.500000
3358,64.453125
3359,64.453125
3360,64.453125
3361,66.406250
3362,66.406250
3363,66.406250
3364,68.359375
3365,68.359375
3366,68.359375
3367,68.359375
3368,68.359375
3369,68.359375
3370,70.312500
3371,70.312500
3372,70.312500
3373,70.312500
3374,70.312500
3375,72.265625
3376,74.218750
3377,70.312500
3378,70.312500
3379,70.312500
3380,70.312500
3381,72.265625
3382,70.312500
3383,70.312500
3384,70.312500
3385,70.312500
3386,70.312500
3387,68.359375
3388,70.312500
3389,70.312500
3390,68.359375
3391,70.312500
3392,68.359375
3393,68.359375
3394,68.359375
3395,66.406250
3396,66.406250
3397,66.406250
3398,64.453125
3399,64.453125
3400,64.453125
3401,62.500000
3402,62.500000
3403,60.546875
3404,60.546875
3405,60.546875
3406,58.593750
3407,56.640625
3408,56.640625
3409,56.640625
3410,54.687500
3411,54.687500
3412,52.734375
3413,50.781250
3414,50.781250
3415,48.828125
3416,48.828125
3417,46.875000
3418,46.875000
3419,44.921875
3420,42.968750
3421,41.015625
3422,41.015625
3423,39.062500
3424,37.109375
3425,35.156250
3426,35.156250
3427,35.156250
3428,31.250000
3429,31.250000
3430,29.296875
3431,27.343750
3432,25.390625
3433,25.390625
3434,23.437500
3435,21.484375
3436,19.531250
3437,19.531250
3438,17.578125
3439,15.625000
3440,13.671875
3441,11.718750
3442,9.765625
3443,9.765625
3444,7.812500
3445,5.859375
3446,3.906250
3447,1.953125
3448,0.000000
3449,0.000000
3450,-3.906250
3451,-5.859375
3452,-5.859375
3453,-7.812500
3454,-9.765625
3455,-11.718750
3456,-13.671875
3457,-15.625000
3458,-17.578125
3459,-17.578125
3460,-21.484375
3461,-21.484375
3462,-23.437500
3463,-25.390625
3464,-27.343750
3465,-29.296875
3466,-31.250000
3467,-31.250000
3468,-33.203125
3469,-35.156250
3470,-37.109375
3471,-39.062500
3472,-41.015625
3473,-42.968750
3474,-44.921875
3475,-46.875000
3476,-46.875000
3477,-48.828125
3478,-50.781250
3479,-50.781250
3480,-52.734375
3481,-54.687500
3482,-56.640625
3483,-56.640625
3484,-58.593750
3485,-60.546875
3486,-60.546875
3487,-62.500000
3488,-62.500000
3489,-64.453125
3490,-66.406250
3491,-68.359375
3492,-68.359375
3493,-70.312500
3494,-70.312500
3495,-72.265625
3496,-72.265625
3497,-74.218750
3498,-74.218750
3499,-76.171875
3500,-76.171875
3501,-76.171875
3502,-78.125000
3503,-78.125000
3504,-80.078125
3505,-80.078125
3506,-80.078125
3507,-82.031250
3508,-82.031250
3509,-82.031250
3510,-82.031250
3511,-82.031250
3512,-83.984375
3513,-83.984375
3514,-83.984375
3515,-83.984375
3516,-83.984375
3517,-83.984375
3518,-83.984375
3519,-83.984375
3520,-83.984375
3521,-83.984375
3522,-83.984375
3523,-83.984375
3524,-83.984375
3525,-83.984375
3526,-83.984375
3527,-83.984375
3528,-83.984375
3529,-83.984375
3530,-83.984375
3531,-82.031250
3532,-82.031250
3533,-83.984375
3534,-82.031250
3535,-80.078125
3536,-80.078125
3537,-80.078125
3538,-78.125000
3539,-78.125000
3540,-78.125000
3541,-76.171875
3542,-76.171875
3543,-74.218750
3544,-74.218750
3545,-74.218750
3546,-72.265625
3547,-72.265625
3548,-70.312500
3549,-70.312500
3550,-68.359375
3551,-66.406250
3552,-66.406250
3553,-64.453125
3554,-64.453125
3555,-62.500000
3556,-60.546875
3557,-62.500000
3558,-58.593750
3559,-58.593750
3560,-54.687500
3561,-54.687500
3562,-52.734375
3563,-50.781250
3564,-50.781250
3565,-48.828125
3566,-46.875000
3567,-44.921875
3568,-42.968750
3569,-42.968750
3570,-41.015625
3571,-39.062500
3572,-37.109375
3573,-35.156250
3574,-33.203125
3575,-31.250000
3576,-29.296875
3577,-29.296875
3578,-27.343750
3579,-25.390625
3580,-23.437500
3581,-21.484375
3582,-19.531250
3583,-19.531250
3584,-15.625000
3585,-15.625000
3586,-13.671875
3587,-11.718750
3588,-9.765625
3589,-7.812500
3590,-5.859375
3591,-3.906250
3592,-1.953125
3593,-1.953125
3594,0.000000
3595,3.906250
3596,3.906250
3597,5.859375
3598,7.812500
3599,9.765625
3600,9.765625
3601,11.718750
3602,13.671875
3603,15.625000
3604,17.578125
3605,19.531250
3606,19.531250
3607,21.484375
3608,23.437500
3609,25.390625
3610,27.343750
3611,29.296875
3612,29.296875
3613,31.250000
3614,31.250000
3615,33.203125
3616,35.156250
3617,41.015625
3618,37.109375
3619,41.015625
3620,41.015625
3621,42.968750
3622,44.921875
3623,44.921875
3624,44.921875
3625,48.828125
3626,48.828125
3627,48.828125
3628,50.781250
3629,50.781250
3630,52.734375
3631,54.687500
3632,54.687500
3633,54.687500
3634,56.640625
3635,58.593750
3636,58.593750
3637,58.593750
3638,60.546875
3639,60.546875
3640,60.546875
3641,64.453125
3642,64.453125
3643,64.453125
3644,64.453125
3645,66.406250
3646,66.406250
3647,68.359375
3648,66.406250
3649,68.359375
3650,68.359375
3651,68.359375
3652,68.359375
3653,70.312500
3654,68.359375
3655,70.312500
3656,70.312500
3657,70.312500
3658,70.312500
3659,70.312500
3660,70.312500
3661,70.312500
3662,70.312500
3663,70.312500
3664,70.312500
3665,70.312500
3666,70.312500
3667,70.312500
3668,70.312500
3669,70.312500
3670,70.312500
3671,70.312500
3672,68.359375
3673,70.312500
3674,68.359375
3675,68.359375
3676,68.359375
3677,68.359375
3678,66.406250
3679,66.406250
3680,66.406250
3681,64.453125
3682,64.453125
3683,64.453125
3684,64.453125
3685,62.500000
3686,62.500000
3687,60.546875
3688,60.546875
3689,58.593750
3690,58.593750
3691,56.640625
3692,56.640625
3693,56.640625
3694,56.640625
3695,52.734375
3696,52.734375
3697,52.734375
3698,50.781250
3699,48.828125
3700,48.828125
3701,46.875000
3702,44.921875
3703,44.921875
3704,42.968750
3705,42.968750
3706,41.015625
3707,39.062500
3708,39.062500
3709,37.109375
3710,35.156250
3711,35.156250
3712,33.203125
3713,31.250000
3714,29.296875
3715,27.343750
3716,27.343750
3717,25.390625
3718,23.437500
3719,21.484375
3720,21.484375
3721,19.531250
3722,17.578125
3723,15.625000
3724,13.671875
3725,11.718750
3726,9.765625
3727,7.812500
3728,5.859375
3729,3.906250
3730,3.906250
3731,1.953125
3732,0.000000
3733,-1.953125
3734,-3.906250
3735,-3.906250
3736,-7.812500
3737,-7.812500
3738,-9.765625
3739,-11.718750
3740,-13.671875
3741,-15.625000
3742,-17.578125
3743,-19.531250
3744,-19.531250
3745,-23.437500
3746,-23.437500
3747,-25.390625
3748,-27.343750
3749,-29.296875
3750,-31.250000
3751,-35.156250
3752,-35.156250
3753,-37.109375
3754,-37.109375
3755,-39.062500
3756,-41.015625
3757,-42.968750
3758,-44.921875
3759,-44.921875
3760,-46.875000
3761,-48.828125
3762,-50.781250
3763,-52.734375
3764,-52.734375
3765,-54.687500
3766,-56.640625
3767,-56.640625
3768,-58.593750
3769,-60.546875
3770,-60.546875
3771,-62.500000
3772,-64.453125
3773,-64.453125
3774,-66.406250
3775,-66.406250
3776,-68.359375
3777,-70.312500
3778,-70.312500
3779,-74.218750
3780,-72.265625
3781,-74.218750
3782,-74.218750
3783,-76.171875
3784,-76.171875
3785,-76.171875
3786,-78.125000
3787,-78.125000
3788,-80.078125
3789,-80.078125
3790,-80.078125
3791,-82.031250
3792,-83.984375
3793,-82.031250
3794,-82.031250
3795,-83.984375
3796,-83.984375
3797,-83.984375
3798,-83.984375
3799,-83.984375
3800,-83.984375
3801,-85.937500
3802,-85.937500
3803,-85.937500
3804,-85.937500
3805,-85.937500
3806,-85.937500
3807,-85.937500
3808,-85.937500
3809,-85.937500
3810,-83.984375
3811,-83.984375
3812,-83.984375
3813,-83.984375
3814,-83.984375
3815,-83.984375
3816,-82.031250
3817,-82.031250
3818,-82.031250
3819,-82.031250
3820,-80.078125
3821,-80.078125
3822,-78.125000
3823,-80.078125
3824,-78.125000
3825,-78.125000
3826,-76.171875
3827,-76.171875
3828,-74.218750
3829,-74.218750
3830,-72.265625
3831,-72.265625
3832,-70.312500
3833,-70.312500
3834,-68.359375
3835,-66.406250
3836,-66.406250
3837,-64.453125
3838,-62.500000
3839,-62.500000
3840,-60.546875
3841,-58.593750
3842,-58.593750
3843,-56.640625
3844,-54.687500
3845,-54.687500
3846,-52.734375
3847,-50.781250
3848,-48.828125
3849,-48.828125
3850,-46.875000
3851,-44.921875
3852,-42.968750
3853,-41.015625
3854,-41.015625
3855,-39.062500
3856,-37.109375
3857,-37.109375
3858,-33.203125
3859,-33.203125
3860,-31.250000
3861,-29.296875
3862,-27.343750
3863,-25.390625
3864,-23.437500
3865,-21.484375
3866,-19.531250
3867,-19.531250
3868,-17.578125
3869,-15.625000
3870,-13.671875
3871,-11.718750
3872,-9.765625
3873,-7.812500
3874,-5.859375
3875,-5.859375
3876,-3.906250
3877,-1.953125
3878,0.000000
3879,1.953125
3880,3.906250
3881,5.859375
3882,5.859375
3883,7.812500
3884,9.765625
3885,11.718750
3886,13.671875
3887,15.625000
3888,17.578125
3889,17.578125
3890,21.484375
3891,21.484375
3892,23.437500
3893,25.390625
3894,27.343750
3895,29.296875
3896,29.296875
3897,31.250000
3898,33.203125
3899,35.156250
3900,35.156250
3901,37.109375
3902,37.109375
3903,39.062500
3904,41.015625
3905,42.968750
3906,44.921875
3907,44.921875
3908,46.875000
3909,48.828125
3910,48.828125
3911,50.781250
3912,50.781250
3913,50.781250
3914,54.687500
3915,54.687500
3916,54.687500
3917,56.640625
3918,56.640625
3919,58.593750
3920,58.593750
3921,58.593750
3922,60.546875
3923,60.546875
3924,62.500000
3925,62.500000
3926,64.453125
3927,64.453125
3928,64.453125
3929,64.453125
3930,66.406250
3931,66.406250
3932,66.406250
3933,68.359375
3934,68.359375
3935,68.359375
3936,68.359375
3937,68.359375
3938,68.359375
3939,68.359375
3940,70.312500
3941,70.312500
3942,70.312500
3943,70.312500
3944,70.312500
3945,70.312500
3946,70.312500
3947,70.312500
3948,72.265625
3949,70.312500
3950,70.312500
3951,70.312500
3952,70.312500
3953,70.312500
3954,70.312500
3955,70.312500
3956,70.312500
3957,70.312500
3958,68.359375
3959,70.312500
3960,68.359375
3961,68.359375
3962,68.359375
3963,66.406250
3964,66.406250
3965,66.406250
3966,66.406250
3967,64.453125
3968,64.453125
3969,62.500000
3970,62.500000
3971,62.500000
3972,60.546875
3973,60.546875
3974,62.500000
3975,58.593750
3976,56.640625
3977,56.640625
3978,54.687500
3979,54.687500
3980,52.734375
3981,52.734375
3982,50.781250
3983,48.828125
3984,48.828125
3985,46.875000
3986,46.875000
3987,44.921875
3988,42.968750
3989,42.968750
3990,41.015625
3991,39.062500
3992,39.062500
3993,37.109375
3994,35.156250
3995,35.156250
3996,33.203125
3997,33.203125
3998,29.296875
3999,27.343750
4000,27.343750
4001,25.390625
4002,23.437500
4003,21.484375
4004,21.484375
4005,19.531250
4006,17.578125
4007,15.625000
4008,13.671875
4009,11.718750
4010,11.718750
4011,7.812500
4012,7.812500
4013,5.859375
4014,3.906250
4015,1.953125
4016,0.000000
4017,-1.953125
4018,-3.906250
4019,-3.906250
4020,-5.859375
4021,-7.812500
4022,-9.765625
4023,-11.718750
4024,-13.671875
4025,-15.625000
4026,-17.578125
4027,-17.578125
4028,-19.531250
4029,-21.484375
4030,-23.437500
4031,-25.390625
4032,-27.343750
4033,-29.296875
4034,-29.296875
4035,-31.250000
4036,-33.203125
4037,-35.156250
4038,-37.109375
4039,-39.062500
4040,-41.015625
4041,-42.968750
4042,-42.968750
4043,-44.921875
4044,-46.875000
4045,-48.828125
4046,-48.828125
4047,-50.781250
4048,-52.734375
4049,-54.687500
4050,-54.687500
4051,-56.640625
4052,-58.593750
4053,-60.546875
4054,-60.546875
4055,-62.500000
4056,-62.500000
4057,-64.453125
4058,-66.406250
4059,-66.406250
4060,-68.359375
4061,-68.359375
4062,-70.312500
4063,-72.265625
4064,-72.265625
4065,-74.218750
4066,-74.218750
4067,-74.218750
4068,-76.171875
4069,-78.125000
4070,-78.125000
4071,-78.125000
4072,-78.125000
4073,-80.078125
4074,-80.078125
4075,-80.078125
4076,-82.031250
4077,-82.031250
4078,-82.031250
4079,-83.984375
4080,-83.984375
4081,-83.984375
4082,-83.984375
4083,-83.984375
4084,-83.984375
4085,-83.984375
4086,-83.984375
4087,-85.937500
4088,-85.937500
4089,-83.984375
4090,-83.984375
4091,-85.937500
4092,-83.984375
4093,-83.984375
4094,-83.984375
4095,-83.984375
4096,-83.984375
4097,-83.984375
4098,-82.031250
4099,-82.031250
4100,-82.031250
4101,-82.031250
4102,-82.031250
4103,-80.078125
4104,-82.031250
4105,-80.078125
4106,-78.125000
4107,-78.125000
4108,-78.125000
4109,-76.171875
4110,-76.171875
4111,-74.218750
4112,-74.218750
4113,-74.218750
4114,-72.265625
4115,-72.265625
4116,-70.312500
4117,-68.359375
4118,-68.359375
4119,-66.406250
4120,-66.406250
4121,-64.453125
4122,-64.453125
4123,-62.500000
4124,-60.546875
4125,-60.546875
4126,-58.593750
4127,-56.640625
4128,-54.687500
4129,-54.687500
4130,-52.734375
4131,-50.781250
4132,-48.828125
4133,-48.828125
4134,-46.875000
4135,-46.875000
4136,-42.968750
4137,-42.968750
4138,-41.015625
4139,-39.062500
4140,-37.109375
4141,-35.156250
4142,-33.203125
4143,-33.203125
4144,-29.296875
4145,-29.296875
4146,-27.343750
4147,-29.296875
4148,-23.437500
4149,-23.437500
4150,-19.531250
4151,-19.531250
4152,-17.578125
4153,-15.625000
4154,-13.671875
4155,-11.718750
4156,-9.765625
4157,-7.812500
4158,-7.812500
4159,-3.906250
4160,-3.906250
4161,-1.953125
4162,0.000000
4163,1.953125
4164,3.906250
4165,5.859375
4166,5.859375
4167,7.812500
4168,9.765625
4169,11.718750
4170,13.671875
4171,15.625000
4172,17.578125
4173,17.578125
4174,19.531250
4175,21.484375
4176,25.390625
4177,25.390625
4178,27.343750
4179,29.296875
4180,29.296875
4181,31.250000
4182,33.203125
4183,33.203125
4184,35.156250
4185,37.109375
4186,39.062500
4187,39.062500
4188,41.015625
4189,41.015625
4190,42.968750
4191,44.921875
4192,46.875000
4193,46.875000
4194,48.828125
4195,48.828125
4196,50.781250
4197,52.734375
4198,52.734375
4199,52.734375
4200,56.640625
4201,56.640625
4202,56.640625
4203,56.640625
4204,58.593750
4205,58.593750
4206,60.546875
4207,60.546875
4208,60.546875
4209,62.500000
4210,64.453125
4211,64.453125
4212,66.406250
4213,64.453125
4214,66.406250
4215,66.406250
4216,68.359375
4217,68.359375
4218,68.359375
4219,68.359375
4220,68.359375
4221,70.312500
4222,70.312500
4223,70.312500
4224,70.312500
4225,70.312500
4226,70.312500
4227,70.312500
4228,70.312500
4229,70.312500
4230,72.265625
4231,72.265625
4232,70.312500
4233,70.312500
4234,70.312500
4235,70.312500
4236,70.312500
4237,70.312500
4238,70.312500
4239,70.312500
4240,70.312500
4241,70.312500
4242,68.359375
4243,68.359375
4244,68.359375
4245,68.359375
4246,66.406250
4247,66.406250
4248,66.406250
4249,66.406250
4250,64.453125
4251,64.453125
4252,62.500000
4253,62.500000
4254,62.500000
4255,60.546875
4256,60.546875
4257,60.546875
4258,58.593750
4259,58.593750
4260,56.640625
4261,56.640625
4262,54.687500
4263,52.734375
4264,52.734375
4265,52.734375
4266,50.781250
4267,48.828125
4268,48.828125
4269,46.875000
4270,46.875000
4271,44.921875
4272,42.968750
4273,41.015625
4274,41.015625
4275,39.062500
4276,39.062500
4277,37.109375
4278,35.156250
4279,33.203125
4280,33.203125
4281,31.250000
4282,29.296875
4283,27.343750
4284,27.343750
4285,25.390625
4286,23.437500
4287,23.437500
4288,21.484375
4289,19.531250
4290,17.578125
4291,15.625000
4292,13.671875
4293,11.718750
4294,11.718750
4295,9.765625
4296,7.812500
4297,5.859375
4298,3.906250
4299,1.953125
4300,0.000000
4301,-1.953125
4302,-3.906250
4303,-3.906250
4304,-5.859375
4305,-7.812500
4306,-9.765625
4307,-11.718750
4308,-13.671875
4309,-15.625000
4310,-17.578125
4311,-19.531250
4312,-19.531250
4313,-21.484375
4314,-23.437500
4315,-25.390625
4316,-27.343750
4317,-29.296875
4318,-31.250000
4319,-33.203125
4320,-35.156250
4321,-35.156250
4322,-37.109375
4323,-39.062500
4324,-41.015625
4325,-42.968750
4326,-44.921875
4327,-44.921875
4328,-46.875000
4329,-48.828125
4330,-50.781250
4331,-50.781250
4332,-52.734375
4333,-54.687500
4334,-56.640625
4335,-58.593750
4336,-58.593750
4337,-60.546875
4338,-60.546875
4339,-62.500000
4340,-62.500000
4341,-64.453125
4342,-66.406250
4343,-68.359375
4344,-68.359375
4345,-68.359375
4346,-72.265625
4347,-72.265625
4348,-72.265625
4349,-74.218750
4350,-74.218750
4351,-74.218750
4352,-76.171875
4353,-76.171875
4354,-78.125000
4355,-78.125000
4356,-78.125000
4357,-80.078125
4358,-80.078125
4359,-80.078125
4360,-82.031250
4361,-82.031250
4362,-82.031250
4363,-83.984375
4364,-83.984375
4365,-83.984375
4366,-83.984375
4367,-83.984375
4368,-83.984375
4369,-83.984375
4370,-83.984375
4371,-85.937500
4372,-85.937500
4373,-85.937500
4374,-83.984375
4375,-85.937500
4376,-83.984375
4377,-83.984375
4378,-83.984375
4379,-83.984375
4380,-83.984375
4381,-83.984375
4382,-83.984375
4383,-83.984375
4384,-82.031250
4385,-82.031250
4386,-82.031250
4387,-82.031250
4388,-82.031250
4389,-80.078125
4390,-80.078125
4391,-78.125000
4392,-78.125000
4393,-78.125000
4394,-76.171875
4395,-74.218750
4396,-74.218750
4397,-74.218750
4398,-72.265625
4399,-72.265625
4400,-70.312500
4401,-70.312500
4402,-68.359375
4403,-68.359375
4404,-66.406250
4405,-64.453125
4406,-64.453125
4407,-62.500000
4408,-60.546875
4409,-60.546875
4410,-58.593750
4411,-56.640625
4412,-54.687500
4413,-54.687500
4414,-52.734375
4415,-50.781250
4416,-50.781250
4417,-48.828125
4418,-46.875000
4419,-44.921875
4420,-42.968750
4421,-42.968750
4422,-41.015625
4423,-39.062500
4424,-37.109375
4425,-35.156250
4426,-35.156250
4427,-33.203125
4428,-31.250000
4429,-29.296875
4430,-27.343750
4431,-25.390625
4432,-23.437500
4433,-21.484375
4434,-21.484375
4435,-19.531250
4436,-17.578125
4437,-15.625000
4438,-13.671875
4439,-11.718750
4440,-9.765625
4441,-7.812500
4442,-7.812500
4443,-3.906250
4444,-3.906250
4445,-1.953125
4446,0.000000
4447,1.953125
4448,3.906250
4449,5.859375
4450,7.812500
4451,9.765625
4452,9.765625
4453,11.718750
4454,13.671875
4455,15.625000
4456,15.625000
4457,19.531250
4458,19.531250
4459,21.484375
4460,23.437500
4461,23.437500
4462,27.343750
4463,27.343750
4464,29.296875
4465,31.250000
4466,33.203125
4467,33.203125
4468,35.156250
4469,37.109375
4470,39.062500
4471,39.062500
4472,41.015625
4473,42.968750
4474,42.968750
4475,44.921875
4476,46.875000
4477,46.875000
4478,48.828125
4479,48.828125
4480,50.781250
4481,52.734375
4482,52.734375
4483,52.734375
4484,54.687500
4485,56.640625
4486,58.593750
4487,58.593750
4488,58.593750
4489,60.546875
4490,60.546875
4491,62.500000
4492,62.500000
4493,62.500000
4494,64.453125
4495,64.453125
4496,66.406250
4497,64.453125
4498,66.406250
4499,66.406250
4500,66.406250
4501,68.359375
4502,68.359375
4503,68.359375
4504,68.359375
4505,70.312500
4506,70.312500
4507,70.312500
4508,70.312500
4509,70.312500
4510,70.312500
4511,70.312500
4512,70.312500
4513,70.312500
4514,70.312500
4515,72.265625
4516,70.312500
4517,70.312500
4518,70.312500
4519,70.312500
4520,70.312500
4521,70.312500
4522,70.312500
4523,70.312500
4524,70.312500
4525,70.312500
4526,68.359375
4527,68.359375
4528,68.359375
4529,68.359375
4530,68.359375
4531,66.406250
4532,66.406250
4533,66.406250
4534,66.406250
4535,64.453125
4536,64.453125
4537,64.453125
4538,62.500000
4539,62.500000
4540,60.546875
4541,60.546875
4542,58.593750
4543,58.593750
4544,56.640625
4545,56.640625
4546,54.687500
4547,54.687500
4548,52.734375
4549,52.734375
4550,50.781250
4551,50.781250
4552,48.828125
4553,48.828125
4554,46.875000
4555,44.921875
4556,44.921875
4557,42.968750
4558,41.015625
4559,41.015625
4560,39.062500
4561,37.109375
4562,37.109375
4563,35.156250
4564,33.203125
4565,31.250000
4566,31.250000
4567,29.296875
4568,27.343750
4569,25.390625
4570,23.437500
4571,23.437500
4572,19.531250
4573,19.531250
4574,17.578125
4575,15.625000
4576,13.671875
4577,11.718750
4578,11.718750
4579,9.765625
4580,7.812500
4581,5.859375
4582,3.906250
4583,1.953125
4584,0.000000
4585,-1.953125
4586,-1.953125
4587,-3.906250
4588,-5.859375
4589,-7.812500
4590,-9.765625
4591,-11.718750
4592,-13.671875
4593,-15.625000
4594,-17.578125
4595,-19.531250
4596,-19.531250
4597,-21.484375
4598,-23.437500
4599,-25.390625
4600,-27.343750
4601,-27.343750
4602,-31.250000
4603,-31.250000
4604,-33.203125
4605,-35.156250
4606,-37.109375
4607,-39.062500
4608,-41.015625
4609,-41.015625
4610,-42.968750
4611,-44.921875
4612,-46.875000
4613,-46.875000
4614,-48.828125
4615,-50.781250
4616,-52.734375
4617,-52.734375
4618,-54.687500
4619,-56.640625
4620,-58.593750
4621,-58.593750
4622,-60.546875
4623,-62.500000
4624,-62.500000
4625,-64.453125
4626,-66.406250
4627,-66.406250
4628,-68.359375
4629,-68.359375
4630,-70.312500
4631,-70.312500
4632,-72.265625
4633,-74.218750
4634,-74.218750
4635,-76.171875
4636,-76.171875
4637,-76.171875
4638,-78.125000
4639,-78.125000
4640,-80.078125
4641,-80.078125
4642,-80.078125
4643,-80.078125
4644,-82.031250
4645,-82.031250
4646,-83.984375
4647,-82.031250
4648,-83.984375
4649,-83.984375
4650,-83.984375
4651,-83.984375
4652,-83.984375
4653,-83.984375
4654,-85.937500
4655,-85.937500
4656,-85.937500
4657,-85.937500
4658,-85.937500
4659,-85.937500
4660,-85.937500
4661,-83.984375
4662,-83.984375
4663,-83.984375
4664,-83.984375
4665,-83.984375
4666,-83.984375
4667,-82.031250
4668,-82.031250
4669,-82.031250
4670,-82.031250
4671,-82.031250
4672,-80.078125
4673,-80.078125
4674,-80.078125
4675,-78.125000
4676,-78.125000
4677,-76.171875
4678,-76.171875
4679,-74.218750
4680,-74.218750
4681,-74.218750
4682,-72.265625
4683,-72.265625
4684,-70.312500
4685,-70.312500
4686,-68.359375
4687,-68.359375
4688,-66.406250
4689,-64.453125
4690,-62.500000
4691,-62.500000
4692,-60.546875
4693,-60.546875
4694,-58.593750
4695,-56.640625
4696,-56.640625
4697,-54.687500
4698,-50.781250
4699,-52.734375
4700,-50.781250
4701,-48.828125
4702,-46.875000
4703,-44.921875
4704,-44.921875
4705,-41.015625
4706,-41.015625
4707,-39.062500
4708,-37.109375
4709,-37.109375
4710,-35.156250
4711,-33.203125
4712,-31.250000
4713,-29.296875
4714,-29.296875
4715,-27.343750
4716,-25.390625
4717,-21.484375
4718,-21.484375
4719,-19.531250
4720,-17.578125
4721,-15.625000
4722,-13.671875
4723,-11.718750
4724,-11.718750
4725,-7.812500
4726,-7.812500
4727,-5.859375
4728,-3.906250
4729,-1.953125
4730,-3.906250
4731,1.953125
4732,3.906250
4733,0.000000
4734,7.812500
4735,7.812500
4736,9.765625
4737,11.718750
4738,13.671875
4739,15.625000
4740,17.578125
4741,17.578125
4742,19.531250
4743,21.484375
4744,23.437500
4745,23.437500
4746,27.343750
4747,27.343750
4748,29.296875
4749,31.250000
4750,31.250000
4751,33.203125
4752,35.156250
4753,37.109375
4754,39.062500
4755,39.062500
4756,41.015625
4757,41.015625
4758,42.968750
4759,44.921875
4760,44.921875
4761,46.875000
4762,48.828125
4763,52.734375
4764,50.781250
4765,50.781250
4766,54.687500
4767,52.734375
4768,54.687500
4769,54.687500
4770,56.640625
4771,56.640625
4772,58.593750
4773,58.593750
4774,58.593750
4775,60.546875
4776,60.546875
4777,62.500000
4778,62.500000
4779,64.453125
4780,64.453125
4781,64.453125
4782,64.453125
4783,66.406250
4784,66.406250
4785,66.406250
4786,68.359375
4787,68.359375
4788,68.359375
4789,68.359375
4790,68.359375
4791,70.312500
4792,70.312500
4793,70.312500
4794,70.312500
4795,70.312500
4796,70.312500
4797,70.312500
4798,70.312500
4799,72.265625
4800,70.312500
4801,70.312500
4802,70.312500
4803,70.312500
4804,70.312500
4805,70.312500
4806,70.312500
4807,70.312500
4808,68.359375
4809,70.312500
4810,68.359375
4811,68.359375
4812,68.359375
4813,68.359375
4814,66.406250
4815,66.406250
4816,66.406250
4817,66.406250
4818,64.453125
4819,64.453125
4820,62.500000
4821,62.500000
4822,62.500000
4823,62.500000
4824,60.546875
4825,60.546875
4826,58.593750
4827,58.593750
4828,56.640625
4829,54.687500
4830,54.687500
4831,54.687500
4832,52.734375
4833,52.734375
4834,50.781250
4835,50.781250
4836,48.828125
4837,46.875000
4838,46.875000
4839,44.921875
4840,42.968750
4841,42.968750
4842,41.015625
4843,39.062500
4844,39.062500
4845,37.109375
4846,37.109375
4847,35.156250
4848,33.203125
4849,31.250000
4850,29.296875
4851,29.296875
4852,27.343750
4853,25.390625
4854,23.437500
4855,21.484375
4856,19.531250
4857,19.531250
4858,17.578125
4859,15.625000
4860,13.671875
4861,11.718750
4862,11.718750
4863,7.812500
4864,7.812500
4865,5.859375
4866,3.906250
4867,1.953125
4868,0.000000
4869,0.000000
4870,-1.953125
4871,-3.906250
4872,-5.859375
4873,-7.812500
4874,-9.765625
4875,-11.718750
4876,-13.671875
4877,-13.671875
4878,-15.625000
4879,-17.578125
4880,-19.531250
4881,-21.484375
4882,-23.437500
4883,-25.390625
4884,-25.390625
4885,-27.343750
4886,-31.250000
4887,-31.250000
4888,-33.203125
4889,-35.156250
4890,-37.109375
4891,-39.062500
4892,-39.062500
4893,-42.968750
4894,-42.968750
4895,-44.921875
4896,-46.875000
4897,-46.875000
4898,-48.828125
4899,-50.781250
4900,-52.734375
4901,-52.734375
4902,-54.687500
4903,-56.640625
4904,-58.593750
4905,-60.546875
4906,-60.546875
4907,-62.500000
4908,-62.500000
4909,-64.453125
4910,-66.406250
4911,-66.406250
4912,-68.359375
4913,-68.359375
4914,-70.312500
4915,-70.312500
4916,-72.265625
4917,-74.218750
4918,-74.218750
4919,-74.218750
4920,-76.171875
4921,-76.171875
4922,-78.125000
4923,-78.125000
4924,-80.078125
4925,-80.078125
4926,-80.078125
4927,-82.031250
4928,-82.031250
4929,-82.031250
4930,-82.031250
4931,-82.031250
4932,-83.984375
4933,-82.031250
4934,-83.984375
4935,-83.984375
4936,-83.984375
4937,-85.937500
4938,-83.984375
4939,-83.984375
4940,-83.984375
4941,-85.937500
4942,-85.937500
4943,-85.937500
4944,-83.984375
4945,-83.984375
4946,-83.984375
4947,-83.984375
4948,-83.984375
4949,-83.984375
4950,-82.031250
4951,-82.031250
4952,-82.031250
4953,-82.031250
4954,-82.031250
4955,-80.078125
4956,-82.031250
4957,-80.078125
4958,-78.125000
4959,-78.125000
4960,-78.125000
4961,-76.171875
4962,-78.125000
4963,-76.171875
4964,-74.218750
4965,-74.218750
4966,-74.218750
4967,-72.265625
4968,-70.312500
4969,-70.312500
4970,-68.359375
4971,-68.359375
4972,-66.406250
4973,-64.453125
4974,-64.453125
4975,-62.500000
4976,-60.546875
4977,-60.546875
4978,-58.593750
4979,-56.640625
4980,-56.640625
4981,-54.687500
4982,-52.734375
4983,-50.781250
4984,-50.781250
4985,-48.828125
4986,-46.875000
4987,-44.921875
4988,-44.921875
4989,-42.968750
4990,-41.015625
4991,-39.062500
4992,-37.109375
4993,-37.109375
4994,-35.156250
4995,-33.203125
4996,-31.250000
4997,-29.296875
4998,-27.343750
4999,-27.343750
5000,-25.390625
5001,-23.437500
5002,-21.484375
5003,-19.531250
5004,-17.578125
5005,-15.625000
5006,-15.625000
5007,-11.718750
5008,-9.765625
5009,-7.812500
5010,-7.812500
5011,-5.859375
5012,-3.906250
5013,-1.953125
5014,0.000000
5015,1.953125
5016,1.953125
5017,3.906250
5018,5.859375
5019,7.812500
5020,9.765625
5021,11.718750
5022,13.671875
5023,15.625000
5024,17.578125
5025,19.531250
5026,19.531250
5027,21.484375
5028,23.437500
5029,25.390625
5030,25.390625
5031,27.343750
5032,29.296875
5033,31.250000
5034,31.250000
5035,33.203125
5036,35.156250
5037,37.109375
5038,37.109375
5039,39.062500
5040,41.015625
5041,41.015625
5042,42.968750
5043,44.921875
5044,44.921875
5045,46.875000
5046,48.828125
5047,48.828125
5048,50.781250
5049,50.781250
5050,52.734375
5051,54.687500
5052,54.687500
5053,56.640625
5054,56.640625
5055,56.640625
5056,58.593750
5057,58.593750
5058,60.546875
5059,60.546875
5060,62.500000
5061,62.500000
5062,64.453125
5063,64.453125
5064,64.453125
5065,66.406250
5066,66.406250
5067,66.406250
5068,66.406250
5069,68.359375
5070,68.359375
5071,68.359375
5072,68.359375
5073,68.359375
5074,70.312500
5075,70.312500
5076,70.312500
5077,70.312500
5078,70.312500
5079,70.312500
5080,72.265625
5081,72.265625
5082,70.312500
5083,70.312500
5084,72.265625
5085,72.265625
5086,72.265625
5087,70.312500
5088,70.312500
5089,70.312500
5090,70.312500
5091,70.312500
5092,70.312500
5093,70.312500
5094,70.312500
5095,68.359375
5096,68.359375
5097,68.359375
5098,68.359375
5099,66.406250
5100,66.406250
5101,66.406250
5102,64.453125
5103,64.453125
5104,64.453125
5105,62.500000
5106,62.500000
5107,60.546875
5108,60.546875
5109,60.546875
5110,58.593750
5111,58.593750
5112,56.640625
5113,56.640625
5114,54.687500
5115,54.687500
5116,52.734375
5117,52.734375
5118,50.781250
5119,50.781250
5120,48.828125
5121,48.828125
5122,46.875000
5123,44.921875
5124,44.921875
5125,42.968750
5126,41.015625
5127,41.015625
5128,39.062500
5129,37.109375
5130,35.156250
5131,35.156250
5132,33.203125
5133,31.250000
5134,31.250000
5135,29.296875
5136,27.343750
5137,25.390625
5138,23.437500
5139,23.437500
5140,21.484375
5141,19.531250
5142,17.578125
5143,15.625000
5144,13.671875
5145,13.671875
5146,11.718750
5147,9.765625
5148,7.812500
5149,5.859375
5150,3.906250
5151,1.953125
5152,1.953125
5153,0.000000
5154,-1.953125
5155,-3.906250
5156,-5.859375
5157,-7.812500
5158,-9.765625
5159,-11.718750
5160,-13.671875
5161,-13.671875
5162,-17.578125
5163,-17.578125
5164,-19.531250
5165,-21.484375
5166,-23.437500
5167,-25.390625
5168,-27.343750
5169,-29.296875
5170,-31.250000
5171,-31.250000
5172,-33.203125
5173,-35.156250
5174,-37.109375
5175,-39.062500
5176,-41.015625
5177,-41.015625
5178,-42.968750
5179,-44.921875
5180,-46.875000
5181,-48.828125
5182,-48.828125
5183,-50.781250
5184,-52.734375
5185,-54.687500
5186,-54.687500
5187,-56.640625
5188,-56.640625
5189,-58.593750
5190,-60.546875
5191,-62.500000
5192,-62.500000
5193,-64.453125
5194,-66.406250
5195,-66.406250
5196,-68.359375
5197,-68.359375
5198,-70.312500
5199,-70.312500
5200,-72.265625
5201,-72.265625
5202,-74.218750
5203,-76.171875
5204,-76.171875
5205,-76.171875
5206,-76.171875
5207,-78.125000
5208,-80.078125
5209,-80.078125
5210,-80.078125
5211,-80.078125
5212,-82.031250
5213,-82.031250
5214,-83.984375
5215,-83.984375
5216,-83.984375
5217,-83.984375
5218,-83.984375
5219,-83.984375
5220,-85.937500
5221,-85.937500
5222,-85.937500
5223,-85.937500
5224,-83.984375
5225,-83.984375
5226,-85.937500
5227,-85.937500
5228,-85.937500
5229,-83.984375
5230,-83.984375
5231,-83.984375
5232,-83.984375
5233,-83.984375
5234,-83.984375
5235,-83.984375
5236,-83.984375
5237,-82.031250
5238,-82.031250
5239,-82.031250
5240,-80.078125
5241,-80.078125
5242,-80.078125
5243,-80.078125
5244,-78.125000
5245,-78.125000
5246,-78.125000
5247,-76.171875
5248,-76.171875
5249,-74.218750
5250,-72.265625
5251,-72.265625
5252,-72.265625
5253,-70.312500
5254,-68.359375
5255,-68.359375
5256,-66.406250
5257,-64.453125
5258,-64.453125
5259,-62.500000
5260,-60.546875
5261,-60.546875
5262,-58.593750
5263,-58.593750
5264,-54.687500
5265,-54.687500
5266,-52.734375
5267,-52.734375
5268,-50.781250
5269,-48.828125
5270,-46.875000
5271,-44.921875
5272,-44.921875
5273,-42.968750
5274,-41.015625
5275,-39.062500
5276,-39.062500
5277,-37.109375
5278,-35.156250
5279,-33.203125
5280,-31.250000
5281,-29.296875
5282,-27.343750
5283,-25.390625
5284,-25.390625
5285,-23.437500
5286,-21.484375
5287,-19.531250
5288,-17.578125
5289,-15.625000
5290,-13.671875
5291,-13.671875
5292,-9.765625
5293,-9.765625
5294,-7.812500
5295,-5.859375
5296,-3.906250
5297,-1.953125
5298,0.000000
5299,1.953125
5300,1.953125
5301,3.906250
5302,5.859375
5303,7.812500
5304,9.765625
5305,11.718750
5306,11.718750
5307,13.671875
5308,15.625000
5309,17.578125
5310,17.578125
5311,21.484375
5312,21.484375
5313,23.437500
5314,25.390625
5315,27.343750
5316,29.296875
5317,29.296875
5318,31.250000
5319,33.203125
5320,35.156250
5321,35.156250
5322,37.109375
5323,39.062500
5324,41.015625
5325,42.968750
5326,42.968750
5327,44.921875
5328,44.921875
5329,46.875000
5330,48.828125
5331,48.828125
5332,50.781250
5333,50.781250
5334,52.734375
5335,52.734375
5336,54.687500
5337,54.687500
5338,56.640625
5339,58.593750
5340,58.593750
5341,58.593750
5342,60.546875
5343,60.546875
5344,62.500000
5345,62.500000
5346,62.500000
5347,64.453125
5348,64.453125
5349,64.453125
5350,66.406250
5351,66.406250
5352,66.406250
5353,68.359375
5354,68.359375
5355,68.359375
5356,68.359375
5357,68.359375
5358,70.312500
5359,70.312500
5360,70.312500
5361,70.312500
5362,70.312500
5363,70.312500
5364,70.312500
5365,70.312500
5366,70.312500
5367,70.312500
5368,70.312500
5369,70.312500
5370,70.312500
5371,70.312500
5372,70.312500
5373,70.312500
5374,70.312500
5375,70.312500
5376,70.312500
5377,68.359375
5378,68.359375
5379,68.359375
5380,68.359375
5381,68.359375
5382,68.359375
5383,66.406250
5384,66.406250
5385,66.406250
5386,66.406250
5387,64.453125
5388,64.453125
5389,62.500000
5390,62.500000
5391,62.500000
5392,60.546875
5393,60.546875
5394,58.593750
5395,58.593750
5396,56.640625
5397,56.640625
5398,56.640625
5399,54.687500
5400,54.687500
5401,52.734375
5402,50.781250
5403,50.781250
5404,48.828125
5405,48.828125
5406,46.875000
5407,44.921875
5408,44.921875
5409,42.968750
5410,41.015625
5411,41.015625
5412,39.062500
5413,37.109375
5414,37.109375
5415,35.156250
5416,33.203125
5417,31.250000
5418,31.250000
5419,29.296875
5420,27.343750
5421,25.390625
5422,23.437500
5423,23.437500
5424,21.484375
5425,19.531250
5426,19.531250
5427,15.625000
5428,15.625000
5429,13.671875
5430,11.718750
5431,9.765625
5432,7.812500
5433,5.859375
5434,3.906250
5435,1.953125
5436,0.000000
5437,0.000000
5438,-1.953125
5439,-3.906250
5440,-5.859375
5441,-7.812500
5442,-9.765625
5443,-9.765625
5444,-11.718750
5445,-13.671875
5446,-15.625000
5447,-17.578125
5448,-19.531250
5449,-19.531250
5450,-23.437500
5451,-25.390625
5452,-25.390625
5453,-27.343750
5454,-29.296875
5455,-31.250000
5456,-33.203125
5457,-35.156250
5458,-37.109375
5459,-37.109375
5460,-39.062500
5461,-41.015625
5462,-42.968750
5463,-44.921875
5464,-44.921875
5465,-46.875000
5466,-48.828125
5467,-50.781250
5468,-52.734375
5469,-52.734375
5470,-54.687500
5471,-56.640625
5472,-56.640625
5473,-58.593750
5474,-60.546875
5475,-60.546875
5476,-62.500000
5477,-64.453125
5478,-66.406250
5479,-66.406250
5480,-68.359375
5481,-68.359375
5482,-70.312500
5483,-70.312500
5484,-72.265625
5485,-72.265625
5486,-74.218750
5487,-74.218750
5488,-76.171875
5489,-76.171875
5490,-78.125000
5491,-78.125000
5492,-80.078125
5493,-80.078125
5494,-80.078125
5495,-82.031250
5496,-82.031250
5497,-82.031250
5498,-82.031250
5499,-82.031250
5500,-82.031250
5501,-83.984375
5502,-83.984375
5503,-83.984375
5504,-83.984375
5505,-85.937500
5506,-83.984375
5507,-83.984375
5508,-85.937500
5509,-83.984375
5510,-85.937500
5511,-85.937500
5512,-83.984375
5513,-83.984375
5514,-83.984375
5515,-83.984375
5516,-83.984375
5517,-83.984375
5518,-82.031250
5519,-83.984375
5520,-82.031250
5521,-82.031250
5522,-82.031250
5523,-82.031250
5524,-80.078125
5525,-80.078125
5526,-78.125000
5527,-78.125000
5528,-78.125000
5529,-76.171875
5530,-76.171875
5531,-76.171875
5532,-74.218750
5533,-74.218750
5534,-72.265625
5535,-72.265625
5536,-70.312500
5537,-70.312500
5538,-70.312500
5539,-68.359375
5540,-66.406250
5541,-64.453125
5542,-64.453125
5543,-62.500000
5544,-62.500000
5545,-60.546875
5546,-58.593750
5547,-58.593750
5548,-56.640625
5549,-54.687500
5550,-54.687500
5551,-52.734375
5552,-50.781250
5553,-48.828125
5554,-46.875000
5555,-46.875000
5556,-44.921875
5557,-42.968750
5558,-41.015625
5559,-39.062500
5560,-39.062500
5561,-37.109375
5562,-35.156250
5563,-33.203125
5564,-31.250000
5565,-29.296875
5566,-29.296875
5567,-27.343750
5568,-25.390625
5569,-23.437500
5570,-21.484375
5571,-19.531250
5572,-17.578125
5573,-15.625000
5574,-13.671875
5575,-11.718750
5576,-11.718750
5577,-9.765625
5578,-7.812500
5579,-5.859375
5580,-3.906250
5581,-1.953125
5582,0.000000
5583,1.953125
5584,3.906250
5585,3.906250
5586,5.859375
5587,7.812500
5588,9.765625
5589,11.718750
5590,13.671875
5591,13.671875
5592,15.625000
5593,17.578125
5594,19.531250
5595,21.484375
5596,23.437500
5597,23.437500
5598,25.390625
5599,27.343750
5600,29.296875
5601,31.250000
5602,31.250000
5603,33.203125
5604,35.156250
5605,35.156250
5606,37.109375
5607,39.062500
5608,41.015625
5609,41.015625
5610,42.968750
5611,44.921875
5612,44.921875
5613,46.875000
5614,46.875000
5615,48.828125
5616,50.781250
5617,50.781250
5618,52.734375
5619,52.734375
5620,54.687500
5621,54.687500
5622,56.640625
5623,56.640625
5624,58.593750
5625,58.593750
5626,60.546875
5627,60.546875
5628,60.546875
5629,62.500000
5630,62.500000
5631,64.453125
5632,64.453125
5633,64.453125
5634,66.406250
5635,66.406250
5636,66.406250
5637,66.406250
5638,68.359375
5639,68.359375
5640,68.359375
5641,70.312500
5642,68.359375
5643,70.312500
5644,70.312500
5645,70.312500
5646,70.312500
5647,70.312500
5648,70.312500
5649,70.312500
5650,72.265625
5651,72.265625
5652,72.265625
5653,70.312500
5654,70.312500
5655,70.312500
5656,70.312500
5657,72.265625
5658,70.312500
5659,70.312500
5660,70.312500
5661,70.312500
5662,70.312500
5663,68.359375
5664,68.359375
5665,68.359375
5666,68.359375
5667,66.406250
5668,66.406250
5669,66.406250
5670,66.406250
5671,64.453125
5672,62.500000
5673,64.453125
5674,62.500000
5675,62.500000
5676,60.546875
5677,60.546875
5678,58.593750
5679,58.593750
5680,58.593750
5681,56.640625
5682,56.640625
5683,54.687500
5684,52.734375
5685,52.734375
5686,52.734375
5687,50.781250
5688,48.828125
5689,48.828125
5690,46.875000
5691,46.875000
5692,44.921875
5693,42.968750
5694,41.015625
5695,41.015625
5696,41.015625
5697,37.109375
5698,35.156250
5699,35.156250
5700,33.203125
5701,31.250000
5702,29.296875
5703,29.296875
5704,27.343750
5705,25.390625
5706,25.390625
5707,23.437500
5708,21.484375
5709,19.531250
5710,17.578125
5711,15.625000
5712,15.625000
5713,11.718750
5714,11.718750
5715,9.765625
5716,7.812500
5717,7.812500
5718,3.906250
5719,3.906250
5720,1.953125
5721,0.000000
5722,-1.953125
5723,-3.906250
5724,-5.859375
5725,-7.812500
5726,-9.765625
5727,-9.765625
5728,-11.718750
5729,-13.671875
5730,-15.625000
5731,-17.578125
5732,-19.531250
5733,-21.484375
5734,-23.437500
5735,-25.390625
5736,-25.390625
5737,-29.296875
5738,-29.296875
5739,-31.250000
5740,-33.203125
5741,-35.156250
5742,-37.109375
5743,-39.062500
5744,-39.062500
5745,-41.015625
5746,-42.968750
5747,-44.921875
5748,-46.875000
5749,-46.875000
5750,-48.828125
5751,-50.781250
5752,-52.734375
5753,-54.687500
5754,-54.687500
5755,-56.640625
5756,-58.593750
5757,-58.593750
5758,-60.546875
5759,-62.500000
5760,-62.500000
5761,-64.453125
5762,-66.406250
5763,-66.406250
5764,-68.359375
5765,-68.359375
5766,-70.312500
5767,-70.312500
5768,-72.265625
5769,-74.218750
5770,-74.218750
5771,-76.171875
5772,-76.171875
5773,-76.171875
5774,-78.125000
5775,-78.125000
5776,-78.125000
5777,-80.078125
5778,-80.078125
5779,-82.031250
5780,-82.031250
5781,-82.031250
5782,-82.031250
5783,-82.031250
5784,-83.984375
5785,-83.984375
5786,-83.984375
5787,-83.984375
5788,-83.984375
5789,-83.984375
5790,-85.937500
5791,-85.937500
5792,-85.937500
5793,-83.984375
5794,-83.984375
5795,-85.937500
5796,-85.937500
5797,-83.984375
5798,-83.984375
5799,-83.984375
5800,-83.984375
5801,-83.984375
5802,-82.031250
5803,-83.984375
5804,-82.031250
5805,-82.031250
5806,-82.031250
5807,-82.031250
5808,-80.078125
5809,-80.078125
5810,-80.078125
5811,-80.078125
5812,-78.125000
5813,-78.125000
5814,-78.125000
5815,-76.171875
5816,-74.218750
5817,-74.218750
5818,-72.265625
5819,-72.265625
5820,-72.265625
5821,-70.312500
5822,-70.312500
5823,-70.312500
5824,-66.406250
5825,-66.406250
5826,-64.453125
5827,-62.500000
5828,-62.500000
5829,-60.546875
5830,-58.593750
5831,-58.593750
5832,-56.640625
5833,-54.687500
5834,-54.687500
5835,-52.734375
5836,-50.781250
5837,-48.828125
5838,-46.875000
5839,-46.875000
5840,-44.921875
5841,-42.968750
5842,-41.015625
5843,-41.015625
5844,-39.062500
5845,-37.109375
5846,-35.156250
5847,-33.203125
5848,-31.250000
5849,-31.250000
5850,-29.296875
5851,-27.343750
5852,-25.390625
5853,-21.484375
5854,-21.484375
5855,-21.484375
5856,-17.578125
5857,-17.578125
5858,-15.625000
5859,-13.671875
5860,-11.718750
5861,-9.765625
5862,-7.812500
5863,-5.859375
5864,-3.906250
5865,-1.953125
5866,0.000000
5867,1.953125
5868,1.953125
5869,3.906250
5870,1.953125
5871,7.812500
5872,9.765625
5873,9.765625
5874,15.625000
5875,15.625000
5876,15.625000
5877,17.578125
5878,19.531250
5879,21.484375
5880,23.437500
5881,23.437500
5882,25.390625
5883,27.343750
5884,29.296875
5885,29.296875
5886,31.250000
5887,33.203125
5888,31.250000
5889,33.203125
5890,37.109375
5891,39.062500
5892,39.062500
5893,41.015625
5894,42.968750
5895,44.921875
5896,44.921875
5897,44.921875
5898,48.828125
5899,48.828125
5900,50.781250
5901,50.781250
5902,52.734375
5903,52.734375
5904,54.687500
5905,56.640625
5906,56.640625
5907,50.781250
5908,58.593750
5909,58.593750
5910,60.546875
5911,60.546875
5912,60.546875
5913,62.500000
5914,62.500000
5915,64.453125
5916,64.453125
5917,64.453125
5918,66.406250
5919,66.406250
5920,70.312500
5921,68.359375
5922,66.406250
5923,68.359375
5924,70.312500
5925,68.359375
5926,70.312500
5927,70.312500
5928,70.312500
5929,70.312500
5930,70.312500
5931,70.312500
5932,72.265625
5933,70.312500
5934,70.312500
5935,70.312500
5936,70.312500
5937,68.359375
5938,70.312500
5939,70.312500
5940,70.312500
5941,68.359375
5942,70.312500
5943,70.312500
5944,70.312500
5945,70.312500
5946,70.312500
5947,68.359375
5948,68.359375
5949,68.359375
5950,68.359375
5951,66.406250
5952,66.406250
5953,66.406250
5954,64.453125
5955,64.453125
5956,64.453125
5957,64.453125
5958,62.500000
5959,62.500000
5960,60.546875
5961,60.546875
5962,58.593750
5963,58.593750
5964,56.640625
5965,56.640625
5966,56.640625
5967,54.687500
5968,52.734375
5969,52.734375
5970,50.781250
5971,50.781250
5972,48.828125
5973,48.828125
5974,46.875000
5975,46.875000
5976,44.921875
5977,42.968750
5978,42.968750
5979,41.015625
5980,39.062500
5981,39.062500
5982,37.109375
5983,35.156250
5984,33.203125
5985,33.203125
5986,31.250000
5987,29.296875
5988,27.343750
5989,25.390625
5990,23.437500
5991,21.484375
5992,21.484375
5993,19.531250
5994,19.531250
5995,15.625000
5996,15.625000
5997,13.671875
5998,11.718750
5999,9.765625
6000,7.812500
6001,7.812500
6002,5.859375
6003,3.906250
6004,1.953125
6005,0.000000
6006,-1.953125
6007,-3.906250
6008,-5.859375
6009,-7.812500
6010,-9.765625
6011,-11.718750
6012,-11.718750
6013,-13.671875
6014,-15.625000
6015,-17.578125
6016,-19.531250
6017,-21.484375
6018,-21.484375
6019,-25.390625
6020,-27.343750
6021,-27.343750
6022,-29.296875
6023,-31.250000
6024,-33.203125
6025,-35.156250
6026,-37.109375
6027,-37.109375
6028,-39.062500
6029,-41.015625
6030,-42.968750
6031,-44.921875
6032,-46.875000
6033,-46.875000
6034,-48.828125
6035,-50.781250
6036,-50.781250
6037,-54.687500
6038,-54.687500
6039,-54.687500
6040,-56.640625
6041,-58.593750
6042,-60.546875
6043,-60.546875
6044,-62.500000
6045,-64.453125
6046,-64.453125
6047,-66.406250
6048,-66.406250
6049,-68.359375
6050,-70.312500
6051,-70.312500
6052,-72.265625
6053,-72.265625
6054,-72.265625
6055,-74.218750
6056,-76.171875
6057,-76.171875
6058,-78.125000
6059,-78.125000
6060,-78.125000
6061,-80.078125
6062,-80.078125
6063,-80.078125
6064,-82.031250
6065,-82.031250
6066,-82.031250
6067,-83.984375
6068,-82.031250
6069,-83.984375
6070,-83.984375
6071,-83.984375
6072,-85.937500
6073,-83.984375
6074,-83.984375
6075,-85.937500
6076,-85.937500
6077,-85.937500
6078,-85.937500
6079,-83.984375
6080,-85.937500
6081,-85.937500
6082,-83.984375
6083,-83.984375
6084,-83.984375
6085,-83.984375
6086,-83.984375
6087,-83.984375
6088,-82.031250
6089,-82.031250
6090,-82.031250
6091,-80.078125
6092,-80.078125
6093,-80.078125
6094,-80.078125
6095,-78.125000
6096,-78.125000
6097,-78.125000
6098,-76.171875
6099,-76.171875
6100,-76.171875
6101,-74.218750
6102,-72.265625
6103,-72.265625
6104,-70.312500
6105,-70.312500
6106,-68.359375
6107,-68.359375
6108,-66.406250
6109,-66.406250
6110,-64.453125
6111,-62.500000
6112,-62.500000
6113,-60.546875
6114,-60.546875
6115,-58.593750
6116,-56.640625
6117,-56.640625
6118,-52.734375
6119,-52.734375
6120,-50.781250
6121,-48.828125
6122,-46.875000
6123,-46.875000
6124,-44.921875
6125,-42.968750
6126,-41.015625
6127,-39.062500
6128,-37.109375
6129,-37.109375
6130,-35.156250
6131,-33.203125
6132,-31.250000
6133,-29.296875
6134,-27.343750
6135,-27.343750
6136,-25.390625
6137,-23.437500
6138,-23.437500
6139,-21.484375
6140,-17.578125
6141,-17.578125
6142,-15.625000
6143,-13.671875
6144,-11.718750
6145,-9.765625
6146,-9.765625
6147,-5.859375
6148,-3.906250
6149,-3.906250
6150,-1.953125
6151,0.000000
6152,1.953125
6153,3.906250
6154,5.859375
6155,7.812500
6156,9.765625
6157,11.718750
6158,11.718750
6159,13.671875
6160,15.625000
6161,17.578125
6162,19.531250
6163,21.484375
6164,21.484375
6165,23.437500
6166,25.390625
6167,27.343750
6168,29.296875
6169,29.296875
6170,31.250000
6171,33.203125
6172,35.156250
6173,35.156250
6174,37.109375
6175,39.062500
6176,41.015625
6177,41.015625
6178,42.968750
6179,42.968750
6180,44.921875
6181,46.875000
6182,46.875000
6183,48.828125
6184,50.781250
6185,50.781250
6186,52.734375
6187,52.734375
6188,54.687500
6189,54.687500
6190,56.640625
6191,56.640625
6192,58.593750
6193,58.593750
6194,60.546875
6195,60.546875
6196,60.546875
6197,62.500000
6198,64.453125
6199,64.453125
6200,64.453125
6201,64.453125
6202,64.453125
6203,66.406250
6204,66.406250
6205,66.406250
6206,68.359375
6207,68.359375
6208,68.359375
6209,68.359375
6210,68.359375
6211,68.359375
6212,68.359375
6213,70.312500
6214,70.312500
6215,70.312500
6216,70.312500
6217,72.265625
6218,72.265625
6219,70.312500
6220,70.312500
6221,70.312500
6222,70.312500
6223,70.312500
6224,72.265625
6225,70.312500
6226,70.312500
6227,70.312500
6228,70.312500
6229,70.312500
6230,70.312500
6231,68.359375
6232,68.359375
6233,68.359375
6234,68.359375
6235,68.359375
6236,68.359375
6237,66.406250
6238,66.406250
6239,64.453125
6240,64.453125
6241,64.453125
6242,62.500000
6243,62.500000
6244,60.546875
6245,60.546875
6246,58.593750
6247,58.593750
6248,56.640625
6249,56.640625
6250,56.640625
6251,54.687500
6252,52.734375
6253,52.734375
6254,52.734375
6255,50.781250
6256,50.781250
6257,48.828125
6258,44.921875
6259,44.921875
6260,44.921875
6261,42.968750
6262,41.015625
6263,41.015625
6264,39.062500
6265,39.062500
6266,35.156250
6267,35.156250
6268,33.203125
6269,33.203125
6270,31.250000
6271,29.296875
6272,27.343750
6273,25.390625
6274,25.390625
6275,23.437500
6276,21.484375
6277,19.531250
6278,19.531250
6279,17.578125
6280,15.625000
6281,13.671875
6282,11.718750
6283,9.765625
6284,7.812500
6285,5.859375
6286,5.859375
6287,1.953125
6288,1.953125
6289,0.000000
6290,-1.953125
6291,-3.906250
6292,-5.859375
6293,-5.859375
6294,-9.765625
6295,-11.718750
6296,-13.671875
6297,-13.671875
6298,-15.625000
6299,-17.578125
6300,-19.531250
6301,-21.484375
6302,-23.437500
6303,-23.437500
6304,-25.390625
6305,-27.343750
6306,-29.296875
6307,-31.250000
6308,-33.203125
6309,-35.156250
6310,-37.109375
6311,-37.109375
6312,-39.062500
6313,-41.015625
6314,-42.968750
6315,-44.921875
6316,-44.921875
6317,-46.875000
6318,-48.828125
6319,-50.781250
6320,-52.734375
6321,-52.734375
6322,-54.687500
6323,-56.640625
6324,-58.593750
6325,-58.593750
6326,-60.546875
6327,-62.500000
6328,-64.453125
6329,-64.453125
6330,-64.453125
6331,-66.406250
6332,-68.359375
6333,-68.359375
6334,-70.312500
6335,-72.265625
6336,-72.265625
6337,-74.218750
6338,-74.218750
6339,-74.218750
6340,-76.171875
6341,-78.125000
6342,-78.125000
6343,-78.125000
6344,-80.078125
6345,-80.078125
6346,-80.078125
6347,-80.078125
6348,-82.031250
6349,-82.031250
6350,-82.031250
6351,-82.031250
6352,-83.984375
6353,-83.984375
6354,-83.984375
6355,-83.984375
6356,-83.984375
6357,-85.937500
6358,-85.937500
6359,-85.937500
6360,-85.937500
6361,-85.937500
6362,-85.937500
6363,-83.984375
6364,-85.937500
6365,-83.984375
6366,-83.984375
6367,-83.984375
6368,-83.984375
6369,-83.984375
6370,-83.984375
6371,-83.984375
6372,-82.031250
6373,-82.031250
6374,-82.031250
6375,-82.031250
6376,-82.031250
6377,-80.078125
6378,-80.078125
6379,-80.078125
6380,-78.125000
6381,-78.125000
6382,-76.171875
6383,-76.171875
6384,-76.171875
6385,-74.218750
6386,-74.218750
6387,-72.265625
6388,-72.265625
6389,-70.312500
6390,-68.359375
6391,-68.359375
6392,-66.406250
6393,-66.406250
6394,-64.453125
6395,-64.453125
6396,-62.500000
6397,-60.546875
6398,-58.593750
6399,-58.593750
6400,-56.640625
6401,-56.640625
6402,-54.687500
6403,-52.734375
6404,-50.781250
6405,-50.781250
6406,-48.828125
6407,-46.875000
6408,-44.921875
6409,-42.968750
6410,-42.968750
6411,-41.015625
6412,-39.062500
6413,-37.109375
6414,-37.109375
6415,-33.203125
6416,-33.203125
6417,-31.250000
6418,-29.296875
6419,-27.343750
6420,-25.390625
6421,-23.437500
6422,-21.484375
6423,-19.531250
6424,-19.531250
6425,-17.578125
6426,-15.625000
6427,-13.671875
6428,-11.718750
6429,-9.765625
6430,-7.812500
6431,-5.859375
6432,-3.906250
6433,-1.953125
6434,-1.953125
6435,1.953125
6436,1.953125
6437,3.906250
6438,5.859375
6439,7.812500
6440,9.765625
6441,9.765625
6442,11.718750
6443,13.671875
6444,15.625000
6445,17.578125
6446,19.531250
6447,19.531250
6448,21.484375
6449,23.437500
6450,25.390625
6451,27.343750
6452,27.343750
6453,29.296875
6454,31.250000
6455,31.250000
6456,35.156250
6457,35.156250
6458,35.156250
6459,39.062500
6460,39.062500
6461,41.015625
6462,42.968750
6463,42.968750
6464,44.921875
6465,46.875000
6466,46.875000
6467,48.828125
6468,48.828125
6469,50.781250
6470,52.734375
6471,52.734375
6472,52.734375
6473,54.687500
6474,56.640625
6475,54.687500
6476,56.640625
6477,58.593750
6478,60.546875
6479,62.500000
6480,60.546875
6481,62.500000
6482,62.500000
6483,64.453125
6484,64.453125
6485,64.453125
6486,66.406250
6487,66.406250
6488,66.406250
6489,66.406250
6490,68.359375
6491,68.359375
6492,68.359375
6493,68.359375
6494,70.312500
6495,70.312500
6496,70.312500
6497,70.312500
6498,70.312500
6499,70.312500
6500,70.312500
6501,70.312500
6502,70.312500
6503,72.265625
6504,70.312500
6505,72.265625
6506,70.312500
6507,70.312500
6508,70.312500
6509,70.312500
6510,70.312500
6511,70.312500
6512,70.312500
6513,70.312500
6514,68.359375
6515,68.359375
6516,68.359375
6517,68.359375
6518,68.359375
6519,66.406250
6520,66.406250
6521,66.406250
6522,64.453125
6523,64.453125
6524,64.453125
6525,62.500000
6526,62.500000
6527,60.546875
6528,60.546875
6529,60.546875
6530,58.593750
6531,58.593750
6532,58.593750
6533,56.640625
6534,54.687500
6535,54.687500
6536,54.687500
6537,52.734375
6538,50.781250
6539,50.781250
6540,48.828125
6541,48.828125
6542,46.875000
6543,46.875000
6544,44.921875
6545,44.921875
6546,42.968750
6547,41.015625
6548,39.062500
6549,39.062500
6550,37.109375
6551,35.156250
6552,33.203125
6553,33.203125
6554,31.250000
6555,29.296875
6556,27.343750
6557,27.343750
6558,25.390625
6559,23.437500
6560,21.484375
6561,19.531250
6562,19.531250
6563,17.578125
6564,15.625000
6565,13.671875
6566,11.718750
6567,9.765625
6568,7.812500
6569,7.812500
6570,5.859375
6571,3.906250
6572,1.953125
6573,0.000000
6574,-1.953125
6575,-3.906250
6576,-5.859375
6577,-5.859375
6578,-7.812500
6579,-9.765625
6580,-11.718750
6581,-13.671875
6582,-15.625000
6583,-17.578125
6584,-19.531250
6585,-21.484375
6586,-21.484375
6587,-23.437500
6588,-25.390625
6589,-27.343750
6590,-29.296875
6591,-31.250000
6592,-33.203125
6593,-35.156250
6594,-35.156250
6595,-37.109375
6596,-39.062500
6597,-41.015625
6598,-42.968750
6599,-42.968750
6600,-44.921875
6601,-46.875000
6602,-48.828125
6603,-50.781250
6604,-50.781250
6605,-52.734375
6606,-54.687500
6607,-56.640625
6608,-56.640625
6609,-58.593750
6610,-60.546875
6611,-60.546875
6612,-62.500000
6613,-62.500000
6614,-64.453125
6615,-66.406250
6616,-66.406250
6617,-68.359375
6618,-70.312500
6619,-70.312500
6620,-72.265625
6621,-72.265625
6622,-74.218750
6623,-74.218750
6624,-74.218750
6625,-76.171875
6626,-76.171875
6627,-78.125000
6628,-78.125000
6629,-80.078125
6630,-80.078125
6631,-80.078125
6632,-80.078125
6633,-82.031250
6634,-82.031250
6635,-82.031250
6636,-82.031250
6637,-83.984375
6638,-83.984375
6639,-83.984375
6640,-83.984375
6641,-83.984375
6642,-83.984375
6643,-85.937500
6644,-85.937500
6645,-83.984375
6646,-85.937500
6647,-83.984375
6648,-83.984375
6649,-83.984375
6650,-83.984375
6651,-83.984375
6652,-83.984375
6653,-83.984375
6654,-83.984375
6655,-83.984375
6656,-83.984375
6657,-82.031250
6658,-82.031250
6659,-80.078125
6660,-82.031250
6661,-80.078125
6662,-80.078125
6663,-78.125000
6664,-78.125000
6665,-78.125000
6666,-76.171875
6667,-76.171875
6668,-74.218750
6669,-74.218750
6670,-74.218750
6671,-72.265625
6672,-72.265625
6673,-70.312500
6674,-70.312500
6675,-68.359375
6676,-66.406250
6677,-66.406250
6678,-64.453125
6679,-62.500000
6680,-62.500000
6681,-60.546875
6682,-60.546875
6683,-58.593750
6684,-56.640625
6685,-56.640625
6686,-54.687500
6687,-52.734375
6688,-50.781250
6689,-48.828125
6690,-48.828125
6691,-46.875000
6692,-44.921875
6693,-42.968750
6694,-42.968750
6695,-41.015625
6696,-39.062500
6697,-37.109375
6698,-35.156250
6699,-35.156250
6700,-33.203125
6701,-31.250000
6702,-29.296875
6703,-27.343750
6704,-25.390625
6705,-23.437500
6706,-21.484375
6707,-21.484375
6708,-19.531250
6709,-17.578125
6710,-15.625000
6711,-13.671875
6712,-11.718750
6713,-9.765625
6714,-7.812500
6715,-5.859375
6716,-5.859375
6717,-3.906250
6718,-1.953125
6719,0.000000
6720,1.953125
6721,3.906250
6722,5.859375
6723,5.859375
6724,9.765625
6725,11.718750
6726,11.718750
6727,13.671875
6728,15.625000
6729,17.578125
6730,17.578125
6731,19.531250
6732,21.484375
6733,23.437500
6734,25.390625
6735,25.390625
6736,27.343750
6737,29.296875
6738,31.250000
6739,33.203125
6740,33.203125
6741,35.156250
6742,37.109375
6743,39.062500
6744,39.062500
6745,41.015625
6746,41.015625
6747,42.968750
6748,44.921875
6749,46.875000
6750,46.875000
6751,46.875000
6752,48.828125
6753,50.781250
6754,50.781250
6755,52.734375
6756,54.687500
6757,54.687500
6758,54.687500
6759,56.640625
6760,58.593750
6761,58.593750
6762,58.593750
6763,60.546875
6764,60.546875
6765,62.500000
6766,62.500000
6767,62.500000
6768,64.453125
6769,64.453125
6770,64.453125
6771,66.406250
6772,66.406250
6773,66.406250
6774,68.359375
6775,68.359375
6776,68.359375
6777,68.359375
6778,68.359375
6779,70.312500
6780,70.312500
6781,70.312500
6782,70.312500
6783,70.312500
6784,70.312500
6785,70.312500
6786,70.312500
6787,70.312500
6788,70.312500
6789,70.312500
6790,70.312500
6791,70.312500
6792,70.312500
6793,70.312500
6794,70.312500
6795,70.312500
6796,70.312500
6797,70.312500
6798,68.359375
6799,68.359375
6800,68.359375
6801,68.359375
6802,68.359375
6803,66.406250
6804,66.406250
6805,66.406250
6806,66.406250
6807,64.453125
6808,64.453125
6809,64.453125
6810,62.500000
6811,62.500000
6812,62.500000
6813,60.546875
6814,58.593750
6815,58.593750
6816,58.593750
6817,56.640625
6818,56.640625
6819,54.687500
6820,54.687500
6821,52.734375
6822,52.734375
6823,50.781250
6824,50.781250
6825,48.828125
6826,46.875000
6827,44.921875
6828,44.921875
6829,42.968750
6830,42.968750
6831,41.015625
6832,39.062500
6833,39.062500
6834,37.109375
6835,35.156250
6836,33.203125
6837,33.203125
6838,31.250000
6839,29.296875
6840,27.343750
6841,27.343750
6842,25.390625
6843,23.437500
6844,21.484375
6845,19.531250
6846,17.578125
6847,17.578125
6848,15.625000
6849,13.671875
6850,11.718750
6851,11.718750
6852,7.812500
6853,7.812500
6854,5.859375
6855,3.906250
6856,1.953125
6857,0.000000
6858,-1.953125
6859,-3.906250
6860,-3.906250
6861,-5.859375
6862,-9.765625
6863,-9.765625
6864,-11.718750
6865,-13.671875
6866,-15.625000
6867,-17.578125
6868,-19.531250
6869,-19.531250
6870,-23.437500
6871,-25.390625
6872,-25.390625
6873,-27.343750
6874,-29.296875
6875,-31.250000
6876,-33.203125
6877,-35.156250
6878,-35.156250
6879,-37.109375
6880,-39.062500
6881,-41.015625
6882,-42.968750
6883,-42.968750
6884,-44.921875
6885,-46.875000
6886,-48.828125
6887,-50.781250
6888,-50.781250
6889,-52.734375
6890,-54.687500
6891,-56.640625
6892,-56.640625
6893,-58.593750
6894,-60.546875
6895,-60.546875
6896,-62.500000
6897,-64.453125
6898,-64.453125
6899,-66.406250
6900,-68.359375
6901,-68.359375
6902,-70.312500
6903,-70.312500
6904,-72.265625
6905,-72.265625
6906,-74.218750
6907,-74.218750
6908,-76.171875
6909,-76.171875
6910,-78.125000
6911,-78.125000
6912,-78.125000
6913,-80.078125
6914,-80.078125
6915,-82.031250
6916,-82.031250
6917,-82.031250
6918,-82.031250
6919,-82.031250
6920,-83.984375
6921,-83.984375
6922,-83.984375
6923,-83.984375
6924,-85.937500
6925,-85.937500
6926,-85.937500
6927,-83.984375
6928,-85.937500
6929,-85.937500
6930,-85.937500
6931,-85.937500
6932,-85.937500
6933,-85.937500
6934,-83.984375
6935,-83.984375
6936,-83.984375
6937,-83.984375
6938,-83.984375
6939,-83.984375
6940,-83.984375
6941,-83.984375
6942,-82.031250
6943,-82.031250
6944,-80.078125
6945,-80.078125
6946,-80.078125
6947,-78.125000
6948,-78.125000
6949,-78.125000
6950,-76.171875
6951,-76.171875
6952,-76.171875
6953,-74.218750
6954,-74.218750
6955,-72.265625
6956,-72.265625
6957,-70.312500
6958,-70.312500
6959,-68.359375
6960,-66.406250
6961,-66.406250
6962,-64.453125
6963,-64.453125
6964,-62.500000
6965,-60.546875
6966,-58.593750
6967,-58.593750
6968,-56.640625
6969,-56.640625
6970,-54.687500
6971,-52.734375
6972,-50.781250
6973,-50.781250
6974,-48.828125
6975,-46.875000
6976,-44.921875
6977,-42.968750
6978,-42.968750
6979,-41.015625
6980,-39.062500
6981,-37.109375
6982,-35.156250
6983,-35.156250
6984,-33.203125
6985,-31.250000
6986,-29.296875
6987,-27.343750
6988,-25.390625
6989,-23.437500
6990,-23.437500
6991,-21.484375
6992,-19.531250
6993,-17.578125
6994,-15.625000
6995,-13.671875
6996,-13.671875
6997,-9.765625
6998,-7.812500
6999,-5.859375
7000,-3.906250
7001,-3.906250
7002,-1.953125
7003,0.000000
7004,1.953125
7005,3.906250
7006,5.859375
7007,7.812500
7008,7.812500
7009,9.765625
7010,13.671875
7011,13.671875
7012,15.625000
7013,17.578125
7014,19.531250
7015,21.484375
7016,21.484375
7017,23.437500
7018,25.390625
7019,27.343750
7020,29.296875
7021,29.296875
7022,31.250000
7023,33.203125
7024,35.156250
7025,35.156250
7026,37.109375
7027,39.062500
7028,39.062500
7029,41.015625
7030,42.968750
7031,42.968750
7032,44.921875
7033,46.875000
7034,46.875000
7035,48.828125
7036,48.828125
7037,50.781250
7038,52.734375
7039,52.734375
7040,52.734375
7041,54.687500
7042,56.640625
7043,56.640625
7044,58.593750
7045,58.593750
7046,58.593750
7047,60.546875
7048,62.500000
7049,62.500000
7050,62.500000
7051,64.453125
7052,64.453125
7053,64.453125
7054,66.406250
7055,66.406250
7056,66.406250
7057,66.406250
7058,66.406250
7059,68.359375
7060,68.359375
7061,70.312500
7062,68.359375
7063,70.312500
7064,70.312500
7065,70.312500
7066,70.312500
7067,70.312500
7068,70.312500
7069,70.312500
7070,72.265625
7071,72.265625
7072,72.265625
7073,72.265625
7074,70.312500
7075,70.312500
7076,70.312500
7077,70.312500
7078,70.312500
7079,70.312500
7080,70.312500
7081,70.312500
7082,70.312500
7083,68.359375
7084,68.359375
7085,68.359375
7086,68.359375
7087,66.406250
7088,68.359375
7089,66.406250
7090,66.406250
7091,64.453125
7092,64.453125
7093,64.453125
7094,62.500000
7095,62.500000
7096,62.500000
7097,60.546875
7098,60.546875
7099,58.593750
7100,58.593750
7101,56.640625
7102,56.640625
7103,54.687500
7104,54.687500
7105,52.734375
7106,52.734375
7107,50.781250
7108,48.828125
7109,48.828125
7110,46.875000
7111,46.875000
7112,44.921875
7113,42.968750
7114,42.968750
7115,41.015625
7116,39.062500
7117,39.062500
7118,37.109375
7119,35.156250
7120,33.203125
7121,33.203125
7122,31.250000
7123,31.250000
7124,27.343750
7125,27.343750
7126,25.390625
7127,23.437500
7128,23.437500
7129,21.484375
7130,19.531250
7131,17.578125
7132,15.625000
7133,13.671875
7134,11.718750
7135,9.765625
7136,9.765625
7137,7.812500
7138,5.859375
7139,3.906250
7140,1.953125
7141,0.000000
7142,-1.953125
7143,-1.953125
7144,-3.906250
7145,-5.859375
7146,-7.812500
7147,-9.765625
7148,-11.718750
7149,-13.671875
7150,-15.625000
7151,-17.578125
7152,-17.578125
7153,-19.531250
7154,-21.484375
7155,-23.437500
7156,-25.390625
7157,-27.343750
7158,-29.296875
7159,-31.250000
7160,-31.250000
7161,-35.156250
7162,-35.156250
7163,-37.109375
7164,-39.062500
7165,-41.015625
7166,-42.968750
7167,-42.968750
7168,-44.921875
7169,-46.875000
7170,-48.828125
7171,-50.781250
7172,-50.781250
7173,-52.734375
7174,-54.687500
7175,-56.640625
7176,-56.640625
7177,-58.593750
7178,-58.593750
7179,-60.546875
7180,-62.500000
7181,-64.453125
7182,-64.453125
7183,-64.453125
7184,-66.406250
7185,-68.359375
7186,-70.312500
7187,-70.312500
7188,-72.265625
7189,-72.265625
7190,-72.265625
7191,-74.218750
7192,-74.218750
7193,-76.171875
7194,-76.171875
7195,-78.125000
7196,-78.125000
7197,-80.078125
7198,-80.078125
7199,-80.078125
7200,-80.078125
7201,-82.031250
7202,-82.031250
7203,-82.031250
7204,-83.984375
7205,-83.984375
7206,-83.984375
7207,-83.984375
7208,-83.984375
7209,-83.984375
7210,-83.984375
7211,-85.937500
7212,-85.937500
7213,-83.984375
7214,-83.984375
7215,-85.937500
7216,-85.937500
7217,-85.937500
7218,-83.984375
7219,-83.984375
7220,-83.984375
7221,-83.984375
7222,-83.984375
7223,-83.984375
7224,-82.031250
7225,-82.031250
7226,-82.031250
7227,-82.031250
7228,-82.031250
7229,-80.078125
7230,-80.078125
7231,-78.125000
7232,-78.125000
7233,-78.125000
7234,-78.125000
7235,-76.171875
7236,-74.218750
7237,-76.171875
7238,-74.218750
7239,-74.218750
7240,-72.265625
7241,-70.312500
7242,-70.312500
7243,-68.359375
7244,-68.359375
7245,-66.406250
7246,-64.453125
7247,-64.453125
7248,-62.500000
7249,-62.500000
7250,-60.546875
7251,-58.593750
7252,-56.640625
7253,-56.640625
7254,-54.687500
7255,-52.734375
7256,-50.781250
7257,-48.828125
7258,-48.828125
7259,-46.875000
7260,-44.921875
7261,-42.968750
7262,-42.968750
7263,-41.015625
7264,-39.062500
7265,-37.109375
7266,-35.156250
7267,-33.203125
7268,-33.203125
7269,-31.250000
7270,-29.296875
7271,-27.343750
7272,-25.390625
7273,-23.437500
7274,-23.437500
7275,-21.484375
7276,-19.531250
7277,-17.578125
7278,-15.625000
7279,-13.671875
7280,-13.671875
7281,-9.765625
7282,-9.765625
7283,-7.812500
7284,-5.859375
7285,-3.906250
7286,-3.906250
7287,0.000000
7288,1.953125
7289,3.906250
7290,3.906250
7291,5.859375
7292,7.812500
7293,9.765625
7294,11.718750
7295,13.671875
7296,13.671875
7297,17.578125
7298,17.578125
7299,19.531250
7300,21.484375
7301,21.484375
7302,23.437500
7303,25.390625
7304,27.343750
7305,29.296875
7306,31.250000
7307,31.250000
7308,33.203125
7309,35.156250
7310,35.156250
7311,37.109375
7312,39.062500
7313,41.015625
7314,41.015625
7315,42.968750
7316,44.921875
7317,44.921875
7318,46.875000
7319,48.828125
7320,48.828125
7321,50.781250
7322,50.781250
7323,52.734375
7324,52.734375
7325,54.687500
7326,54.687500
7327,56.640625
7328,58.593750
7329,58.593750
7330,58.593750
7331,60.546875
7332,60.546875
7333,62.500000
7334,62.500000
7335,64.453125
7336,64.453125
7337,64.453125
7338,66.406250
7339,66.406250
7340,66.406250
7341,66.406250
7342,66.406250
7343,68.359375
7344,68.359375
7345,68.359375
7346,70.312500
7347,70.312500
7348,70.312500
7349,70.312500
7350,70.312500
7351,70.312500
7352,70.312500
7353,70.312500
7354,70.312500
7355,70.312500
7356,70.312500
7357,70.312500
7358,70.312500
7359,70.312500
7360,70.312500
7361,70.312500
7362,70.312500
7363,70.312500
7364,70.312500
7365,70.312500
7366,70.312500
7367,68.359375
7368,68.359375
7369,68.359375
7370,68.359375
7371,66.406250
7372,66.406250
7373,66.406250
7374,66.406250
7375,64.453125
7376,64.453125
7377,62.500000
7378,62.500000
7379,62.500000
7380,60.546875
7381,60.546875
7382,60.546875
7383,58.593750
7384,58.593750
7385,56.640625
7386,56.640625
7387,54.687500
7388,54.687500
7389,52.734375
7390,52.734375
7391,50.781250
7392,50.781250
7393,48.828125
7394,46.875000
7395,46.875000
7396,44.921875
7397,42.968750
7398,42.968750
7399,41.015625
7400,39.062500
7401,39.062500
7402,37.109375
7403,35.156250
7404,33.203125
7405,33.203125
7406,31.250000
7407,29.296875
7408,27.343750
7409,27.343750
7410,25.390625
7411,23.437500
7412,23.437500
7413,19.531250
7414,19.531250
7415,17.578125
7416,15.625000
7417,13.671875
7418,11.718750
7419,9.765625
7420,9.765625
7421,7.812500
7422,5.859375
7423,3.906250
7424,1.953125
7425,0.000000
7426,-1.953125
7427,-3.906250
7428,-5.859375
7429,-5.859375
7430,-7.812500
7431,-9.765625
7432,-11.718750
7433,-13.671875
7434,-15.625000
7435,-17.578125
7436,-19.531250
7437,-21.484375
7438,-21.484375
7439,-23.437500
7440,-25.390625
7441,-27.343750
7442,-29.296875
7443,-31.250000
7444,-31.250000
7445,-33.203125
7446,-35.156250
7447,-37.109375
7448,-39.062500
7449,-41.015625
7450,-42.968750
7451,-42.968750
7452,-44.921875
7453,-46.875000
7454,-48.828125
7455,-48.828125
7456,-50.781250
7457,-52.734375
7458,-54.687500
7459,-54.687500
7460,-56.640625
7461,-58.593750
7462,-60.546875
7463,-60.546875
7464,-62.500000
7465,-62.500000
7466,-64.453125
7467,-66.406250
7468,-66.406250
7469,-68.359375
7470,-68.359375
7471,-70.312500
7472,-70.312500
7473,-72.265625
7474,-72.265625
7475,-74.218750
7476,-74.218750
7477,-76.171875
7478,-76.171875
7479,-78.125000
7480,-78.125000
7481,-78.125000
7482,-80.078125
7483,-80.078125
7484,-82.031250
7485,-82.031250
7486,-82.031250
7487,-82.031250
7488,-82.031250
7489,-83.984375
7490,-83.984375
7491,-83.984375
7492,-85.937500
7493,-83.984375
7494,-85.937500
7495,-85.937500
7496,-85.937500
7497,-85.937500
7498,-85.937500
7499,-85.937500
7500,-85.937500
7501,-85.937500
7502,-83.984375
7503,-83.984375
7504,-83.984375
7505,-83.984375
7506,-83.984375
7507,-83.984375
7508,-83.984375
7509,-83.984375
7510,-82.031250
7511,-82.031250
7512,-80.078125
7513,-80.078125
7514,-80.078125
7515,-80.078125
7516,-78.125000
7517,-78.125000
7518,-78.125000
7519,-76.171875
7520,-76.171875
7521,-74.218750
7522,-74.218750
7523,-72.265625
7524,-72.265625
7525,-70.312500
7526,-70.312500
7527,-68.359375
7528,-66.406250
7529,-66.406250
7530,-64.453125
7531,-64.453125
7532,-62.500000
7533,-60.546875
7534,-60.546875
7535,-58.593750
7536,-56.640625
7537,-54.687500
7538,-54.687500
7539,-52.734375
7540,-50.781250
7541,-50.781250
7542,-48.828125
7543,-46.875000
7544,-44.921875
7545,-44.921875
7546,-41.015625
7547,-41.015625
7548,-39.062500
7549,-37.109375
7550,-35.156250
7551,-35.156250
7552,-33.203125
7553,-31.250000
7554,-29.296875
7555,-27.343750
7556,-25.390625
7557,-23.437500
7558,-21.484375
7559,-19.531250
7560,-19.531250
7561,-17.578125
7562,-15.625000
7563,-13.671875
7564,-11.718750
7565,-9.765625
7566,-9.765625
7567,-7.812500
7568,-5.859375
7569,-3.906250
7570,-1.953125
7571,0.000000
7572,1.953125
7573,3.906250
7574,5.859375
7575,5.859375
7576,7.812500
7577,9.765625
7578,11.718750
7579,13.671875
7580,15.625000
7581,17.578125
7582,19.531250
7583,19.531250
7584,21.484375
7585,23.437500
7586,25.390625
7587,25.390625
7588,27.343750
7589,29.296875
7590,31.250000
7591,33.203125
7592,33.203125
7593,37.109375
7594,37.109375
7595,39.062500
7596,39.062500
7597,41.015625
7598,41.015625
7599,44.921875
7600,44.921875
7601,46.875000
7602,46.875000
7603,44.921875
7604,48.828125
7605,50.781250
7606,52.734375
7607,52.734375
7608,54.687500
7609,52.734375
7610,54.687500
7611,56.640625
7612,56.640625
7613,58.593750
7614,58.593750
7615,60.546875
7616,60.546875
7617,62.500000
7618,62.500000
7619,64.453125
7620,64.453125
7621,64.453125
7622,66.406250
7623,64.453125
7624,66.406250
7625,66.406250
7626,66.406250
7627,68.359375
7628,68.359375
7629,68.359375
7630,68.359375
7631,70.312500
7632,68.359375
7633,70.312500
7634,70.312500
7635,68.359375
7636,70.312500
7637,70.312500
7638,66.406250
7639,70.312500
7640,70.312500
7641,70.312500
7642,70.312500
7643,76.171875
7644,70.312500
7645,70.312500
7646,70.312500
7647,70.312500
7648,70.312500
7649,70.312500
7650,70.312500
7651,68.359375
7652,68.359375
7653,68.359375
7654,68.359375
7655,66.406250
7656,66.406250
7657,66.406250
7658,66.406250
7659,66.406250
7660,66.406250
7661,64.453125
7662,64.453125
7663,62.500000
7664,62.500000
7665,60.546875
7666,60.546875
7667,58.593750
7668,58.593750
7669,56.640625
7670,56.640625
7671,54.687500
7672,54.687500
7673,52.734375
7674,52.734375
7675,50.781250
7676,50.781250
7677,48.828125
7678,48.828125
7679,46.875000
7680,44.921875
7681,42.968750
7682,42.968750
7683,41.015625
7684,39.062500
7685,37.109375
7686,37.109375
7687,35.156250
7688,35.156250
7689,33.203125
7690,31.250000
7691,29.296875
7692,29.296875
7693,27.343750
7694,29.296875
7695,23.437500
7696,21.484375
7697,21.484375
7698,19.531250
7699,17.578125
7700,15.625000
7701,13.671875
7702,11.718750
7703,9.765625
7704,7.812500
7705,7.812500
7706,5.859375
7707,3.906250
7708,3.906250
7709,0.000000
7710,0.000000
7711,-1.953125
7712,-5.859375
7713,-5.859375
7714,-7.812500
7715,-9.765625
7716,-11.718750
7717,-13.671875
7718,-13.671875
7719,-17.578125
7720,-17.578125
7721,-19.531250
7722,-21.484375
7723,-23.437500
7724,-25.390625
7725,-27.343750
7726,-29.296875
7727,-31.250000
7728,-31.250000
7729,-33.203125
7730,-35.156250
7731,-37.109375
7732,-39.062500
7733,-41.015625
7734,-41.015625
7735,-42.968750
7736,-44.921875
7737,-46.875000
7738,-48.828125
7739,-50.781250
7740,-50.781250
7741,-52.734375
7742,-54.687500
7743,-56.640625
7744,-56.640625
7745,-58.593750
7746,-58.593750
7747,-60.546875
7748,-62.500000
7749,-64.453125
7750,-64.453125
7751,-66.406250
7752,-66.406250
7753,-68.359375
7754,-70.312500
7755,-70.312500
7756,-72.265625
7757,-72.265625
7758,-74.218750
7759,-74.218750
7760,-76.171875
7761,-76.171875
7762,-76.171875
7763,-78.125000
7764,-78.125000
7765,-80.078125
7766,-80.078125
7767,-80.078125
7768,-82.031250
7769,-82.031250
7770,-82.031250
7771,-82.031250
7772,-83.984375
7773,-83.984375
7774,-83.984375
7775,-83.984375
7776,-83.984375
7777,-83.984375
7778,-83.984375
7779,-83.984375
7780,-85.937500
7781,-85.937500
7782,-83.984375
7783,-85.937500
7784,-83.984375
7785,-85.937500
7786,-83.984375
7787,-83.984375
7788,-83.984375
7789,-83.984375
7790,-83.984375
7791,-83.984375
7792,-83.984375
7793,-82.031250
7794,-82.031250
7795,-82.031250
7796,-82.031250
7797,-80.078125
7798,-80.078125
7799,-78.125000
7800,-78.125000
7801,-78.125000
7802,-78.125000
7803,-78.125000
7804,-76.171875
7805,-74.218750
7806,-74.218750
7807,-72.265625
7808,-72.265625
7809,-70.312500
7810,-70.312500
7811,-68.359375
7812,-68.359375
7813,-68.359375
7814,-66.406250
7815,-64.453125
7816,-62.500000
7817,-62.500000
7818,-60.546875
7819,-58.593750
7820,-58.593750
7821,-56.640625
7822,-54.687500
7823,-54.687500
7824,-52.734375
7825,-50.781250
7826,-48.828125
7827,-46.875000
7828,-46.875000
7829,-46.875000
7830,-42.968750
7831,-41.015625
7832,-41.015625
7833,-37.109375
7834,-37.109375
7835,-35.156250
7836,-33.203125
7837,-31.250000
7838,-31.250000
7839,-27.343750
7840,-25.390625
7841,-25.390625
7842,-23.437500
7843,-23.437500
7844,-19.531250
7845,-17.578125
7846,-15.625000
7847,-13.671875
7848,-13.671875
7849,-11.718750
7850,-9.765625
7851,-7.812500
7852,-5.859375
7853,-3.906250
7854,-1.953125
7855,0.000000
7856,1.953125
7857,1.953125
7858,5.859375
7859,5.859375
7860,7.812500
7861,9.765625
7862,11.718750
7863,13.671875
7864,15.625000
7865,15.625000
7866,17.578125
7867,19.531250
7868,21.484375
7869,23.437500
7870,25.390625
7871,27.343750
7872,27.343750
7873,29.296875
7874,31.250000
7875,31.250000
7876,33.203125
7877,35.156250
7878,35.156250
7879,37.109375
7880,39.062500
7881,39.062500
7882,41.015625
7883,42.968750
7884,42.968750
7885,44.921875
7886,46.875000
7887,48.828125
7888,48.828125
7889,48.828125
7890,50.781250
7891,52.734375
7892,52.734375
7893,54.687500
7894,54.687500
7895,56.640625
7896,56.640625
7897,58.593750
7898,60.546875
7899,60.546875
7900,60.546875
7901,62.500000
7902,62.500000
7903,62.500000
7904,64.453125
7905,64.453125
7906,64.453125
7907,66.406250
7908,66.406250
7909,66.406250
7910,68.359375
7911,68.359375
7912,68.359375
7913,68.359375
7914,68.359375
7915,70.312500
7916,70.312500
7917,70.312500
7918,70.312500
7919,70.312500
7920,70.312500
7921,70.312500
7922,70.312500
7923,70.312500
7924,72.265625
7925,72.265625
7926,70.312500
7927,70.312500
7928,70.312500
7929,70.312500
7930,70.312500
7931,70.312500
7932,70.312500
7933,70.312500
7934,68.359375
7935,68.359375
7936,68.359375
7937,68.359375
7938,68.359375
7939,66.406250
7940,66.406250
7941,66.406250
7942,66.406250
7943,64.453125
7944,64.453125
7945,64.453125
7946,62.500000
7947,62.500000
7948,60.546875
7949,60.546875
7950,60.546875
7951,58.593750
7952,58.593750
7953,56.640625
7954,56.640625
7955,54.687500
7956,54.687500
7957,52.734375
7958,52.734375
7959,50.781250
7960,48.828125
7961,48.828125
7962,46.875000
7963,46.875000
7964,46.875000
7965,44.921875
7966,42.968750
7967,41.015625
7968,39.062500
7969,39.062500
7970,37.109375
7971,37.109375
7972,35.156250
7973,33.203125
7974,31.250000
7975,29.296875
7976,29.296875
7977,27.343750
7978,27.343750
7979,23.437500
7980,23.437500
7981,21.484375
7982,19.531250
7983,17.578125
7984,17.578125
7985,13.671875
7986,11.718750
7987,11.718750
7988,9.765625
7989,7.812500
7990,5.859375
7991,3.906250
7992,3.906250
7993,0.000000
7994,0.000000
7995,-1.953125
7996,-3.906250
7997,-5.859375
7998,-7.812500
7999,-9.765625
8000,-11.718750
8001,-13.671875
8002,-15.625000
8003,-15.625000
8004,-17.578125
8005,-19.531250
8006,-21.484375
8007,-23.437500
8008,-25.390625
8009,-27.343750
8010,-29.296875
8011,-29.296875
8012,-31.250000
8013,-33.203125
8014,-35.156250
8015,-37.109375
8016,-39.062500
8017,-41.015625
8018,-42.968750
8019,-42.968750
8020,-44.921875
8021,-44.921875
8022,-48.828125
8023,-48.828125
8024,-50.781250
8025,-52.734375
8026,-54.687500
8027,-56.640625
8028,-56.640625
8029,-58.593750
8030,-58.593750
8031,-60.546875
8032,-62.500000
8033,-62.500000
8034,-64.453125
8035,-64.453125
8036,-66.406250
8037,-68.359375
8038,-68.359375
8039,-70.312500
8040,-70.312500
8041,-72.265625
8042,-74.218750
8043,-72.265625
8044,-74.218750
8045,-76.171875
8046,-76.171875
8047,-78.125000
8048,-78.125000
8049,-78.125000
8050,-80.078125
8051,-80.078125
8052,-80.078125
8053,-82.031250
8054,-82.031250
8055,-82.031250
8056,-82.031250
8057,-83.984375
8058,-82.031250
8059,-83.984375
8060,-83.984375
8061,-83.984375
8062,-83.984375
8063,-85.937500
8064,-85.937500
8065,-85.937500
8066,-83.984375
8067,-85.937500
8068,-85.937500
8069,-85.937500
8070,-85.937500
8071,-85.937500
8072,-83.984375
8073,-83.984375
8074,-83.984375
8075,-83.984375
8076,-83.984375
8077,-83.984375
8078,-82.031250
8079,-82.031250
8080,-82.031250
8081,-80.078125
8082,-80.078125
8083,-80.078125
8084,-80.078125
8085,-78.125000
8086,-78.125000
8087,-76.171875
8088,-76.171875
8089,-76.171875
8090,-74.218750
8091,-72.265625
8092,-72.265625
8093,-70.312500
8094,-70.312500
8095,-68.359375
8096,-68.359375
8097,-66.406250
8098,-64.453125
8099,-64.453125
8100,-62.500000
8101,-60.546875
8102,-60.546875
8103,-58.593750
8104,-56.640625
8105,-56.640625
8106,-54.687500
8107,-52.734375
8108,-50.781250
8109,-50.781250
8110,-48.828125
8111,-46.875000
8112,-44.921875
8113,-44.921875
8114,-42.968750
8115,-41.015625
8116,-39.062500
8117,-37.109375
8118,-37.109375
8119,-35.156250
8120,-33.203125
8121,-31.250000
8122,-29.296875
8123,-29.296875
8124,-27.343750
8125,-25.390625
8126,-23.437500
8127,-21.484375
8128,-19.531250
8129,-17.578125
8130,-15.625000
8131,-13.671875
8132,-11.718750
8133,-9.765625
8134,-9.765625
8135,-7.812500
8136,-5.859375
8137,-3.906250
8138,-1.953125
8139,0.000000
8140,1.953125
8141,3.906250
8142,3.906250
8143,5.859375
8144,7.812500
8145,9.765625
8146,11.718750
8147,13.671875
8148,13.671875
8149,15.625000
8150,17.578125
8151,19.531250
8152,21.484375
8153,23.437500
8154,23.437500
8155,25.390625
8156,27.343750
8157,29.296875
8158,31.250000
8159,31.250000
8160,33.203125
8161,35.156250
8162,37.109375
8163,37.109375
8164,39.062500
8165,41.015625
8166,41.015625
8167,42.968750
8168,44.921875
8169,44.921875
8170,46.875000
8171,48.828125
8172,48.828125
8173,50.781250
8174,50.781250
8175,52.734375
8176,54.687500
8177,54.687500
8178,56.640625
8179,56.640625
8180,56.640625
8181,58.593750
8182,60.546875
8183,60.546875
8184,60.546875
8185,62.500000
8186,62.500000
8187,62.500000
8188,64.453125
8189,64.453125
8190,66.406250
8191,66.406250
8192,66.406250
8193,66.406250
8194,68.359375
8195,68.359375
8196,68.359375
8197,68.359375
8198,68.359375
8199,68.359375
8200,68.359375
8201,70.312500
8202,70.312500
8203,70.312500
8204,70.312500
8205,70.312500
8206,70.312500
8207,70.312500
8208,70.312500
8209,70.312500
8210,70.312500
8211,70.312500
8212,70.312500
8213,70.312500
8214,70.312500
8215,70.312500
8216,70.312500
8217,70.312500
8218,68.359375
8219,70.312500
8220,68.359375
8221,68.359375
8222,68.359375
8223,66.406250
8224,68.359375
8225,66.406250
8226,66.406250
8227,64.453125
8228,64.453125
8229,64.453125
8230,64.453125
8231,62.500000
8232,62.500000
8233,60.546875
8234,60.546875
8235,58.593750
8236,58.593750
8237,58.593750
8238,56.640625
8239,56.640625
8240,54.687500
8241,52.734375
8242,52.734375
8243,50.781250
8244,50.781250
8245,48.828125
8246,48.828125
8247,46.875000
8248,44.921875
8249,44.921875
8250,42.968750
8251,42.968750
8252,41.015625
8253,39.062500
8254,37.109375
8255,37.109375
8256,35.156250
8257,33.203125
8258,31.250000
8259,29.296875
8260,29.296875
8261,27.343750
8262,27.343750
8263,23.437500
8264,23.437500
8265,21.484375
8266,19.531250
8267,17.578125
8268,15.625000
8269,13.671875
8270,13.671875
8271,11.718750
8272,7.812500
8273,7.812500
8274,5.859375
8275,3.906250
8276,1.953125
8277,0.000000
8278,-1.953125
8279,-3.906250
8280,-3.906250
8281,-5.859375
8282,-7.812500
8283,-9.765625
8284,-11.718750
8285,-13.671875
8286,-13.671875
8287,-15.625000
8288,-17.578125
8289,-19.531250
8290,-21.484375
8291,-23.437500
8292,-25.390625
8293,-27.343750
8294,-27.343750
8295,-31.250000
8296,-31.250000
8297,-33.203125
8298,-35.156250
8299,-37.109375
8300,-39.062500
8301,-39.062500
8302,-41.015625
8303,-42.968750
8304,-44.921875
8305,-44.921875
8306,-46.875000
8307,-48.828125
8308,-50.781250
8309,-52.734375
8310,-52.734375
8311,-54.687500
8312,-56.640625
8313,-58.593750
8314,-60.546875
8315,-60.546875
8316,-62.500000
8317,-62.500000
8318,-64.453125
8319,-66.406250
8320,-66.406250
8321,-68.359375
8322,-68.359375
8323,-70.312500
8324,-72.265625
8325,-72.265625
8326,-72.265625
8327,-74.218750
8328,-76.171875
8329,-76.171875
8330,-76.171875
8331,-78.125000
8332,-78.125000
8333,-78.125000
8334,-80.078125
8335,-80.078125
8336,-80.078125
8337,-82.031250
8338,-82.031250
8339,-83.984375
8340,-82.031250
8341,-83.984375
8342,-83.984375
8343,-83.984375
8344,-83.984375
8345,-83.984375
8346,-85.937500
8347,-85.937500
8348,-85.937500
8349,-85.937500
8350,-85.937500
8351,-85.937500
8352,-85.937500
8353,-85.937500
8354,-85.937500
8355,-85.937500
8356,-83.984375
8357,-83.984375
8358,-83.984375
8359,-83.984375
8360,-83.984375
8361,-82.031250
8362,-82.031250
8363,-82.031250
8364,-82.031250
8365,-82.031250
8366,-80.078125
8367,-80.078125
8368,-78.125000
8369,-78.125000
8370,-78.125000
8371,-76.171875
8372,-76.171875
8373,-76.171875
8374,-74.218750
8375,-72.265625
8376,-72.265625
8377,-70.312500
8378,-70.312500
8379,-68.359375
8380,-68.359375
8381,-66.406250
8382,-66.406250
8383,-64.453125
8384,-62.500000
8385,-62.500000
8386,-60.546875
8387,-58.593750
8388,-58.593750
8389,-56.640625
8390,-54.687500
8391,-54.687500
8392,-52.734375
8393,-50.781250
8394,-48.828125
8395,-48.828125
8396,-46.875000
8397,-44.921875
8398,-42.968750
8399,-41.015625
8400,-39.062500
8401,-39.062500
8402,-37.109375
8403,-35.156250
8404,-33.203125
8405,-31.250000
8406,-29.296875
8407,-29.296875
8408,-27.343750
8409,-25.390625
8410,-23.437500
8411,-21.484375
8412,-19.531250
8413,-17.578125
8414,-15.625000
8415,-15.625000
8416,-13.671875
8417,-11.718750
8418,-9.765625
8419,-7.812500
8420,-5.859375
8421,-3.906250
8422,-1.953125
8423,0.000000
8424,1.953125
8425,1.953125
8426,3.906250
8427,5.859375
8428,7.812500
8429,9.765625
8430,11.718750
8431,13.671875
8432,15.625000
8433,15.625000
8434,17.578125
8435,19.531250
8436,21.484375
8437,23.437500
8438,23.437500
8439,25.390625
8440,27.343750
8441,29.296875
8442,29.296875
8443,31.250000
8444,33.203125
8445,35.156250
8446,37.109375
8447,37.109375
8448,39.062500
8449,41.015625
8450,41.015625
8451,42.968750
8452,42.968750
8453,44.921875
8454,46.875000
8455,46.875000
8456,48.828125
8457,50.781250
8458,50.781250
8459,50.781250
8460,52.734375
8461,54.687500
8462,54.687500
8463,56.640625
8464,56.640625
8465,56.640625
8466,58.593750
8467,60.546875
8468,60.546875
8469,60.546875
8470,62.500000
8471,62.500000
8472,64.453125
8473,64.453125
8474,64.453125
8475,64.453125
8476,66.406250
8477,66.406250
8478,66.406250
8479,68.359375
8480,68.359375
8481,68.359375
8482,68.359375
8483,70.312500
8484,70.312500
8485,70.312500
8486,70.312500
8487,70.312500
8488,70.312500
8489,70.312500
8490,70.312500
8491,70.312500
8492,72.265625
8493,70.312500
8494,70.312500
8495,72.265625
8496,72.265625
8497,70.312500
8498,70.312500
8499,70.312500
8500,70.312500
8501,70.312500
8502,70.312500
8503,70.312500
8504,68.359375
8505,68.359375
8506,68.359375
8507,68.359375
8508,66.406250
8509,66.406250
8510,66.406250
8511,66.406250
8512,64.453125
8513,64.453125
8514,62.500000
8515,62.500000
8516,62.500000
8517,60.546875
8518,60.546875
8519,58.593750
8520,58.593750
8521,56.640625
8522,56.640625
8523,54.687500
8524,54.687500
8525,52.734375
8526,52.734375
8527,50.781250
8528,50.781250
8529,48.828125
8530,48.828125
8531,46.875000
8532,44.921875
8533,44.921875
8534,42.968750
8535,41.015625
8536,41.015625
8537,39.062500
8538,39.062500
8539,35.156250
8540,35.156250
8541,33.203125
8542,31.250000
8543,31.250000
8544,29.296875
8545,27.343750
8546,25.390625
8547,23.437500
8548,23.437500
8549,21.484375
8550,19.531250
8551,17.578125
8552,17.578125
8553,15.625000
8554,11.718750
8555,11.718750
8556,9.765625
8557,7.812500
8558,5.859375
8559,3.906250
8560,3.906250
8561,1.953125
8562,0.000000
8563,-1.953125
8564,-3.906250
8565,-5.859375
8566,-7.812500
8567,-9.765625
8568,-9.765625
8569,-11.718750
8570,-13.671875
8571,-15.625000
8572,-17.578125
8573,-19.531250
8574,-21.484375
8575,-23.437500
8576,-23.437500
8577,-27.343750
8578,-27.343750
8579,-29.296875
8580,-31.250000
8581,-33.203125
8582,-35.156250
8583,-37.109375
8584,-39.062500
8585,-41.015625
8586,-41.015625
8587,-42.968750
8588,-44.921875
8589,-46.875000
8590,-46.875000
8591,-48.828125
8592,-50.781250
8593,-52.734375
8594,-54.687500
8595,-54.687500
8596,-56.640625
8597,-58.593750
8598,-58.593750
8599,-60.546875
8600,-62.500000
8601,-62.500000
8602,-64.453125
8603,-64.453125
8604,-66.406250
8605,-68.359375
8606,-68.359375
8607,-70.312500
8608,-70.312500
8609,-72.265625
8610,-72.265625
8611,-74.218750
8612,-74.218750
8613,-76.171875
8614,-76.171875
8615,-76.171875
8616,-78.125000
8617,-78.125000
8618,-80.078125
8619,-80.078125
8620,-80.078125
8621,-82.031250
8622,-82.031250
8623,-82.031250
8624,-83.984375
8625,-82.031250
8626,-83.984375
8627,-83.984375
8628,-83.984375
8629,-83.984375
8630,-83.984375
8631,-85.937500
8632,-83.984375
8633,-83.984375
8634,-83.984375
8635,-83.984375
8636,-83.984375
8637,-83.984375
8638,-83.984375
8639,-83.984375
8640,-83.984375
8641,-83.984375
8642,-83.984375
8643,-83.984375
8644,-83.984375
8645,-82.031250
8646,-82.031250
8647,-82.031250
8648,-82.031250
8649,-80.078125
8650,-80.078125
8651,-80.078125
8652,-78.125000
8653,-78.125000
8654,-78.125000
8655,-76.171875
8656,-76.171875
8657,-76.171875
8658,-74.218750
8659,-74.218750
8660,-72.265625
8661,-72.265625
8662,-70.312500
8663,-68.359375
8664,-68.359375
8665,-66.406250
8666,-64.453125
8667,-64.453125
8668,-62.500000
8669,-62.500000
8670,-60.546875
8671,-58.593750
8672,-58.593750
8673,-56.640625
8674,-54.687500
8675,-52.734375
8676,-52.734375
8677,-50.781250
8678,-48.828125
8679,-46.875000
8680,-46.875000
8681,-44.921875
8682,-42.968750
8683,-41.015625
8684,-39.062500
8685,-39.062500
8686,-37.109375
8687,-35.156250
8688,-33.203125
8689,-31.250000
8690,-29.296875
8691,-27.343750
8692,-25.390625
8693,-25.390625
8694,-23.437500
8695,-21.484375
8696,-19.531250
8697,-17.578125
8698,-15.625000
8699,-13.671875
8700,-13.671875
8701,-11.718750
8702,-9.765625
8703,-7.812500
8704,-5.859375
8705,-3.906250
8706,-1.953125
8707,0.000000
8708,0.000000
8709,1.953125
8710,3.906250
8711,5.859375
8712,7.812500
8713,9.765625
8714,11.718750
8715,13.671875
8716,13.671875
8717,15.625000
8718,17.578125
8719,19.531250
8720,21.484375
8721,21.484375
8722,23.437500
8723,25.390625
8724,25.390625
8725,29.296875
8726,29.296875
8727,31.250000
8728,33.203125
8729,35.156250
8730,35.156250
8731,37.109375
8732,39.062500
8733,39.062500
8734,41.015625
8735,42.968750
8736,44.921875
8737,44.921875
8738,46.875000
8739,46.875000
8740,48.828125
8741,48.828125
8742,52.734375
8743,52.734375
8744,54.687500
8745,54.687500
8746,54.687500
8747,56.640625
8748,56.640625
8749,58.593750
8750,58.593750
8751,60.546875
8752,60.546875
8753,62.500000
8754,62.500000
8755,64.453125
8756,64.453125
8757,64.453125
8758,64.453125
8759,66.406250
8760,66.406250
8761,66.406250
8762,68.359375
8763,68.359375
8764,68.359375
8765,68.359375
8766,70.312500
8767,70.312500
8768,70.312500
8769,68.359375
8770,70.312500
8771,70.312500
8772,70.312500
8773,70.312500
8774,70.312500
8775,70.312500
8776,70.312500
8777,70.312500
8778,70.312500
8779,70.312500
8780,70.312500
8781,70.312500
8782,70.312500
8783,70.312500
8784,70.312500
8785,70.312500
8786,70.312500
8787,68.359375
8788,68.359375
8789,68.359375
8790,68.359375
8791,68.359375
8792,66.406250
8793,66.406250
8794,66.406250
8795,64.453125
8796,64.453125
8797,64.453125
8798,62.500000
8799,62.500000
8800,62.500000
8801,60.546875
8802,60.546875
8803,58.593750
8804,58.593750
8805,56.640625
8806,56.640625
8807,56.640625
8808,54.687500
8809,52.734375
8810,52.734375
8811,50.781250
8812,50.781250
8813,48.828125
8814,48.828125
8815,46.875000
8816,44.921875
8817,44.921875
8818,42.968750
8819,41.015625
8820,41.015625
8821,39.062500
8822,37.109375
8823,37.109375
8824,35.156250
8825,33.203125
8826,31.250000
8827,29.296875
8828,29.296875
8829,27.343750
8830,25.390625
8831,25.390625
8832,23.437500
8833,21.484375
8834,19.531250
8835,17.578125
8836,15.625000
8837,13.671875
8838,13.671875
8839,11.718750
8840,9.765625
8841,7.812500
8842,5.859375
8843,3.906250
8844,1.953125
8845,0.000000
8846,0.000000
8847,-1.953125
8848,-3.906250
8849,-5.859375
8850,-5.859375
8851,-9.765625
8852,-11.718750
8853,-13.671875
8854,-15.625000
8855,-15.625000
8856,-19.531250
8857,-19.531250
8858,-21.484375
8859,-23.437500
8860,-25.390625
8861,-27.343750
8862,-27.343750
8863,-29.296875
8864,-31.250000
8865,-33.203125
8866,-35.156250
8867,-37.109375
8868,-39.062500
8869,-39.062500
8870,-41.015625
8871,-42.968750
8872,-44.921875
8873,-44.921875
8874,-46.875000
8875,-48.828125
8876,-50.781250
8877,-52.734375
8878,-52.734375
8879,-54.687500
8880,-56.640625
8881,-56.640625
8882,-58.593750
8883,-60.546875
8884,-62.500000
8885,-62.500000
8886,-64.453125
8887,-64.453125
8888,-66.406250
8889,-68.359375
8890,-68.359375
8891,-70.312500
8892,-70.312500
8893,-72.265625
8894,-72.265625
8895,-74.218750
8896,-74.218750
8897,-76.171875
8898,-76.171875
8899,-78.125000
8900,-78.125000
8901,-80.078125
8902,-80.078125
8903,-80.078125
8904,-82.031250
8905,-82.031250
8906,-82.031250
8907,-82.031250
8908,-83.984375
8909,-83.984375
8910,-83.984375
8911,-83.984375
8912,-85.937500
8913,-83.984375
8914,-83.984375
8915,-85.937500
8916,-85.937500
8917,-85.937500
8918,-85.937500
8919,-85.937500
8920,-85.937500
8921,-85.937500
8922,-85.937500
8923,-85.937500
8924,-85.937500
8925,-83.984375
8926,-83.984375
8927,-83.984375
8928,-83.984375
8929,-83.984375
8930,-83.984375
8931,-82.031250
8932,-82.031250
8933,-82.031250
8934,-80.078125
8935,-80.078125
8936,-78.125000
8937,-78.125000
8938,-78.125000
8939,-76.171875
8940,-76.171875
8941,-74.218750
8942,-74.218750
8943,-72.265625
8944,-72.265625
8945,-72.265625
8946,-70.312500
8947,-68.359375
8948,-68.359375
8949,-66.406250
8950,-66.406250
8951,-64.453125
8952,-62.500000
8953,-60.546875
8954,-60.546875
8955,-58.593750
8956,-58.593750
8957,-56.640625
8958,-54.687500
8959,-52.734375
8960,-52.734375
8961,-50.781250
8962,-48.828125
8963,-46.875000
8964,-46.875000
8965,-44.921875
8966,-42.968750
8967,-41.015625
8968,-41.015625
8969,-39.062500
8970,-37.109375
8971,-35.156250
8972,-33.203125
8973,-31.250000
8974,-31.250000
8975,-29.296875
8976,-27.343750
8977,-25.390625
8978,-23.437500
8979,-21.484375
8980,-19.531250
8981,-17.578125
8982,-15.625000
8983,-15.625000
8984,-13.671875
8985,-11.718750
8986,-9.765625
8987,-7.812500
8988,-5.859375
8989,-3.906250
8990,-1.953125
8991,0.000000
8992,0.000000
8993,1.953125
8994,3.906250
8995,5.859375
8996,7.812500
8997,9.765625
8998,11.718750
8999,11.718750
9000,13.671875
9001,15.625000
9002,17.578125
9003,19.531250
9004,21.484375
9005,23.437500
9006,23.437500
9007,25.390625
9008,27.343750
9009,29.296875
9010,31.250000
9011,31.250000
9012,33.203125
9013,35.156250
9014,35.156250
9015,37.109375
9016,39.062500
9017,39.062500
9018,41.015625
9019,42.968750
9020,44.921875
9021,44.921875
9022,46.875000
9023,48.828125
9024,48.828125
9025,50.781250
9026,50.781250
9027,52.734375
9028,52.734375
9029,54.687500
9030,54.687500
9031,56.640625
9032,56.640625
9033,58.593750
9034,58.593750
9035,60.546875
9036,60.546875
9037,60.546875
9038,64.453125
9039,62.500000
9040,64.453125
9041,64.453125
9042,64.453125
9043,64.453125
9044,66.406250
9045,66.406250
9046,68.359375
9047,68.359375
9048,68.359375
9049,68.359375
9050,68.359375
9051,68.359375
9052,70.312500
9053,70.312500
9054,70.312500
9055,70.312500
9056,70.312500
9057,70.312500
9058,70.312500
9059,72.265625
9060,72.265625
9061,70.312500
9062,70.312500
9063,70.312500
9064,70.312500
9065,70.312500
9066,70.312500
9067,70.312500
9068,70.312500
9069,70.312500
9070,70.312500
9071,68.359375
9072,68.359375
9073,68.359375
9074,68.359375
9075,68.359375
9076,66.406250
9077,66.406250
9078,66.406250
9079,64.453125
9080,64.453125
9081,64.453125
9082,64.453125
9083,62.500000
9084,62.500000
9085,60.546875
9086,60.546875
9087,60.546875
9088,58.593750
9089,56.640625
9090,56.640625
9091,56.640625
9092,54.687500
9093,54.687500
9094,52.734375
9095,50.781250
9096,50.781250
9097,50.781250
9098,48.828125
9099,46.875000
9100,46.875000
9101,44.921875
9102,42.968750
9103,41.015625
9104,41.015625
9105,39.062500
9106,37.109375
9107,37.109375
9108,35.156250
9109,33.203125
9110,33.203125
9111,31.250000
9112,29.296875
9113,27.343750
9114,25.390625
9115,25.390625
9116,23.437500
9117,21.484375
9118,19.531250
9119,17.578125
9120,15.625000
9121,15.625000
9122,13.671875
9123,11.718750
9124,9.765625
9125,7.812500
9126,5.859375
9127,3.906250
9128,3.906250
9129,1.953125
9130,0.000000
9131,-1.953125
9132,-3.906250
9133,-3.906250
9134,-5.859375
9135,-7.812500
9136,-9.765625
9137,-11.718750
9138,-13.671875
9139,-15.625000
9140,-17.578125
9141,-19.531250
9142,-21.484375
9143,-21.484375
9144,-23.437500
9145,-25.390625
9146,-27.343750
9147,-29.296875
9148,-29.296875
9149,-31.250000
9150,-35.156250
9151,-35.156250
9152,-37.109375
9153,-39.062500
9154,-41.015625
9155,-42.968750
9156,-44.921875
9157,-44.921875
9158,-48.828125
9159,-48.828125
9160,-50.781250
9161,-52.734375
9162,-52.734375
9163,-54.687500
9164,-56.640625
9165,-56.640625
9166,-58.593750
9167,-60.546875
9168,-60.546875
9169,-62.500000
9170,-64.453125
9171,-66.406250
9172,-66.406250
9173,-68.359375
9174,-70.312500
9175,-70.312500
9176,-70.312500
9177,-72.265625
9178,-72.265625
9179,-74.218750
9180,-74.218750
9181,-78.125000
9182,-76.171875
9183,-76.171875
9184,-78.125000
9185,-78.125000
9186,-78.125000
9187,-80.078125
9188,-80.078125
9189,-82.031250
9190,-82.031250
9191,-82.031250
9192,-82.031250
9193,-82.031250
9194,-83.984375
9195,-83.984375
9196,-83.984375
9197,-83.984375
9198,-83.984375
9199,-83.984375
9200,-83.984375
9201,-85.937500
9202,-83.984375
9203,-83.984375
9204,-83.984375
9205,-85.937500
9206,-85.937500
9207,-83.984375
9208,-83.984375
9209,-83.984375
9210,-83.984375
9211,-83.984375
9212,-83.984375
9213,-82.031250
9214,-82.031250
9215,-82.031250
9216,-82.031250
9217,-80.078125
9218,-80.078125
9219,-80.078125
9220,-80.078125
9221,-78.125000
9222,-78.125000
9223,-76.171875
9224,-76.171875
9225,-74.218750
9226,-74.218750
9227,-74.218750
9228,-72.265625
9229,-72.265625
9230,-70.312500
9231,-70.312500
9232,-68.359375
9233,-66.406250
9234,-66.406250
9235,-64.453125
9236,-64.453125
9237,-62.500000
9238,-60.546875
9239,-58.593750
9240,-58.593750
9241,-56.640625
9242,-56.640625
9243,-54.687500
9244,-52.734375
9245,-52.734375
9246,-48.828125
9247,-48.828125
9248,-46.875000
9249,-44.921875
9250,-42.968750
9251,-42.968750
9252,-41.015625
9253,-39.062500
9254,-37.109375
9255,-35.156250
9256,-33.203125
9257,-33.203125
9258,-31.250000
9259,-29.296875
9260,-27.343750
9261,-25.390625
9262,-23.437500
9263,-21.484375
9264,-21.484375
9265,-19.531250
9266,-15.625000
9267,-13.671875
9268,-13.671875
9269,-11.718750
9270,-9.765625
9271,-7.812500
9272,-5.859375
9273,-3.906250
9274,-1.953125
9275,-1.953125
9276,0.000000
9277,1.953125
9278,3.906250
9279,5.859375
9280,7.812500
9281,9.765625
9282,11.718750
9283,11.718750
9284,13.671875
9285,15.625000
9286,17.578125
9287,19.531250
9288,19.531250
9289,21.484375
9290,23.437500
9291,25.390625
9292,25.390625
9293,27.343750
9294,29.296875
9295,31.250000
9296,33.203125
9297,33.203125
9298,35.156250
9299,37.109375
9300,39.062500
9301,39.062500
9302,41.015625
9303,42.968750
9304,42.968750
9305,44.921875
9306,44.921875
9307,46.875000
9308,48.828125
9309,48.828125
9310,50.781250
9311,50.781250
9312,52.734375
9313,52.734375
9314,54.687500
9315,54.687500
9316,56.640625
9317,58.593750
9318,58.593750
9319,58.593750
9320,60.546875
9321,60.546875
9322,62.500000
9323,62.500000
9324,64.453125
9325,64.453125
9326,64.453125
9327,66.406250
9328,66.406250
9329,66.406250
9330,66.406250
9331,68.359375
9332,68.359375
9333,68.359375
9334,68.359375
9335,70.312500
9336,70.312500
9337,70.312500
9338,70.312500
9339,70.312500
9340,70.312500
9341,70.312500
9342,70.312500
9343,70.312500
9344,70.312500
9345,70.312500
9346,70.312500
9347,70.312500
9348,70.312500
9349,70.312500
9350,70.312500
9351,70.312500
9352,70.312500
9353,70.312500
9354,70.312500
9355,68.359375
9356,68.359375
9357,68.359375
9358,68.359375
9359,68.359375
9360,66.406250
9361,66.406250
9362,66.406250
9363,66.406250
9364,64.453125
9365,64.453125
9366,62.500000
9367,62.500000
9368,62.500000
9369,60.546875
9370,58.593750
9371,58.593750
9372,58.593750
9373,56.640625
9374,56.640625
9375,54.687500
9376,54.687500
9377,52.734375
9378,52.734375
9379,50.781250
9380,50.781250
9381,48.828125
9382,48.828125
9383,46.875000
9384,44.921875
9385,44.921875
9386,42.968750
9387,42.968750
9388,39.062500
9389,39.062500
9390,37.109375
9391,37.109375
9392,35.156250
9393,33.203125
9394,31.250000
9395,31.250000
9396,29.296875
9397,27.343750
9398,25.390625
9399,25.390625
9400,23.437500
9401,21.484375
9402,19.531250
9403,17.578125
9404,17.578125
9405,15.625000
9406,13.671875
9407,11.718750
9408,9.765625
9409,7.812500
9410,7.812500
9411,5.859375
9412,3.906250
9413,1.953125
9414,0.000000
9415,-1.953125
9416,-3.906250
9417,-5.859375
9418,-7.812500
9419,-7.812500
9420,-9.765625
9421,-11.718750
9422,-13.671875
9423,-15.625000
9424,-17.578125
9425,-19.531250
9426,-21.484375
9427,-21.484375
9428,-25.390625
9429,-25.390625
9430,-27.343750
9431,-29.296875
9432,-31.250000
9433,-33.203125
9434,-35.156250
9435,-37.109375
9436,-37.109375
9437,-39.062500
9438,-41.015625
9439,-42.968750
9440,-44.921875
9441,-46.875000
9442,-48.828125
9443,-48.828125
9444,-50.781250
9445,-52.734375
9446,-52.734375
9447,-54.687500
9448,-56.640625
9449,-58.593750
9450,-58.593750
9451,-60.546875
9452,-62.500000
9453,-62.500000
9454,-64.453125
9455,-64.453125
9456,-66.406250
9457,-68.359375
9458,-68.359375
9459,-70.312500
9460,-70.312500
9461,-72.265625
9462,-72.265625
9463,-74.218750
9464,-74.218750
9465,-76.171875
9466,-76.171875
9467,-78.125000
9468,-78.125000
9469,-78.125000
9470,-78.125000
9471,-80.078125
9472,-80.078125
9473,-82.031250
9474,-82.031250
9475,-82.031250
9476,-82.031250
9477,-83.984375
9478,-83.984375
9479,-83.984375
9480,-83.984375
9481,-83.984375
9482,-83.984375
9483,-83.984375
9484,-85.937500
9485,-83.984375
9486,-83.984375
9487,-85.937500
9488,-85.937500
9489,-85.937500
9490,-85.937500
9491,-83.984375
9492,-83.984375
9493,-83.984375
9494,-83.984375
9495,-83.984375
9496,-83.984375
9497,-83.984375
9498,-83.984375
9499,-82.031250
9500,-82.031250
9501,-82.031250
9502,-80.078125
9503,-80.078125
9504,-80.078125
9505,-78.125000
9506,-78.125000
9507,-76.171875
9508,-76.171875
9509,-74.218750
9510,-74.218750
9511,-74.218750
9512,-72.265625
9513,-70.312500
9514,-70.312500
9515,-70.312500
9516,-68.359375
9517,-66.406250
9518,-66.406250
9519,-64.453125
9520,-64.453125
9521,-62.500000
9522,-60.546875
9523,-58.593750
9524,-58.593750
9525,-56.640625
9526,-54.687500
9527,-52.734375
9528,-52.734375
9529,-50.781250
9530,-48.828125
9531,-48.828125
9532,-46.875000
9533,-44.921875
9534,-42.968750
9535,-42.968750
9536,-41.015625
9537,-39.062500
9538,-37.109375
9539,-35.156250
9540,-33.203125
9541,-31.250000
9542,-31.250000
9543,-27.343750
9544,-27.343750
9545,-25.390625
9546,-23.437500
9547,-21.484375
9548,-19.531250
9549,-17.578125
9550,-17.578125
9551,-15.625000
9552,-13.671875
9553,-11.718750
9554,-9.765625
9555,-7.812500
9556,-7.812500
9557,-5.859375
9558,-3.906250
9559,-1.953125
9560,0.000000
9561,1.953125
9562,3.906250
9563,5.859375
9564,7.812500
9565,9.765625
9566,9.765625
9567,11.718750
9568,13.671875
9569,15.625000
9570,17.578125
9571,19.531250
9572,19.531250
9573,23.437500
9574,23.437500
9575,25.390625
9576,27.343750
9577,29.296875
9578,29.296875
9579,31.250000
9580,33.203125
9581,33.203125
9582,35.156250
9583,37.109375
9584,39.062500
9585,39.062500
9586,41.015625
9587,42.968750
9588,44.921875
9589,44.921875
9590,46.875000
9591,46.875000
9592,48.828125
9593,50.781250
9594,50.781250
9595,52.734375
9596,52.734375
9597,54.687500
9598,56.640625
9599,56.640625
9600,56.640625
9601,58.593750
9602,58.593750
9603,60.546875
9604,60.546875
9605,62.500000
9606,62.500000
9607,64.453125
9608,64.453125
9609,64.453125
9610,64.453125
9611,66.406250
9612,66.406250
9613,68.359375
9614,66.406250
9615,68.359375
9616,68.359375
9617,68.359375
9618,68.359375
9619,70.312500
9620,68.359375
9621,70.312500
9622,70.312500
9623,70.312500
9624,70.312500
9625,70.312500
9626,70.312500
9627,72.265625
9628,70.312500
9629,70.312500
9630,72.265625
9631,70.312500
9632,70.312500
9633,70.312500
9634,70.312500
9635,70.312500
9636,70.312500
9637,68.359375
9638,70.312500
9639,70.312500
9640,70.312500
9641,68.359375
9642,68.359375
9643,66.406250
9644,66.406250
9645,66.406250
9646,66.406250
9647,66.406250
9648,64.453125
9649,64.453125
9650,64.453125
9651,62.500000
9652,62.500000
9653,62.500000
9654,60.546875
9655,60.546875
9656,58.593750
9657,58.593750
9658,56.640625
9659,56.640625
9660,54.687500
9661,54.687500
9662,52.734375
9663,50.781250
9664,50.781250
9665,48.828125
9666,48.828125
9667,46.875000
9668,46.875000
9669,44.921875
9670,42.968750
9671,42.968750
9672,41.015625
9673,39.062500
9674,37.109375
9675,37.109375
9676,35.156250
9677,35.156250
9678,31.250000
9679,31.250000
9680,29.296875
9681,27.343750
9682,27.343750
9683,25.390625
9684,23.437500
9685,21.484375
9686,19.531250
9687,17.578125
9688,17.578125
9689,15.625000
9690,13.671875
9691,11.718750
9692,9.765625
9693,7.812500
9694,7.812500
9695,5.859375
9696,1.953125
9697,1.953125
9698,0.000000
9699,-1.953125
9700,-3.906250
9701,-5.859375
9702,-5.859375
9703,-9.765625
9704,-9.765625
9705,-11.718750
9706,-13.671875
9707,-15.625000
9708,-17.578125
9709,-19.531250
9710,-19.531250
9711,-23.437500
9712,-23.437500
9713,-25.390625
9714,-27.343750
9715,-29.296875
9716,-31.250000
9717,-33.203125
9718,-35.156250
9719,-35.156250
9720,-37.109375
9721,-39.062500
9722,-41.015625
9723,-41.015625
9724,-42.968750
9725,-44.921875
9726,-46.875000
9727,-48.828125
9728,-48.828125
9729,-50.781250
9730,-52.734375
9731,-54.687500
9732,-54.687500
9733,-56.640625
9734,-58.593750
9735,-60.546875
9736,-60.546875
9737,-62.500000
9738,-62.500000
9739,-64.453125
9740,-66.406250
9741,-66.406250
9742,-68.359375
9743,-68.359375
9744,-70.312500
9745,-72.265625
9746,-72.265625
9747,-74.218750
9748,-74.218750
9749,-76.171875
9750,-76.171875
9751,-76.171875
9752,-78.125000
9753,-78.125000
9754,-80.078125
9755,-80.078125
9756,-80.078125
9757,-82.031250
9758,-82.031250
9759,-82.031250
9760,-82.031250
9761,-83.984375
9762,-83.984375
9763,-83.984375
9764,-85.937500
9765,-83.984375
9766,-83.984375
9767,-85.937500
9768,-85.937500
9769,-85.937500
9770,-85.937500
9771,-85.937500
9772,-85.937500
9773,-85.937500
9774,-85.937500
9775,-83.984375
9776,-83.984375
9777,-83.984375
9778,-83.984375
9779,-83.984375
9780,-83.984375
9781,-82.031250
9782,-82.031250
9783,-82.031250
9784,-82.031250
9785,-82.031250
9786,-80.078125
9787,-80.078125
9788,-78.125000
9789,-78.125000
9790,-78.125000
9791,-76.171875
9792,-76.171875
9793,-74.218750
9794,-74.218750
9795,-74.218750
9796,-72.265625
9797,-72.265625
9798,-70.312500
9799,-68.359375
9800,-68.359375
9801,-66.406250
9802,-66.406250
9803,-64.453125
9804,-62.500000
9805,-62.500000
9806,-60.546875
9807,-58.593750
9808,-58.593750
9809,-58.593750
9810,-56.640625
9811,-54.687500
9812,-52.734375
9813,-52.734375
9814,-50.781250
9815,-48.828125
9816,-46.875000
9817,-46.875000
9818,-44.921875
9819,-42.968750
9820,-41.015625
9821,-39.062500
9822,-37.109375
9823,-37.109375
9824,-35.156250
9825,-33.203125
9826,-31.250000
9827,-29.296875
9828,-27.343750
9829,-25.390625
9830,-23.437500
9831,-23.437500
9832,-21.484375
9833,-19.531250
9834,-17.578125
9835,-15.625000
9836,-13.671875
9837,-11.718750
9838,-9.765625
9839,-9.765625
9840,-5.859375
9841,-5.859375
9842,-3.906250
9843,-1.953125
9844,0.000000
9845,1.953125
9846,3.906250
9847,5.859375
9848,7.812500
9849,9.765625
9850,11.718750
9851,11.718750
9852,13.671875
9853,15.625000
9854,17.578125
9855,17.578125
9856,19.531250
9857,21.484375
9858,23.437500
9859,25.390625
9860,25.390625
9861,27.343750
9862,29.296875
9863,31.250000
9864,31.250000
9865,33.203125
9866,35.156250
9867,37.109375
9868,37.109375
9869,39.062500
9870,41.015625
9871,42.968750
9872,42.968750
9873,44.921875
9874,46.875000
9875,46.875000
9876,48.828125
9877,48.828125
9878,50.781250
9879,50.781250
9880,52.734375
9881,52.734375
9882,54.687500
9883,56.640625
9884,56.640625
9885,56.640625
9886,58.593750
9887,58.593750
9888,60.546875
9889,60.546875
9890,62.500000
9891,62.500000
9892,64.453125
9893,64.453125
9894,64.453125
9895,64.453125
9896,66.406250
9897,66.406250
9898,66.406250
9899,66.406250
9900,70.312500
9901,68.359375
9902,68.359375
9903,68.359375
9904,70.312500
9905,70.312500
9906,70.312500
9907,70.312500
9908,70.312500
9909,70.312500
9910,70.312500
9911,70.312500
9912,70.312500
9913,70.312500
9914,70.312500
9915,70.312500
9916,70.312500
9917,70.312500
9918,70.312500
9919,70.312500
9920,70.312500
9921,70.312500
9922,70.312500
9923,70.312500
9924,68.359375
9925,68.359375
9926,68.359375
9927,68.359375
9928,66.406250
9929,66.406250
9930,66.406250
9931,64.453125
9932,64.453125
9933,64.453125
9934,62.500000
9935,62.500000
9936,62.500000
9937,60.546875
9938,60.546875
9939,58.593750
9940,58.593750
9941,58.593750
9942,56.640625
9943,54.687500
9944,54.687500
9945,52.734375
9946,52.734375
9947,52.734375
9948,50.781250
9949,48.828125
9950,48.828125
9951,48.828125
9952,44.921875
9953,44.921875
9954,42.968750
9955,42.968750
9956,41.015625
9957,39.062500
9958,37.109375
9959,37.109375
9960,35.156250
9961,35.156250
9962,31.250000
9963,31.250000
9964,29.296875
9965,27.343750
9966,27.343750
9967,25.390625
9968,23.437500
9969,21.484375
9970,21.484375
9971,19.531250
9972,17.578125
9973,15.625000
9974,13.671875
9975,11.718750
9976,9.765625
9977,9.765625
9978,5.859375
9979,5.859375
9980,3.906250
9981,1.953125
9982,0.000000
9983,0.000000
9984,-3.906250
9985,-3.906250
9986,-5.859375
9987,-7.812500
9988,-9.765625
9989,-11.718750
9990,-13.671875
9991,-15.625000
9992,-17.578125
9993,-19.531250
9994,-21.484375
9995,-21.484375
9996,-23.437500
9997,-25.390625
9998,-27.343750
9999,-29.296875
10000,-31.250000
