Channel              :,CH1
Frequency            :,1.759kHz
Period               :,0.568ms
PK-PK                :,171.9mV
Probe attenuation    :,1X
Voltage per ADC value:,0.122070mV
Time interval        :,2.00000us

index,CH1_Voltage(mV)
1,54.687500
2,54.687500
3,52.734375
4,52.734375
5,50.781250
6,50.781250
7,48.828125
8,46.875000
9,44.921875
10,44.921875
11,42.968750
12,41.015625
13,41.015625
14,39.062500
15,37.109375
16,35.156250
17,35.156250
18,33.203125
19,31.250000
20,29.296875
21,27.343750
22,27.343750
23,25.390625
24,23.437500
25,21.484375
26,19.531250
27,19.531250
28,15.625000
29,13.671875
30,11.718750
31,11.718750
32,9.765625
33,7.812500
34,3.906250
35,3.906250
36,1.953125
37,0.000000
38,-1.953125
39,-3.906250
40,-5.859375
41,-7.812500
42,-7.812500
43,-9.765625
44,-11.718750
45,-11.718750
46,-15.625000
47,-17.578125
48,-19.531250
49,-21.484375
50,-23.437500
51,-25.390625
52,-27.343750
53,-29.296875
54,-31.250000
55,-33.203125
56,-35.156250
57,-35.156250
58,-37.109375
59,-39.062500
60,-41.015625
61,-42.968750
62,-44.921875
63,-46.875000
64,-48.828125
65,-48.828125
66,-50.781250
67,-52.734375
68,-54.687500
69,-54.687500
70,-58.593750
71,-58.593750
72,-60.546875
73,-60.546875
74,-62.500000
75,-64.453125
76,-66.406250
77,-66.406250
78,-68.359375
79,-70.312500
80,-72.265625
81,-72.265625
82,-72.265625
83,-74.218750
84,-76.171875
85,-76.171875
86,-78.125000
87,-78.125000
88,-80.078125
89,-80.078125
90,-82.031250
91,-82.031250
92,-82.031250
93,-83.984375
94,-83.984375
95,-85.937500
96,-85.937500
97,-85.937500
98,-85.937500
99,-85.937500
100,-87.890625
101,-87.890625
102,-87.890625
103,-89.843750
104,-89.843750
105,-89.843750
106,-89.843750
107,-89.843750
108,-89.843750
109,-89.843750
110,-89.843750
111,-89.843750
112,-89.843750
113,-89.843750
114,-89.843750
115,-89.843750
116,-89.843750
117,-89.843750
118,-89.843750
119,-87.890625
120,-87.890625
121,-87.890625
122,-87.890625
123,-85.937500
124,-85.937500
125,-85.937500
126,-83.984375
127,-83.984375
128,-83.984375
129,-82.031250
130,-82.031250
131,-82.031250
132,-80.078125
133,-78.125000
134,-78.125000
135,-76.171875
136,-76.171875
137,-76.171875
138,-72.265625
139,-72.265625
140,-70.312500
141,-70.312500
142,-68.359375
143,-68.359375
144,-66.406250
145,-64.453125
146,-62.500000
147,-60.546875
148,-60.546875
149,-60.546875
150,-58.593750
151,-56.640625
152,-54.687500
153,-52.734375
154,-50.781250
155,-48.828125
156,-48.828125
157,-46.875000
158,-44.921875
159,-42.968750
160,-41.015625
161,-39.062500
162,-39.062500
163,-37.109375
164,-35.156250
165,-33.203125
166,-31.250000
167,-29.296875
168,-27.343750
169,-27.343750
170,-23.437500
171,-23.437500
172,-21.484375
173,-19.531250
174,-17.578125
175,-15.625000
176,-13.671875
177,-11.718750
178,-9.765625
179,-7.812500
180,-5.859375
181,-3.906250
182,-1.953125
183,0.000000
184,0.000000
185,3.906250
186,3.906250
187,5.859375
188,7.812500
189,9.765625
190,11.718750
191,13.671875
192,15.625000
193,17.578125
194,19.531250
195,21.484375
196,21.484375
197,23.437500
198,25.390625
199,27.343750
200,29.296875
201,27.343750
202,33.203125
203,33.203125
204,35.156250
205,37.109375
206,39.062500
207,39.062500
208,41.015625
209,42.968750
210,42.968750
211,44.921875
212,46.875000
213,48.828125
214,48.828125
215,50.781250
216,50.781250
217,52.734375
218,54.687500
219,54.687500
220,56.640625
221,56.640625
222,58.593750
223,58.593750
224,60.546875
225,62.500000
226,62.500000
227,62.500000
228,62.500000
229,64.453125
230,66.406250
231,66.406250
232,66.406250
233,68.359375
234,68.359375
235,68.359375
236,68.359375
237,70.312500
238,70.312500
239,70.312500
240,70.312500
241,72.265625
242,72.265625
243,72.265625
244,72.265625
245,74.218750
246,74.218750
247,74.218750
248,74.218750
249,74.218750
250,74.218750
251,74.218750
252,74.218750
253,74.218750
254,74.218750
255,74.218750
256,74.218750
257,74.218750
258,74.218750
259,66.406250
260,72.265625
261,72.265625
262,72.265625
263,72.265625
264,72.265625
265,72.265625
266,70.312500
267,70.312500
268,70.312500
269,68.359375
270,70.312500
271,68.359375
272,68.359375
273,66.406250
274,66.406250
275,64.453125
276,64.453125
277,64.453125
278,62.500000
279,62.500000
280,60.546875
281,60.546875
282,58.593750
283,58.593750
284,58.593750
285,54.687500
286,54.687500
287,52.734375
288,52.734375
289,50.781250
290,50.781250
291,48.828125
292,46.875000
293,46.875000
294,44.921875
295,42.968750
296,41.015625
297,39.062500
298,39.062500
299,37.109375
300,35.156250
301,33.203125
302,33.203125
303,33.203125
304,29.296875
305,27.343750
306,27.343750
307,25.390625
308,23.437500
309,21.484375
310,19.531250
311,17.578125
312,15.625000
313,13.671875
314,13.671875
315,11.718750
316,7.812500
317,7.812500
318,5.859375
319,3.906250
320,1.953125
321,0.000000
322,-1.953125
323,-3.906250
324,-5.859375
325,-7.812500
326,-9.765625
327,-9.765625
328,-11.718750
329,-13.671875
330,-15.625000
331,-17.578125
332,-19.531250
333,-21.484375
334,-23.437500
335,-25.390625
336,-27.343750
337,-29.296875
338,-29.296875
339,-33.203125
340,-33.203125
341,-35.156250
342,-37.109375
343,-39.062500
344,-41.015625
345,-42.968750
346,-44.921875
347,-46.875000
348,-48.828125
349,-48.828125
350,-50.781250
351,-52.734375
352,-54.687500
353,-56.640625
354,-56.640625
355,-58.593750
356,-60.546875
357,-62.500000
358,-64.453125
359,-62.500000
360,-66.406250
361,-66.406250
362,-68.359375
363,-70.312500
364,-70.312500
365,-72.265625
366,-72.265625
367,-74.218750
368,-76.171875
369,-76.171875
370,-76.171875
371,-78.125000
372,-80.078125
373,-80.078125
374,-82.031250
375,-82.031250
376,-82.031250
377,-83.984375
378,-83.984375
379,-85.937500
380,-85.937500
381,-85.937500
382,-87.890625
383,-87.890625
384,-87.890625
385,-87.890625
386,-87.890625
387,-89.843750
388,-87.890625
389,-89.843750
390,-89.843750
391,-89.843750
392,-89.843750
393,-89.843750
394,-89.843750
395,-89.843750
396,-89.843750
397,-89.843750
398,-89.843750
399,-89.843750
400,-87.890625
401,-89.843750
402,-89.843750
403,-87.890625
404,-87.890625
405,-87.890625
406,-85.937500
407,-85.937500
408,-85.937500
409,-83.984375
410,-83.984375
411,-83.984375
412,-82.031250
413,-82.031250
414,-82.031250
415,-80.078125
416,-78.125000
417,-78.125000
418,-78.125000
419,-76.171875
420,-76.171875
421,-74.218750
422,-74.218750
423,-74.218750
424,-70.312500
425,-70.312500
426,-68.359375
427,-66.406250
428,-66.406250
429,-64.453125
430,-64.453125
431,-62.500000
432,-60.546875
433,-58.593750
434,-58.593750
435,-56.640625
436,-54.687500
437,-52.734375
438,-50.781250
439,-50.781250
440,-48.828125
441,-46.875000
442,-42.968750
443,-42.968750
444,-41.015625
445,-41.015625
446,-39.062500
447,-37.109375
448,-35.156250
449,-33.203125
450,-31.250000
451,-29.296875
452,-27.343750
453,-25.390625
454,-23.437500
455,-23.437500
456,-21.484375
457,-19.531250
458,-17.578125
459,-15.625000
460,-13.671875
461,-11.718750
462,-9.765625
463,-7.812500
464,-5.859375
465,-3.906250
466,-1.953125
467,-1.953125
468,0.000000
469,3.906250
470,3.906250
471,7.812500
472,7.812500
473,9.765625
474,11.718750
475,13.671875
476,15.625000
477,17.578125
478,19.531250
479,19.531250
480,23.437500
481,23.437500
482,25.390625
483,27.343750
484,27.343750
485,31.250000
486,31.250000
487,33.203125
488,35.156250
489,37.109375
490,39.062500
491,39.062500
492,41.015625
493,41.015625
494,42.968750
495,44.921875
496,46.875000
497,46.875000
498,48.828125
499,50.781250
500,50.781250
501,52.734375
502,52.734375
503,54.687500
504,56.640625
505,56.640625
506,58.593750
507,58.593750
508,60.546875
509,60.546875
510,62.500000
511,62.500000
512,62.500000
513,64.453125
514,64.453125
515,66.406250
516,66.406250
517,68.359375
518,68.359375
519,68.359375
520,70.312500
521,70.312500
522,70.312500
523,70.312500
524,72.265625
525,72.265625
526,72.265625
527,72.265625
528,72.265625
529,74.218750
530,74.218750
531,74.218750
532,74.218750
533,74.218750
534,74.218750
535,74.218750
536,74.218750
537,74.218750
538,74.218750
539,74.218750
540,74.218750
541,74.218750
542,74.218750
543,74.218750
544,72.265625
545,72.265625
546,72.265625
547,72.265625
548,72.265625
549,70.312500
550,70.312500
551,70.312500
552,70.312500
553,70.312500
554,68.359375
555,68.359375
556,68.359375
557,66.406250
558,66.406250
559,64.453125
560,64.453125
561,64.453125
562,62.500000
563,60.546875
564,60.546875
565,60.546875
566,58.593750
567,58.593750
568,56.640625
569,54.687500
570,54.687500
571,52.734375
572,52.734375
573,50.781250
574,50.781250
575,48.828125
576,46.875000
577,44.921875
578,44.921875
579,42.968750
580,41.015625
581,41.015625
582,39.062500
583,35.156250
584,37.109375
585,35.156250
586,33.203125
587,31.250000
588,29.296875
589,29.296875
590,27.343750
591,25.390625
592,23.437500
593,21.484375
594,19.531250
595,17.578125
596,17.578125
597,15.625000
598,13.671875
599,11.718750
600,9.765625
601,7.812500
602,5.859375
603,5.859375
604,3.906250
605,1.953125
606,-1.953125
607,-1.953125
608,-3.906250
609,-5.859375
610,-7.812500
611,-9.765625
612,-11.718750
613,-13.671875
614,-15.625000
615,-17.578125
616,-19.531250
617,-21.484375
618,-23.437500
619,-25.390625
620,-27.343750
621,-29.296875
622,-31.250000
623,-33.203125
624,-33.203125
625,-35.156250
626,-37.109375
627,-39.062500
628,-41.015625
629,-42.968750
630,-44.921875
631,-44.921875
632,-46.875000
633,-48.828125
634,-50.781250
635,-52.734375
636,-54.687500
637,-54.687500
638,-56.640625
639,-58.593750
640,-60.546875
641,-60.546875
642,-62.500000
643,-64.453125
644,-64.453125
645,-66.406250
646,-68.359375
647,-70.312500
648,-70.312500
649,-74.218750
650,-72.265625
651,-74.218750
652,-76.171875
653,-76.171875
654,-78.125000
655,-78.125000
656,-78.125000
657,-80.078125
658,-82.031250
659,-82.031250
660,-82.031250
661,-82.031250
662,-83.984375
663,-83.984375
664,-85.937500
665,-85.937500
666,-85.937500
667,-85.937500
668,-87.890625
669,-87.890625
670,-87.890625
671,-87.890625
672,-87.890625
673,-89.843750
674,-89.843750
675,-89.843750
676,-89.843750
677,-89.843750
678,-89.843750
679,-89.843750
680,-89.843750
681,-89.843750
682,-89.843750
683,-89.843750
684,-89.843750
685,-89.843750
686,-89.843750
687,-87.890625
688,-87.890625
689,-87.890625
690,-87.890625
691,-85.937500
692,-83.984375
693,-85.937500
694,-85.937500
695,-83.984375
696,-83.984375
697,-82.031250
698,-82.031250
699,-82.031250
700,-80.078125
701,-78.125000
702,-78.125000
703,-76.171875
704,-76.171875
705,-76.171875
706,-74.218750
707,-72.265625
708,-74.218750
709,-70.312500
710,-70.312500
711,-68.359375
712,-66.406250
713,-66.406250
714,-64.453125
715,-62.500000
716,-60.546875
717,-58.593750
718,-58.593750
719,-60.546875
720,-54.687500
721,-54.687500
722,-52.734375
723,-50.781250
724,-48.828125
725,-46.875000
726,-44.921875
727,-42.968750
728,-41.015625
729,-39.062500
730,-39.062500
731,-37.109375
732,-35.156250
733,-33.203125
734,-31.250000
735,-29.296875
736,-27.343750
737,-27.343750
738,-25.390625
739,-21.484375
740,-21.484375
741,-19.531250
742,-17.578125
743,-15.625000
744,-13.671875
745,-11.718750
746,-9.765625
747,-7.812500
748,-5.859375
749,-5.859375
750,-1.953125
751,0.000000
752,0.000000
753,1.953125
754,3.906250
755,7.812500
756,7.812500
757,9.765625
758,11.718750
759,13.671875
760,15.625000
761,15.625000
762,19.531250
763,19.531250
764,21.484375
765,23.437500
766,25.390625
767,27.343750
768,27.343750
769,29.296875
770,31.250000
771,33.203125
772,33.203125
773,37.109375
774,39.062500
775,39.062500
776,41.015625
777,41.015625
778,42.968750
779,44.921875
780,44.921875
781,46.875000
782,48.828125
783,48.828125
784,50.781250
785,52.734375
786,52.734375
787,54.687500
788,54.687500
789,56.640625
790,58.593750
791,60.546875
792,60.546875
793,60.546875
794,62.500000
795,62.500000
796,64.453125
797,64.453125
798,66.406250
799,66.406250
800,66.406250
801,68.359375
802,68.359375
803,68.359375
804,68.359375
805,70.312500
806,70.312500
807,72.265625
808,70.312500
809,72.265625
810,72.265625
811,72.265625
812,72.265625
813,72.265625
814,74.218750
815,74.218750
816,74.218750
817,74.218750
818,74.218750
819,74.218750
820,74.218750
821,74.218750
822,74.218750
823,74.218750
824,74.218750
825,72.265625
826,74.218750
827,74.218750
828,72.265625
829,72.265625
830,72.265625
831,72.265625
832,72.265625
833,70.312500
834,70.312500
835,70.312500
836,70.312500
837,68.359375
838,68.359375
839,68.359375
840,66.406250
841,66.406250
842,66.406250
843,64.453125
844,64.453125
845,64.453125
846,64.453125
847,62.500000
848,60.546875
849,60.546875
850,58.593750
851,58.593750
852,56.640625
853,56.640625
854,54.687500
855,52.734375
856,52.734375
857,50.781250
858,50.781250
859,48.828125
860,46.875000
861,46.875000
862,44.921875
863,42.968750
864,42.968750
865,41.015625
866,39.062500
867,37.109375
868,37.109375
869,35.156250
870,33.203125
871,31.250000
872,29.296875
873,27.343750
874,27.343750
875,25.390625
876,23.437500
877,21.484375
878,19.531250
879,19.531250
880,15.625000
881,15.625000
882,13.671875
883,11.718750
884,9.765625
885,7.812500
886,5.859375
887,3.906250
888,1.953125
889,0.000000
890,-1.953125
891,-3.906250
892,-5.859375
893,-5.859375
894,-7.812500
895,-9.765625
896,-11.718750
897,-13.671875
898,-15.625000
899,-17.578125
900,-19.531250
901,-21.484375
902,-23.437500
903,-25.390625
904,-27.343750
905,-29.296875
906,-31.250000
907,-33.203125
908,-35.156250
909,-37.109375
910,-37.109375
911,-39.062500
912,-41.015625
913,-42.968750
914,-44.921875
915,-44.921875
916,-46.875000
917,-48.828125
918,-50.781250
919,-52.734375
920,-52.734375
921,-56.640625
922,-56.640625
923,-58.593750
924,-60.546875
925,-60.546875
926,-62.500000
927,-64.453125
928,-66.406250
929,-68.359375
930,-68.359375
931,-68.359375
932,-70.312500
933,-72.265625
934,-72.265625
935,-74.218750
936,-74.218750
937,-74.218750
938,-78.125000
939,-78.125000
940,-78.125000
941,-80.078125
942,-82.031250
943,-82.031250
944,-83.984375
945,-83.984375
946,-83.984375
947,-85.937500
948,-85.937500
949,-85.937500
950,-87.890625
951,-87.890625
952,-89.843750
953,-87.890625
954,-87.890625
955,-89.843750
956,-89.843750
957,-89.843750
958,-89.843750
959,-89.843750
960,-89.843750
961,-89.843750
962,-91.796875
963,-89.843750
964,-89.843750
965,-89.843750
966,-89.843750
967,-89.843750
968,-89.843750
969,-87.890625
970,-89.843750
971,-87.890625
972,-87.890625
973,-87.890625
974,-87.890625
975,-87.890625
976,-85.937500
977,-85.937500
978,-83.984375
979,-83.984375
980,-83.984375
981,-82.031250
982,-82.031250
983,-82.031250
984,-80.078125
985,-80.078125
986,-78.125000
987,-76.171875
988,-76.171875
989,-76.171875
990,-74.218750
991,-72.265625
992,-72.265625
993,-70.312500
994,-68.359375
995,-68.359375
996,-66.406250
997,-64.453125
998,-64.453125
999,-62.500000
1000,-60.546875
1001,-60.546875
1002,-56.640625
1003,-56.640625
1004,-56.640625
1005,-52.734375
1006,-50.781250
1007,-50.781250
1008,-48.828125
1009,-48.828125
1010,-44.921875
1011,-44.921875
1012,-42.968750
1013,-41.015625
1014,-39.062500
1015,-37.109375
1016,-35.156250
1017,-33.203125
1018,-31.250000
1019,-31.250000
1020,-29.296875
1021,-27.343750
1022,-25.390625
1023,-23.437500
1024,-21.484375
1025,-19.531250
1026,-17.578125
1027,-15.625000
1028,-13.671875
1029,-13.671875
1030,-9.765625
1031,-7.812500
1032,-5.859375
1033,-3.906250
1034,-1.953125
1035,0.000000
1036,0.000000
1037,1.953125
1038,3.906250
1039,5.859375
1040,7.812500
1041,9.765625
1042,11.718750
1043,13.671875
1044,15.625000
1045,17.578125
1046,19.531250
1047,19.531250
1048,21.484375
1049,23.437500
1050,25.390625
1051,27.343750
1052,29.296875
1053,29.296875
1054,31.250000
1055,33.203125
1056,35.156250
1057,35.156250
1058,37.109375
1059,39.062500
1060,41.015625
1061,42.968750
1062,42.968750
1063,44.921875
1064,46.875000
1065,46.875000
1066,48.828125
1067,50.781250
1068,50.781250
1069,52.734375
1070,54.687500
1071,54.687500
1072,54.687500
1073,56.640625
1074,58.593750
1075,58.593750
1076,60.546875
1077,60.546875
1078,62.500000
1079,62.500000
1080,62.500000
1081,64.453125
1082,64.453125
1083,66.406250
1084,66.406250
1085,66.406250
1086,68.359375
1087,68.359375
1088,68.359375
1089,68.359375
1090,70.312500
1091,70.312500
1092,72.265625
1093,72.265625
1094,72.265625
1095,72.265625
1096,72.265625
1097,72.265625
1098,74.218750
1099,72.265625
1100,74.218750
1101,74.218750
1102,74.218750
1103,74.218750
1104,74.218750
1105,74.218750
1106,74.218750
1107,74.218750
1108,74.218750
1109,74.218750
1110,74.218750
1111,74.218750
1112,74.218750
1113,72.265625
1114,72.265625
1115,72.265625
1116,72.265625
1117,72.265625
1118,70.312500
1119,70.312500
1120,70.312500
1121,70.312500
1122,68.359375
1123,68.359375
1124,68.359375
1125,66.406250
1126,66.406250
1127,64.453125
1128,64.453125
1129,64.453125
1130,62.500000
1131,62.500000
1132,60.546875
1133,60.546875
1134,58.593750
1135,58.593750
1136,56.640625
1137,56.640625
1138,54.687500
1139,52.734375
1140,52.734375
1141,52.734375
1142,50.781250
1143,48.828125
1144,46.875000
1145,46.875000
1146,44.921875
1147,42.968750
1148,42.968750
1149,41.015625
1150,39.062500
1151,37.109375
1152,41.015625
1153,35.156250
1154,33.203125
1155,31.250000
1156,31.250000
1157,27.343750
1158,27.343750
1159,25.390625
1160,23.437500
1161,21.484375
1162,19.531250
1163,19.531250
1164,17.578125
1165,15.625000
1166,13.671875
1167,11.718750
1168,9.765625
1169,7.812500
1170,5.859375
1171,3.906250
1172,1.953125
1173,1.953125
1174,-1.953125
1175,-1.953125
1176,-3.906250
1177,-5.859375
1178,-7.812500
1179,-9.765625
1180,-11.718750
1181,-13.671875
1182,-15.625000
1183,-17.578125
1184,-19.531250
1185,-21.484375
1186,-21.484375
1187,-25.390625
1188,-25.390625
1189,-27.343750
1190,-29.296875
1191,-31.250000
1192,-33.203125
1193,-35.156250
1194,-37.109375
1195,-39.062500
1196,-41.015625
1197,-41.015625
1198,-44.921875
1199,-44.921875
1200,-46.875000
1201,-50.781250
1202,-50.781250
1203,-52.734375
1204,-54.687500
1205,-54.687500
1206,-56.640625
1207,-58.593750
1208,-60.546875
1209,-60.546875
1210,-62.500000
1211,-64.453125
1212,-64.453125
1213,-66.406250
1214,-68.359375
1215,-68.359375
1216,-70.312500
1217,-72.265625
1218,-74.218750
1219,-74.218750
1220,-76.171875
1221,-76.171875
1222,-76.171875
1223,-80.078125
1224,-80.078125
1225,-80.078125
1226,-80.078125
1227,-82.031250
1228,-82.031250
1229,-83.984375
1230,-83.984375
1231,-82.031250
1232,-87.890625
1233,-85.937500
1234,-85.937500
1235,-87.890625
1236,-87.890625
1237,-87.890625
1238,-87.890625
1239,-87.890625
1240,-87.890625
1241,-89.843750
1242,-89.843750
1243,-89.843750
1244,-89.843750
1245,-89.843750
1246,-89.843750
1247,-89.843750
1248,-89.843750
1249,-89.843750
1250,-89.843750
1251,-89.843750
1252,-89.843750
1253,-89.843750
1254,-87.890625
1255,-87.890625
1256,-87.890625
1257,-87.890625
1258,-87.890625
1259,-87.890625
1260,-85.937500
1261,-85.937500
1262,-83.984375
1263,-83.984375
1264,-83.984375
1265,-82.031250
1266,-82.031250
1267,-80.078125
1268,-80.078125
1269,-80.078125
1270,-78.125000
1271,-78.125000
1272,-76.171875
1273,-76.171875
1274,-74.218750
1275,-72.265625
1276,-72.265625
1277,-70.312500
1278,-70.312500
1279,-68.359375
1280,-68.359375
1281,-66.406250
1282,-64.453125
1283,-62.500000
1284,-62.500000
1285,-60.546875
1286,-58.593750
1287,-56.640625
1288,-54.687500
1289,-54.687500
1290,-52.734375
1291,-50.781250
1292,-48.828125
1293,-46.875000
1294,-46.875000
1295,-44.921875
1296,-42.968750
1297,-41.015625
1298,-39.062500
1299,-37.109375
1300,-35.156250
1301,-33.203125
1302,-31.250000
1303,-31.250000
1304,-29.296875
1305,-27.343750
1306,-25.390625
1307,-23.437500
1308,-21.484375
1309,-19.531250
1310,-17.578125
1311,-15.625000
1312,-13.671875
1313,-11.718750
1314,-11.718750
1315,-7.812500
1316,-5.859375
1317,-5.859375
1318,-3.906250
1319,-1.953125
1320,0.000000
1321,1.953125
1322,3.906250
1323,5.859375
1324,7.812500
1325,9.765625
1326,11.718750
1327,13.671875
1328,15.625000
1329,17.578125
1330,17.578125
1331,19.531250
1332,21.484375
1333,23.437500
1334,25.390625
1335,27.343750
1336,29.296875
1337,29.296875
1338,31.250000
1339,33.203125
1340,35.156250
1341,35.156250
1342,37.109375
1343,39.062500
1344,41.015625
1345,41.015625
1346,42.968750
1347,42.968750
1348,44.921875
1349,46.875000
1350,48.828125
1351,50.781250
1352,50.781250
1353,52.734375
1354,52.734375
1355,54.687500
1356,54.687500
1357,56.640625
1358,58.593750
1359,58.593750
1360,60.546875
1361,60.546875
1362,62.500000
1363,62.500000
1364,64.453125
1365,64.453125
1366,64.453125
1367,66.406250
1368,66.406250
1369,68.359375
1370,68.359375
1371,68.359375
1372,70.312500
1373,70.312500
1374,70.312500
1375,70.312500
1376,70.312500
1377,72.265625
1378,72.265625
1379,72.265625
1380,74.218750
1381,74.218750
1382,72.265625
1383,74.218750
1384,74.218750
1385,74.218750
1386,74.218750
1387,74.218750
1388,74.218750
1389,74.218750
1390,74.218750
1391,76.171875
1392,74.218750
1393,74.218750
1394,74.218750
1395,74.218750
1396,70.312500
1397,74.218750
1398,72.265625
1399,72.265625
1400,70.312500
1401,72.265625
1402,70.312500
1403,70.312500
1404,70.312500
1405,70.312500
1406,68.359375
1407,68.359375
1408,68.359375
1409,66.406250
1410,66.406250
1411,66.406250
1412,64.453125
1413,64.453125
1414,62.500000
1415,62.500000
1416,64.453125
1417,60.546875
1418,58.593750
1419,58.593750
1420,56.640625
1421,56.640625
1422,54.687500
1423,52.734375
1424,52.734375
1425,50.781250
1426,50.781250
1427,48.828125
1428,46.875000
1429,46.875000
1430,44.921875
1431,42.968750
1432,42.968750
1433,41.015625
1434,39.062500
1435,37.109375
1436,37.109375
1437,35.156250
1438,35.156250
1439,31.250000
1440,31.250000
1441,29.296875
1442,27.343750
1443,25.390625
1444,23.437500
1445,21.484375
1446,21.484375
1447,19.531250
1448,17.578125
1449,15.625000
1450,13.671875
1451,11.718750
1452,9.765625
1453,7.812500
1454,7.812500
1455,3.906250
1456,1.953125
1457,1.953125
1458,-1.953125
1459,-1.953125
1460,-3.906250
1461,-5.859375
1462,-7.812500
1463,-9.765625
1464,-11.718750
1465,-17.578125
1466,-17.578125
1467,-17.578125
1468,-19.531250
1469,-21.484375
1470,-23.437500
1471,-25.390625
1472,-27.343750
1473,-27.343750
1474,-29.296875
1475,-31.250000
1476,-33.203125
1477,-35.156250
1478,-37.109375
1479,-39.062500
1480,-41.015625
1481,-42.968750
1482,-44.921875
1483,-44.921875
1484,-48.828125
1485,-48.828125
1486,-50.781250
1487,-52.734375
1488,-52.734375
1489,-54.687500
1490,-56.640625
1491,-58.593750
1492,-60.546875
1493,-60.546875
1494,-62.500000
1495,-64.453125
1496,-66.406250
1497,-66.406250
1498,-68.359375
1499,-68.359375
1500,-70.312500
1501,-72.265625
1502,-72.265625
1503,-74.218750
1504,-74.218750
1505,-76.171875
1506,-76.171875
1507,-78.125000
1508,-78.125000
1509,-80.078125
1510,-80.078125
1511,-82.031250
1512,-82.031250
1513,-83.984375
1514,-83.984375
1515,-83.984375
1516,-85.937500
1517,-85.937500
1518,-87.890625
1519,-85.937500
1520,-87.890625
1521,-87.890625
1522,-87.890625
1523,-89.843750
1524,-89.843750
1525,-89.843750
1526,-89.843750
1527,-89.843750
1528,-89.843750
1529,-89.843750
1530,-89.843750
1531,-89.843750
1532,-89.843750
1533,-89.843750
1534,-89.843750
1535,-89.843750
1536,-89.843750
1537,-89.843750
1538,-89.843750
1539,-89.843750
1540,-87.890625
1541,-87.890625
1542,-87.890625
1543,-85.937500
1544,-85.937500
1545,-85.937500
1546,-85.937500
1547,-83.984375
1548,-83.984375
1549,-82.031250
1550,-82.031250
1551,-82.031250
1552,-80.078125
1553,-80.078125
1554,-78.125000
1555,-78.125000
1556,-76.171875
1557,-76.171875
1558,-74.218750
1559,-74.218750
1560,-72.265625
1561,-70.312500
1562,-68.359375
1563,-68.359375
1564,-66.406250
1565,-64.453125
1566,-64.453125
1567,-62.500000
1568,-60.546875
1569,-60.546875
1570,-58.593750
1571,-56.640625
1572,-54.687500
1573,-54.687500
1574,-50.781250
1575,-50.781250
1576,-48.828125
1577,-48.828125
1578,-44.921875
1579,-44.921875
1580,-42.968750
1581,-41.015625
1582,-39.062500
1583,-37.109375
1584,-37.109375
1585,-33.203125
1586,-31.250000
1587,-29.296875
1588,-29.296875
1589,-27.343750
1590,-25.390625
1591,-21.484375
1592,-23.437500
1593,-19.531250
1594,-17.578125
1595,-15.625000
1596,-13.671875
1597,-13.671875
1598,-11.718750
1599,-7.812500
1600,-5.859375
1601,-3.906250
1602,-3.906250
1603,-1.953125
1604,0.000000
1605,1.953125
1606,3.906250
1607,3.906250
1608,7.812500
1609,9.765625
1610,11.718750
1611,13.671875
1612,13.671875
1613,15.625000
1614,17.578125
1615,19.531250
1616,21.484375
1617,23.437500
1618,25.390625
1619,27.343750
1620,27.343750
1621,29.296875
1622,31.250000
1623,33.203125
1624,35.156250
1625,39.062500
1626,37.109375
1627,39.062500
1628,41.015625
1629,41.015625
1630,42.968750
1631,44.921875
1632,44.921875
1633,46.875000
1634,48.828125
1635,50.781250
1636,50.781250
1637,52.734375
1638,52.734375
1639,54.687500
1640,54.687500
1641,56.640625
1642,58.593750
1643,58.593750
1644,60.546875
1645,60.546875
1646,62.500000
1647,62.500000
1648,64.453125
1649,64.453125
1650,66.406250
1651,64.453125
1652,66.406250
1653,66.406250
1654,68.359375
1655,68.359375
1656,68.359375
1657,68.359375
1658,70.312500
1659,70.312500
1660,72.265625
1661,72.265625
1662,72.265625
1663,72.265625
1664,72.265625
1665,72.265625
1666,72.265625
1667,72.265625
1668,74.218750
1669,74.218750
1670,74.218750
1671,74.218750
1672,74.218750
1673,74.218750
1674,74.218750
1675,74.218750
1676,74.218750
1677,74.218750
1678,74.218750
1679,74.218750
1680,72.265625
1681,72.265625
1682,74.218750
1683,72.265625
1684,72.265625
1685,72.265625
1686,72.265625
1687,70.312500
1688,70.312500
1689,68.359375
1690,68.359375
1691,68.359375
1692,68.359375
1693,68.359375
1694,66.406250
1695,66.406250
1696,64.453125
1697,64.453125
1698,62.500000
1699,62.500000
1700,60.546875
1701,60.546875
1702,60.546875
1703,58.593750
1704,56.640625
1705,56.640625
1706,54.687500
1707,54.687500
1708,52.734375
1709,50.781250
1710,50.781250
1711,48.828125
1712,48.828125
1713,46.875000
1714,44.921875
1715,42.968750
1716,42.968750
1717,41.015625
1718,39.062500
1719,37.109375
1720,35.156250
1721,35.156250
1722,33.203125
1723,31.250000
1724,29.296875
1725,27.343750
1726,27.343750
1727,25.390625
1728,23.437500
1729,21.484375
1730,19.531250
1731,19.531250
1732,17.578125
1733,15.625000
1734,11.718750
1735,13.671875
1736,9.765625
1737,7.812500
1738,5.859375
1739,5.859375
1740,3.906250
1741,1.953125
1742,0.000000
1743,-1.953125
1744,-3.906250
1745,-5.859375
1746,-7.812500
1747,-9.765625
1748,-11.718750
1749,-13.671875
1750,-15.625000
1751,-17.578125
1752,-17.578125
1753,-19.531250
1754,-23.437500
1755,-25.390625
1756,-25.390625
1757,-27.343750
1758,-29.296875
1759,-31.250000
1760,-33.203125
1761,-35.156250
1762,-37.109375
1763,-39.062500
1764,-39.062500
1765,-41.015625
1766,-44.921875
1767,-44.921875
1768,-46.875000
1769,-48.828125
1770,-50.781250
1771,-52.734375
1772,-52.734375
1773,-54.687500
1774,-56.640625
1775,-58.593750
1776,-58.593750
1777,-60.546875
1778,-62.500000
1779,-62.500000
1780,-64.453125
1781,-66.406250
1782,-68.359375
1783,-68.359375
1784,-70.312500
1785,-72.265625
1786,-74.218750
1787,-72.265625
1788,-76.171875
1789,-76.171875
1790,-76.171875
1791,-78.125000
1792,-80.078125
1793,-80.078125
1794,-80.078125
1795,-82.031250
1796,-89.843750
1797,-83.984375
1798,-83.984375
1799,-83.984375
1800,-85.937500
1801,-85.937500
1802,-87.890625
1803,-87.890625
1804,-87.890625
1805,-87.890625
1806,-87.890625
1807,-87.890625
1808,-89.843750
1809,-89.843750
1810,-89.843750
1811,-89.843750
1812,-89.843750
1813,-89.843750
1814,-89.843750
1815,-89.843750
1816,-89.843750
1817,-89.843750
1818,-89.843750
1819,-89.843750
1820,-89.843750
1821,-89.843750
1822,-89.843750
1823,-89.843750
1824,-87.890625
1825,-87.890625
1826,-87.890625
1827,-85.937500
1828,-85.937500
1829,-85.937500
1830,-83.984375
1831,-83.984375
1832,-83.984375
1833,-82.031250
1834,-82.031250
1835,-82.031250
1836,-80.078125
1837,-80.078125
1838,-78.125000
1839,-78.125000
1840,-76.171875
1841,-74.218750
1842,-74.218750
1843,-74.218750
1844,-72.265625
1845,-70.312500
1846,-70.312500
1847,-68.359375
1848,-66.406250
1849,-70.312500
1850,-64.453125
1851,-62.500000
1852,-62.500000
1853,-56.640625
1854,-58.593750
1855,-56.640625
1856,-56.640625
1857,-54.687500
1858,-52.734375
1859,-50.781250
1860,-48.828125
1861,-48.828125
1862,-46.875000
1863,-42.968750
1864,-42.968750
1865,-41.015625
1866,-39.062500
1867,-37.109375
1868,-35.156250
1869,-33.203125
1870,-31.250000
1871,-31.250000
1872,-29.296875
1873,-27.343750
1874,-25.390625
1875,-23.437500
1876,-21.484375
1877,-19.531250
1878,-17.578125
1879,-15.625000
1880,-13.671875
1881,-11.718750
1882,-11.718750
1883,-9.765625
1884,-5.859375
1885,-5.859375
1886,-3.906250
1887,-1.953125
1888,0.000000
1889,1.953125
1890,5.859375
1891,5.859375
1892,7.812500
1893,9.765625
1894,11.718750
1895,11.718750
1896,15.625000
1897,15.625000
1898,17.578125
1899,19.531250
1900,21.484375
1901,23.437500
1902,25.390625
1903,27.343750
1904,27.343750
1905,29.296875
1906,31.250000
1907,33.203125
1908,33.203125
1909,35.156250
1910,37.109375
1911,39.062500
1912,41.015625
1913,41.015625
1914,42.968750
1915,44.921875
1916,44.921875
1917,46.875000
1918,48.828125
1919,48.828125
1920,50.781250
1921,50.781250
1922,50.781250
1923,54.687500
1924,54.687500
1925,56.640625
1926,56.640625
1927,58.593750
1928,58.593750
1929,60.546875
1930,62.500000
1931,62.500000
1932,62.500000
1933,64.453125
1934,64.453125
1935,66.406250
1936,66.406250
1937,66.406250
1938,66.406250
1939,68.359375
1940,68.359375
1941,70.312500
1942,70.312500
1943,70.312500
1944,70.312500
1945,72.265625
1946,72.265625
1947,72.265625
1948,72.265625
1949,72.265625
1950,74.218750
1951,74.218750
1952,74.218750
1953,74.218750
1954,74.218750
1955,74.218750
1956,74.218750
1957,74.218750
1958,74.218750
1959,74.218750
1960,74.218750
1961,74.218750
1962,74.218750
1963,74.218750
1964,74.218750
1965,74.218750
1966,72.265625
1967,72.265625
1968,72.265625
1969,72.265625
1970,72.265625
1971,70.312500
1972,70.312500
1973,70.312500
1974,68.359375
1975,68.359375
1976,68.359375
1977,66.406250
1978,66.406250
1979,66.406250
1980,64.453125
1981,64.453125
1982,62.500000
1983,62.500000
1984,60.546875
1985,60.546875
1986,58.593750
1987,58.593750
1988,56.640625
1989,54.687500
1990,54.687500
1991,52.734375
1992,52.734375
1993,50.781250
1994,52.734375
1995,48.828125
1996,48.828125
1997,44.921875
1998,44.921875
1999,44.921875
2000,41.015625
2001,41.015625
2002,39.062500
2003,39.062500
2004,33.203125
2005,35.156250
2006,33.203125
2007,31.250000
2008,31.250000
2009,29.296875
2010,27.343750
2011,25.390625
2012,25.390625
2013,23.437500
2014,21.484375
2015,19.531250
2016,17.578125
2017,15.625000
2018,13.671875
2019,11.718750
2020,11.718750
2021,7.812500
2022,7.812500
2023,5.859375
2024,3.906250
2025,1.953125
2026,0.000000
2027,-1.953125
2028,-3.906250
2029,-5.859375
2030,-7.812500
2031,-9.765625
2032,-11.718750
2033,-11.718750
2034,-13.671875
2035,-15.625000
2036,-19.531250
2037,-19.531250
2038,-21.484375
2039,-23.437500
2040,-25.390625
2041,-27.343750
2042,-29.296875
2043,-31.250000
2044,-33.203125
2045,-35.156250
2046,-37.109375
2047,-37.109375
2048,-41.015625
2049,-42.968750
2050,-42.968750
2051,-44.921875
2052,-46.875000
2053,-48.828125
2054,-46.875000
2055,-52.734375
2056,-52.734375
2057,-56.640625
2058,-56.640625
2059,-58.593750
2060,-58.593750
2061,-60.546875
2062,-62.500000
2063,-64.453125
2064,-66.406250
2065,-66.406250
2066,-68.359375
2067,-68.359375
2068,-66.406250
2069,-72.265625
2070,-74.218750
2071,-74.218750
2072,-74.218750
2073,-76.171875
2074,-76.171875
2075,-78.125000
2076,-78.125000
2077,-80.078125
2078,-80.078125
2079,-82.031250
2080,-82.031250
2081,-83.984375
2082,-83.984375
2083,-85.937500
2084,-85.937500
2085,-85.937500
2086,-85.937500
2087,-85.937500
2088,-87.890625
2089,-87.890625
2090,-89.843750
2091,-89.843750
2092,-87.890625
2093,-89.843750
2094,-89.843750
2095,-89.843750
2096,-89.843750
2097,-89.843750
2098,-89.843750
2099,-89.843750
2100,-89.843750
2101,-89.843750
2102,-89.843750
2103,-89.843750
2104,-87.890625
2105,-89.843750
2106,-89.843750
2107,-89.843750
2108,-87.890625
2109,-87.890625
2110,-87.890625
2111,-85.937500
2112,-85.937500
2113,-85.937500
2114,-85.937500
2115,-83.984375
2116,-83.984375
2117,-83.984375
2118,-82.031250
2119,-82.031250
2120,-80.078125
2121,-80.078125
2122,-80.078125
2123,-78.125000
2124,-76.171875
2125,-76.171875
2126,-74.218750
2127,-74.218750
2128,-72.265625
2129,-70.312500
2130,-70.312500
2131,-68.359375
2132,-66.406250
2133,-66.406250
2134,-64.453125
2135,-62.500000
2136,-62.500000
2137,-60.546875
2138,-58.593750
2139,-58.593750
2140,-56.640625
2141,-54.687500
2142,-52.734375
2143,-50.781250
2144,-48.828125
2145,-48.828125
2146,-46.875000
2147,-44.921875
2148,-42.968750
2149,-41.015625
2150,-39.062500
2151,-37.109375
2152,-35.156250
2153,-33.203125
2154,-31.250000
2155,-31.250000
2156,-29.296875
2157,-25.390625
2158,-25.390625
2159,-23.437500
2160,-21.484375
2161,-19.531250
2162,-17.578125
2163,-15.625000
2164,-13.671875
2165,-11.718750
2166,-11.718750
2167,-9.765625
2168,-7.812500
2169,-5.859375
2170,-3.906250
2171,-1.953125
2172,0.000000
2173,1.953125
2174,3.906250
2175,5.859375
2176,7.812500
2177,7.812500
2178,9.765625
2179,13.671875
2180,13.671875
2181,15.625000
2182,17.578125
2183,19.531250
2184,21.484375
2185,23.437500
2186,23.437500
2187,25.390625
2188,27.343750
2189,29.296875
2190,31.250000
2191,33.203125
2192,33.203125
2193,35.156250
2194,37.109375
2195,39.062500
2196,39.062500
2197,42.968750
2198,41.015625
2199,42.968750
2200,44.921875
2201,44.921875
2202,48.828125
2203,48.828125
2204,50.781250
2205,50.781250
2206,52.734375
2207,54.687500
2208,54.687500
2209,56.640625
2210,56.640625
2211,58.593750
2212,60.546875
2213,62.500000
2214,60.546875
2215,62.500000
2216,62.500000
2217,64.453125
2218,64.453125
2219,62.500000
2220,66.406250
2221,66.406250
2222,68.359375
2223,68.359375
2224,68.359375
2225,68.359375
2226,70.312500
2227,70.312500
2228,70.312500
2229,72.265625
2230,72.265625
2231,72.265625
2232,72.265625
2233,72.265625
2234,72.265625
2235,72.265625
2236,72.265625
2237,74.218750
2238,74.218750
2239,74.218750
2240,74.218750
2241,74.218750
2242,74.218750
2243,74.218750
2244,74.218750
2245,74.218750
2246,74.218750
2247,72.265625
2248,72.265625
2249,72.265625
2250,72.265625
2251,72.265625
2252,72.265625
2253,70.312500
2254,72.265625
2255,70.312500
2256,70.312500
2257,70.312500
2258,68.359375
2259,68.359375
2260,68.359375
2261,66.406250
2262,66.406250
2263,66.406250
2264,64.453125
2265,64.453125
2266,62.500000
2267,62.500000
2268,60.546875
2269,60.546875
2270,60.546875
2271,58.593750
2272,58.593750
2273,54.687500
2274,56.640625
2275,54.687500
2276,52.734375
2277,52.734375
2278,50.781250
2279,48.828125
2280,46.875000
2281,46.875000
2282,44.921875
2283,48.828125
2284,42.968750
2285,41.015625
2286,39.062500
2287,39.062500
2288,37.109375
2289,35.156250
2290,35.156250
2291,33.203125
2292,31.250000
2293,29.296875
2294,27.343750
2295,23.437500
2296,23.437500
2297,23.437500
2298,21.484375
2299,19.531250
2300,17.578125
2301,15.625000
2302,13.671875
2303,11.718750
2304,9.765625
2305,7.812500
2306,7.812500
2307,3.906250
2308,3.906250
2309,1.953125
2310,0.000000
2311,-1.953125
2312,-3.906250
2313,-5.859375
2314,-7.812500
2315,-9.765625
2316,-11.718750
2317,-11.718750
2318,-15.625000
2319,-17.578125
2320,-19.531250
2321,-19.531250
2322,-21.484375
2323,-25.390625
2324,-25.390625
2325,-29.296875
2326,-29.296875
2327,-31.250000
2328,-33.203125
2329,-35.156250
2330,-35.156250
2331,-39.062500
2332,-39.062500
2333,-41.015625
2334,-37.109375
2335,-44.921875
2336,-46.875000
2337,-48.828125
2338,-50.781250
2339,-52.734375
2340,-52.734375
2341,-54.687500
2342,-56.640625
2343,-58.593750
2344,-58.593750
2345,-60.546875
2346,-60.546875
2347,-62.500000
2348,-64.453125
2349,-66.406250
2350,-66.406250
2351,-68.359375
2352,-70.312500
2353,-72.265625
2354,-72.265625
2355,-74.218750
2356,-74.218750
2357,-76.171875
2358,-78.125000
2359,-78.125000
2360,-78.125000
2361,-80.078125
2362,-80.078125
2363,-80.078125
2364,-82.031250
2365,-82.031250
2366,-83.984375
2367,-83.984375
2368,-85.937500
2369,-85.937500
2370,-85.937500
2371,-87.890625
2372,-87.890625
2373,-87.890625
2374,-87.890625
2375,-89.843750
2376,-89.843750
2377,-87.890625
2378,-89.843750
2379,-89.843750
2380,-89.843750
2381,-89.843750
2382,-89.843750
2383,-89.843750
2384,-91.796875
2385,-89.843750
2386,-89.843750
2387,-89.843750
2388,-87.890625
2389,-91.796875
2390,-82.031250
2391,-89.843750
2392,-87.890625
2393,-87.890625
2394,-87.890625
2395,-87.890625
2396,-85.937500
2397,-85.937500
2398,-83.984375
2399,-83.984375
2400,-83.984375
2401,-83.984375
2402,-82.031250
2403,-82.031250
2404,-82.031250
2405,-80.078125
2406,-78.125000
2407,-78.125000
2408,-78.125000
2409,-76.171875
2410,-74.218750
2411,-72.265625
2412,-72.265625
2413,-72.265625
2414,-68.359375
2415,-68.359375
2416,-68.359375
2417,-66.406250
2418,-64.453125
2419,-62.500000
2420,-62.500000
2421,-60.546875
2422,-58.593750
2423,-56.640625
2424,-56.640625
2425,-54.687500
2426,-52.734375
2427,-50.781250
2428,-48.828125
2429,-48.828125
2430,-46.875000
2431,-44.921875
2432,-44.921875
2433,-41.015625
2434,-39.062500
2435,-39.062500
2436,-33.203125
2437,-35.156250
2438,-33.203125
2439,-31.250000
2440,-33.203125
2441,-27.343750
2442,-23.437500
2443,-23.437500
2444,-23.437500
2445,-21.484375
2446,-17.578125
2447,-17.578125
2448,-15.625000
2449,-13.671875
2450,-11.718750
2451,-9.765625
2452,-7.812500
2453,-5.859375
2454,-3.906250
2455,-1.953125
2456,0.000000
2457,1.953125
2458,1.953125
2459,5.859375
2460,5.859375
2461,7.812500
2462,9.765625
2463,11.718750
2464,13.671875
2465,15.625000
2466,17.578125
2467,19.531250
2468,21.484375
2469,23.437500
2470,25.390625
2471,25.390625
2472,27.343750
2473,29.296875
2474,31.250000
2475,33.203125
2476,33.203125
2477,35.156250
2478,37.109375
2479,39.062500
2480,39.062500
2481,41.015625
2482,42.968750
2483,44.921875
2484,44.921875
2485,46.875000
2486,46.875000
2487,48.828125
2488,50.781250
2489,52.734375
2490,52.734375
2491,52.734375
2492,56.640625
2493,56.640625
2494,56.640625
2495,58.593750
2496,58.593750
2497,60.546875
2498,60.546875
2499,62.500000
2500,62.500000
2501,64.453125
2502,64.453125
2503,66.406250
2504,66.406250
2505,64.453125
2506,68.359375
2507,68.359375
2508,68.359375
2509,70.312500
2510,70.312500
2511,70.312500
2512,70.312500
2513,70.312500
2514,72.265625
2515,72.265625
2516,72.265625
2517,72.265625
2518,72.265625
2519,74.218750
2520,74.218750
2521,74.218750
2522,74.218750
2523,74.218750
2524,74.218750
2525,74.218750
2526,74.218750
2527,74.218750
2528,74.218750
2529,74.218750
2530,74.218750
2531,74.218750
2532,74.218750
2533,72.265625
2534,74.218750
2535,70.312500
2536,72.265625
2537,72.265625
2538,70.312500
2539,70.312500
2540,70.312500
2541,70.312500
2542,70.312500
2543,68.359375
2544,68.359375
2545,68.359375
2546,66.406250
2547,66.406250
2548,64.453125
2549,64.453125
2550,64.453125
2551,62.500000
2552,62.500000
2553,60.546875
2554,60.546875
2555,58.593750
2556,58.593750
2557,56.640625
2558,54.687500
2559,52.734375
2560,52.734375
2561,52.734375
2562,50.781250
2563,48.828125
2564,46.875000
2565,46.875000
2566,44.921875
2567,44.921875
2568,41.015625
2569,41.015625
2570,41.015625
2571,37.109375
2572,37.109375
2573,35.156250
2574,33.203125
2575,33.203125
2576,29.296875
2577,29.296875
2578,27.343750
2579,25.390625
2580,23.437500
2581,23.437500
2582,19.531250
2583,19.531250
2584,17.578125
2585,17.578125
2586,13.671875
2587,11.718750
2588,11.718750
2589,9.765625
2590,7.812500
2591,5.859375
2592,3.906250
2593,1.953125
2594,0.000000
2595,-1.953125
2596,-1.953125
2597,-5.859375
2598,-7.812500
2599,-9.765625
2600,-11.718750
2601,-11.718750
2602,-13.671875
2603,-15.625000
2604,-17.578125
2605,-19.531250
2606,-21.484375
2607,-23.437500
2608,-25.390625
2609,-27.343750
2610,-29.296875
2611,-31.250000
2612,-33.203125
2613,-33.203125
2614,-37.109375
2615,-37.109375
2616,-39.062500
2617,-41.015625
2618,-42.968750
2619,-44.921875
2620,-46.875000
2621,-48.828125
2622,-46.875000
2623,-50.781250
2624,-52.734375
2625,-54.687500
2626,-56.640625
2627,-56.640625
2628,-58.593750
2629,-60.546875
2630,-62.500000
2631,-64.453125
2632,-64.453125
2633,-66.406250
2634,-68.359375
2635,-68.359375
2636,-70.312500
2637,-72.265625
2638,-72.265625
2639,-74.218750
2640,-74.218750
2641,-76.171875
2642,-76.171875
2643,-78.125000
2644,-78.125000
2645,-80.078125
2646,-80.078125
2647,-82.031250
2648,-82.031250
2649,-83.984375
2650,-82.031250
2651,-83.984375
2652,-85.937500
2653,-85.937500
2654,-85.937500
2655,-85.937500
2656,-87.890625
2657,-87.890625
2658,-87.890625
2659,-89.843750
2660,-89.843750
2661,-89.843750
2662,-89.843750
2663,-89.843750
2664,-89.843750
2665,-89.843750
2666,-89.843750
2667,-89.843750
2668,-89.843750
2669,-89.843750
2670,-89.843750
2671,-89.843750
2672,-89.843750
2673,-89.843750
2674,-87.890625
2675,-87.890625
2676,-87.890625
2677,-87.890625
2678,-87.890625
2679,-87.890625
2680,-85.937500
2681,-85.937500
2682,-85.937500
2683,-85.937500
2684,-83.984375
2685,-82.031250
2686,-82.031250
2687,-82.031250
2688,-80.078125
2689,-80.078125
2690,-80.078125
2691,-78.125000
2692,-78.125000
2693,-76.171875
2694,-74.218750
2695,-74.218750
2696,-72.265625
2697,-72.265625
2698,-70.312500
2699,-68.359375
2700,-68.359375
2701,-66.406250
2702,-64.453125
2703,-64.453125
2704,-62.500000
2705,-60.546875
2706,-60.546875
2707,-58.593750
2708,-56.640625
2709,-56.640625
2710,-52.734375
2711,-52.734375
2712,-50.781250
2713,-48.828125
2714,-46.875000
2715,-44.921875
2716,-42.968750
2717,-41.015625
2718,-39.062500
2719,-39.062500
2720,-37.109375
2721,-35.156250
2722,-33.203125
2723,-31.250000
2724,-29.296875
2725,-27.343750
2726,-25.390625
2727,-23.437500
2728,-21.484375
2729,-19.531250
2730,-17.578125
2731,-17.578125
2732,-15.625000
2733,-13.671875
2734,-11.718750
2735,-9.765625
2736,-7.812500
2737,-5.859375
2738,-3.906250
2739,-1.953125
2740,0.000000
2741,0.000000
2742,3.906250
2743,5.859375
2744,7.812500
2745,9.765625
2746,11.718750
2747,11.718750
2748,13.671875
2749,15.625000
2750,17.578125
2751,19.531250
2752,19.531250
2753,23.437500
2754,23.437500
2755,25.390625
2756,27.343750
2757,29.296875
2758,31.250000
2759,31.250000
2760,33.203125
2761,35.156250
2762,37.109375
2763,39.062500
2764,39.062500
2765,41.015625
2766,42.968750
2767,39.062500
2768,44.921875
2769,46.875000
2770,46.875000
2771,48.828125
2772,50.781250
2773,52.734375
2774,52.734375
2775,52.734375
2776,54.687500
2777,56.640625
2778,54.687500
2779,56.640625
2780,58.593750
2781,60.546875
2782,60.546875
2783,62.500000
2784,64.453125
2785,64.453125
2786,64.453125
2787,64.453125
2788,66.406250
2789,66.406250
2790,66.406250
2791,70.312500
2792,68.359375
2793,72.265625
2794,70.312500
2795,70.312500
2796,72.265625
2797,72.265625
2798,72.265625
2799,72.265625
2800,74.218750
2801,74.218750
2802,72.265625
2803,74.218750
2804,74.218750
2805,74.218750
2806,74.218750
2807,74.218750
2808,74.218750
2809,74.218750
2810,72.265625
2811,74.218750
2812,74.218750
2813,74.218750
2814,72.265625
2815,74.218750
2816,72.265625
2817,72.265625
2818,74.218750
2819,72.265625
2820,72.265625
2821,72.265625
2822,72.265625
2823,70.312500
2824,70.312500
2825,70.312500
2826,68.359375
2827,66.406250
2828,74.218750
2829,66.406250
2830,66.406250
2831,64.453125
2832,64.453125
2833,64.453125
2834,64.453125
2835,62.500000
2836,60.546875
2837,60.546875
2838,60.546875
2839,58.593750
2840,56.640625
2841,56.640625
2842,54.687500
2843,54.687500
2844,52.734375
2845,50.781250
2846,50.781250
2847,48.828125
2848,48.828125
2849,46.875000
2850,44.921875
2851,44.921875
2852,42.968750
2853,41.015625
2854,39.062500
2855,39.062500
2856,39.062500
2857,35.156250
2858,33.203125
2859,31.250000
2860,31.250000
2861,29.296875
2862,27.343750
2863,25.390625
2864,25.390625
2865,23.437500
2866,21.484375
2867,19.531250
2868,19.531250
2869,15.625000
2870,13.671875
2871,11.718750
2872,11.718750
2873,9.765625
2874,7.812500
2875,5.859375
2876,3.906250
2877,1.953125
2878,0.000000
2879,-1.953125
2880,-3.906250
2881,-5.859375
2882,-7.812500
2883,-9.765625
2884,-11.718750
2885,-11.718750
2886,-13.671875
2887,-17.578125
2888,-21.484375
2889,-19.531250
2890,-21.484375
2891,-23.437500
2892,-25.390625
2893,-27.343750
2894,-29.296875
2895,-31.250000
2896,-33.203125
2897,-35.156250
2898,-37.109375
2899,-39.062500
2900,-39.062500
2901,-41.015625
2902,-42.968750
2903,-44.921875
2904,-46.875000
2905,-48.828125
2906,-50.781250
2907,-50.781250
2908,-52.734375
2909,-54.687500
2910,-56.640625
2911,-56.640625
2912,-58.593750
2913,-60.546875
2914,-62.500000
2915,-62.500000
2916,-64.453125
2917,-64.453125
2918,-66.406250
2919,-68.359375
2920,-70.312500
2921,-70.312500
2922,-72.265625
2923,-74.218750
2924,-74.218750
2925,-74.218750
2926,-76.171875
2927,-78.125000
2928,-78.125000
2929,-80.078125
2930,-80.078125
2931,-82.031250
2932,-82.031250
2933,-82.031250
2934,-83.984375
2935,-82.031250
2936,-85.937500
2937,-85.937500
2938,-85.937500
2939,-87.890625
2940,-87.890625
2941,-87.890625
2942,-87.890625
2943,-89.843750
2944,-89.843750
2945,-89.843750
2946,-89.843750
2947,-89.843750
2948,-89.843750
2949,-89.843750
2950,-89.843750
2951,-91.796875
2952,-89.843750
2953,-89.843750
2954,-89.843750
2955,-89.843750
2956,-89.843750
2957,-89.843750
2958,-89.843750
2959,-89.843750
2960,-87.890625
2961,-87.890625
2962,-85.937500
2963,-87.890625
2964,-85.937500
2965,-85.937500
2966,-85.937500
2967,-83.984375
2968,-83.984375
2969,-83.984375
2970,-82.031250
2971,-82.031250
2972,-82.031250
2973,-80.078125
2974,-78.125000
2975,-78.125000
2976,-76.171875
2977,-76.171875
2978,-74.218750
2979,-72.265625
2980,-74.218750
2981,-72.265625
2982,-70.312500
2983,-68.359375
2984,-66.406250
2985,-64.453125
2986,-64.453125
2987,-64.453125
2988,-62.500000
2989,-60.546875
2990,-58.593750
2991,-58.593750
2992,-56.640625
2993,-54.687500
2994,-52.734375
2995,-52.734375
2996,-50.781250
2997,-48.828125
2998,-46.875000
2999,-44.921875
3000,-42.968750
3001,-41.015625
3002,-41.015625
3003,-39.062500
3004,-37.109375
3005,-35.156250
3006,-33.203125
3007,-31.250000
3008,-29.296875
3009,-27.343750
3010,-27.343750
3011,-25.390625
3012,-21.484375
3013,-21.484375
3014,-19.531250
3015,-17.578125
3016,-15.625000
3017,-13.671875
3018,-11.718750
3019,-9.765625
3020,-7.812500
3021,-5.859375
3022,-3.906250
3023,-3.906250
3024,0.000000
3025,1.953125
3026,1.953125
3027,5.859375
3028,5.859375
3029,9.765625
3030,7.812500
3031,11.718750
3032,13.671875
3033,15.625000
3034,15.625000
3035,17.578125
3036,19.531250
3037,21.484375
3038,23.437500
3039,25.390625
3040,27.343750
3041,29.296875
3042,29.296875
3043,31.250000
3044,33.203125
3045,35.156250
3046,37.109375
3047,37.109375
3048,39.062500
3049,39.062500
3050,42.968750
3051,42.968750
3052,44.921875
3053,44.921875
3054,46.875000
3055,48.828125
3056,50.781250
3057,50.781250
3058,52.734375
3059,52.734375
3060,54.687500
3061,54.687500
3062,56.640625
3063,58.593750
3064,58.593750
3065,60.546875
3066,60.546875
3067,62.500000
3068,62.500000
3069,62.500000
3070,64.453125
3071,64.453125
3072,66.406250
3073,66.406250
3074,68.359375
3075,68.359375
3076,68.359375
3077,70.312500
3078,68.359375
3079,70.312500
3080,70.312500
3081,72.265625
3082,74.218750
3083,74.218750
3084,72.265625
3085,72.265625
3086,74.218750
3087,72.265625
3088,74.218750
3089,72.265625
3090,74.218750
3091,74.218750
3092,72.265625
3093,74.218750
3094,74.218750
3095,74.218750
3096,72.265625
3097,74.218750
3098,74.218750
3099,72.265625
3100,72.265625
3101,72.265625
3102,72.265625
3103,72.265625
3104,72.265625
3105,72.265625
3106,70.312500
3107,70.312500
3108,70.312500
3109,68.359375
3110,68.359375
3111,68.359375
3112,68.359375
3113,66.406250
3114,66.406250
3115,66.406250
3116,64.453125
3117,64.453125
3118,64.453125
3119,62.500000
3120,62.500000
3121,60.546875
3122,60.546875
3123,58.593750
3124,56.640625
3125,56.640625
3126,56.640625
3127,54.687500
3128,54.687500
3129,52.734375
3130,50.781250
3131,48.828125
3132,48.828125
3133,46.875000
3134,44.921875
3135,44.921875
3136,42.968750
3137,41.015625
3138,39.062500
3139,39.062500
3140,37.109375
3141,35.156250
3142,33.203125
3143,33.203125
3144,31.250000
3145,29.296875
3146,27.343750
3147,25.390625
3148,25.390625
3149,23.437500
3150,21.484375
3151,19.531250
3152,19.531250
3153,15.625000
3154,13.671875
3155,13.671875
3156,9.765625
3157,7.812500
3158,7.812500
3159,5.859375
3160,3.906250
3161,1.953125
3162,0.000000
3163,-1.953125
3164,-1.953125
3165,-5.859375
3166,-7.812500
3167,-9.765625
3168,-9.765625
3169,-11.718750
3170,-15.625000
3171,-17.578125
3172,-17.578125
3173,-19.531250
3174,-21.484375
3175,-25.390625
3176,-25.390625
3177,-27.343750
3178,-29.296875
3179,-35.156250
3180,-31.250000
3181,-39.062500
3182,-35.156250
3183,-37.109375
3184,-39.062500
3185,-41.015625
3186,-42.968750
3187,-44.921875
3188,-42.968750
3189,-48.828125
3190,-48.828125
3191,-50.781250
3192,-52.734375
3193,-58.593750
3194,-54.687500
3195,-56.640625
3196,-58.593750
3197,-60.546875
3198,-62.500000
3199,-62.500000
3200,-64.453125
3201,-66.406250
3202,-68.359375
3203,-68.359375
3204,-70.312500
3205,-70.312500
3206,-72.265625
3207,-74.218750
3208,-74.218750
3209,-76.171875
3210,-76.171875
3211,-78.125000
3212,-78.125000
3213,-80.078125
3214,-80.078125
3215,-82.031250
3216,-82.031250
3217,-83.984375
3218,-83.984375
3219,-83.984375
3220,-85.937500
3221,-85.937500
3222,-87.890625
3223,-87.890625
3224,-87.890625
3225,-87.890625
3226,-87.890625
3227,-89.843750
3228,-89.843750
3229,-89.843750
3230,-89.843750
3231,-89.843750
3232,-89.843750
3233,-89.843750
3234,-89.843750
3235,-89.843750
3236,-89.843750
3237,-89.843750
3238,-89.843750
3239,-89.843750
3240,-91.796875
3241,-89.843750
3242,-89.843750
3243,-87.890625
3244,-87.890625
3245,-87.890625
3246,-87.890625
3247,-87.890625
3248,-85.937500
3249,-83.984375
3250,-85.937500
3251,-85.937500
3252,-83.984375
3253,-82.031250
3254,-82.031250
3255,-82.031250
3256,-80.078125
3257,-80.078125
3258,-78.125000
3259,-78.125000
3260,-78.125000
3261,-76.171875
3262,-76.171875
3263,-74.218750
3264,-74.218750
3265,-70.312500
3266,-70.312500
3267,-70.312500
3268,-68.359375
3269,-66.406250
3270,-66.406250
3271,-64.453125
3272,-62.500000
3273,-62.500000
3274,-60.546875
3275,-58.593750
3276,-56.640625
3277,-54.687500
3278,-52.734375
3279,-52.734375
3280,-50.781250
3281,-48.828125
3282,-46.875000
3283,-46.875000
3284,-42.968750
3285,-41.015625
3286,-41.015625
3287,-39.062500
3288,-37.109375
3289,-35.156250
3290,-33.203125
3291,-31.250000
3292,-29.296875
3293,-27.343750
3294,-27.343750
3295,-23.437500
3296,-23.437500
3297,-21.484375
3298,-19.531250
3299,-17.578125
3300,-15.625000
3301,-13.671875
3302,-11.718750
3303,-9.765625
3304,-7.812500
3305,-5.859375
3306,-3.906250
3307,-1.953125
3308,0.000000
3309,1.953125
3310,3.906250
3311,3.906250
3312,5.859375
3313,7.812500
3314,9.765625
3315,11.718750
3316,13.671875
3317,13.671875
3318,17.578125
3319,19.531250
3320,19.531250
3321,21.484375
3322,23.437500
3323,25.390625
3324,27.343750
3325,29.296875
3326,29.296875
3327,31.250000
3328,33.203125
3329,35.156250
3330,37.109375
3331,39.062500
3332,39.062500
3333,41.015625
3334,39.062500
3335,42.968750
3336,44.921875
3337,44.921875
3338,46.875000
3339,46.875000
3340,48.828125
3341,50.781250
3342,52.734375
3343,52.734375
3344,52.734375
3345,54.687500
3346,56.640625
3347,58.593750
3348,58.593750
3349,58.593750
3350,60.546875
3351,60.546875
3352,62.500000
3353,62.500000
3354,64.453125
3355,64.453125
3356,66.406250
3357,66.406250
3358,66.406250
3359,68.359375
3360,68.359375
3361,70.312500
3362,70.312500
3363,70.312500
3364,70.312500
3365,74.218750
3366,70.312500
3367,72.265625
3368,72.265625
3369,72.265625
3370,72.265625
3371,74.218750
3372,74.218750
3373,68.359375
3374,74.218750
3375,74.218750
3376,74.218750
3377,74.218750
3378,74.218750
3379,74.218750
3380,74.218750
3381,72.265625
3382,74.218750
3383,74.218750
3384,72.265625
3385,72.265625
3386,72.265625
3387,72.265625
3388,72.265625
3389,70.312500
3390,72.265625
3391,70.312500
3392,70.312500
3393,70.312500
3394,68.359375
3395,68.359375
3396,68.359375
3397,66.406250
3398,66.406250
3399,64.453125
3400,64.453125
3401,64.453125
3402,62.500000
3403,62.500000
3404,60.546875
3405,60.546875
3406,62.500000
3407,58.593750
3408,56.640625
3409,56.640625
3410,54.687500
3411,52.734375
3412,52.734375
3413,50.781250
3414,50.781250
3415,50.781250
3416,48.828125
3417,46.875000
3418,44.921875
3419,44.921875
3420,42.968750
3421,41.015625
3422,39.062500
3423,39.062500
3424,37.109375
3425,35.156250
3426,33.203125
3427,33.203125
3428,31.250000
3429,29.296875
3430,27.343750
3431,27.343750
3432,25.390625
3433,21.484375
3434,21.484375
3435,19.531250
3436,17.578125
3437,15.625000
3438,15.625000
3439,13.671875
3440,9.765625
3441,9.765625
3442,7.812500
3443,5.859375
3444,3.906250
3445,1.953125
3446,0.000000
3447,-1.953125
3448,-3.906250
3449,-5.859375
3450,-7.812500
3451,-9.765625
3452,-9.765625
3453,-11.718750
3454,-13.671875
3455,-15.625000
3456,-17.578125
3457,-19.531250
3458,-21.484375
3459,-23.437500
3460,-25.390625
3461,-25.390625
3462,-29.296875
3463,-31.250000
3464,-33.203125
3465,-33.203125
3466,-37.109375
3467,-37.109375
3468,-39.062500
3469,-41.015625
3470,-42.968750
3471,-44.921875
3472,-46.875000
3473,-46.875000
3474,-50.781250
3475,-50.781250
3476,-52.734375
3477,-54.687500
3478,-56.640625
3479,-56.640625
3480,-58.593750
3481,-60.546875
3482,-62.500000
3483,-60.546875
3484,-64.453125
3485,-66.406250
3486,-66.406250
3487,-68.359375
3488,-70.312500
3489,-70.312500
3490,-72.265625
3491,-72.265625
3492,-74.218750
3493,-76.171875
3494,-76.171875
3495,-78.125000
3496,-78.125000
3497,-80.078125
3498,-80.078125
3499,-82.031250
3500,-82.031250
3501,-82.031250
3502,-83.984375
3503,-83.984375
3504,-83.984375
3505,-85.937500
3506,-85.937500
3507,-85.937500
3508,-87.890625
3509,-87.890625
3510,-87.890625
3511,-89.843750
3512,-87.890625
3513,-87.890625
3514,-89.843750
3515,-89.843750
3516,-89.843750
3517,-89.843750
3518,-89.843750
3519,-89.843750
3520,-89.843750
3521,-89.843750
3522,-89.843750
3523,-89.843750
3524,-89.843750
3525,-89.843750
3526,-89.843750
3527,-87.890625
3528,-89.843750
3529,-87.890625
3530,-87.890625
3531,-85.937500
3532,-85.937500
3533,-87.890625
3534,-85.937500
3535,-85.937500
3536,-83.984375
3537,-83.984375
3538,-83.984375
3539,-82.031250
3540,-80.078125
3541,-80.078125
3542,-80.078125
3543,-78.125000
3544,-76.171875
3545,-76.171875
3546,-76.171875
3547,-74.218750
3548,-72.265625
3549,-72.265625
3550,-70.312500
3551,-70.312500
3552,-68.359375
3553,-68.359375
3554,-64.453125
3555,-64.453125
3556,-62.500000
3557,-62.500000
3558,-60.546875
3559,-58.593750
3560,-56.640625
3561,-54.687500
3562,-52.734375
3563,-52.734375
3564,-50.781250
3565,-48.828125
3566,-46.875000
3567,-44.921875
3568,-42.968750
3569,-42.968750
3570,-41.015625
3571,-39.062500
3572,-37.109375
3573,-35.156250
3574,-33.203125
3575,-31.250000
3576,-29.296875
3577,-31.250000
3578,-27.343750
3579,-25.390625
3580,-23.437500
3581,-21.484375
3582,-19.531250
3583,-15.625000
3584,-15.625000
3585,-13.671875
3586,-11.718750
3587,-9.765625
3588,-7.812500
3589,-7.812500
3590,-5.859375
3591,-1.953125
3592,0.000000
3593,0.000000
3594,1.953125
3595,3.906250
3596,5.859375
3597,7.812500
3598,9.765625
3599,11.718750
3600,13.671875
3601,15.625000
3602,15.625000
3603,17.578125
3604,21.484375
3605,21.484375
3606,23.437500
3607,25.390625
3608,25.390625
3609,27.343750
3610,29.296875
3611,31.250000
3612,33.203125
3613,35.156250
3614,35.156250
3615,37.109375
3616,39.062500
3617,41.015625
3618,42.968750
3619,42.968750
3620,44.921875
3621,46.875000
3622,46.875000
3623,48.828125
3624,50.781250
3625,50.781250
3626,52.734375
3627,52.734375
3628,54.687500
3629,54.687500
3630,56.640625
3631,58.593750
3632,58.593750
3633,60.546875
3634,60.546875
3635,60.546875
3636,62.500000
3637,64.453125
3638,64.453125
3639,64.453125
3640,66.406250
3641,66.406250
3642,68.359375
3643,68.359375
3644,68.359375
3645,68.359375
3646,68.359375
3647,70.312500
3648,70.312500
3649,70.312500
3650,70.312500
3651,72.265625
3652,72.265625
3653,72.265625
3654,72.265625
3655,74.218750
3656,72.265625
3657,72.265625
3658,74.218750
3659,74.218750
3660,70.312500
3661,74.218750
3662,74.218750
3663,74.218750
3664,74.218750
3665,74.218750
3666,74.218750
3667,74.218750
3668,74.218750
3669,72.265625
3670,72.265625
3671,72.265625
3672,72.265625
3673,70.312500
3674,72.265625
3675,70.312500
3676,70.312500
3677,68.359375
3678,68.359375
3679,68.359375
3680,68.359375
3681,66.406250
3682,66.406250
3683,66.406250
3684,64.453125
3685,64.453125
3686,62.500000
3687,62.500000
3688,62.500000
3689,60.546875
3690,60.546875
3691,58.593750
3692,58.593750
3693,56.640625
3694,56.640625
3695,54.687500
3696,54.687500
3697,52.734375
3698,50.781250
3699,50.781250
3700,48.828125
3701,48.828125
3702,44.921875
3703,44.921875
3704,42.968750
3705,42.968750
3706,41.015625
3707,39.062500
3708,37.109375
3709,37.109375
3710,35.156250
3711,33.203125
3712,31.250000
3713,29.296875
3714,27.343750
3715,27.343750
3716,23.437500
3717,23.437500
3718,19.531250
3719,19.531250
3720,17.578125
3721,15.625000
3722,15.625000
3723,13.671875
3724,11.718750
3725,9.765625
3726,7.812500
3727,5.859375
3728,3.906250
3729,1.953125
3730,0.000000
3731,-1.953125
3732,-3.906250
3733,-5.859375
3734,-5.859375
3735,-7.812500
3736,-9.765625
3737,-11.718750
3738,-13.671875
3739,-15.625000
3740,-17.578125
3741,-19.531250
3742,-21.484375
3743,-23.437500
3744,-23.437500
3745,-29.296875
3746,-29.296875
3747,-29.296875
3748,-33.203125
3749,-33.203125
3750,-35.156250
3751,-37.109375
3752,-35.156250
3753,-41.015625
3754,-42.968750
3755,-44.921875
3756,-44.921875
3757,-50.781250
3758,-48.828125
3759,-50.781250
3760,-52.734375
3761,-52.734375
3762,-54.687500
3763,-56.640625
3764,-58.593750
3765,-60.546875
3766,-60.546875
3767,-62.500000
3768,-60.546875
3769,-64.453125
3770,-68.359375
3771,-68.359375
3772,-70.312500
3773,-70.312500
3774,-72.265625
3775,-72.265625
3776,-74.218750
3777,-76.171875
3778,-76.171875
3779,-72.265625
3780,-78.125000
3781,-78.125000
3782,-80.078125
3783,-82.031250
3784,-82.031250
3785,-82.031250
3786,-83.984375
3787,-83.984375
3788,-83.984375
3789,-85.937500
3790,-85.937500
3791,-85.937500
3792,-87.890625
3793,-87.890625
3794,-89.843750
3795,-87.890625
3796,-87.890625
3797,-89.843750
3798,-89.843750
3799,-89.843750
3800,-89.843750
3801,-89.843750
3802,-93.750000
3803,-89.843750
3804,-89.843750
3805,-89.843750
3806,-89.843750
3807,-89.843750
3808,-89.843750
3809,-89.843750
3810,-89.843750
3811,-89.843750
3812,-87.890625
3813,-89.843750
3814,-87.890625
3815,-87.890625
3816,-87.890625
3817,-85.937500
3818,-85.937500
3819,-85.937500
3820,-82.031250
3821,-83.984375
3822,-82.031250
3823,-82.031250
3824,-80.078125
3825,-80.078125
3826,-80.078125
3827,-78.125000
3828,-78.125000
3829,-76.171875
3830,-74.218750
3831,-74.218750
3832,-72.265625
3833,-72.265625
3834,-70.312500
3835,-68.359375
3836,-68.359375
3837,-66.406250
3838,-66.406250
3839,-62.500000
3840,-62.500000
3841,-60.546875
3842,-60.546875
3843,-58.593750
3844,-58.593750
3845,-54.687500
3846,-54.687500
3847,-52.734375
3848,-50.781250
3849,-48.828125
3850,-46.875000
3851,-44.921875
3852,-44.921875
3853,-42.968750
3854,-41.015625
3855,-39.062500
3856,-37.109375
3857,-35.156250
3858,-35.156250
3859,-31.250000
3860,-29.296875
3861,-29.296875
3862,-27.343750
3863,-25.390625
3864,-23.437500
3865,-19.531250
3866,-19.531250
3867,-17.578125
3868,-15.625000
3869,-13.671875
3870,-11.718750
3871,-9.765625
3872,-7.812500
3873,-5.859375
3874,-3.906250
3875,-3.906250
3876,-1.953125
3877,0.000000
3878,1.953125
3879,3.906250
3880,7.812500
3881,7.812500
3882,9.765625
3883,11.718750
3884,13.671875
3885,15.625000
3886,15.625000
3887,19.531250
3888,19.531250
3889,21.484375
3890,23.437500
3891,25.390625
3892,27.343750
3893,27.343750
3894,29.296875
3895,31.250000
3896,33.203125
3897,35.156250
3898,35.156250
3899,37.109375
3900,39.062500
3901,39.062500
3902,41.015625
3903,42.968750
3904,44.921875
3905,44.921875
3906,46.875000
3907,46.875000
3908,50.781250
3909,50.781250
3910,52.734375
3911,52.734375
3912,52.734375
3913,54.687500
3914,56.640625
3915,58.593750
3916,58.593750
3917,60.546875
3918,60.546875
3919,60.546875
3920,62.500000
3921,64.453125
3922,64.453125
3923,64.453125
3924,66.406250
3925,66.406250
3926,66.406250
3927,66.406250
3928,68.359375
3929,68.359375
3930,70.312500
3931,70.312500
3932,70.312500
3933,70.312500
3934,72.265625
3935,72.265625
3936,72.265625
3937,68.359375
3938,74.218750
3939,72.265625
3940,72.265625
3941,74.218750
3942,74.218750
3943,74.218750
3944,74.218750
3945,74.218750
3946,74.218750
3947,74.218750
3948,74.218750
3949,74.218750
3950,74.218750
3951,74.218750
3952,74.218750
3953,74.218750
3954,72.265625
3955,72.265625
3956,72.265625
3957,70.312500
3958,72.265625
3959,70.312500
3960,70.312500
3961,70.312500
3962,70.312500
3963,70.312500
3964,68.359375
3965,66.406250
3966,66.406250
3967,68.359375
3968,66.406250
3969,64.453125
3970,64.453125
3971,62.500000
3972,62.500000
3973,60.546875
3974,60.546875
3975,58.593750
3976,58.593750
3977,54.687500
3978,56.640625
3979,54.687500
3980,52.734375
3981,52.734375
3982,50.781250
3983,46.875000
3984,48.828125
3985,46.875000
3986,46.875000
3987,44.921875
3988,42.968750
3989,39.062500
3990,41.015625
3991,39.062500
3992,37.109375
3993,37.109375
3994,35.156250
3995,33.203125
3996,31.250000
3997,29.296875
3998,27.343750
3999,27.343750
4000,25.390625
4001,23.437500
4002,21.484375
4003,19.531250
4004,17.578125
4005,15.625000
4006,15.625000
4007,13.671875
4008,11.718750
4009,9.765625
4010,7.812500
4011,5.859375
4012,3.906250
4013,1.953125
4014,0.000000
4015,0.000000
4016,-1.953125
4017,-3.906250
4018,-5.859375
4019,-7.812500
4020,-9.765625
4021,-11.718750
4022,-13.671875
4023,-15.625000
4024,-17.578125
4025,-19.531250
4026,-21.484375
4027,-23.437500
4028,-23.437500
4029,-27.343750
4030,-29.296875
4031,-29.296875
4032,-31.250000
4033,-33.203125
4034,-35.156250
4035,-37.109375
4036,-39.062500
4037,-41.015625
4038,-42.968750
4039,-44.921875
4040,-46.875000
4041,-46.875000
4042,-48.828125
4043,-48.828125
4044,-52.734375
4045,-54.687500
4046,-54.687500
4047,-56.640625
4048,-58.593750
4049,-60.546875
4050,-60.546875
4051,-62.500000
4052,-64.453125
4053,-64.453125
4054,-68.359375
4055,-68.359375
4056,-70.312500
4057,-70.312500
4058,-72.265625
4059,-72.265625
4060,-74.218750
4061,-76.171875
4062,-76.171875
4063,-78.125000
4064,-78.125000
4065,-80.078125
4066,-80.078125
4067,-82.031250
4068,-82.031250
4069,-83.984375
4070,-83.984375
4071,-83.984375
4072,-83.984375
4073,-85.937500
4074,-85.937500
4075,-85.937500
4076,-87.890625
4077,-87.890625
4078,-87.890625
4079,-87.890625
4080,-87.890625
4081,-89.843750
4082,-89.843750
4083,-89.843750
4084,-89.843750
4085,-89.843750
4086,-89.843750
4087,-89.843750
4088,-89.843750
4089,-89.843750
4090,-89.843750
4091,-89.843750
4092,-89.843750
4093,-89.843750
4094,-89.843750
4095,-87.890625
4096,-87.890625
4097,-87.890625
4098,-87.890625
4099,-87.890625
4100,-87.890625
4101,-85.937500
4102,-85.937500
4103,-85.937500
4104,-83.984375
4105,-83.984375
4106,-82.031250
4107,-82.031250
4108,-82.031250
4109,-80.078125
4110,-80.078125
4111,-78.125000
4112,-78.125000
4113,-76.171875
4114,-74.218750
4115,-74.218750
4116,-72.265625
4117,-72.265625
4118,-72.265625
4119,-70.312500
4120,-68.359375
4121,-66.406250
4122,-66.406250
4123,-64.453125
4124,-62.500000
4125,-62.500000
4126,-60.546875
4127,-58.593750
4128,-56.640625
4129,-54.687500
4130,-54.687500
4131,-52.734375
4132,-50.781250
4133,-48.828125
4134,-48.828125
4135,-46.875000
4136,-44.921875
4137,-42.968750
4138,-41.015625
4139,-39.062500
4140,-37.109375
4141,-35.156250
4142,-33.203125
4143,-31.250000
4144,-29.296875
4145,-29.296875
4146,-27.343750
4147,-25.390625
4148,-21.484375
4149,-21.484375
4150,-19.531250
4151,-17.578125
4152,-15.625000
4153,-13.671875
4154,-11.718750
4155,-9.765625
4156,-7.812500
4157,-7.812500
4158,-5.859375
4159,-1.953125
4160,-1.953125
4161,0.000000
4162,1.953125
4163,3.906250
4164,5.859375
4165,7.812500
4166,9.765625
4167,11.718750
4168,11.718750
4169,13.671875
4170,17.578125
4171,17.578125
4172,19.531250
4173,21.484375
4174,23.437500
4175,25.390625
4176,25.390625
4177,27.343750
4178,29.296875
4179,31.250000
4180,33.203125
4181,35.156250
4182,35.156250
4183,37.109375
4184,39.062500
4185,39.062500
4186,41.015625
4187,42.968750
4188,44.921875
4189,46.875000
4190,46.875000
4191,48.828125
4192,48.828125
4193,50.781250
4194,50.781250
4195,52.734375
4196,54.687500
4197,54.687500
4198,56.640625
4199,56.640625
4200,58.593750
4201,58.593750
4202,60.546875
4203,60.546875
4204,62.500000
4205,62.500000
4206,64.453125
4207,64.453125
4208,66.406250
4209,66.406250
4210,66.406250
4211,68.359375
4212,68.359375
4213,68.359375
4214,70.312500
4215,70.312500
4216,70.312500
4217,70.312500
4218,72.265625
4219,72.265625
4220,72.265625
4221,72.265625
4222,72.265625
4223,74.218750
4224,74.218750
4225,74.218750
4226,74.218750
4227,74.218750
4228,74.218750
4229,74.218750
4230,74.218750
4231,74.218750
4232,74.218750
4233,74.218750
4234,74.218750
4235,74.218750
4236,72.265625
4237,74.218750
4238,72.265625
4239,72.265625
4240,72.265625
4241,72.265625
4242,70.312500
4243,70.312500
4244,70.312500
4245,70.312500
4246,70.312500
4247,68.359375
4248,68.359375
4249,68.359375
4250,66.406250
4251,66.406250
4252,66.406250
4253,64.453125
4254,64.453125
4255,62.500000
4256,62.500000
4257,60.546875
4258,60.546875
4259,58.593750
4260,56.640625
4261,56.640625
4262,56.640625
4263,54.687500
4264,54.687500
4265,52.734375
4266,50.781250
4267,50.781250
4268,48.828125
4269,46.875000
4270,46.875000
4271,44.921875
4272,42.968750
4273,42.968750
4274,41.015625
4275,39.062500
4276,39.062500
4277,37.109375
4278,35.156250
4279,33.203125
4280,31.250000
4281,31.250000
4282,29.296875
4283,27.343750
4284,25.390625
4285,23.437500
4286,21.484375
4287,21.484375
4288,19.531250
4289,17.578125
4290,15.625000
4291,13.671875
4292,11.718750
4293,9.765625
4294,7.812500
4295,5.859375
4296,5.859375
4297,3.906250
4298,1.953125
4299,0.000000
4300,-3.906250
4301,-3.906250
4302,-5.859375
4303,-7.812500
4304,-9.765625
4305,-11.718750
4306,-13.671875
4307,-15.625000
4308,-17.578125
4309,-17.578125
4310,-21.484375
4311,-21.484375
4312,-25.390625
4313,-25.390625
4314,-27.343750
4315,-29.296875
4316,-31.250000
4317,-33.203125
4318,-35.156250
4319,-37.109375
4320,-39.062500
4321,-41.015625
4322,-42.968750
4323,-44.921875
4324,-44.921875
4325,-46.875000
4326,-48.828125
4327,-50.781250
4328,-50.781250
4329,-52.734375
4330,-54.687500
4331,-56.640625
4332,-58.593750
4333,-58.593750
4334,-60.546875
4335,-62.500000
4336,-64.453125
4337,-64.453125
4338,-66.406250
4339,-68.359375
4340,-68.359375
4341,-70.312500
4342,-72.265625
4343,-72.265625
4344,-74.218750
4345,-74.218750
4346,-76.171875
4347,-76.171875
4348,-78.125000
4349,-78.125000
4350,-80.078125
4351,-80.078125
4352,-82.031250
4353,-80.078125
4354,-83.984375
4355,-83.984375
4356,-83.984375
4357,-85.937500
4358,-85.937500
4359,-85.937500
4360,-87.890625
4361,-87.890625
4362,-87.890625
4363,-87.890625
4364,-89.843750
4365,-89.843750
4366,-89.843750
4367,-89.843750
4368,-89.843750
4369,-89.843750
4370,-89.843750
4371,-89.843750
4372,-89.843750
4373,-89.843750
4374,-89.843750
4375,-89.843750
4376,-89.843750
4377,-89.843750
4378,-89.843750
4379,-89.843750
4380,-89.843750
4381,-87.890625
4382,-87.890625
4383,-87.890625
4384,-87.890625
4385,-85.937500
4386,-85.937500
4387,-83.984375
4388,-83.984375
4389,-83.984375
4390,-82.031250
4391,-82.031250
4392,-80.078125
4393,-80.078125
4394,-80.078125
4395,-78.125000
4396,-76.171875
4397,-76.171875
4398,-74.218750
4399,-74.218750
4400,-74.218750
4401,-72.265625
4402,-70.312500
4403,-68.359375
4404,-68.359375
4405,-66.406250
4406,-66.406250
4407,-64.453125
4408,-62.500000
4409,-60.546875
4410,-60.546875
4411,-58.593750
4412,-56.640625
4413,-54.687500
4414,-54.687500
4415,-52.734375
4416,-50.781250
4417,-48.828125
4418,-46.875000
4419,-46.875000
4420,-44.921875
4421,-42.968750
4422,-41.015625
4423,-39.062500
4424,-37.109375
4425,-37.109375
4426,-33.203125
4427,-33.203125
4428,-31.250000
4429,-27.343750
4430,-27.343750
4431,-25.390625
4432,-23.437500
4433,-21.484375
4434,-19.531250
4435,-19.531250
4436,-15.625000
4437,-15.625000
4438,-11.718750
4439,-11.718750
4440,-7.812500
4441,-5.859375
4442,-5.859375
4443,-3.906250
4444,0.000000
4445,0.000000
4446,1.953125
4447,3.906250
4448,5.859375
4449,7.812500
4450,9.765625
4451,9.765625
4452,13.671875
4453,13.671875
4454,15.625000
4455,17.578125
4456,19.531250
4457,21.484375
4458,23.437500
4459,23.437500
4460,27.343750
4461,27.343750
4462,29.296875
4463,31.250000
4464,33.203125
4465,33.203125
4466,35.156250
4467,37.109375
4468,39.062500
4469,41.015625
4470,41.015625
4471,42.968750
4472,44.921875
4473,46.875000
4474,46.875000
4475,48.828125
4476,50.781250
4477,50.781250
4478,50.781250
4479,54.687500
4480,54.687500
4481,54.687500
4482,56.640625
4483,58.593750
4484,58.593750
4485,60.546875
4486,60.546875
4487,60.546875
4488,62.500000
4489,64.453125
4490,64.453125
4491,64.453125
4492,66.406250
4493,66.406250
4494,66.406250
4495,68.359375
4496,68.359375
4497,70.312500
4498,70.312500
4499,70.312500
4500,72.265625
4501,70.312500
4502,70.312500
4503,72.265625
4504,72.265625
4505,72.265625
4506,74.218750
4507,74.218750
4508,74.218750
4509,72.265625
4510,74.218750
4511,74.218750
4512,74.218750
4513,74.218750
4514,74.218750
4515,74.218750
4516,74.218750
4517,76.171875
4518,74.218750
4519,74.218750
4520,72.265625
4521,72.265625
4522,72.265625
4523,72.265625
4524,74.218750
4525,72.265625
4526,70.312500
4527,70.312500
4528,70.312500
4529,70.312500
4530,70.312500
4531,68.359375
4532,68.359375
4533,68.359375
4534,68.359375
4535,66.406250
4536,66.406250
4537,64.453125
4538,64.453125
4539,62.500000
4540,62.500000
4541,62.500000
4542,60.546875
4543,58.593750
4544,58.593750
4545,58.593750
4546,56.640625
4547,54.687500
4548,54.687500
4549,52.734375
4550,52.734375
4551,50.781250
4552,48.828125
4553,46.875000
4554,46.875000
4555,44.921875
4556,42.968750
4557,42.968750
4558,41.015625
4559,39.062500
4560,37.109375
4561,37.109375
4562,35.156250
4563,33.203125
4564,31.250000
4565,29.296875
4566,31.250000
4567,27.343750
4568,25.390625
4569,23.437500
4570,21.484375
4571,21.484375
4572,19.531250
4573,17.578125
4574,15.625000
4575,13.671875
4576,11.718750
4577,9.765625
4578,7.812500
4579,5.859375
4580,5.859375
4581,3.906250
4582,1.953125
4583,0.000000
4584,-3.906250
4585,-3.906250
4586,-5.859375
4587,-7.812500
4588,-9.765625
4589,-11.718750
4590,-13.671875
4591,-13.671875
4592,-17.578125
4593,-17.578125
4594,-19.531250
4595,-23.437500
4596,-25.390625
4597,-25.390625
4598,-27.343750
4599,-29.296875
4600,-31.250000
4601,-33.203125
4602,-35.156250
4603,-37.109375
4604,-39.062500
4605,-41.015625
4606,-42.968750
4607,-42.968750
4608,-44.921875
4609,-46.875000
4610,-48.828125
4611,-50.781250
4612,-50.781250
4613,-52.734375
4614,-54.687500
4615,-56.640625
4616,-58.593750
4617,-58.593750
4618,-60.546875
4619,-62.500000
4620,-64.453125
4621,-64.453125
4622,-66.406250
4623,-68.359375
4624,-68.359375
4625,-70.312500
4626,-70.312500
4627,-72.265625
4628,-74.218750
4629,-74.218750
4630,-76.171875
4631,-76.171875
4632,-78.125000
4633,-78.125000
4634,-80.078125
4635,-80.078125
4636,-82.031250
4637,-83.984375
4638,-83.984375
4639,-83.984375
4640,-83.984375
4641,-85.937500
4642,-85.937500
4643,-85.937500
4644,-87.890625
4645,-87.890625
4646,-87.890625
4647,-87.890625
4648,-87.890625
4649,-89.843750
4650,-89.843750
4651,-89.843750
4652,-89.843750
4653,-89.843750
4654,-89.843750
4655,-89.843750
4656,-89.843750
4657,-89.843750
4658,-89.843750
4659,-89.843750
4660,-89.843750
4661,-89.843750
4662,-87.890625
4663,-87.890625
4664,-87.890625
4665,-87.890625
4666,-87.890625
4667,-87.890625
4668,-85.937500
4669,-85.937500
4670,-83.984375
4671,-83.984375
4672,-83.984375
4673,-83.984375
4674,-83.984375
4675,-82.031250
4676,-82.031250
4677,-80.078125
4678,-78.125000
4679,-78.125000
4680,-78.125000
4681,-78.125000
4682,-74.218750
4683,-74.218750
4684,-74.218750
4685,-72.265625
4686,-70.312500
4687,-68.359375
4688,-68.359375
4689,-66.406250
4690,-66.406250
4691,-64.453125
4692,-62.500000
4693,-60.546875
4694,-60.546875
4695,-58.593750
4696,-56.640625
4697,-56.640625
4698,-54.687500
4699,-52.734375
4700,-52.734375
4701,-48.828125
4702,-46.875000
4703,-46.875000
4704,-44.921875
4705,-42.968750
4706,-41.015625
4707,-39.062500
4708,-37.109375
4709,-37.109375
4710,-33.203125
4711,-33.203125
4712,-31.250000
4713,-29.296875
4714,-27.343750
4715,-25.390625
4716,-23.437500
4717,-21.484375
4718,-19.531250
4719,-17.578125
4720,-15.625000
4721,-13.671875
4722,-11.718750
4723,-9.765625
4724,-7.812500
4725,-5.859375
4726,-5.859375
4727,-3.906250
4728,0.000000
4729,0.000000
4730,1.953125
4731,3.906250
4732,5.859375
4733,7.812500
4734,9.765625
4735,11.718750
4736,11.718750
4737,15.625000
4738,15.625000
4739,17.578125
4740,19.531250
4741,21.484375
4742,23.437500
4743,25.390625
4744,27.343750
4745,27.343750
4746,29.296875
4747,29.296875
4748,33.203125
4749,33.203125
4750,35.156250
4751,37.109375
4752,39.062500
4753,37.109375
4754,41.015625
4755,42.968750
4756,44.921875
4757,44.921875
4758,46.875000
4759,46.875000
4760,48.828125
4761,50.781250
4762,50.781250
4763,52.734375
4764,54.687500
4765,54.687500
4766,56.640625
4767,56.640625
4768,58.593750
4769,58.593750
4770,60.546875
4771,60.546875
4772,62.500000
4773,62.500000
4774,64.453125
4775,64.453125
4776,66.406250
4777,66.406250
4778,66.406250
4779,68.359375
4780,68.359375
4781,68.359375
4782,70.312500
4783,70.312500
4784,70.312500
4785,70.312500
4786,72.265625
4787,72.265625
4788,72.265625
4789,72.265625
4790,74.218750
4791,74.218750
4792,72.265625
4793,74.218750
4794,74.218750
4795,74.218750
4796,74.218750
4797,74.218750
4798,74.218750
4799,74.218750
4800,74.218750
4801,74.218750
4802,74.218750
4803,72.265625
4804,74.218750
4805,72.265625
4806,74.218750
4807,72.265625
4808,72.265625
4809,72.265625
4810,72.265625
4811,72.265625
4812,70.312500
4813,70.312500
4814,70.312500
4815,70.312500
4816,68.359375
4817,68.359375
4818,66.406250
4819,66.406250
4820,66.406250
4821,64.453125
4822,64.453125
4823,64.453125
4824,62.500000
4825,62.500000
4826,60.546875
4827,58.593750
4828,58.593750
4829,56.640625
4830,56.640625
4831,54.687500
4832,52.734375
4833,52.734375
4834,50.781250
4835,46.875000
4836,48.828125
4837,48.828125
4838,46.875000
4839,44.921875
4840,44.921875
4841,42.968750
4842,41.015625
4843,39.062500
4844,39.062500
4845,37.109375
4846,35.156250
4847,33.203125
4848,31.250000
4849,31.250000
4850,29.296875
4851,27.343750
4852,25.390625
4853,23.437500
4854,23.437500
4855,21.484375
4856,19.531250
4857,17.578125
4858,15.625000
4859,15.625000
4860,11.718750
4861,9.765625
4862,9.765625
4863,7.812500
4864,5.859375
4865,3.906250
4866,1.953125
4867,0.000000
4868,-1.953125
4869,-3.906250
4870,-5.859375
4871,-7.812500
4872,-9.765625
4873,-9.765625
4874,-13.671875
4875,-15.625000
4876,-15.625000
4877,-19.531250
4878,-21.484375
4879,-21.484375
4880,-25.390625
4881,-25.390625
4882,-27.343750
4883,-29.296875
4884,-31.250000
4885,-33.203125
4886,-35.156250
4887,-37.109375
4888,-39.062500
4889,-39.062500
4890,-41.015625
4891,-42.968750
4892,-44.921875
4893,-46.875000
4894,-48.828125
4895,-48.828125
4896,-50.781250
4897,-52.734375
4898,-54.687500
4899,-56.640625
4900,-56.640625
4901,-58.593750
4902,-60.546875
4903,-62.500000
4904,-62.500000
4905,-64.453125
4906,-66.406250
4907,-68.359375
4908,-68.359375
4909,-70.312500
4910,-70.312500
4911,-72.265625
4912,-74.218750
4913,-74.218750
4914,-76.171875
4915,-76.171875
4916,-78.125000
4917,-80.078125
4918,-80.078125
4919,-80.078125
4920,-82.031250
4921,-82.031250
4922,-83.984375
4923,-83.984375
4924,-83.984375
4925,-85.937500
4926,-85.937500
4927,-85.937500
4928,-85.937500
4929,-87.890625
4930,-87.890625
4931,-87.890625
4932,-87.890625
4933,-89.843750
4934,-89.843750
4935,-89.843750
4936,-89.843750
4937,-89.843750
4938,-97.656250
4939,-89.843750
4940,-89.843750
4941,-89.843750
4942,-89.843750
4943,-89.843750
4944,-89.843750
4945,-89.843750
4946,-89.843750
4947,-87.890625
4948,-87.890625
4949,-87.890625
4950,-87.890625
4951,-87.890625
4952,-85.937500
4953,-85.937500
4954,-85.937500
4955,-85.937500
4956,-83.984375
4957,-83.984375
4958,-82.031250
4959,-82.031250
4960,-82.031250
4961,-82.031250
4962,-80.078125
4963,-78.125000
4964,-78.125000
4965,-76.171875
4966,-76.171875
4967,-74.218750
4968,-74.218750
4969,-72.265625
4970,-70.312500
4971,-70.312500
4972,-68.359375
4973,-68.359375
4974,-66.406250
4975,-64.453125
4976,-62.500000
4977,-62.500000
4978,-60.546875
4979,-58.593750
4980,-56.640625
4981,-54.687500
4982,-54.687500
4983,-52.734375
4984,-50.781250
4985,-50.781250
4986,-48.828125
4987,-44.921875
4988,-44.921875
4989,-42.968750
4990,-41.015625
4991,-41.015625
4992,-37.109375
4993,-35.156250
4994,-35.156250
4995,-33.203125
4996,-31.250000
4997,-29.296875
4998,-27.343750
4999,-25.390625
5000,-23.437500
5001,-21.484375
5002,-19.531250
5003,-17.578125
5004,-15.625000
5005,-15.625000
5006,-13.671875
5007,-11.718750
5008,-9.765625
5009,-7.812500
5010,-5.859375
5011,-3.906250
5012,-1.953125
5013,0.000000
5014,1.953125
5015,1.953125
5016,5.859375
5017,7.812500
5018,7.812500
5019,9.765625
5020,13.671875
5021,15.625000
5022,15.625000
5023,17.578125
5024,19.531250
5025,21.484375
5026,23.437500
5027,23.437500
5028,25.390625
5029,27.343750
5030,29.296875
5031,29.296875
5032,31.250000
5033,33.203125
5034,35.156250
5035,37.109375
5036,37.109375
5037,39.062500
5038,41.015625
5039,42.968750
5040,42.968750
5041,44.921875
5042,46.875000
5043,48.828125
5044,48.828125
5045,50.781250
5046,52.734375
5047,52.734375
5048,54.687500
5049,54.687500
5050,56.640625
5051,58.593750
5052,58.593750
5053,58.593750
5054,60.546875
5055,62.500000
5056,62.500000
5057,64.453125
5058,64.453125
5059,64.453125
5060,66.406250
5061,66.406250
5062,66.406250
5063,68.359375
5064,68.359375
5065,70.312500
5066,70.312500
5067,70.312500
5068,70.312500
5069,72.265625
5070,72.265625
5071,72.265625
5072,72.265625
5073,72.265625
5074,74.218750
5075,74.218750
5076,74.218750
5077,72.265625
5078,74.218750
5079,74.218750
5080,74.218750
5081,74.218750
5082,74.218750
5083,74.218750
5084,74.218750
5085,74.218750
5086,74.218750
5087,72.265625
5088,72.265625
5089,72.265625
5090,72.265625
5091,72.265625
5092,72.265625
5093,72.265625
5094,72.265625
5095,70.312500
5096,68.359375
5097,70.312500
5098,70.312500
5099,70.312500
5100,68.359375
5101,68.359375
5102,66.406250
5103,66.406250
5104,66.406250
5105,64.453125
5106,64.453125
5107,62.500000
5108,62.500000
5109,60.546875
5110,60.546875
5111,58.593750
5112,58.593750
5113,58.593750
5114,56.640625
5115,56.640625
5116,54.687500
5117,52.734375
5118,52.734375
5119,50.781250
5120,48.828125
5121,46.875000
5122,46.875000
5123,46.875000
5124,44.921875
5125,42.968750
5126,41.015625
5127,41.015625
5128,39.062500
5129,37.109375
5130,35.156250
5131,33.203125
5132,33.203125
5133,31.250000
5134,29.296875
5135,27.343750
5136,25.390625
5137,25.390625
5138,23.437500
5139,21.484375
5140,19.531250
5141,17.578125
5142,15.625000
5143,13.671875
5144,11.718750
5145,9.765625
5146,9.765625
5147,7.812500
5148,3.906250
5149,3.906250
5150,1.953125
5151,0.000000
5152,-1.953125
5153,-3.906250
5154,-5.859375
5155,-7.812500
5156,-9.765625
5157,-9.765625
5158,-13.671875
5159,-15.625000
5160,-15.625000
5161,-17.578125
5162,-19.531250
5163,-21.484375
5164,-25.390625
5165,-25.390625
5166,-27.343750
5167,-29.296875
5168,-31.250000
5169,-33.203125
5170,-35.156250
5171,-37.109375
5172,-37.109375
5173,-39.062500
5174,-41.015625
5175,-42.968750
5176,-44.921875
5177,-46.875000
5178,-46.875000
5179,-50.781250
5180,-50.781250
5181,-52.734375
5182,-52.734375
5183,-56.640625
5184,-56.640625
5185,-58.593750
5186,-60.546875
5187,-60.546875
5188,-62.500000
5189,-64.453125
5190,-66.406250
5191,-68.359375
5192,-68.359375
5193,-70.312500
5194,-70.312500
5195,-72.265625
5196,-74.218750
5197,-74.218750
5198,-76.171875
5199,-76.171875
5200,-78.125000
5201,-78.125000
5202,-80.078125
5203,-80.078125
5204,-82.031250
5205,-82.031250
5206,-82.031250
5207,-83.984375
5208,-83.984375
5209,-85.937500
5210,-85.937500
5211,-85.937500
5212,-87.890625
5213,-87.890625
5214,-87.890625
5215,-87.890625
5216,-87.890625
5217,-89.843750
5218,-89.843750
5219,-89.843750
5220,-89.843750
5221,-89.843750
5222,-89.843750
5223,-89.843750
5224,-89.843750
5225,-89.843750
5226,-89.843750
5227,-89.843750
5228,-89.843750
5229,-89.843750
5230,-89.843750
5231,-87.890625
5232,-87.890625
5233,-87.890625
5234,-87.890625
5235,-87.890625
5236,-85.937500
5237,-85.937500
5238,-85.937500
5239,-83.984375
5240,-83.984375
5241,-83.984375
5242,-82.031250
5243,-82.031250
5244,-82.031250
5245,-80.078125
5246,-78.125000
5247,-78.125000
5248,-78.125000
5249,-76.171875
5250,-76.171875
5251,-74.218750
5252,-74.218750
5253,-72.265625
5254,-70.312500
5255,-70.312500
5256,-70.312500
5257,-66.406250
5258,-66.406250
5259,-64.453125
5260,-62.500000
5261,-62.500000
5262,-58.593750
5263,-58.593750
5264,-58.593750
5265,-56.640625
5266,-54.687500
5267,-52.734375
5268,-50.781250
5269,-50.781250
5270,-48.828125
5271,-46.875000
5272,-44.921875
5273,-42.968750
5274,-41.015625
5275,-39.062500
5276,-37.109375
5277,-37.109375
5278,-35.156250
5279,-33.203125
5280,-31.250000
5281,-29.296875
5282,-27.343750
5283,-27.343750
5284,-23.437500
5285,-21.484375
5286,-19.531250
5287,-19.531250
5288,-17.578125
5289,-13.671875
5290,-13.671875
5291,-11.718750
5292,-9.765625
5293,-7.812500
5294,-5.859375
5295,-3.906250
5296,-1.953125
5297,1.953125
5298,1.953125
5299,3.906250
5300,5.859375
5301,7.812500
5302,7.812500
5303,9.765625
5304,11.718750
5305,13.671875
5306,15.625000
5307,17.578125
5308,19.531250
5309,21.484375
5310,21.484375
5311,25.390625
5312,27.343750
5313,27.343750
5314,29.296875
5315,31.250000
5316,33.203125
5317,33.203125
5318,35.156250
5319,37.109375
5320,39.062500
5321,39.062500
5322,41.015625
5323,42.968750
5324,44.921875
5325,44.921875
5326,46.875000
5327,48.828125
5328,48.828125
5329,50.781250
5330,52.734375
5331,52.734375
5332,54.687500
5333,54.687500
5334,54.687500
5335,56.640625
5336,58.593750
5337,58.593750
5338,60.546875
5339,60.546875
5340,62.500000
5341,64.453125
5342,62.500000
5343,64.453125
5344,66.406250
5345,66.406250
5346,66.406250
5347,68.359375
5348,68.359375
5349,68.359375
5350,70.312500
5351,70.312500
5352,70.312500
5353,70.312500
5354,72.265625
5355,72.265625
5356,72.265625
5357,72.265625
5358,74.218750
5359,72.265625
5360,72.265625
5361,74.218750
5362,74.218750
5363,72.265625
5364,74.218750
5365,74.218750
5366,74.218750
5367,74.218750
5368,74.218750
5369,74.218750
5370,74.218750
5371,74.218750
5372,74.218750
5373,72.265625
5374,72.265625
5375,72.265625
5376,72.265625
5377,72.265625
5378,70.312500
5379,72.265625
5380,70.312500
5381,70.312500
5382,70.312500
5383,70.312500
5384,68.359375
5385,68.359375
5386,66.406250
5387,66.406250
5388,66.406250
5389,64.453125
5390,62.500000
5391,64.453125
5392,62.500000
5393,62.500000
5394,60.546875
5395,58.593750
5396,58.593750
5397,58.593750
5398,56.640625
5399,54.687500
5400,54.687500
5401,52.734375
5402,52.734375
5403,50.781250
5404,48.828125
5405,46.875000
5406,46.875000
5407,44.921875
5408,44.921875
5409,42.968750
5410,41.015625
5411,39.062500
5412,39.062500
5413,37.109375
5414,35.156250
5415,33.203125
5416,33.203125
5417,31.250000
5418,29.296875
5419,27.343750
5420,25.390625
5421,23.437500
5422,23.437500
5423,21.484375
5424,19.531250
5425,17.578125
5426,15.625000
5427,13.671875
5428,13.671875
5429,11.718750
5430,9.765625
5431,7.812500
5432,5.859375
5433,3.906250
5434,1.953125
5435,0.000000
5436,-1.953125
5437,-3.906250
5438,-5.859375
5439,-5.859375
5440,-9.765625
5441,-9.765625
5442,-13.671875
5443,-13.671875
5444,-15.625000
5445,-17.578125
5446,-19.531250
5447,-21.484375
5448,-23.437500
5449,-25.390625
5450,-27.343750
5451,-29.296875
5452,-31.250000
5453,-33.203125
5454,-33.203125
5455,-35.156250
5456,-37.109375
5457,-39.062500
5458,-41.015625
5459,-42.968750
5460,-44.921875
5461,-46.875000
5462,-48.828125
5463,-50.781250
5464,-50.781250
5465,-52.734375
5466,-54.687500
5467,-56.640625
5468,-58.593750
5469,-58.593750
5470,-60.546875
5471,-62.500000
5472,-64.453125
5473,-64.453125
5474,-66.406250
5475,-66.406250
5476,-68.359375
5477,-70.312500
5478,-70.312500
5479,-72.265625
5480,-72.265625
5481,-74.218750
5482,-76.171875
5483,-78.125000
5484,-78.125000
5485,-78.125000
5486,-80.078125
5487,-82.031250
5488,-82.031250
5489,-82.031250
5490,-82.031250
5491,-83.984375
5492,-83.984375
5493,-85.937500
5494,-85.937500
5495,-85.937500
5496,-87.890625
5497,-87.890625
5498,-87.890625
5499,-87.890625
5500,-87.890625
5501,-87.890625
5502,-87.890625
5503,-89.843750
5504,-89.843750
5505,-89.843750
5506,-89.843750
5507,-89.843750
5508,-89.843750
5509,-89.843750
5510,-89.843750
5511,-89.843750
5512,-89.843750
5513,-87.890625
5514,-89.843750
5515,-89.843750
5516,-89.843750
5517,-87.890625
5518,-87.890625
5519,-87.890625
5520,-85.937500
5521,-85.937500
5522,-85.937500
5523,-85.937500
5524,-83.984375
5525,-85.937500
5526,-83.984375
5527,-82.031250
5528,-82.031250
5529,-80.078125
5530,-80.078125
5531,-78.125000
5532,-78.125000
5533,-78.125000
5534,-76.171875
5535,-74.218750
5536,-74.218750
5537,-72.265625
5538,-70.312500
5539,-70.312500
5540,-68.359375
5541,-68.359375
5542,-66.406250
5543,-64.453125
5544,-64.453125
5545,-62.500000
5546,-60.546875
5547,-60.546875
5548,-56.640625
5549,-56.640625
5550,-54.687500
5551,-54.687500
5552,-52.734375
5553,-48.828125
5554,-48.828125
5555,-46.875000
5556,-44.921875
5557,-42.968750
5558,-41.015625
5559,-39.062500
5560,-39.062500
5561,-35.156250
5562,-35.156250
5563,-33.203125
5564,-31.250000
5565,-29.296875
5566,-27.343750
5567,-25.390625
5568,-25.390625
5569,-23.437500
5570,-19.531250
5571,-17.578125
5572,-15.625000
5573,-13.671875
5574,-13.671875
5575,-11.718750
5576,-9.765625
5577,-7.812500
5578,-5.859375
5579,-3.906250
5580,-1.953125
5581,0.000000
5582,1.953125
5583,1.953125
5584,5.859375
5585,5.859375
5586,7.812500
5587,11.718750
5588,11.718750
5589,13.671875
5590,15.625000
5591,17.578125
5592,19.531250
5593,21.484375
5594,21.484375
5595,23.437500
5596,25.390625
5597,27.343750
5598,29.296875
5599,31.250000
5600,31.250000
5601,33.203125
5602,35.156250
5603,37.109375
5604,39.062500
5605,39.062500
5606,41.015625
5607,42.968750
5608,42.968750
5609,44.921875
5610,46.875000
5611,46.875000
5612,48.828125
5613,50.781250
5614,50.781250
5615,52.734375
5616,54.687500
5617,54.687500
5618,56.640625
5619,56.640625
5620,58.593750
5621,58.593750
5622,60.546875
5623,60.546875
5624,62.500000
5625,62.500000
5626,64.453125
5627,66.406250
5628,66.406250
5629,66.406250
5630,66.406250
5631,68.359375
5632,68.359375
5633,68.359375
5634,70.312500
5635,70.312500
5636,70.312500
5637,72.265625
5638,72.265625
5639,72.265625
5640,72.265625
5641,72.265625
5642,72.265625
5643,74.218750
5644,74.218750
5645,74.218750
5646,74.218750
5647,74.218750
5648,74.218750
5649,74.218750
5650,74.218750
5651,74.218750
5652,74.218750
5653,74.218750
5654,74.218750
5655,74.218750
5656,74.218750
5657,72.265625
5658,74.218750
5659,74.218750
5660,72.265625
5661,72.265625
5662,72.265625
5663,70.312500
5664,70.312500
5665,70.312500
5666,70.312500
5667,68.359375
5668,68.359375
5669,68.359375
5670,68.359375
5671,66.406250
5672,66.406250
5673,64.453125
5674,64.453125
5675,62.500000
5676,62.500000
5677,60.546875
5678,60.546875
5679,58.593750
5680,58.593750
5681,56.640625
5682,56.640625
5683,56.640625
5684,54.687500
5685,52.734375
5686,52.734375
5687,50.781250
5688,48.828125
5689,48.828125
5690,46.875000
5691,46.875000
5692,44.921875
5693,42.968750
5694,41.015625
5695,41.015625
5696,39.062500
5697,37.109375
5698,37.109375
5699,35.156250
5700,33.203125
5701,31.250000
5702,29.296875
5703,27.343750
5704,27.343750
5705,25.390625
5706,23.437500
5707,21.484375
5708,19.531250
5709,19.531250
5710,17.578125
5711,13.671875
5712,13.671875
5713,11.718750
5714,11.718750
5715,7.812500
5716,5.859375
5717,3.906250
5718,1.953125
5719,1.953125
5720,-1.953125
5721,-3.906250
5722,-5.859375
5723,-5.859375
5724,-9.765625
5725,-9.765625
5726,-11.718750
5727,-15.625000
5728,-13.671875
5729,-17.578125
5730,-19.531250
5731,-21.484375
5732,-25.390625
5733,-23.437500
5734,-27.343750
5735,-29.296875
5736,-29.296875
5737,-33.203125
5738,-35.156250
5739,-35.156250
5740,-37.109375
5741,-41.015625
5742,-41.015625
5743,-42.968750
5744,-44.921875
5745,-46.875000
5746,-48.828125
5747,-50.781250
5748,-50.781250
5749,-52.734375
5750,-54.687500
5751,-54.687500
5752,-56.640625
5753,-58.593750
5754,-60.546875
5755,-62.500000
5756,-62.500000
5757,-64.453125
5758,-66.406250
5759,-66.406250
5760,-68.359375
5761,-70.312500
5762,-72.265625
5763,-72.265625
5764,-74.218750
5765,-74.218750
5766,-76.171875
5767,-76.171875
5768,-76.171875
5769,-78.125000
5770,-80.078125
5771,-80.078125
5772,-80.078125
5773,-82.031250
5774,-82.031250
5775,-83.984375
5776,-83.984375
5777,-85.937500
5778,-85.937500
5779,-85.937500
5780,-85.937500
5781,-87.890625
5782,-87.890625
5783,-87.890625
5784,-89.843750
5785,-89.843750
5786,-89.843750
5787,-89.843750
5788,-89.843750
5789,-89.843750
5790,-89.843750
5791,-89.843750
5792,-89.843750
5793,-89.843750
5794,-89.843750
5795,-89.843750
5796,-89.843750
5797,-89.843750
5798,-89.843750
5799,-89.843750
5800,-87.890625
5801,-89.843750
5802,-87.890625
5803,-87.890625
5804,-87.890625
5805,-85.937500
5806,-85.937500
5807,-85.937500
5808,-83.984375
5809,-83.984375
5810,-83.984375
5811,-82.031250
5812,-82.031250
5813,-82.031250
5814,-80.078125
5815,-80.078125
5816,-78.125000
5817,-76.171875
5818,-76.171875
5819,-74.218750
5820,-74.218750
5821,-72.265625
5822,-70.312500
5823,-70.312500
5824,-68.359375
5825,-66.406250
5826,-66.406250
5827,-64.453125
5828,-62.500000
5829,-62.500000
5830,-60.546875
5831,-58.593750
5832,-58.593750
5833,-56.640625
5834,-54.687500
5835,-52.734375
5836,-50.781250
5837,-48.828125
5838,-48.828125
5839,-46.875000
5840,-44.921875
5841,-42.968750
5842,-41.015625
5843,-39.062500
5844,-39.062500
5845,-35.156250
5846,-35.156250
5847,-33.203125
5848,-31.250000
5849,-29.296875
5850,-27.343750
5851,-25.390625
5852,-23.437500
5853,-21.484375
5854,-21.484375
5855,-19.531250
5856,-17.578125
5857,-15.625000
5858,-13.671875
5859,-11.718750
5860,-9.765625
5861,-7.812500
5862,-5.859375
5863,-3.906250
5864,-1.953125
5865,0.000000
5866,1.953125
5867,1.953125
5868,3.906250
5869,5.859375
5870,7.812500
5871,9.765625
5872,11.718750
5873,13.671875
5874,15.625000
5875,17.578125
5876,19.531250
5877,21.484375
5878,21.484375
5879,23.437500
5880,25.390625
5881,27.343750
5882,29.296875
5883,29.296875
5884,31.250000
5885,33.203125
5886,35.156250
5887,37.109375
5888,39.062500
5889,39.062500
5890,41.015625
5891,42.968750
5892,42.968750
5893,44.921875
5894,46.875000
5895,46.875000
5896,48.828125
5897,52.734375
5898,52.734375
5899,52.734375
5900,54.687500
5901,54.687500
5902,56.640625
5903,56.640625
5904,58.593750
5905,58.593750
5906,60.546875
5907,60.546875
5908,62.500000
5909,62.500000
5910,62.500000
5911,64.453125
5912,66.406250
5913,64.453125
5914,66.406250
5915,66.406250
5916,68.359375
5917,68.359375
5918,70.312500
5919,70.312500
5920,70.312500
5921,70.312500
5922,70.312500
5923,72.265625
5924,72.265625
5925,72.265625
5926,72.265625
5927,74.218750
5928,74.218750
5929,74.218750
5930,72.265625
5931,72.265625
5932,72.265625
5933,74.218750
5934,74.218750
5935,74.218750
5936,74.218750
5937,74.218750
5938,74.218750
5939,74.218750
5940,74.218750
5941,74.218750
5942,74.218750
5943,72.265625
5944,72.265625
5945,72.265625
5946,70.312500
5947,70.312500
5948,70.312500
5949,70.312500
5950,70.312500
5951,70.312500
5952,70.312500
5953,68.359375
5954,68.359375
5955,66.406250
5956,66.406250
5957,64.453125
5958,64.453125
5959,64.453125
5960,62.500000
5961,64.453125
5962,60.546875
5963,60.546875
5964,58.593750
5965,56.640625
5966,56.640625
5967,56.640625
5968,54.687500
5969,54.687500
5970,52.734375
5971,50.781250
5972,48.828125
5973,48.828125
5974,46.875000
5975,46.875000
5976,44.921875
5977,42.968750
5978,41.015625
5979,41.015625
5980,39.062500
5981,37.109375
5982,35.156250
5983,35.156250
5984,33.203125
5985,31.250000
5986,29.296875
5987,27.343750
5988,27.343750
5989,25.390625
5990,23.437500
5991,21.484375
5992,19.531250
5993,17.578125
5994,15.625000
5995,15.625000
5996,13.671875
5997,11.718750
5998,9.765625
5999,5.859375
6000,5.859375
6001,3.906250
6002,1.953125
6003,0.000000
6004,-1.953125
6005,-1.953125
6006,-3.906250
6007,-7.812500
6008,-9.765625
6009,-9.765625
6010,-11.718750
6011,-13.671875
6012,-15.625000
6013,-17.578125
6014,-19.531250
6015,-21.484375
6016,-23.437500
6017,-25.390625
6018,-27.343750
6019,-29.296875
6020,-29.296875
6021,-33.203125
6022,-33.203125
6023,-35.156250
6024,-37.109375
6025,-39.062500
6026,-41.015625
6027,-42.968750
6028,-44.921875
6029,-46.875000
6030,-46.875000
6031,-48.828125
6032,-52.734375
6033,-52.734375
6034,-52.734375
6035,-54.687500
6036,-56.640625
6037,-58.593750
6038,-60.546875
6039,-60.546875
6040,-62.500000
6041,-64.453125
6042,-66.406250
6043,-66.406250
6044,-68.359375
6045,-70.312500
6046,-70.312500
6047,-72.265625
6048,-72.265625
6049,-76.171875
6050,-74.218750
6051,-76.171875
6052,-78.125000
6053,-78.125000
6054,-80.078125
6055,-80.078125
6056,-80.078125
6057,-82.031250
6058,-82.031250
6059,-83.984375
6060,-83.984375
6061,-85.937500
6062,-85.937500
6063,-85.937500
6064,-85.937500
6065,-87.890625
6066,-87.890625
6067,-87.890625
6068,-87.890625
6069,-87.890625
6070,-89.843750
6071,-87.890625
6072,-89.843750
6073,-89.843750
6074,-89.843750
6075,-89.843750
6076,-89.843750
6077,-89.843750
6078,-89.843750
6079,-89.843750
6080,-89.843750
6081,-87.890625
6082,-89.843750
6083,-87.890625
6084,-87.890625
6085,-87.890625
6086,-87.890625
6087,-87.890625
6088,-85.937500
6089,-85.937500
6090,-85.937500
6091,-85.937500
6092,-85.937500
6093,-83.984375
6094,-82.031250
6095,-82.031250
6096,-82.031250
6097,-80.078125
6098,-80.078125
6099,-76.171875
6100,-78.125000
6101,-76.171875
6102,-76.171875
6103,-74.218750
6104,-74.218750
6105,-72.265625
6106,-72.265625
6107,-70.312500
6108,-68.359375
6109,-68.359375
6110,-66.406250
6111,-66.406250
6112,-64.453125
6113,-62.500000
6114,-60.546875
6115,-60.546875
6116,-58.593750
6117,-56.640625
6118,-54.687500
6119,-52.734375
6120,-52.734375
6121,-48.828125
6122,-48.828125
6123,-46.875000
6124,-44.921875
6125,-44.921875
6126,-42.968750
6127,-41.015625
6128,-39.062500
6129,-37.109375
6130,-35.156250
6131,-33.203125
6132,-31.250000
6133,-31.250000
6134,-27.343750
6135,-27.343750
6136,-25.390625
6137,-23.437500
6138,-21.484375
6139,-19.531250
6140,-17.578125
6141,-15.625000
6142,-13.671875
6143,-11.718750
6144,-9.765625
6145,-11.718750
6146,-5.859375
6147,-3.906250
6148,-1.953125
6149,0.000000
6150,1.953125
6151,3.906250
6152,5.859375
6153,5.859375
6154,7.812500
6155,9.765625
6156,11.718750
6157,13.671875
6158,15.625000
6159,17.578125
6160,19.531250
6161,21.484375
6162,21.484375
6163,23.437500
6164,25.390625
6165,27.343750
6166,29.296875
6167,29.296875
6168,35.156250
6169,33.203125
6170,35.156250
6171,35.156250
6172,39.062500
6173,39.062500
6174,41.015625
6175,41.015625
6176,42.968750
6177,44.921875
6178,46.875000
6179,46.875000
6180,48.828125
6181,50.781250
6182,50.781250
6183,52.734375
6184,52.734375
6185,54.687500
6186,54.687500
6187,56.640625
6188,56.640625
6189,58.593750
6190,60.546875
6191,60.546875
6192,62.500000
6193,62.500000
6194,64.453125
6195,64.453125
6196,64.453125
6197,66.406250
6198,66.406250
6199,66.406250
6200,68.359375
6201,68.359375
6202,68.359375
6203,70.312500
6204,70.312500
6205,70.312500
6206,72.265625
6207,72.265625
6208,72.265625
6209,72.265625
6210,72.265625
6211,74.218750
6212,74.218750
6213,74.218750
6214,74.218750
6215,74.218750
6216,74.218750
6217,74.218750
6218,74.218750
6219,74.218750
6220,74.218750
6221,76.171875
6222,74.218750
6223,74.218750
6224,74.218750
6225,74.218750
6226,72.265625
6227,74.218750
6228,72.265625
6229,72.265625
6230,72.265625
6231,70.312500
6232,70.312500
6233,70.312500
6234,70.312500
6235,70.312500
6236,68.359375
6237,68.359375
6238,68.359375
6239,66.406250
6240,66.406250
6241,64.453125
6242,64.453125
6243,64.453125
6244,62.500000
6245,62.500000
6246,60.546875
6247,60.546875
6248,58.593750
6249,58.593750
6250,56.640625
6251,56.640625
6252,54.687500
6253,54.687500
6254,52.734375
6255,50.781250
6256,48.828125
6257,48.828125
6258,46.875000
6259,44.921875
6260,44.921875
6261,42.968750
6262,42.968750
6263,41.015625
6264,39.062500
6265,37.109375
6266,37.109375
6267,35.156250
6268,33.203125
6269,31.250000
6270,29.296875
6271,29.296875
6272,27.343750
6273,25.390625
6274,23.437500
6275,21.484375
6276,21.484375
6277,19.531250
6278,15.625000
6279,15.625000
6280,13.671875
6281,11.718750
6282,11.718750
6283,7.812500
6284,5.859375
6285,3.906250
6286,3.906250
6287,1.953125
6288,0.000000
6289,-1.953125
6290,-5.859375
6291,-5.859375
6292,-7.812500
6293,-9.765625
6294,-11.718750
6295,-13.671875
6296,-15.625000
6297,-17.578125
6298,-19.531250
6299,-21.484375
6300,-23.437500
6301,-25.390625
6302,-25.390625
6303,-27.343750
6304,-31.250000
6305,-33.203125
6306,-33.203125
6307,-35.156250
6308,-37.109375
6309,-39.062500
6310,-41.015625
6311,-42.968750
6312,-44.921875
6313,-44.921875
6314,-48.828125
6315,-48.828125
6316,-50.781250
6317,-54.687500
6318,-52.734375
6319,-54.687500
6320,-56.640625
6321,-58.593750
6322,-60.546875
6323,-62.500000
6324,-62.500000
6325,-64.453125
6326,-64.453125
6327,-66.406250
6328,-68.359375
6329,-70.312500
6330,-70.312500
6331,-72.265625
6332,-72.265625
6333,-74.218750
6334,-76.171875
6335,-76.171875
6336,-78.125000
6337,-78.125000
6338,-80.078125
6339,-80.078125
6340,-82.031250
6341,-82.031250
6342,-82.031250
6343,-83.984375
6344,-83.984375
6345,-83.984375
6346,-85.937500
6347,-85.937500
6348,-85.937500
6349,-87.890625
6350,-87.890625
6351,-87.890625
6352,-87.890625
6353,-87.890625
6354,-89.843750
6355,-89.843750
6356,-89.843750
6357,-89.843750
6358,-89.843750
6359,-89.843750
6360,-89.843750
6361,-89.843750
6362,-89.843750
6363,-89.843750
6364,-89.843750
6365,-89.843750
6366,-89.843750
6367,-89.843750
6368,-87.890625
6369,-87.890625
6370,-87.890625
6371,-87.890625
6372,-87.890625
6373,-85.937500
6374,-85.937500
6375,-85.937500
6376,-85.937500
6377,-83.984375
6378,-83.984375
6379,-82.031250
6380,-82.031250
6381,-80.078125
6382,-80.078125
6383,-80.078125
6384,-78.125000
6385,-78.125000
6386,-76.171875
6387,-74.218750
6388,-74.218750
6389,-72.265625
6390,-72.265625
6391,-70.312500
6392,-70.312500
6393,-68.359375
6394,-66.406250
6395,-64.453125
6396,-64.453125
6397,-62.500000
6398,-60.546875
6399,-58.593750
6400,-58.593750
6401,-56.640625
6402,-54.687500
6403,-52.734375
6404,-52.734375
6405,-50.781250
6406,-48.828125
6407,-46.875000
6408,-44.921875
6409,-44.921875
6410,-42.968750
6411,-41.015625
6412,-39.062500
6413,-37.109375
6414,-35.156250
6415,-33.203125
6416,-31.250000
6417,-29.296875
6418,-27.343750
6419,-25.390625
6420,-23.437500
6421,-23.437500
6422,-21.484375
6423,-19.531250
6424,-17.578125
6425,-15.625000
6426,-13.671875
6427,-11.718750
6428,-9.765625
6429,-7.812500
6430,-5.859375
6431,-3.906250
6432,-3.906250
6433,0.000000
6434,1.953125
6435,1.953125
6436,3.906250
6437,5.859375
6438,7.812500
6439,9.765625
6440,11.718750
6441,13.671875
6442,15.625000
6443,17.578125
6444,17.578125
6445,19.531250
6446,21.484375
6447,23.437500
6448,25.390625
6449,27.343750
6450,27.343750
6451,29.296875
6452,31.250000
6453,33.203125
6454,35.156250
6455,35.156250
6456,37.109375
6457,39.062500
6458,41.015625
6459,41.015625
6460,42.968750
6461,44.921875
6462,46.875000
6463,46.875000
6464,48.828125
6465,50.781250
6466,54.687500
6467,52.734375
6468,52.734375
6469,54.687500
6470,56.640625
6471,56.640625
6472,58.593750
6473,58.593750
6474,60.546875
6475,62.500000
6476,62.500000
6477,62.500000
6478,64.453125
6479,64.453125
6480,64.453125
6481,66.406250
6482,66.406250
6483,68.359375
6484,68.359375
6485,68.359375
6486,68.359375
6487,70.312500
6488,70.312500
6489,70.312500
6490,72.265625
6491,72.265625
6492,72.265625
6493,72.265625
6494,72.265625
6495,74.218750
6496,74.218750
6497,74.218750
6498,74.218750
6499,74.218750
6500,74.218750
6501,74.218750
6502,74.218750
6503,74.218750
6504,74.218750
6505,74.218750
6506,74.218750
6507,74.218750
6508,72.265625
6509,74.218750
6510,74.218750
6511,72.265625
6512,72.265625
6513,72.265625
6514,72.265625
6515,72.265625
6516,70.312500
6517,70.312500
6518,70.312500
6519,68.359375
6520,68.359375
6521,68.359375
6522,68.359375
6523,66.406250
6524,66.406250
6525,64.453125
6526,64.453125
6527,62.500000
6528,62.500000
6529,62.500000
6530,60.546875
6531,60.546875
6532,58.593750
6533,58.593750
6534,56.640625
6535,56.640625
6536,54.687500
6537,54.687500
6538,52.734375
6539,50.781250
6540,50.781250
6541,48.828125
6542,46.875000
6543,46.875000
6544,44.921875
6545,42.968750
6546,42.968750
6547,41.015625
6548,39.062500
6549,37.109375
6550,37.109375
6551,35.156250
6552,33.203125
6553,31.250000
6554,29.296875
6555,29.296875
6556,27.343750
6557,25.390625
6558,23.437500
6559,21.484375
6560,21.484375
6561,17.578125
6562,17.578125
6563,15.625000
6564,13.671875
6565,11.718750
6566,9.765625
6567,7.812500
6568,5.859375
6569,3.906250
6570,3.906250
6571,1.953125
6572,0.000000
6573,-1.953125
6574,-3.906250
6575,-5.859375
6576,-11.718750
6577,-9.765625
6578,-11.718750
6579,-13.671875
6580,-15.625000
6581,-17.578125
6582,-19.531250
6583,-21.484375
6584,-23.437500
6585,-25.390625
6586,-25.390625
6587,-27.343750
6588,-29.296875
6589,-31.250000
6590,-33.203125
6591,-35.156250
6592,-37.109375
6593,-39.062500
6594,-41.015625
6595,-41.015625
6596,-44.921875
6597,-44.921875
6598,-46.875000
6599,-48.828125
6600,-50.781250
6601,-50.781250
6602,-52.734375
6603,-56.640625
6604,-56.640625
6605,-58.593750
6606,-58.593750
6607,-60.546875
6608,-62.500000
6609,-64.453125
6610,-64.453125
6611,-66.406250
6612,-68.359375
6613,-68.359375
6614,-70.312500
6615,-70.312500
6616,-72.265625
6617,-72.265625
6618,-74.218750
6619,-76.171875
6620,-76.171875
6621,-78.125000
6622,-78.125000
6623,-80.078125
6624,-80.078125
6625,-82.031250
6626,-82.031250
6627,-83.984375
6628,-83.984375
6629,-83.984375
6630,-85.937500
6631,-85.937500
6632,-85.937500
6633,-85.937500
6634,-85.937500
6635,-87.890625
6636,-87.890625
6637,-87.890625
6638,-89.843750
6639,-89.843750
6640,-89.843750
6641,-89.843750
6642,-89.843750
6643,-89.843750
6644,-89.843750
6645,-89.843750
6646,-89.843750
6647,-89.843750
6648,-89.843750
6649,-89.843750
6650,-89.843750
6651,-87.890625
6652,-85.937500
6653,-87.890625
6654,-87.890625
6655,-87.890625
6656,-87.890625
6657,-87.890625
6658,-85.937500
6659,-85.937500
6660,-83.984375
6661,-83.984375
6662,-83.984375
6663,-82.031250
6664,-82.031250
6665,-80.078125
6666,-80.078125
6667,-80.078125
6668,-78.125000
6669,-76.171875
6670,-76.171875
6671,-74.218750
6672,-74.218750
6673,-72.265625
6674,-70.312500
6675,-70.312500
6676,-68.359375
6677,-68.359375
6678,-66.406250
6679,-64.453125
6680,-62.500000
6681,-62.500000
6682,-60.546875
6683,-60.546875
6684,-58.593750
6685,-56.640625
6686,-54.687500
6687,-52.734375
6688,-52.734375
6689,-50.781250
6690,-48.828125
6691,-46.875000
6692,-44.921875
6693,-44.921875
6694,-42.968750
6695,-41.015625
6696,-39.062500
6697,-37.109375
6698,-35.156250
6699,-33.203125
6700,-31.250000
6701,-31.250000
6702,-29.296875
6703,-27.343750
6704,-25.390625
6705,-23.437500
6706,-21.484375
6707,-19.531250
6708,-17.578125
6709,-15.625000
6710,-13.671875
6711,-11.718750
6712,-9.765625
6713,-9.765625
6714,-7.812500
6715,-5.859375
6716,-1.953125
6717,-1.953125
6718,0.000000
6719,3.906250
6720,3.906250
6721,5.859375
6722,7.812500
6723,9.765625
6724,11.718750
6725,13.671875
6726,13.671875
6727,17.578125
6728,17.578125
6729,19.531250
6730,21.484375
6731,23.437500
6732,25.390625
6733,27.343750
6734,29.296875
6735,29.296875
6736,31.250000
6737,33.203125
6738,35.156250
6739,37.109375
6740,37.109375
6741,39.062500
6742,41.015625
6743,42.968750
6744,42.968750
6745,44.921875
6746,46.875000
6747,46.875000
6748,48.828125
6749,48.828125
6750,50.781250
6751,52.734375
6752,52.734375
6753,54.687500
6754,54.687500
6755,56.640625
6756,58.593750
6757,58.593750
6758,60.546875
6759,60.546875
6760,62.500000
6761,62.500000
6762,62.500000
6763,64.453125
6764,64.453125
6765,66.406250
6766,66.406250
6767,66.406250
6768,68.359375
6769,68.359375
6770,70.312500
6771,70.312500
6772,70.312500
6773,70.312500
6774,70.312500
6775,72.265625
6776,72.265625
6777,74.218750
6778,72.265625
6779,72.265625
6780,72.265625
6781,74.218750
6782,74.218750
6783,74.218750
6784,74.218750
6785,74.218750
6786,74.218750
6787,74.218750
6788,74.218750
6789,74.218750
6790,74.218750
6791,74.218750
6792,74.218750
6793,74.218750
6794,72.265625
6795,72.265625
6796,74.218750
6797,72.265625
6798,72.265625
6799,74.218750
6800,70.312500
6801,70.312500
6802,70.312500
6803,70.312500
6804,70.312500
6805,68.359375
6806,68.359375
6807,66.406250
6808,66.406250
6809,66.406250
6810,64.453125
6811,64.453125
6812,62.500000
6813,62.500000
6814,60.546875
6815,60.546875
6816,58.593750
6817,58.593750
6818,56.640625
6819,56.640625
6820,54.687500
6821,54.687500
6822,52.734375
6823,50.781250
6824,50.781250
6825,48.828125
6826,46.875000
6827,46.875000
6828,44.921875
6829,42.968750
6830,41.015625
6831,41.015625
6832,39.062500
6833,39.062500
6834,35.156250
6835,35.156250
6836,33.203125
6837,33.203125
6838,31.250000
6839,27.343750
6840,27.343750
6841,25.390625
6842,21.484375
6843,23.437500
6844,19.531250
6845,19.531250
6846,17.578125
6847,15.625000
6848,13.671875
6849,11.718750
6850,9.765625
6851,7.812500
6852,5.859375
6853,5.859375
6854,3.906250
6855,1.953125
6856,0.000000
6857,-1.953125
6858,-3.906250
6859,-5.859375
6860,-7.812500
6861,-9.765625
6862,-9.765625
6863,-13.671875
6864,-15.625000
6865,-17.578125
6866,-19.531250
6867,-19.531250
6868,-21.484375
6869,-23.437500
6870,-25.390625
6871,-27.343750
6872,-29.296875
6873,-31.250000
6874,-33.203125
6875,-35.156250
6876,-37.109375
6877,-39.062500
6878,-39.062500
6879,-41.015625
6880,-44.921875
6881,-46.875000
6882,-46.875000
6883,-48.828125
6884,-50.781250
6885,-52.734375
6886,-54.687500
6887,-54.687500
6888,-56.640625
6889,-58.593750
6890,-60.546875
6891,-60.546875
6892,-62.500000
6893,-64.453125
6894,-66.406250
6895,-66.406250
6896,-68.359375
6897,-70.312500
6898,-70.312500
6899,-72.265625
6900,-72.265625
6901,-74.218750
6902,-74.218750
6903,-76.171875
6904,-78.125000
6905,-78.125000
6906,-78.125000
6907,-80.078125
6908,-80.078125
6909,-82.031250
6910,-82.031250
6911,-83.984375
6912,-83.984375
6913,-83.984375
6914,-83.984375
6915,-85.937500
6916,-85.937500
6917,-85.937500
6918,-85.937500
6919,-87.890625
6920,-87.890625
6921,-87.890625
6922,-87.890625
6923,-89.843750
6924,-89.843750
6925,-87.890625
6926,-89.843750
6927,-89.843750
6928,-89.843750
6929,-89.843750
6930,-89.843750
6931,-89.843750
6932,-89.843750
6933,-89.843750
6934,-89.843750
6935,-87.890625
6936,-87.890625
6937,-87.890625
6938,-87.890625
6939,-89.843750
6940,-85.937500
6941,-85.937500
6942,-85.937500
6943,-85.937500
6944,-83.984375
6945,-83.984375
6946,-83.984375
6947,-83.984375
6948,-82.031250
6949,-80.078125
6950,-80.078125
6951,-80.078125
6952,-78.125000
6953,-78.125000
6954,-78.125000
6955,-76.171875
6956,-74.218750
6957,-72.265625
6958,-72.265625
6959,-70.312500
6960,-70.312500
6961,-68.359375
6962,-66.406250
6963,-66.406250
6964,-64.453125
6965,-62.500000
6966,-62.500000
6967,-60.546875
6968,-58.593750
6969,-56.640625
6970,-54.687500
6971,-54.687500
6972,-52.734375
6973,-50.781250
6974,-48.828125
6975,-46.875000
6976,-44.921875
6977,-44.921875
6978,-42.968750
6979,-41.015625
6980,-39.062500
6981,-37.109375
6982,-35.156250
6983,-33.203125
6984,-31.250000
6985,-31.250000
6986,-29.296875
6987,-27.343750
6988,-25.390625
6989,-21.484375
6990,-21.484375
6991,-19.531250
6992,-17.578125
6993,-15.625000
6994,-13.671875
6995,-11.718750
6996,-9.765625
6997,-7.812500
6998,-5.859375
6999,-3.906250
7000,-1.953125
7001,-1.953125
7002,0.000000
7003,1.953125
7004,3.906250
7005,5.859375
7006,7.812500
7007,9.765625
7008,11.718750
7009,13.671875
7010,15.625000
7011,15.625000
7012,17.578125
7013,19.531250
7014,21.484375
7015,23.437500
7016,25.390625
7017,25.390625
7018,27.343750
7019,29.296875
7020,31.250000
7021,33.203125
7022,33.203125
7023,35.156250
7024,37.109375
7025,41.015625
7026,41.015625
7027,41.015625
7028,42.968750
7029,44.921875
7030,46.875000
7031,46.875000
7032,48.828125
7033,48.828125
7034,50.781250
7035,52.734375
7036,52.734375
7037,54.687500
7038,56.640625
7039,56.640625
7040,58.593750
7041,58.593750
7042,60.546875
7043,60.546875
7044,60.546875
7045,62.500000
7046,64.453125
7047,64.453125
7048,66.406250
7049,66.406250
7050,66.406250
7051,68.359375
7052,68.359375
7053,70.312500
7054,68.359375
7055,70.312500
7056,70.312500
7057,70.312500
7058,72.265625
7059,72.265625
7060,72.265625
7061,72.265625
7062,74.218750
7063,74.218750
7064,74.218750
7065,74.218750
7066,74.218750
7067,74.218750
7068,74.218750
7069,74.218750
7070,74.218750
7071,74.218750
7072,74.218750
7073,74.218750
7074,74.218750
7075,74.218750
7076,74.218750
7077,74.218750
7078,72.265625
7079,72.265625
7080,72.265625
7081,72.265625
7082,72.265625
7083,72.265625
7084,70.312500
7085,70.312500
7086,70.312500
7087,70.312500
7088,68.359375
7089,68.359375
7090,68.359375
7091,66.406250
7092,66.406250
7093,64.453125
7094,64.453125
7095,64.453125
7096,62.500000
7097,62.500000
7098,62.500000
7099,58.593750
7100,58.593750
7101,58.593750
7102,56.640625
7103,56.640625
7104,54.687500
7105,52.734375
7106,52.734375
7107,52.734375
7108,50.781250
7109,48.828125
7110,48.828125
7111,46.875000
7112,44.921875
7113,44.921875
7114,41.015625
7115,41.015625
7116,41.015625
7117,39.062500
7118,37.109375
7119,35.156250
7120,33.203125
7121,33.203125
7122,33.203125
7123,29.296875
7124,27.343750
7125,25.390625
7126,23.437500
7127,21.484375
7128,21.484375
7129,19.531250
7130,17.578125
7131,15.625000
7132,13.671875
7133,11.718750
7134,9.765625
7135,9.765625
7136,5.859375
7137,5.859375
7138,3.906250
7139,1.953125
7140,0.000000
7141,-1.953125
7142,-3.906250
7143,-5.859375
7144,-7.812500
7145,-9.765625
7146,-11.718750
7147,-13.671875
7148,-15.625000
7149,-17.578125
7150,-19.531250
7151,-21.484375
7152,-21.484375
7153,-23.437500
7154,-27.343750
7155,-29.296875
7156,-29.296875
7157,-31.250000
7158,-33.203125
7159,-35.156250
7160,-37.109375
7161,-39.062500
7162,-39.062500
7163,-41.015625
7164,-42.968750
7165,-44.921875
7166,-46.875000
7167,-46.875000
7168,-48.828125
7169,-52.734375
7170,-52.734375
7171,-54.687500
7172,-56.640625
7173,-56.640625
7174,-58.593750
7175,-60.546875
7176,-62.500000
7177,-62.500000
7178,-64.453125
7179,-66.406250
7180,-68.359375
7181,-68.359375
7182,-70.312500
7183,-70.312500
7184,-72.265625
7185,-74.218750
7186,-74.218750
7187,-76.171875
7188,-76.171875
7189,-78.125000
7190,-78.125000
7191,-80.078125
7192,-80.078125
7193,-82.031250
7194,-82.031250
7195,-83.984375
7196,-83.984375
7197,-83.984375
7198,-85.937500
7199,-85.937500
7200,-85.937500
7201,-85.937500
7202,-87.890625
7203,-87.890625
7204,-87.890625
7205,-87.890625
7206,-87.890625
7207,-89.843750
7208,-89.843750
7209,-89.843750
7210,-89.843750
7211,-89.843750
7212,-89.843750
7213,-89.843750
7214,-89.843750
7215,-89.843750
7216,-89.843750
7217,-89.843750
7218,-89.843750
7219,-89.843750
7220,-87.890625
7221,-87.890625
7222,-87.890625
7223,-87.890625
7224,-85.937500
7225,-85.937500
7226,-85.937500
7227,-85.937500
7228,-85.937500
7229,-83.984375
7230,-83.984375
7231,-82.031250
7232,-82.031250
7233,-80.078125
7234,-82.031250
7235,-80.078125
7236,-78.125000
7237,-78.125000
7238,-76.171875
7239,-76.171875
7240,-74.218750
7241,-72.265625
7242,-72.265625
7243,-70.312500
7244,-68.359375
7245,-68.359375
7246,-68.359375
7247,-66.406250
7248,-64.453125
7249,-62.500000
7250,-60.546875
7251,-60.546875
7252,-58.593750
7253,-56.640625
7254,-54.687500
7255,-54.687500
7256,-52.734375
7257,-50.781250
7258,-48.828125
7259,-46.875000
7260,-46.875000
7261,-44.921875
7262,-42.968750
7263,-41.015625
7264,-39.062500
7265,-39.062500
7266,-35.156250
7267,-35.156250
7268,-33.203125
7269,-29.296875
7270,-29.296875
7271,-27.343750
7272,-25.390625
7273,-23.437500
7274,-21.484375
7275,-19.531250
7276,-17.578125
7277,-15.625000
7278,-13.671875
7279,-11.718750
7280,-11.718750
7281,-9.765625
7282,-7.812500
7283,-5.859375
7284,-1.953125
7285,-1.953125
7286,0.000000
7287,1.953125
7288,3.906250
7289,5.859375
7290,7.812500
7291,9.765625
7292,9.765625
7293,11.718750
7294,15.625000
7295,17.578125
7296,17.578125
7297,19.531250
7298,21.484375
7299,23.437500
7300,25.390625
7301,27.343750
7302,27.343750
7303,29.296875
7304,31.250000
7305,33.203125
7306,35.156250
7307,35.156250
7308,37.109375
7309,39.062500
7310,39.062500
7311,42.968750
7312,42.968750
7313,44.921875
7314,44.921875
7315,46.875000
7316,48.828125
7317,50.781250
7318,50.781250
7319,52.734375
7320,52.734375
7321,54.687500
7322,54.687500
7323,56.640625
7324,56.640625
7325,58.593750
7326,60.546875
7327,60.546875
7328,60.546875
7329,62.500000
7330,64.453125
7331,64.453125
7332,64.453125
7333,64.453125
7334,66.406250
7335,66.406250
7336,68.359375
7337,68.359375
7338,70.312500
7339,70.312500
7340,70.312500
7341,70.312500
7342,70.312500
7343,72.265625
7344,72.265625
7345,72.265625
7346,72.265625
7347,72.265625
7348,72.265625
7349,74.218750
7350,74.218750
7351,74.218750
7352,74.218750
7353,74.218750
7354,74.218750
7355,74.218750
7356,74.218750
7357,74.218750
7358,74.218750
7359,74.218750
7360,74.218750
7361,72.265625
7362,74.218750
7363,74.218750
7364,72.265625
7365,72.265625
7366,72.265625
7367,72.265625
7368,70.312500
7369,70.312500
7370,70.312500
7371,70.312500
7372,70.312500
7373,68.359375
7374,68.359375
7375,66.406250
7376,68.359375
7377,66.406250
7378,64.453125
7379,64.453125
7380,62.500000
7381,62.500000
7382,62.500000
7383,60.546875
7384,58.593750
7385,58.593750
7386,56.640625
7387,56.640625
7388,54.687500
7389,54.687500
7390,54.687500
7391,52.734375
7392,50.781250
7393,48.828125
7394,48.828125
7395,46.875000
7396,44.921875
7397,44.921875
7398,42.968750
7399,41.015625
7400,39.062500
7401,39.062500
7402,37.109375
7403,35.156250
7404,33.203125
7405,31.250000
7406,31.250000
7407,29.296875
7408,27.343750
7409,25.390625
7410,23.437500
7411,23.437500
7412,21.484375
7413,19.531250
7414,17.578125
7415,15.625000
7416,13.671875
7417,13.671875
7418,9.765625
7419,7.812500
7420,7.812500
7421,5.859375
7422,3.906250
7423,1.953125
7424,0.000000
7425,-1.953125
7426,-3.906250
7427,-5.859375
7428,-7.812500
7429,-9.765625
7430,-11.718750
7431,-13.671875
7432,-15.625000
7433,-15.625000
7434,-17.578125
7435,-19.531250
7436,-23.437500
7437,-23.437500
7438,-25.390625
7439,-27.343750
7440,-29.296875
7441,-31.250000
7442,-33.203125
7443,-35.156250
7444,-35.156250
7445,-37.109375
7446,-39.062500
7447,-41.015625
7448,-42.968750
7449,-44.921875
7450,-46.875000
7451,-46.875000
7452,-50.781250
7453,-52.734375
7454,-52.734375
7455,-54.687500
7456,-56.640625
7457,-58.593750
7458,-58.593750
7459,-60.546875
7460,-62.500000
7461,-64.453125
7462,-64.453125
7463,-66.406250
7464,-68.359375
7465,-68.359375
7466,-70.312500
7467,-72.265625
7468,-72.265625
7469,-72.265625
7470,-74.218750
7471,-76.171875
7472,-76.171875
7473,-78.125000
7474,-78.125000
7475,-80.078125
7476,-82.031250
7477,-82.031250
7478,-82.031250
7479,-83.984375
7480,-83.984375
7481,-83.984375
7482,-85.937500
7483,-85.937500
7484,-87.890625
7485,-87.890625
7486,-87.890625
7487,-87.890625
7488,-87.890625
7489,-87.890625
7490,-89.843750
7491,-89.843750
7492,-89.843750
7493,-89.843750
7494,-89.843750
7495,-89.843750
7496,-89.843750
7497,-91.796875
7498,-91.796875
7499,-89.843750
7500,-89.843750
7501,-89.843750
7502,-89.843750
7503,-89.843750
7504,-89.843750
7505,-87.890625
7506,-87.890625
7507,-85.937500
7508,-87.890625
7509,-85.937500
7510,-85.937500
7511,-85.937500
7512,-83.984375
7513,-83.984375
7514,-83.984375
7515,-82.031250
7516,-82.031250
7517,-82.031250
7518,-80.078125
7519,-80.078125
7520,-78.125000
7521,-76.171875
7522,-76.171875
7523,-76.171875
7524,-74.218750
7525,-72.265625
7526,-72.265625
7527,-70.312500
7528,-70.312500
7529,-68.359375
7530,-68.359375
7531,-66.406250
7532,-64.453125
7533,-62.500000
7534,-62.500000
7535,-60.546875
7536,-58.593750
7537,-56.640625
7538,-56.640625
7539,-54.687500
7540,-52.734375
7541,-50.781250
7542,-48.828125
7543,-48.828125
7544,-46.875000
7545,-44.921875
7546,-42.968750
7547,-41.015625
7548,-39.062500
7549,-37.109375
7550,-35.156250
7551,-35.156250
7552,-33.203125
7553,-31.250000
7554,-29.296875
7555,-27.343750
7556,-25.390625
7557,-23.437500
7558,-21.484375
7559,-19.531250
7560,-17.578125
7561,-17.578125
7562,-13.671875
7563,-11.718750
7564,-11.718750
7565,-9.765625
7566,-7.812500
7567,-3.906250
7568,-3.906250
7569,-1.953125
7570,0.000000
7571,1.953125
7572,3.906250
7573,5.859375
7574,7.812500
7575,9.765625
7576,11.718750
7577,13.671875
7578,15.625000
7579,15.625000
7580,17.578125
7581,19.531250
7582,21.484375
7583,23.437500
7584,25.390625
7585,27.343750
7586,27.343750
7587,29.296875
7588,31.250000
7589,33.203125
7590,35.156250
7591,37.109375
7592,37.109375
7593,39.062500
7594,41.015625
7595,41.015625
7596,42.968750
7597,44.921875
7598,44.921875
7599,46.875000
7600,48.828125
7601,48.828125
7602,50.781250
7603,50.781250
7604,52.734375
7605,54.687500
7606,54.687500
7607,54.687500
7608,58.593750
7609,58.593750
7610,60.546875
7611,60.546875
7612,62.500000
7613,62.500000
7614,62.500000
7615,64.453125
7616,62.500000
7617,64.453125
7618,66.406250
7619,66.406250
7620,68.359375
7621,68.359375
7622,68.359375
7623,70.312500
7624,70.312500
7625,70.312500
7626,70.312500
7627,70.312500
7628,72.265625
7629,72.265625
7630,74.218750
7631,74.218750
7632,74.218750
7633,74.218750
7634,72.265625
7635,74.218750
7636,74.218750
7637,74.218750
7638,74.218750
7639,74.218750
7640,74.218750
7641,74.218750
7642,74.218750
7643,74.218750
7644,74.218750
7645,72.265625
7646,74.218750
7647,74.218750
7648,72.265625
7649,72.265625
7650,72.265625
7651,70.312500
7652,70.312500
7653,70.312500
7654,70.312500
7655,70.312500
7656,68.359375
7657,68.359375
7658,68.359375
7659,68.359375
7660,66.406250
7661,64.453125
7662,64.453125
7663,64.453125
7664,62.500000
7665,62.500000
7666,60.546875
7667,60.546875
7668,58.593750
7669,58.593750
7670,56.640625
7671,56.640625
7672,54.687500
7673,54.687500
7674,52.734375
7675,50.781250
7676,50.781250
7677,48.828125
7678,46.875000
7679,46.875000
7680,44.921875
7681,42.968750
7682,42.968750
7683,41.015625
7684,41.015625
7685,39.062500
7686,37.109375
7687,35.156250
7688,35.156250
7689,33.203125
7690,29.296875
7691,29.296875
7692,27.343750
7693,23.437500
7694,25.390625
7695,23.437500
7696,21.484375
7697,19.531250
7698,17.578125
7699,17.578125
7700,13.671875
7701,13.671875
7702,9.765625
7703,9.765625
7704,7.812500
7705,5.859375
7706,3.906250
7707,1.953125
7708,0.000000
7709,-1.953125
7710,-3.906250
7711,-5.859375
7712,-7.812500
7713,-9.765625
7714,-9.765625
7715,-11.718750
7716,-15.625000
7717,-15.625000
7718,-17.578125
7719,-19.531250
7720,-21.484375
7721,-25.390625
7722,-25.390625
7723,-27.343750
7724,-29.296875
7725,-31.250000
7726,-33.203125
7727,-35.156250
7728,-37.109375
7729,-39.062500
7730,-39.062500
7731,-41.015625
7732,-42.968750
7733,-44.921875
7734,-46.875000
7735,-48.828125
7736,-50.781250
7737,-50.781250
7738,-52.734375
7739,-54.687500
7740,-56.640625
7741,-56.640625
7742,-60.546875
7743,-60.546875
7744,-62.500000
7745,-62.500000
7746,-64.453125
7747,-66.406250
7748,-66.406250
7749,-70.312500
7750,-70.312500
7751,-70.312500
7752,-72.265625
7753,-76.171875
7754,-74.218750
7755,-74.218750
7756,-76.171875
7757,-78.125000
7758,-78.125000
7759,-80.078125
7760,-80.078125
7761,-82.031250
7762,-82.031250
7763,-82.031250
7764,-83.984375
7765,-83.984375
7766,-83.984375
7767,-85.937500
7768,-85.937500
7769,-89.843750
7770,-85.937500
7771,-87.890625
7772,-89.843750
7773,-87.890625
7774,-89.843750
7775,-89.843750
7776,-89.843750
7777,-89.843750
7778,-89.843750
7779,-89.843750
7780,-89.843750
7781,-89.843750
7782,-89.843750
7783,-89.843750
7784,-89.843750
7785,-89.843750
7786,-89.843750
7787,-89.843750
7788,-89.843750
7789,-87.890625
7790,-87.890625
7791,-87.890625
7792,-87.890625
7793,-85.937500
7794,-85.937500
7795,-85.937500
7796,-85.937500
7797,-83.984375
7798,-83.984375
7799,-82.031250
7800,-82.031250
7801,-82.031250
7802,-80.078125
7803,-80.078125
7804,-78.125000
7805,-76.171875
7806,-76.171875
7807,-76.171875
7808,-74.218750
7809,-74.218750
7810,-72.265625
7811,-70.312500
7812,-70.312500
7813,-68.359375
7814,-68.359375
7815,-66.406250
7816,-64.453125
7817,-62.500000
7818,-60.546875
7819,-60.546875
7820,-58.593750
7821,-56.640625
7822,-54.687500
7823,-54.687500
7824,-52.734375
7825,-50.781250
7826,-48.828125
7827,-46.875000
7828,-44.921875
7829,-44.921875
7830,-42.968750
7831,-41.015625
7832,-39.062500
7833,-37.109375
7834,-37.109375
7835,-33.203125
7836,-33.203125
7837,-31.250000
7838,-29.296875
7839,-27.343750
7840,-25.390625
7841,-23.437500
7842,-21.484375
7843,-19.531250
7844,-17.578125
7845,-17.578125
7846,-13.671875
7847,-13.671875
7848,-11.718750
7849,-9.765625
7850,-7.812500
7851,-5.859375
7852,-3.906250
7853,-1.953125
7854,0.000000
7855,1.953125
7856,3.906250
7857,3.906250
7858,7.812500
7859,9.765625
7860,11.718750
7861,11.718750
7862,13.671875
7863,15.625000
7864,17.578125
7865,19.531250
7866,21.484375
7867,23.437500
7868,23.437500
7869,25.390625
7870,27.343750
7871,29.296875
7872,31.250000
7873,33.203125
7874,33.203125
7875,35.156250
7876,37.109375
7877,37.109375
7878,39.062500
7879,41.015625
7880,42.968750
7881,44.921875
7882,46.875000
7883,46.875000
7884,46.875000
7885,48.828125
7886,50.781250
7887,50.781250
7888,52.734375
7889,54.687500
7890,56.640625
7891,56.640625
7892,56.640625
7893,58.593750
7894,60.546875
7895,60.546875
7896,60.546875
7897,62.500000
7898,64.453125
7899,64.453125
7900,66.406250
7901,66.406250
7902,66.406250
7903,68.359375
7904,68.359375
7905,68.359375
7906,68.359375
7907,68.359375
7908,68.359375
7909,70.312500
7910,72.265625
7911,72.265625
7912,72.265625
7913,72.265625
7914,72.265625
7915,74.218750
7916,74.218750
7917,74.218750
7918,74.218750
7919,72.265625
7920,74.218750
7921,74.218750
7922,74.218750
7923,74.218750
7924,74.218750
7925,74.218750
7926,74.218750
7927,74.218750
7928,74.218750
7929,74.218750
7930,74.218750
7931,72.265625
7932,72.265625
7933,72.265625
7934,72.265625
7935,72.265625
7936,72.265625
7937,72.265625
7938,70.312500
7939,70.312500
7940,70.312500
7941,68.359375
7942,68.359375
7943,68.359375
7944,66.406250
7945,66.406250
7946,66.406250
7947,64.453125
7948,64.453125
7949,62.500000
7950,62.500000
7951,60.546875
7952,60.546875
7953,58.593750
7954,58.593750
7955,56.640625
7956,54.687500
7957,54.687500
7958,52.734375
7959,52.734375
7960,50.781250
7961,50.781250
7962,48.828125
7963,46.875000
7964,44.921875
7965,44.921875
7966,42.968750
7967,42.968750
7968,41.015625
7969,39.062500
7970,37.109375
7971,35.156250
7972,35.156250
7973,33.203125
7974,31.250000
7975,29.296875
7976,27.343750
7977,25.390625
7978,29.296875
7979,23.437500
7980,21.484375
7981,19.531250
7982,17.578125
7983,15.625000
7984,13.671875
7985,11.718750
7986,11.718750
7987,9.765625
7988,3.906250
7989,5.859375
7990,3.906250
7991,1.953125
7992,0.000000
7993,-1.953125
7994,-3.906250
7995,-5.859375
7996,-5.859375
7997,-9.765625
7998,-11.718750
7999,-13.671875
8000,-15.625000
8001,-15.625000
8002,-17.578125
8003,-19.531250
8004,-21.484375
8005,-23.437500
8006,-25.390625
8007,-27.343750
8008,-29.296875
8009,-31.250000
8010,-33.203125
8011,-35.156250
8012,-37.109375
8013,-37.109375
8014,-39.062500
8015,-41.015625
8016,-42.968750
8017,-44.921875
8018,-46.875000
8019,-48.828125
8020,-48.828125
8021,-50.781250
8022,-52.734375
8023,-54.687500
8024,-56.640625
8025,-56.640625
8026,-58.593750
8027,-60.546875
8028,-62.500000
8029,-62.500000
8030,-64.453125
8031,-66.406250
8032,-66.406250
8033,-66.406250
8034,-70.312500
8035,-72.265625
8036,-72.265625
8037,-74.218750
8038,-74.218750
8039,-76.171875
8040,-76.171875
8041,-78.125000
8042,-78.125000
8043,-80.078125
8044,-80.078125
8045,-82.031250
8046,-82.031250
8047,-82.031250
8048,-83.984375
8049,-83.984375
8050,-83.984375
8051,-85.937500
8052,-85.937500
8053,-85.937500
8054,-87.890625
8055,-87.890625
8056,-87.890625
8057,-87.890625
8058,-89.843750
8059,-89.843750
8060,-89.843750
8061,-89.843750
8062,-89.843750
8063,-87.890625
8064,-89.843750
8065,-89.843750
8066,-89.843750
8067,-89.843750
8068,-89.843750
8069,-89.843750
8070,-89.843750
8071,-89.843750
8072,-87.890625
8073,-87.890625
8074,-87.890625
8075,-87.890625
8076,-85.937500
8077,-87.890625
8078,-85.937500
8079,-85.937500
8080,-85.937500
8081,-83.984375
8082,-83.984375
8083,-82.031250
8084,-82.031250
8085,-82.031250
8086,-80.078125
8087,-80.078125
8088,-78.125000
8089,-78.125000
8090,-78.125000
8091,-76.171875
8092,-74.218750
8093,-74.218750
8094,-72.265625
8095,-70.312500
8096,-70.312500
8097,-68.359375
8098,-68.359375
8099,-66.406250
8100,-64.453125
8101,-64.453125
8102,-62.500000
8103,-62.500000
8104,-58.593750
8105,-58.593750
8106,-56.640625
8107,-54.687500
8108,-52.734375
8109,-50.781250
8110,-48.828125
8111,-48.828125
8112,-46.875000
8113,-44.921875
8114,-42.968750
8115,-41.015625
8116,-41.015625
8117,-37.109375
8118,-37.109375
8119,-35.156250
8120,-33.203125
8121,-31.250000
8122,-29.296875
8123,-27.343750
8124,-25.390625
8125,-23.437500
8126,-21.484375
8127,-19.531250
8128,-19.531250
8129,-15.625000
8130,-15.625000
8131,-13.671875
8132,-11.718750
8133,-9.765625
8134,-7.812500
8135,-5.859375
8136,-3.906250
8137,-1.953125
8138,0.000000
8139,1.953125
8140,1.953125
8141,5.859375
8142,7.812500
8143,7.812500
8144,9.765625
8145,11.718750
8146,13.671875
8147,15.625000
8148,17.578125
8149,19.531250
8150,21.484375
8151,23.437500
8152,25.390625
8153,25.390625
8154,27.343750
8155,31.250000
8156,31.250000
8157,33.203125
8158,33.203125
8159,35.156250
8160,37.109375
8161,39.062500
8162,39.062500
8163,41.015625
8164,42.968750
8165,44.921875
8166,44.921875
8167,46.875000
8168,46.875000
8169,48.828125
8170,50.781250
8171,50.781250
8172,50.781250
8173,52.734375
8174,54.687500
8175,54.687500
8176,58.593750
8177,58.593750
8178,58.593750
8179,60.546875
8180,60.546875
8181,62.500000
8182,62.500000
8183,64.453125
8184,64.453125
8185,66.406250
8186,66.406250
8187,66.406250
8188,68.359375
8189,68.359375
8190,68.359375
8191,70.312500
8192,70.312500
8193,70.312500
8194,70.312500
8195,72.265625
8196,72.265625
8197,72.265625
8198,72.265625
8199,72.265625
8200,72.265625
8201,74.218750
8202,74.218750
8203,74.218750
8204,74.218750
8205,76.171875
8206,74.218750
8207,74.218750
8208,74.218750
8209,74.218750
8210,74.218750
8211,74.218750
8212,74.218750
8213,74.218750
8214,76.171875
8215,74.218750
8216,72.265625
8217,72.265625
8218,72.265625
8219,72.265625
8220,70.312500
8221,70.312500
8222,70.312500
8223,70.312500
8224,68.359375
8225,68.359375
8226,68.359375
8227,68.359375
8228,66.406250
8229,66.406250
8230,64.453125
8231,64.453125
8232,62.500000
8233,62.500000
8234,60.546875
8235,60.546875
8236,58.593750
8237,58.593750
8238,58.593750
8239,56.640625
8240,54.687500
8241,54.687500
8242,52.734375
8243,52.734375
8244,50.781250
8245,48.828125
8246,48.828125
8247,46.875000
8248,44.921875
8249,44.921875
8250,42.968750
8251,42.968750
8252,39.062500
8253,39.062500
8254,37.109375
8255,35.156250
8256,33.203125
8257,31.250000
8258,31.250000
8259,29.296875
8260,27.343750
8261,27.343750
8262,25.390625
8263,23.437500
8264,21.484375
8265,19.531250
8266,17.578125
8267,15.625000
8268,15.625000
8269,13.671875
8270,11.718750
8271,9.765625
8272,7.812500
8273,5.859375
8274,3.906250
8275,1.953125
8276,0.000000
8277,-1.953125
8278,-3.906250
8279,-3.906250
8280,-5.859375
8281,-7.812500
8282,-9.765625
8283,-11.718750
8284,-13.671875
8285,-15.625000
8286,-17.578125
8287,-19.531250
8288,-21.484375
8289,-23.437500
8290,-25.390625
8291,-27.343750
8292,-29.296875
8293,-31.250000
8294,-31.250000
8295,-33.203125
8296,-35.156250
8297,-37.109375
8298,-39.062500
8299,-41.015625
8300,-42.968750
8301,-44.921875
8302,-44.921875
8303,-46.875000
8304,-48.828125
8305,-50.781250
8306,-52.734375
8307,-54.687500
8308,-56.640625
8309,-56.640625
8310,-58.593750
8311,-60.546875
8312,-62.500000
8313,-64.453125
8314,-64.453125
8315,-66.406250
8316,-68.359375
8317,-68.359375
8318,-70.312500
8319,-72.265625
8320,-72.265625
8321,-74.218750
8322,-74.218750
8323,-76.171875
8324,-78.125000
8325,-78.125000
8326,-78.125000
8327,-80.078125
8328,-80.078125
8329,-82.031250
8330,-82.031250
8331,-82.031250
8332,-83.984375
8333,-83.984375
8334,-83.984375
8335,-85.937500
8336,-85.937500
8337,-85.937500
8338,-87.890625
8339,-87.890625
8340,-87.890625
8341,-87.890625
8342,-89.843750
8343,-87.890625
8344,-89.843750
8345,-89.843750
8346,-89.843750
8347,-89.843750
8348,-89.843750
8349,-89.843750
8350,-89.843750
8351,-82.031250
8352,-89.843750
8353,-89.843750
8354,-87.890625
8355,-89.843750
8356,-89.843750
8357,-89.843750
8358,-87.890625
8359,-87.890625
8360,-87.890625
8361,-85.937500
8362,-85.937500
8363,-85.937500
8364,-85.937500
8365,-85.937500
8366,-83.984375
8367,-82.031250
8368,-82.031250
8369,-82.031250
8370,-80.078125
8371,-80.078125
8372,-78.125000
8373,-78.125000
8374,-76.171875
8375,-76.171875
8376,-74.218750
8377,-74.218750
8378,-72.265625
8379,-70.312500
8380,-70.312500
8381,-68.359375
8382,-68.359375
8383,-68.359375
8384,-64.453125
8385,-62.500000
8386,-62.500000
8387,-60.546875
8388,-58.593750
8389,-56.640625
8390,-56.640625
8391,-54.687500
8392,-52.734375
8393,-50.781250
8394,-50.781250
8395,-48.828125
8396,-46.875000
8397,-44.921875
8398,-42.968750
8399,-41.015625
8400,-39.062500
8401,-39.062500
8402,-37.109375
8403,-33.203125
8404,-33.203125
8405,-31.250000
8406,-29.296875
8407,-27.343750
8408,-25.390625
8409,-23.437500
8410,-21.484375
8411,-19.531250
8412,-19.531250
8413,-15.625000
8414,-15.625000
8415,-11.718750
8416,-11.718750
8417,-9.765625
8418,-7.812500
8419,-5.859375
8420,-3.906250
8421,-1.953125
8422,0.000000
8423,1.953125
8424,3.906250
8425,5.859375
8426,5.859375
8427,7.812500
8428,9.765625
8429,11.718750
8430,13.671875
8431,15.625000
8432,17.578125
8433,19.531250
8434,21.484375
8435,23.437500
8436,23.437500
8437,21.484375
8438,27.343750
8439,29.296875
8440,31.250000
8441,31.250000
8442,33.203125
8443,35.156250
8444,37.109375
8445,37.109375
8446,39.062500
8447,41.015625
8448,42.968750
8449,42.968750
8450,44.921875
8451,46.875000
8452,46.875000
8453,48.828125
8454,50.781250
8455,52.734375
8456,52.734375
8457,54.687500
8458,54.687500
8459,54.687500
8460,56.640625
8461,58.593750
8462,58.593750
8463,60.546875
8464,60.546875
8465,62.500000
8466,62.500000
8467,62.500000
8468,64.453125
8469,66.406250
8470,66.406250
8471,66.406250
8472,68.359375
8473,68.359375
8474,68.359375
8475,70.312500
8476,70.312500
8477,70.312500
8478,72.265625
8479,72.265625
8480,72.265625
8481,72.265625
8482,72.265625
8483,74.218750
8484,74.218750
8485,74.218750
8486,74.218750
8487,74.218750
8488,74.218750
8489,74.218750
8490,74.218750
8491,74.218750
8492,74.218750
8493,74.218750
8494,74.218750
8495,74.218750
8496,74.218750
8497,72.265625
8498,74.218750
8499,72.265625
8500,72.265625
8501,72.265625
8502,72.265625
8503,72.265625
8504,70.312500
8505,70.312500
8506,70.312500
8507,70.312500
8508,68.359375
8509,68.359375
8510,68.359375
8511,66.406250
8512,66.406250
8513,66.406250
8514,64.453125
8515,64.453125
8516,64.453125
8517,62.500000
8518,62.500000
8519,60.546875
8520,60.546875
8521,58.593750
8522,58.593750
8523,56.640625
8524,56.640625
8525,54.687500
8526,52.734375
8527,52.734375
8528,50.781250
8529,48.828125
8530,48.828125
8531,46.875000
8532,46.875000
8533,44.921875
8534,42.968750
8535,41.015625
8536,41.015625
8537,39.062500
8538,37.109375
8539,37.109375
8540,35.156250
8541,33.203125
8542,31.250000
8543,29.296875
8544,27.343750
8545,25.390625
8546,25.390625
8547,23.437500
8548,21.484375
8549,19.531250
8550,17.578125
8551,15.625000
8552,15.625000
8553,13.671875
8554,11.718750
8555,9.765625
8556,7.812500
8557,5.859375
8558,3.906250
8559,1.953125
8560,0.000000
8561,-1.953125
8562,-1.953125
8563,-3.906250
8564,-5.859375
8565,-9.765625
8566,-9.765625
8567,-11.718750
8568,-13.671875
8569,-15.625000
8570,-17.578125
8571,-19.531250
8572,-21.484375
8573,-23.437500
8574,-25.390625
8575,-27.343750
8576,-29.296875
8577,-31.250000
8578,-31.250000
8579,-35.156250
8580,-35.156250
8581,-37.109375
8582,-39.062500
8583,-41.015625
8584,-42.968750
8585,-44.921875
8586,-44.921875
8587,-48.828125
8588,-48.828125
8589,-50.781250
8590,-52.734375
8591,-54.687500
8592,-54.687500
8593,-56.640625
8594,-56.640625
8595,-60.546875
8596,-62.500000
8597,-62.500000
8598,-62.500000
8599,-64.453125
8600,-66.406250
8601,-68.359375
8602,-70.312500
8603,-70.312500
8604,-72.265625
8605,-72.265625
8606,-74.218750
8607,-74.218750
8608,-76.171875
8609,-78.125000
8610,-78.125000
8611,-78.125000
8612,-80.078125
8613,-80.078125
8614,-82.031250
8615,-82.031250
8616,-83.984375
8617,-83.984375
8618,-83.984375
8619,-85.937500
8620,-85.937500
8621,-85.937500
8622,-87.890625
8623,-87.890625
8624,-87.890625
8625,-87.890625
8626,-87.890625
8627,-89.843750
8628,-89.843750
8629,-87.890625
8630,-89.843750
8631,-89.843750
8632,-89.843750
8633,-89.843750
8634,-89.843750
8635,-89.843750
8636,-89.843750
8637,-89.843750
8638,-89.843750
8639,-89.843750
8640,-89.843750
8641,-89.843750
8642,-89.843750
8643,-87.890625
8644,-87.890625
8645,-87.890625
8646,-85.937500
8647,-85.937500
8648,-85.937500
8649,-83.984375
8650,-83.984375
8651,-83.984375
8652,-82.031250
8653,-82.031250
8654,-80.078125
8655,-80.078125
8656,-80.078125
8657,-78.125000
8658,-76.171875
8659,-76.171875
8660,-74.218750
8661,-74.218750
8662,-72.265625
8663,-72.265625
8664,-70.312500
8665,-68.359375
8666,-66.406250
8667,-66.406250
8668,-64.453125
8669,-62.500000
8670,-62.500000
8671,-60.546875
8672,-58.593750
8673,-58.593750
8674,-56.640625
8675,-54.687500
8676,-52.734375
8677,-50.781250
8678,-50.781250
8679,-48.828125
8680,-46.875000
8681,-44.921875
8682,-42.968750
8683,-41.015625
8684,-39.062500
8685,-39.062500
8686,-37.109375
8687,-35.156250
8688,-33.203125
8689,-31.250000
8690,-29.296875
8691,-29.296875
8692,-27.343750
8693,-25.390625
8694,-23.437500
8695,-19.531250
8696,-19.531250
8697,-17.578125
8698,-15.625000
8699,-13.671875
8700,-11.718750
8701,-9.765625
8702,-7.812500
8703,-5.859375
8704,-3.906250
8705,-1.953125
8706,-1.953125
8707,1.953125
8708,1.953125
8709,5.859375
8710,5.859375
8711,7.812500
8712,9.765625
8713,11.718750
8714,13.671875
8715,15.625000
8716,17.578125
8717,17.578125
8718,19.531250
8719,21.484375
8720,23.437500
8721,25.390625
8722,27.343750
8723,29.296875
8724,31.250000
8725,31.250000
8726,33.203125
8727,35.156250
8728,37.109375
8729,37.109375
8730,39.062500
8731,41.015625
8732,42.968750
8733,44.921875
8734,44.921875
8735,46.875000
8736,48.828125
8737,48.828125
8738,50.781250
8739,50.781250
8740,52.734375
8741,52.734375
8742,54.687500
8743,54.687500
8744,56.640625
8745,58.593750
8746,58.593750
8747,60.546875
8748,60.546875
8749,62.500000
8750,62.500000
8751,64.453125
8752,64.453125
8753,64.453125
8754,66.406250
8755,66.406250
8756,68.359375
8757,68.359375
8758,68.359375
8759,70.312500
8760,70.312500
8761,70.312500
8762,70.312500
8763,72.265625
8764,72.265625
8765,72.265625
8766,72.265625
8767,72.265625
8768,74.218750
8769,74.218750
8770,74.218750
8771,74.218750
8772,74.218750
8773,74.218750
8774,74.218750
8775,74.218750
8776,74.218750
8777,74.218750
8778,74.218750
8779,74.218750
8780,74.218750
8781,74.218750
8782,74.218750
8783,72.265625
8784,74.218750
8785,72.265625
8786,72.265625
8787,72.265625
8788,72.265625
8789,72.265625
8790,70.312500
8791,70.312500
8792,70.312500
8793,68.359375
8794,68.359375
8795,68.359375
8796,66.406250
8797,66.406250
8798,64.453125
8799,64.453125
8800,64.453125
8801,62.500000
8802,62.500000
8803,60.546875
8804,60.546875
8805,58.593750
8806,58.593750
8807,56.640625
8808,56.640625
8809,54.687500
8810,52.734375
8811,52.734375
8812,50.781250
8813,50.781250
8814,48.828125
8815,46.875000
8816,44.921875
8817,44.921875
8818,42.968750
8819,41.015625
8820,42.968750
8821,39.062500
8822,37.109375
8823,35.156250
8824,33.203125
8825,33.203125
8826,31.250000
8827,29.296875
8828,27.343750
8829,27.343750
8830,25.390625
8831,23.437500
8832,21.484375
8833,19.531250
8834,17.578125
8835,15.625000
8836,15.625000
8837,13.671875
8838,9.765625
8839,9.765625
8840,7.812500
8841,5.859375
8842,3.906250
8843,1.953125
8844,1.953125
8845,-1.953125
8846,-1.953125
8847,-3.906250
8848,-5.859375
8849,-7.812500
8850,-9.765625
8851,-11.718750
8852,-13.671875
8853,-15.625000
8854,-17.578125
8855,-19.531250
8856,-21.484375
8857,-23.437500
8858,-25.390625
8859,-25.390625
8860,-27.343750
8861,-31.250000
8862,-31.250000
8863,-33.203125
8864,-35.156250
8865,-37.109375
8866,-39.062500
8867,-41.015625
8868,-42.968750
8869,-42.968750
8870,-46.875000
8871,-48.828125
8872,-48.828125
8873,-50.781250
8874,-52.734375
8875,-54.687500
8876,-56.640625
8877,-56.640625
8878,-58.593750
8879,-60.546875
8880,-62.500000
8881,-62.500000
8882,-64.453125
8883,-66.406250
8884,-66.406250
8885,-68.359375
8886,-70.312500
8887,-70.312500
8888,-72.265625
8889,-72.265625
8890,-74.218750
8891,-76.171875
8892,-76.171875
8893,-78.125000
8894,-78.125000
8895,-80.078125
8896,-80.078125
8897,-80.078125
8898,-82.031250
8899,-83.984375
8900,-83.984375
8901,-83.984375
8902,-83.984375
8903,-85.937500
8904,-85.937500
8905,-85.937500
8906,-87.890625
8907,-87.890625
8908,-87.890625
8909,-87.890625
8910,-87.890625
8911,-89.843750
8912,-89.843750
8913,-89.843750
8914,-89.843750
8915,-89.843750
8916,-89.843750
8917,-89.843750
8918,-89.843750
8919,-89.843750
8920,-89.843750
8921,-89.843750
8922,-87.890625
8923,-89.843750
8924,-87.890625
8925,-87.890625
8926,-89.843750
8927,-87.890625
8928,-87.890625
8929,-85.937500
8930,-85.937500
8931,-85.937500
8932,-83.984375
8933,-83.984375
8934,-83.984375
8935,-83.984375
8936,-82.031250
8937,-82.031250
8938,-80.078125
8939,-80.078125
8940,-78.125000
8941,-78.125000
8942,-76.171875
8943,-76.171875
8944,-74.218750
8945,-74.218750
8946,-72.265625
8947,-72.265625
8948,-70.312500
8949,-70.312500
8950,-68.359375
8951,-66.406250
8952,-64.453125
8953,-64.453125
8954,-62.500000
8955,-60.546875
8956,-60.546875
8957,-58.593750
8958,-56.640625
8959,-54.687500
8960,-52.734375
8961,-52.734375
8962,-50.781250
8963,-48.828125
8964,-46.875000
8965,-44.921875
8966,-42.968750
8967,-41.015625
8968,-39.062500
8969,-39.062500
8970,-35.156250
8971,-35.156250
8972,-35.156250
8973,-31.250000
8974,-29.296875
8975,-29.296875
8976,-27.343750
8977,-23.437500
8978,-23.437500
8979,-21.484375
8980,-19.531250
8981,-17.578125
8982,-15.625000
8983,-13.671875
8984,-11.718750
8985,-9.765625
8986,-7.812500
8987,-5.859375
8988,-3.906250
8989,-1.953125
8990,0.000000
8991,1.953125
8992,3.906250
8993,3.906250
8994,5.859375
8995,9.765625
8996,9.765625
8997,11.718750
8998,13.671875
8999,15.625000
9000,17.578125
9001,19.531250
9002,19.531250
9003,21.484375
9004,23.437500
9005,25.390625
9006,27.343750
9007,27.343750
9008,29.296875
9009,31.250000
9010,33.203125
9011,33.203125
9012,37.109375
9013,37.109375
9014,39.062500
9015,39.062500
9016,41.015625
9017,42.968750
9018,44.921875
9019,46.875000
9020,46.875000
9021,48.828125
9022,48.828125
9023,50.781250
9024,52.734375
9025,54.687500
9026,54.687500
9027,54.687500
9028,56.640625
9029,56.640625
9030,58.593750
9031,60.546875
9032,60.546875
9033,62.500000
9034,62.500000
9035,64.453125
9036,64.453125
9037,64.453125
9038,66.406250
9039,66.406250
9040,68.359375
9041,68.359375
9042,66.406250
9043,70.312500
9044,70.312500
9045,70.312500
9046,70.312500
9047,72.265625
9048,70.312500
9049,72.265625
9050,72.265625
9051,72.265625
9052,74.218750
9053,72.265625
9054,74.218750
9055,74.218750
9056,74.218750
9057,74.218750
9058,74.218750
9059,74.218750
9060,74.218750
9061,74.218750
9062,74.218750
9063,74.218750
9064,74.218750
9065,74.218750
9066,74.218750
9067,72.265625
9068,72.265625
9069,72.265625
9070,72.265625
9071,72.265625
9072,70.312500
9073,70.312500
9074,70.312500
9075,70.312500
9076,68.359375
9077,68.359375
9078,68.359375
9079,66.406250
9080,66.406250
9081,66.406250
9082,66.406250
9083,64.453125
9084,62.500000
9085,62.500000
9086,62.500000
9087,60.546875
9088,60.546875
9089,58.593750
9090,58.593750
9091,56.640625
9092,54.687500
9093,54.687500
9094,54.687500
9095,52.734375
9096,50.781250
9097,50.781250
9098,48.828125
9099,46.875000
9100,44.921875
9101,44.921875
9102,42.968750
9103,42.968750
9104,41.015625
9105,39.062500
9106,37.109375
9107,37.109375
9108,35.156250
9109,33.203125
9110,31.250000
9111,29.296875
9112,29.296875
9113,27.343750
9114,25.390625
9115,23.437500
9116,23.437500
9117,21.484375
9118,17.578125
9119,17.578125
9120,15.625000
9121,13.671875
9122,11.718750
9123,9.765625
9124,7.812500
9125,5.859375
9126,3.906250
9127,3.906250
9128,1.953125
9129,-1.953125
9130,-1.953125
9131,-3.906250
9132,-5.859375
9133,-7.812500
9134,-9.765625
9135,-11.718750
9136,-13.671875
9137,-15.625000
9138,-17.578125
9139,-19.531250
9140,-21.484375
9141,-23.437500
9142,-25.390625
9143,-27.343750
9144,-29.296875
9145,-29.296875
9146,-31.250000
9147,-35.156250
9148,-35.156250
9149,-37.109375
9150,-39.062500
9151,-41.015625
9152,-42.968750
9153,-44.921875
9154,-44.921875
9155,-46.875000
9156,-48.828125
9157,-50.781250
9158,-52.734375
9159,-54.687500
9160,-54.687500
9161,-56.640625
9162,-58.593750
9163,-60.546875
9164,-62.500000
9165,-62.500000
9166,-64.453125
9167,-66.406250
9168,-66.406250
9169,-68.359375
9170,-68.359375
9171,-70.312500
9172,-72.265625
9173,-74.218750
9174,-74.218750
9175,-74.218750
9176,-76.171875
9177,-78.125000
9178,-78.125000
9179,-80.078125
9180,-80.078125
9181,-80.078125
9182,-82.031250
9183,-82.031250
9184,-83.984375
9185,-83.984375
9186,-85.937500
9187,-85.937500
9188,-85.937500
9189,-85.937500
9190,-87.890625
9191,-87.890625
9192,-87.890625
9193,-87.890625
9194,-87.890625
9195,-89.843750
9196,-89.843750
9197,-89.843750
9198,-89.843750
9199,-89.843750
9200,-87.890625
9201,-89.843750
9202,-89.843750
9203,-89.843750
9204,-89.843750
9205,-89.843750
9206,-89.843750
9207,-91.796875
9208,-89.843750
9209,-85.937500
9210,-87.890625
9211,-87.890625
9212,-87.890625
9213,-87.890625
9214,-85.937500
9215,-85.937500
9216,-85.937500
9217,-85.937500
9218,-83.984375
9219,-83.984375
9220,-82.031250
9221,-82.031250
9222,-82.031250
9223,-80.078125
9224,-80.078125
9225,-78.125000
9226,-76.171875
9227,-76.171875
9228,-74.218750
9229,-74.218750
9230,-72.265625
9231,-70.312500
9232,-70.312500
9233,-70.312500
9234,-68.359375
9235,-66.406250
9236,-64.453125
9237,-64.453125
9238,-62.500000
9239,-60.546875
9240,-58.593750
9241,-58.593750
9242,-56.640625
9243,-54.687500
9244,-54.687500
9245,-52.734375
9246,-50.781250
9247,-48.828125
9248,-46.875000
9249,-44.921875
9250,-42.968750
9251,-42.968750
9252,-39.062500
9253,-39.062500
9254,-37.109375
9255,-35.156250
9256,-33.203125
9257,-31.250000
9258,-29.296875
9259,-27.343750
9260,-27.343750
9261,-25.390625
9262,-21.484375
9263,-21.484375
9264,-19.531250
9265,-17.578125
9266,-13.671875
9267,-13.671875
9268,-11.718750
9269,-9.765625
9270,-7.812500
9271,-5.859375
9272,-3.906250
9273,-1.953125
9274,-1.953125
9275,0.000000
9276,3.906250
9277,3.906250
9278,5.859375
9279,7.812500
9280,9.765625
9281,11.718750
9282,13.671875
9283,17.578125
9284,15.625000
9285,17.578125
9286,19.531250
9287,21.484375
9288,23.437500
9289,25.390625
9290,27.343750
9291,29.296875
9292,29.296875
9293,31.250000
9294,33.203125
9295,35.156250
9296,37.109375
9297,37.109375
9298,39.062500
9299,41.015625
9300,41.015625
9301,42.968750
9302,44.921875
9303,46.875000
9304,48.828125
9305,48.828125
9306,50.781250
9307,50.781250
9308,52.734375
9309,52.734375
9310,54.687500
9311,56.640625
9312,56.640625
9313,58.593750
9314,58.593750
9315,60.546875
9316,60.546875
9317,62.500000
9318,62.500000
9319,64.453125
9320,64.453125
9321,64.453125
9322,66.406250
9323,66.406250
9324,66.406250
9325,68.359375
9326,68.359375
9327,70.312500
9328,70.312500
9329,70.312500
9330,72.265625
9331,70.312500
9332,72.265625
9333,72.265625
9334,72.265625
9335,72.265625
9336,72.265625
9337,72.265625
9338,74.218750
9339,74.218750
9340,74.218750
9341,74.218750
9342,74.218750
9343,74.218750
9344,74.218750
9345,74.218750
9346,74.218750
9347,72.265625
9348,74.218750
9349,74.218750
9350,72.265625
9351,72.265625
9352,74.218750
9353,72.265625
9354,72.265625
9355,72.265625
9356,72.265625
9357,70.312500
9358,70.312500
9359,70.312500
9360,68.359375
9361,68.359375
9362,68.359375
9363,66.406250
9364,66.406250
9365,66.406250
9366,64.453125
9367,64.453125
9368,64.453125
9369,62.500000
9370,62.500000
9371,60.546875
9372,60.546875
9373,58.593750
9374,56.640625
9375,56.640625
9376,56.640625
9377,54.687500
9378,52.734375
9379,52.734375
9380,50.781250
9381,50.781250
9382,48.828125
9383,46.875000
9384,46.875000
9385,44.921875
9386,42.968750
9387,42.968750
9388,41.015625
9389,39.062500
9390,37.109375
9391,37.109375
9392,35.156250
9393,33.203125
9394,31.250000
9395,31.250000
9396,27.343750
9397,27.343750
9398,25.390625
9399,23.437500
9400,21.484375
9401,19.531250
9402,17.578125
9403,15.625000
9404,15.625000
9405,13.671875
9406,11.718750
9407,9.765625
9408,7.812500
9409,5.859375
9410,3.906250
9411,1.953125
9412,1.953125
9413,-1.953125
9414,-3.906250
9415,-5.859375
9416,-5.859375
9417,-7.812500
9418,-9.765625
9419,-11.718750
9420,-13.671875
9421,-15.625000
9422,-17.578125
9423,-19.531250
9424,-21.484375
9425,-23.437500
9426,-25.390625
9427,-25.390625
9428,-27.343750
9429,-31.250000
9430,-31.250000
9431,-33.203125
9432,-35.156250
9433,-37.109375
9434,-39.062500
9435,-41.015625
9436,-42.968750
9437,-44.921875
9438,-44.921875
9439,-46.875000
9440,-48.828125
9441,-50.781250
9442,-52.734375
9443,-54.687500
9444,-54.687500
9445,-56.640625
9446,-58.593750
9447,-60.546875
9448,-60.546875
9449,-62.500000
9450,-64.453125
9451,-64.453125
9452,-66.406250
9453,-68.359375
9454,-68.359375
9455,-70.312500
9456,-72.265625
9457,-72.265625
9458,-74.218750
9459,-76.171875
9460,-76.171875
9461,-76.171875
9462,-78.125000
9463,-80.078125
9464,-80.078125
9465,-80.078125
9466,-82.031250
9467,-82.031250
9468,-83.984375
9469,-83.984375
9470,-83.984375
9471,-85.937500
9472,-85.937500
9473,-85.937500
9474,-87.890625
9475,-87.890625
9476,-87.890625
9477,-87.890625
9478,-89.843750
9479,-89.843750
9480,-89.843750
9481,-89.843750
9482,-89.843750
9483,-89.843750
9484,-89.843750
9485,-89.843750
9486,-89.843750
9487,-89.843750
9488,-89.843750
9489,-89.843750
9490,-89.843750
9491,-87.890625
9492,-89.843750
9493,-89.843750
9494,-87.890625
9495,-87.890625
9496,-87.890625
9497,-87.890625
9498,-85.937500
9499,-85.937500
9500,-85.937500
9501,-83.984375
9502,-83.984375
9503,-83.984375
9504,-82.031250
9505,-82.031250
9506,-82.031250
9507,-80.078125
9508,-78.125000
9509,-78.125000
9510,-76.171875
9511,-76.171875
9512,-76.171875
9513,-74.218750
9514,-72.265625
9515,-72.265625
9516,-70.312500
9517,-70.312500
9518,-68.359375
9519,-66.406250
9520,-64.453125
9521,-64.453125
9522,-62.500000
9523,-62.500000
9524,-58.593750
9525,-58.593750
9526,-56.640625
9527,-54.687500
9528,-54.687500
9529,-52.734375
9530,-50.781250
9531,-48.828125
9532,-46.875000
9533,-46.875000
9534,-42.968750
9535,-42.968750
9536,-41.015625
9537,-39.062500
9538,-37.109375
9539,-35.156250
9540,-33.203125
9541,-33.203125
9542,-29.296875
9543,-29.296875
9544,-27.343750
9545,-23.437500
9546,-25.390625
9547,-21.484375
9548,-19.531250
9549,-17.578125
9550,-15.625000
9551,-13.671875
9552,-11.718750
9553,-9.765625
9554,-7.812500
9555,-5.859375
9556,-3.906250
9557,-1.953125
9558,-1.953125
9559,0.000000
9560,1.953125
9561,3.906250
9562,5.859375
9563,7.812500
9564,9.765625
9565,11.718750
9566,13.671875
9567,15.625000
9568,15.625000
9569,19.531250
9570,19.531250
9571,21.484375
9572,23.437500
9573,25.390625
9574,27.343750
9575,29.296875
9576,29.296875
9577,31.250000
9578,33.203125
9579,35.156250
9580,37.109375
9581,37.109375
9582,39.062500
9583,41.015625
9584,42.968750
9585,42.968750
9586,42.968750
9587,44.921875
9588,46.875000
9589,48.828125
9590,48.828125
9591,50.781250
9592,52.734375
9593,52.734375
9594,54.687500
9595,56.640625
9596,56.640625
9597,56.640625
9598,58.593750
9599,60.546875
9600,60.546875
9601,62.500000
9602,62.500000
9603,62.500000
9604,64.453125
9605,64.453125
9606,66.406250
9607,66.406250
9608,66.406250
9609,68.359375
9610,68.359375
9611,68.359375
9612,70.312500
9613,70.312500
9614,70.312500
9615,72.265625
9616,72.265625
9617,72.265625
9618,74.218750
9619,74.218750
9620,72.265625
9621,74.218750
9622,74.218750
9623,74.218750
9624,74.218750
9625,74.218750
9626,74.218750
9627,74.218750
9628,74.218750
9629,74.218750
9630,74.218750
9631,74.218750
9632,74.218750
9633,74.218750
9634,72.265625
9635,74.218750
9636,72.265625
9637,72.265625
9638,72.265625
9639,72.265625
9640,72.265625
9641,70.312500
9642,70.312500
9643,70.312500
9644,68.359375
9645,68.359375
9646,68.359375
9647,68.359375
9648,66.406250
9649,66.406250
9650,66.406250
9651,60.546875
9652,64.453125
9653,62.500000
9654,62.500000
9655,60.546875
9656,60.546875
9657,58.593750
9658,58.593750
9659,56.640625
9660,54.687500
9661,54.687500
9662,52.734375
9663,52.734375
9664,50.781250
9665,50.781250
9666,48.828125
9667,46.875000
9668,46.875000
9669,44.921875
9670,42.968750
9671,42.968750
9672,41.015625
9673,39.062500
9674,37.109375
9675,37.109375
9676,35.156250
9677,33.203125
9678,31.250000
9679,31.250000
9680,29.296875
9681,27.343750
9682,25.390625
9683,23.437500
9684,21.484375
9685,21.484375
9686,19.531250
9687,17.578125
9688,15.625000
9689,13.671875
9690,11.718750
9691,9.765625
9692,7.812500
9693,5.859375
9694,5.859375
9695,3.906250
9696,1.953125
9697,-1.953125
9698,-1.953125
9699,-3.906250
9700,-5.859375
9701,-7.812500
9702,-9.765625
9703,-11.718750
9704,-13.671875
9705,-15.625000
9706,-17.578125
9707,-19.531250
9708,-19.531250
9709,-23.437500
9710,-23.437500
9711,-25.390625
9712,-27.343750
9713,-29.296875
9714,-31.250000
9715,-33.203125
9716,-35.156250
9717,-37.109375
9718,-39.062500
9719,-41.015625
9720,-42.968750
9721,-44.921875
9722,-44.921875
9723,-46.875000
9724,-48.828125
9725,-50.781250
9726,-52.734375
9727,-54.687500
9728,-54.687500
9729,-56.640625
9730,-58.593750
9731,-60.546875
9732,-60.546875
9733,-62.500000
9734,-64.453125
9735,-66.406250
9736,-66.406250
9737,-68.359375
9738,-68.359375
9739,-70.312500
9740,-72.265625
9741,-72.265625
9742,-74.218750
9743,-74.218750
9744,-76.171875
9745,-78.125000
9746,-78.125000
9747,-78.125000
9748,-80.078125
9749,-82.031250
9750,-82.031250
9751,-82.031250
9752,-83.984375
9753,-83.984375
9754,-85.937500
9755,-85.937500
9756,-85.937500
9757,-85.937500
9758,-87.890625
9759,-87.890625
9760,-87.890625
9761,-87.890625
9762,-87.890625
9763,-87.890625
9764,-89.843750
9765,-89.843750
9766,-89.843750
9767,-89.843750
9768,-89.843750
9769,-89.843750
9770,-89.843750
9771,-89.843750
9772,-89.843750
9773,-89.843750
9774,-89.843750
9775,-89.843750
9776,-89.843750
9777,-87.890625
9778,-87.890625
9779,-89.843750
9780,-87.890625
9781,-87.890625
9782,-85.937500
9783,-85.937500
9784,-85.937500
9785,-83.984375
9786,-83.984375
9787,-83.984375
9788,-82.031250
9789,-82.031250
9790,-82.031250
9791,-80.078125
9792,-78.125000
9793,-80.078125
9794,-78.125000
9795,-76.171875
9796,-76.171875
9797,-74.218750
9798,-74.218750
9799,-72.265625
9800,-70.312500
9801,-70.312500
9802,-68.359375
9803,-68.359375
9804,-66.406250
9805,-64.453125
9806,-62.500000
9807,-62.500000
9808,-60.546875
9809,-58.593750
9810,-56.640625
9811,-54.687500
9812,-54.687500
9813,-52.734375
9814,-50.781250
9815,-48.828125
9816,-48.828125
9817,-46.875000
9818,-42.968750
9819,-42.968750
9820,-41.015625
9821,-39.062500
9822,-37.109375
9823,-35.156250
9824,-33.203125
9825,-33.203125
9826,-31.250000
9827,-29.296875
9828,-25.390625
9829,-25.390625
9830,-23.437500
9831,-21.484375
9832,-19.531250
9833,-17.578125
9834,-15.625000
9835,-13.671875
9836,-13.671875
9837,-9.765625
9838,-7.812500
9839,-5.859375
9840,-5.859375
9841,-3.906250
9842,-1.953125
9843,0.000000
9844,1.953125
9845,3.906250
9846,5.859375
9847,7.812500
9848,9.765625
9849,11.718750
9850,11.718750
9851,13.671875
9852,15.625000
9853,19.531250
9854,19.531250
9855,21.484375
9856,23.437500
9857,25.390625
9858,25.390625
9859,27.343750
9860,29.296875
9861,31.250000
9862,33.203125
9863,33.203125
9864,35.156250
9865,37.109375
9866,39.062500
9867,39.062500
9868,41.015625
9869,42.968750
9870,44.921875
9871,46.875000
9872,46.875000
9873,48.828125
9874,50.781250
9875,50.781250
9876,50.781250
9877,52.734375
9878,54.687500
9879,54.687500
9880,56.640625
9881,58.593750
9882,58.593750
9883,60.546875
9884,60.546875
9885,62.500000
9886,62.500000
9887,64.453125
9888,64.453125
9889,66.406250
9890,66.406250
9891,66.406250
9892,68.359375
9893,68.359375
9894,68.359375
9895,68.359375
9896,70.312500
9897,70.312500
9898,70.312500
9899,70.312500
9900,72.265625
9901,72.265625
9902,72.265625
9903,72.265625
9904,74.218750
9905,74.218750
9906,74.218750
9907,74.218750
9908,74.218750
9909,74.218750
9910,74.218750
9911,74.218750
9912,74.218750
9913,74.218750
9914,74.218750
9915,74.218750
9916,74.218750
9917,74.218750
9918,74.218750
9919,72.265625
9920,72.265625
9921,72.265625
9922,72.265625
9923,72.265625
9924,72.265625
9925,70.312500
9926,70.312500
9927,70.312500
9928,70.312500
9929,70.312500
9930,68.359375
9931,68.359375
9932,66.406250
9933,66.406250
9934,66.406250
9935,64.453125
9936,62.500000
9937,64.453125
9938,62.500000
9939,60.546875
9940,60.546875
9941,60.546875
9942,58.593750
9943,56.640625
9944,56.640625
9945,54.687500
9946,52.734375
9947,52.734375
9948,50.781250
9949,50.781250
9950,50.781250
9951,48.828125
9952,46.875000
9953,44.921875
9954,42.968750
9955,42.968750
9956,41.015625
9957,39.062500
9958,37.109375
9959,37.109375
9960,35.156250
9961,35.156250
9962,31.250000
9963,29.296875
9964,29.296875
9965,27.343750
9966,25.390625
9967,23.437500
9968,23.437500
9969,21.484375
9970,19.531250
9971,17.578125
9972,15.625000
9973,13.671875
9974,11.718750
9975,9.765625
9976,7.812500
9977,5.859375
9978,5.859375
9979,1.953125
9980,0.000000
9981,0.000000
9982,-1.953125
9983,-3.906250
9984,-5.859375
9985,-7.812500
9986,-9.765625
9987,-11.718750
9988,-13.671875
9989,-15.625000
9990,-17.578125
9991,-19.531250
9992,-19.531250
9993,-23.437500
9994,-23.437500
9995,-25.390625
9996,-27.343750
9997,-31.250000
9998,-31.250000
9999,-33.203125
10000,-35.156250
