Channel              :,CH1
Frequency            :,1.012kHz
Period               :,0.989ms
PK-PK                :,273.4mV
Probe attenuation    :,1X
Voltage per ADC value:,0.244141mV
Time interval        :,1.00000us

index,CH1_Voltage(mV)
1,-70.312500
2,-70.312500
3,-70.312500
4,-70.312500
5,-70.312500
6,-70.312500
7,-70.312500
8,-66.406250
9,-66.406250
10,-66.406250
11,-62.500000
12,-62.500000
13,-62.500000
14,-62.500000
15,-62.500000
16,-58.593750
17,-58.593750
18,-58.593750
19,-58.593750
20,-54.687500
21,-54.687500
22,-54.687500
23,-54.687500
24,-54.687500
25,-50.781250
26,-50.781250
27,-50.781250
28,-50.781250
29,-46.875000
30,-46.875000
31,-46.875000
32,-46.875000
33,-46.875000
34,-42.968750
35,-42.968750
36,-42.968750
37,-42.968750
38,-39.062500
39,-39.062500
40,-39.062500
41,-39.062500
42,-39.062500
43,-35.156250
44,-35.156250
45,-35.156250
46,-35.156250
47,-35.156250
48,-31.250000
49,-31.250000
50,-31.250000
51,-31.250000
52,-27.343750
53,-27.343750
54,-27.343750
55,-27.343750
56,-27.343750
57,-23.437500
58,-23.437500
59,-23.437500
60,-23.437500
61,-19.531250
62,-19.531250
63,-19.531250
64,-19.531250
65,-15.625000
66,-15.625000
67,-15.625000
68,-15.625000
69,-11.718750
70,-11.718750
71,-11.718750
72,-11.718750
73,-11.718750
74,-7.812500
75,-7.812500
76,-7.812500
77,-7.812500
78,-7.812500
79,-7.812500
80,-3.906250
81,-3.906250
82,-3.906250
83,0.000000
84,0.000000
85,0.000000
86,0.000000
87,0.000000
88,0.000000
89,3.906250
90,3.906250
91,3.906250
92,3.906250
93,7.812500
94,7.812500
95,7.812500
96,7.812500
97,7.812500
98,11.718750
99,11.718750
100,11.718750
101,11.718750
102,11.718750
103,15.625000
104,15.625000
105,15.625000
106,15.625000
107,15.625000
108,19.531250
109,19.531250
110,19.531250
111,19.531250
112,23.437500
113,23.437500
114,23.437500
115,23.437500
116,23.437500
117,23.437500
118,27.343750
119,27.343750
120,27.343750
121,27.343750
122,27.343750
123,31.250000
124,31.250000
125,31.250000
126,31.250000
127,31.250000
128,35.156250
129,35.156250
130,35.156250
131,35.156250
132,35.156250
133,35.156250
134,39.062500
135,39.062500
136,39.062500
137,39.062500
138,39.062500
139,42.968750
140,42.968750
141,42.968750
142,42.968750
143,42.968750
144,46.875000
145,46.875000
146,46.875000
147,46.875000
148,46.875000
149,46.875000
150,50.781250
151,50.781250
152,50.781250
153,50.781250
154,50.781250
155,54.687500
156,54.687500
157,54.687500
158,54.687500
159,54.687500
160,54.687500
161,58.593750
162,58.593750
163,58.593750
164,58.593750
165,58.593750
166,58.593750
167,62.500000
168,62.500000
169,62.500000
170,62.500000
171,62.500000
172,62.500000
173,62.500000
174,66.406250
175,66.406250
176,66.406250
177,66.406250
178,66.406250
179,66.406250
180,70.312500
181,70.312500
182,70.312500
183,70.312500
184,70.312500
185,74.218750
186,70.312500
187,74.218750
188,74.218750
189,74.218750
190,74.218750
191,74.218750
192,74.218750
193,74.218750
194,74.218750
195,78.125000
196,78.125000
197,78.125000
198,78.125000
199,78.125000
200,82.031250
201,82.031250
202,82.031250
203,82.031250
204,82.031250
205,82.031250
206,82.031250
207,82.031250
208,82.031250
209,82.031250
210,85.937500
211,85.937500
212,85.937500
213,85.937500
214,85.937500
215,85.937500
216,85.937500
217,85.937500
218,89.843750
219,89.843750
220,89.843750
221,89.843750
222,89.843750
223,89.843750
224,89.843750
225,89.843750
226,89.843750
227,93.750000
228,93.750000
229,93.750000
230,93.750000
231,93.750000
232,93.750000
233,93.750000
234,93.750000
235,93.750000
236,97.656250
237,93.750000
238,97.656250
239,97.656250
240,97.656250
241,97.656250
242,97.656250
243,97.656250
244,97.656250
245,97.656250
246,97.656250
247,101.562500
248,101.562500
249,101.562500
250,101.562500
251,101.562500
252,101.562500
253,101.562500
254,101.562500
255,101.562500
256,101.562500
257,101.562500
258,101.562500
259,101.562500
260,101.562500
261,101.562500
262,101.562500
263,101.562500
264,101.562500
265,105.468750
266,105.468750
267,105.468750
268,105.468750
269,105.468750
270,105.468750
271,105.468750
272,105.468750
273,105.468750
274,105.468750
275,105.468750
276,105.468750
277,105.468750
278,105.468750
279,109.375000
280,105.468750
281,105.468750
282,105.468750
283,109.375000
284,109.375000
285,109.375000
286,109.375000
287,109.375000
288,109.375000
289,109.375000
290,109.375000
291,109.375000
292,109.375000
293,109.375000
294,109.375000
295,109.375000
296,109.375000
297,109.375000
298,109.375000
299,109.375000
300,109.375000
301,109.375000
302,113.281250
303,109.375000
304,109.375000
305,109.375000
306,113.281250
307,113.281250
308,113.281250
309,113.281250
310,113.281250
311,113.281250
312,113.281250
313,113.281250
314,113.281250
315,113.281250
316,113.281250
317,113.281250
318,113.281250
319,113.281250
320,113.281250
321,113.281250
322,113.281250
323,113.281250
324,113.281250
325,113.281250
326,113.281250
327,113.281250
328,113.281250
329,113.281250
330,113.281250
331,113.281250
332,113.281250
333,113.281250
334,113.281250
335,113.281250
336,113.281250
337,113.281250
338,113.281250
339,113.281250
340,113.281250
341,113.281250
342,113.281250
343,113.281250
344,113.281250
345,113.281250
346,113.281250
347,113.281250
348,113.281250
349,109.375000
350,109.375000
351,109.375000
352,109.375000
353,113.281250
354,109.375000
355,109.375000
356,109.375000
357,109.375000
358,109.375000
359,109.375000
360,109.375000
361,109.375000
362,109.375000
363,109.375000
364,109.375000
365,109.375000
366,109.375000
367,109.375000
368,109.375000
369,109.375000
370,109.375000
371,109.375000
372,109.375000
373,109.375000
374,109.375000
375,105.468750
376,105.468750
377,105.468750
378,105.468750
379,105.468750
380,105.468750
381,105.468750
382,105.468750
383,105.468750
384,105.468750
385,105.468750
386,105.468750
387,105.468750
388,105.468750
389,105.468750
390,105.468750
391,105.468750
392,101.562500
393,101.562500
394,101.562500
395,101.562500
396,101.562500
397,101.562500
398,101.562500
399,101.562500
400,101.562500
401,101.562500
402,101.562500
403,97.656250
404,97.656250
405,97.656250
406,97.656250
407,97.656250
408,97.656250
409,97.656250
410,97.656250
411,97.656250
412,97.656250
413,97.656250
414,97.656250
415,93.750000
416,93.750000
417,93.750000
418,93.750000
419,93.750000
420,93.750000
421,93.750000
422,93.750000
423,89.843750
424,93.750000
425,93.750000
426,89.843750
427,89.843750
428,89.843750
429,89.843750
430,89.843750
431,89.843750
432,89.843750
433,85.937500
434,85.937500
435,85.937500
436,85.937500
437,85.937500
438,85.937500
439,85.937500
440,85.937500
441,85.937500
442,85.937500
443,82.031250
444,82.031250
445,82.031250
446,82.031250
447,82.031250
448,82.031250
449,82.031250
450,82.031250
451,78.125000
452,78.125000
453,78.125000
454,78.125000
455,78.125000
456,78.125000
457,74.218750
458,78.125000
459,74.218750
460,74.218750
461,74.218750
462,74.218750
463,74.218750
464,70.312500
465,70.312500
466,70.312500
467,70.312500
468,70.312500
469,66.406250
470,66.406250
471,66.406250
472,66.406250
473,66.406250
474,66.406250
475,66.406250
476,66.406250
477,62.500000
478,62.500000
479,62.500000
480,62.500000
481,62.500000
482,62.500000
483,58.593750
484,58.593750
485,58.593750
486,58.593750
487,58.593750
488,58.593750
489,54.687500
490,54.687500
491,54.687500
492,54.687500
493,54.687500
494,50.781250
495,50.781250
496,50.781250
497,50.781250
498,50.781250
499,46.875000
500,46.875000
501,46.875000
502,46.875000
503,46.875000
504,46.875000
505,46.875000
506,42.968750
507,42.968750
508,42.968750
509,42.968750
510,39.062500
511,39.062500
512,39.062500
513,39.062500
514,35.156250
515,35.156250
516,35.156250
517,35.156250
518,35.156250
519,35.156250
520,31.250000
521,31.250000
522,31.250000
523,31.250000
524,31.250000
525,27.343750
526,27.343750
527,27.343750
528,27.343750
529,23.437500
530,23.437500
531,23.437500
532,23.437500
533,23.437500
534,19.531250
535,19.531250
536,19.531250
537,19.531250
538,19.531250
539,15.625000
540,15.625000
541,15.625000
542,15.625000
543,15.625000
544,15.625000
545,11.718750
546,11.718750
547,11.718750
548,11.718750
549,7.812500
550,7.812500
551,7.812500
552,7.812500
553,7.812500
554,3.906250
555,3.906250
556,3.906250
557,3.906250
558,0.000000
559,0.000000
560,0.000000
561,0.000000
562,0.000000
563,-3.906250
564,-3.906250
565,-3.906250
566,-7.812500
567,-3.906250
568,-7.812500
569,-7.812500
570,-7.812500
571,-7.812500
572,-11.718750
573,-11.718750
574,-11.718750
575,-11.718750
576,-15.625000
577,-15.625000
578,-15.625000
579,-15.625000
580,-15.625000
581,-19.531250
582,-19.531250
583,-19.531250
584,-19.531250
585,-23.437500
586,-23.437500
587,-23.437500
588,-23.437500
589,-27.343750
590,-27.343750
591,-27.343750
592,-27.343750
593,-31.250000
594,-31.250000
595,-31.250000
596,-31.250000
597,-35.156250
598,-35.156250
599,-35.156250
600,-35.156250
601,-35.156250
602,-39.062500
603,-39.062500
604,-39.062500
605,-39.062500
606,-42.968750
607,-42.968750
608,-42.968750
609,-42.968750
610,-42.968750
611,-42.968750
612,-46.875000
613,-46.875000
614,-46.875000
615,-46.875000
616,-50.781250
617,-50.781250
618,-50.781250
619,-50.781250
620,-54.687500
621,-54.687500
622,-54.687500
623,-54.687500
624,-58.593750
625,-58.593750
626,-58.593750
627,-58.593750
628,-58.593750
629,-62.500000
630,-62.500000
631,-62.500000
632,-62.500000
633,-66.406250
634,-66.406250
635,-66.406250
636,-66.406250
637,-70.312500
638,-70.312500
639,-70.312500
640,-70.312500
641,-70.312500
642,-74.218750
643,-74.218750
644,-74.218750
645,-74.218750
646,-74.218750
647,-78.125000
648,-78.125000
649,-78.125000
650,-78.125000
651,-78.125000
652,-82.031250
653,-82.031250
654,-82.031250
655,-82.031250
656,-85.937500
657,-85.937500
658,-85.937500
659,-85.937500
660,-85.937500
661,-89.843750
662,-89.843750
663,-89.843750
664,-89.843750
665,-93.750000
666,-93.750000
667,-93.750000
668,-93.750000
669,-93.750000
670,-97.656250
671,-93.750000
672,-97.656250
673,-97.656250
674,-97.656250
675,-97.656250
676,-101.562500
677,-101.562500
678,-101.562500
679,-101.562500
680,-101.562500
681,-101.562500
682,-101.562500
683,-105.468750
684,-105.468750
685,-105.468750
686,-105.468750
687,-105.468750
688,-109.375000
689,-109.375000
690,-109.375000
691,-109.375000
692,-109.375000
693,-113.281250
694,-113.281250
695,-113.281250
696,-113.281250
697,-113.281250
698,-113.281250
699,-113.281250
700,-117.187500
701,-117.187500
702,-117.187500
703,-117.187500
704,-117.187500
705,-121.093750
706,-121.093750
707,-121.093750
708,-121.093750
709,-121.093750
710,-121.093750
711,-121.093750
712,-121.093750
713,-125.000000
714,-125.000000
715,-125.000000
716,-125.000000
717,-125.000000
718,-125.000000
719,-128.906250
720,-128.906250
721,-128.906250
722,-128.906250
723,-128.906250
724,-128.906250
725,-128.906250
726,-132.812500
727,-132.812500
728,-132.812500
729,-132.812500
730,-132.812500
731,-132.812500
732,-132.812500
733,-132.812500
734,-136.718750
735,-136.718750
736,-136.718750
737,-136.718750
738,-136.718750
739,-136.718750
740,-136.718750
741,-136.718750
742,-140.625000
743,-140.625000
744,-140.625000
745,-140.625000
746,-140.625000
747,-144.531250
748,-144.531250
749,-140.625000
750,-140.625000
751,-144.531250
752,-144.531250
753,-144.531250
754,-144.531250
755,-144.531250
756,-144.531250
757,-144.531250
758,-144.531250
759,-148.437500
760,-148.437500
761,-148.437500
762,-148.437500
763,-148.437500
764,-148.437500
765,-148.437500
766,-148.437500
767,-148.437500
768,-148.437500
769,-148.437500
770,-148.437500
771,-148.437500
772,-152.343750
773,-152.343750
774,-152.343750
775,-152.343750
776,-152.343750
777,-152.343750
778,-152.343750
779,-152.343750
780,-152.343750
781,-152.343750
782,-152.343750
783,-152.343750
784,-152.343750
785,-152.343750
786,-152.343750
787,-152.343750
788,-152.343750
789,-152.343750
790,-152.343750
791,-152.343750
792,-152.343750
793,-156.250000
794,-156.250000
795,-156.250000
796,-156.250000
797,-156.250000
798,-156.250000
799,-156.250000
800,-156.250000
801,-156.250000
802,-156.250000
803,-156.250000
804,-156.250000
805,-156.250000
806,-156.250000
807,-156.250000
808,-156.250000
809,-156.250000
810,-156.250000
811,-156.250000
812,-156.250000
813,-156.250000
814,-156.250000
815,-156.250000
816,-156.250000
817,-156.250000
818,-156.250000
819,-156.250000
820,-156.250000
821,-156.250000
822,-156.250000
823,-156.250000
824,-156.250000
825,-156.250000
826,-156.250000
827,-156.250000
828,-156.250000
829,-156.250000
830,-156.250000
831,-156.250000
832,-152.343750
833,-156.250000
834,-156.250000
835,-152.343750
836,-156.250000
837,-156.250000
838,-156.250000
839,-152.343750
840,-152.343750
841,-152.343750
842,-152.343750
843,-152.343750
844,-152.343750
845,-152.343750
846,-152.343750
847,-152.343750
848,-152.343750
849,-152.343750
850,-152.343750
851,-152.343750
852,-152.343750
853,-152.343750
854,-152.343750
855,-152.343750
856,-152.343750
857,-152.343750
858,-148.437500
859,-148.437500
860,-148.437500
861,-148.437500
862,-148.437500
863,-148.437500
864,-148.437500
865,-148.437500
866,-148.437500
867,-148.437500
868,-148.437500
869,-144.531250
870,-144.531250
871,-148.437500
872,-144.531250
873,-144.531250
874,-144.531250
875,-144.531250
876,-144.531250
877,-144.531250
878,-144.531250
879,-144.531250
880,-144.531250
881,-140.625000
882,-140.625000
883,-140.625000
884,-140.625000
885,-140.625000
886,-140.625000
887,-140.625000
888,-140.625000
889,-140.625000
890,-140.625000
891,-136.718750
892,-136.718750
893,-136.718750
894,-136.718750
895,-136.718750
896,-136.718750
897,-136.718750
898,-136.718750
899,-136.718750
900,-132.812500
901,-132.812500
902,-132.812500
903,-132.812500
904,-132.812500
905,-132.812500
906,-132.812500
907,-128.906250
908,-128.906250
909,-128.906250
910,-128.906250
911,-128.906250
912,-128.906250
913,-128.906250
914,-125.000000
915,-125.000000
916,-125.000000
917,-125.000000
918,-125.000000
919,-125.000000
920,-121.093750
921,-121.093750
922,-121.093750
923,-121.093750
924,-121.093750
925,-121.093750
926,-121.093750
927,-117.187500
928,-117.187500
929,-117.187500
930,-117.187500
931,-117.187500
932,-117.187500
933,-113.281250
934,-113.281250
935,-113.281250
936,-113.281250
937,-113.281250
938,-113.281250
939,-113.281250
940,-109.375000
941,-109.375000
942,-109.375000
943,-109.375000
944,-105.468750
945,-105.468750
946,-105.468750
947,-105.468750
948,-105.468750
949,-101.562500
950,-101.562500
951,-101.562500
952,-101.562500
953,-101.562500
954,-101.562500
955,-97.656250
956,-97.656250
957,-97.656250
958,-97.656250
959,-97.656250
960,-93.750000
961,-93.750000
962,-93.750000
963,-93.750000
964,-93.750000
965,-89.843750
966,-89.843750
967,-89.843750
968,-89.843750
969,-89.843750
970,-85.937500
971,-85.937500
972,-85.937500
973,-85.937500
974,-85.937500
975,-82.031250
976,-82.031250
977,-82.031250
978,-82.031250
979,-82.031250
980,-78.125000
981,-78.125000
982,-78.125000
983,-78.125000
984,-78.125000
985,-74.218750
986,-74.218750
987,-74.218750
988,-74.218750
989,-74.218750
990,-70.312500
991,-70.312500
992,-70.312500
993,-70.312500
994,-66.406250
995,-66.406250
996,-66.406250
997,-66.406250
998,-66.406250
999,-62.500000
1000,-62.500000
1001,-62.500000
1002,-62.500000
1003,-62.500000
1004,-58.593750
1005,-58.593750
1006,-58.593750
1007,-58.593750
1008,-58.593750
1009,-54.687500
1010,-54.687500
1011,-54.687500
1012,-54.687500
1013,-54.687500
1014,-50.781250
1015,-50.781250
1016,-50.781250
1017,-50.781250
1018,-46.875000
1019,-46.875000
1020,-46.875000
1021,-46.875000
1022,-46.875000
1023,-42.968750
1024,-42.968750
1025,-42.968750
1026,-42.968750
1027,-39.062500
1028,-39.062500
1029,-39.062500
1030,-39.062500
1031,-39.062500
1032,-35.156250
1033,-35.156250
1034,-35.156250
1035,-35.156250
1036,-31.250000
1037,-31.250000
1038,-31.250000
1039,-31.250000
1040,-27.343750
1041,-27.343750
1042,-27.343750
1043,-27.343750
1044,-27.343750
1045,-27.343750
1046,-23.437500
1047,-23.437500
1048,-23.437500
1049,-19.531250
1050,-19.531250
1051,-19.531250
1052,-19.531250
1053,-19.531250
1054,-15.625000
1055,-15.625000
1056,-15.625000
1057,-15.625000
1058,-11.718750
1059,-11.718750
1060,-11.718750
1061,-11.718750
1062,-11.718750
1063,-7.812500
1064,-7.812500
1065,-7.812500
1066,-7.812500
1067,-7.812500
1068,-3.906250
1069,-3.906250
1070,-3.906250
1071,-3.906250
1072,-3.906250
1073,0.000000
1074,0.000000
1075,0.000000
1076,0.000000
1077,0.000000
1078,3.906250
1079,3.906250
1080,3.906250
1081,7.812500
1082,7.812500
1083,7.812500
1084,7.812500
1085,7.812500
1086,11.718750
1087,11.718750
1088,11.718750
1089,11.718750
1090,11.718750
1091,15.625000
1092,15.625000
1093,15.625000
1094,15.625000
1095,15.625000
1096,19.531250
1097,19.531250
1098,19.531250
1099,19.531250
1100,23.437500
1101,23.437500
1102,23.437500
1103,23.437500
1104,23.437500
1105,23.437500
1106,23.437500
1107,27.343750
1108,27.343750
1109,27.343750
1110,27.343750
1111,31.250000
1112,31.250000
1113,31.250000
1114,31.250000
1115,31.250000
1116,35.156250
1117,35.156250
1118,35.156250
1119,35.156250
1120,35.156250
1121,39.062500
1122,39.062500
1123,39.062500
1124,39.062500
1125,39.062500
1126,39.062500
1127,42.968750
1128,42.968750
1129,42.968750
1130,42.968750
1131,42.968750
1132,46.875000
1133,46.875000
1134,46.875000
1135,46.875000
1136,46.875000
1137,46.875000
1138,50.781250
1139,50.781250
1140,50.781250
1141,50.781250
1142,50.781250
1143,50.781250
1144,54.687500
1145,54.687500
1146,54.687500
1147,54.687500
1148,54.687500
1149,54.687500
1150,58.593750
1151,58.593750
1152,58.593750
1153,58.593750
1154,58.593750
1155,58.593750
1156,58.593750
1157,58.593750
1158,62.500000
1159,62.500000
1160,62.500000
1161,62.500000
1162,62.500000
1163,66.406250
1164,66.406250
1165,66.406250
1166,66.406250
1167,66.406250
1168,66.406250
1169,70.312500
1170,66.406250
1171,70.312500
1172,70.312500
1173,70.312500
1174,70.312500
1175,70.312500
1176,74.218750
1177,74.218750
1178,74.218750
1179,74.218750
1180,74.218750
1181,74.218750
1182,74.218750
1183,78.125000
1184,78.125000
1185,78.125000
1186,78.125000
1187,78.125000
1188,78.125000
1189,78.125000
1190,78.125000
1191,78.125000
1192,82.031250
1193,82.031250
1194,82.031250
1195,82.031250
1196,82.031250
1197,82.031250
1198,82.031250
1199,85.937500
1200,85.937500
1201,85.937500
1202,85.937500
1203,85.937500
1204,85.937500
1205,85.937500
1206,85.937500
1207,85.937500
1208,89.843750
1209,89.843750
1210,89.843750
1211,89.843750
1212,89.843750
1213,89.843750
1214,89.843750
1215,89.843750
1216,93.750000
1217,93.750000
1218,93.750000
1219,93.750000
1220,93.750000
1221,93.750000
1222,93.750000
1223,93.750000
1224,93.750000
1225,93.750000
1226,93.750000
1227,97.656250
1228,97.656250
1229,97.656250
1230,97.656250
1231,97.656250
1232,97.656250
1233,97.656250
1234,97.656250
1235,97.656250
1236,97.656250
1237,101.562500
1238,101.562500
1239,101.562500
1240,101.562500
1241,101.562500
1242,101.562500
1243,101.562500
1244,101.562500
1245,101.562500
1246,101.562500
1247,101.562500
1248,101.562500
1249,101.562500
1250,105.468750
1251,105.468750
1252,105.468750
1253,105.468750
1254,105.468750
1255,105.468750
1256,105.468750
1257,105.468750
1258,105.468750
1259,105.468750
1260,105.468750
1261,105.468750
1262,105.468750
1263,105.468750
1264,105.468750
1265,105.468750
1266,105.468750
1267,109.375000
1268,109.375000
1269,109.375000
1270,109.375000
1271,109.375000
1272,109.375000
1273,109.375000
1274,109.375000
1275,109.375000
1276,109.375000
1277,109.375000
1278,109.375000
1279,109.375000
1280,109.375000
1281,109.375000
1282,109.375000
1283,109.375000
1284,109.375000
1285,109.375000
1286,109.375000
1287,109.375000
1288,109.375000
1289,113.281250
1290,109.375000
1291,113.281250
1292,109.375000
1293,109.375000
1294,109.375000
1295,109.375000
1296,113.281250
1297,113.281250
1298,113.281250
1299,113.281250
1300,113.281250
1301,113.281250
1302,113.281250
1303,109.375000
1304,113.281250
1305,109.375000
1306,113.281250
1307,113.281250
1308,113.281250
1309,113.281250
1310,113.281250
1311,113.281250
1312,113.281250
1313,113.281250
1314,113.281250
1315,113.281250
1316,113.281250
1317,113.281250
1318,113.281250
1319,113.281250
1320,113.281250
1321,113.281250
1322,113.281250
1323,113.281250
1324,113.281250
1325,109.375000
1326,113.281250
1327,113.281250
1328,113.281250
1329,113.281250
1330,113.281250
1331,113.281250
1332,109.375000
1333,109.375000
1334,109.375000
1335,109.375000
1336,109.375000
1337,109.375000
1338,109.375000
1339,113.281250
1340,109.375000
1341,109.375000
1342,109.375000
1343,109.375000
1344,109.375000
1345,109.375000
1346,109.375000
1347,109.375000
1348,109.375000
1349,109.375000
1350,109.375000
1351,109.375000
1352,109.375000
1353,109.375000
1354,109.375000
1355,109.375000
1356,109.375000
1357,109.375000
1358,109.375000
1359,109.375000
1360,109.375000
1361,109.375000
1362,109.375000
1363,105.468750
1364,105.468750
1365,105.468750
1366,105.468750
1367,105.468750
1368,105.468750
1369,105.468750
1370,105.468750
1371,105.468750
1372,105.468750
1373,105.468750
1374,105.468750
1375,105.468750
1376,101.562500
1377,105.468750
1378,105.468750
1379,105.468750
1380,105.468750
1381,101.562500
1382,101.562500
1383,101.562500
1384,101.562500
1385,101.562500
1386,101.562500
1387,101.562500
1388,101.562500
1389,101.562500
1390,101.562500
1391,101.562500
1392,101.562500
1393,97.656250
1394,97.656250
1395,97.656250
1396,97.656250
1397,97.656250
1398,97.656250
1399,97.656250
1400,97.656250
1401,97.656250
1402,93.750000
1403,93.750000
1404,93.750000
1405,93.750000
1406,93.750000
1407,93.750000
1408,93.750000
1409,93.750000
1410,93.750000
1411,89.843750
1412,89.843750
1413,93.750000
1414,89.843750
1415,89.843750
1416,89.843750
1417,89.843750
1418,89.843750
1419,89.843750
1420,89.843750
1421,89.843750
1422,85.937500
1423,85.937500
1424,85.937500
1425,85.937500
1426,85.937500
1427,85.937500
1428,85.937500
1429,82.031250
1430,85.937500
1431,82.031250
1432,82.031250
1433,82.031250
1434,82.031250
1435,82.031250
1436,78.125000
1437,78.125000
1438,78.125000
1439,78.125000
1440,78.125000
1441,78.125000
1442,78.125000
1443,78.125000
1444,74.218750
1445,74.218750
1446,74.218750
1447,74.218750
1448,74.218750
1449,74.218750
1450,74.218750
1451,70.312500
1452,70.312500
1453,70.312500
1454,70.312500
1455,70.312500
1456,70.312500
1457,66.406250
1458,66.406250
1459,66.406250
1460,66.406250
1461,66.406250
1462,66.406250
1463,66.406250
1464,66.406250
1465,62.500000
1466,62.500000
1467,62.500000
1468,62.500000
1469,62.500000
1470,62.500000
1471,58.593750
1472,58.593750
1473,58.593750
1474,58.593750
1475,58.593750
1476,54.687500
1477,54.687500
1478,54.687500
1479,54.687500
1480,54.687500
1481,54.687500
1482,54.687500
1483,50.781250
1484,50.781250
1485,50.781250
1486,50.781250
1487,46.875000
1488,46.875000
1489,46.875000
1490,46.875000
1491,46.875000
1492,46.875000
1493,42.968750
1494,42.968750
1495,42.968750
1496,42.968750
1497,42.968750
1498,42.968750
1499,39.062500
1500,39.062500
1501,39.062500
1502,39.062500
1503,35.156250
1504,35.156250
1505,35.156250
1506,35.156250
1507,35.156250
1508,31.250000
1509,31.250000
1510,31.250000
1511,31.250000
1512,31.250000
1513,27.343750
1514,27.343750
1515,27.343750
1516,27.343750
1517,27.343750
1518,27.343750
1519,23.437500
1520,23.437500
1521,23.437500
1522,23.437500
1523,19.531250
1524,19.531250
1525,19.531250
1526,15.625000
1527,19.531250
1528,15.625000
1529,15.625000
1530,15.625000
1531,15.625000
1532,11.718750
1533,11.718750
1534,11.718750
1535,11.718750
1536,11.718750
1537,7.812500
1538,7.812500
1539,7.812500
1540,7.812500
1541,3.906250
1542,3.906250
1543,3.906250
1544,0.000000
1545,0.000000
1546,0.000000
1547,0.000000
1548,0.000000
1549,0.000000
1550,-3.906250
1551,-3.906250
1552,-3.906250
1553,-3.906250
1554,-3.906250
1555,-7.812500
1556,-7.812500
1557,-7.812500
1558,-7.812500
1559,-11.718750
1560,-11.718750
1561,-11.718750
1562,-11.718750
1563,-11.718750
1564,-15.625000
1565,-15.625000
1566,-15.625000
1567,-19.531250
1568,-19.531250
1569,-19.531250
1570,-19.531250
1571,-19.531250
1572,-19.531250
1573,-23.437500
1574,-23.437500
1575,-23.437500
1576,-23.437500
1577,-27.343750
1578,-27.343750
1579,-27.343750
1580,-27.343750
1581,-27.343750
1582,-31.250000
1583,-31.250000
1584,-31.250000
1585,-35.156250
1586,-35.156250
1587,-35.156250
1588,-35.156250
1589,-39.062500
1590,-39.062500
1591,-39.062500
1592,-39.062500
1593,-39.062500
1594,-42.968750
1595,-42.968750
1596,-42.968750
1597,-42.968750
1598,-46.875000
1599,-46.875000
1600,-46.875000
1601,-46.875000
1602,-46.875000
1603,-50.781250
1604,-50.781250
1605,-50.781250
1606,-50.781250
1607,-50.781250
1608,-54.687500
1609,-54.687500
1610,-54.687500
1611,-54.687500
1612,-54.687500
1613,-58.593750
1614,-58.593750
1615,-58.593750
1616,-58.593750
1617,-62.500000
1618,-62.500000
1619,-62.500000
1620,-62.500000
1621,-66.406250
1622,-66.406250
1623,-66.406250
1624,-66.406250
1625,-66.406250
1626,-70.312500
1627,-70.312500
1628,-70.312500
1629,-70.312500
1630,-74.218750
1631,-74.218750
1632,-74.218750
1633,-74.218750
1634,-74.218750
1635,-78.125000
1636,-78.125000
1637,-78.125000
1638,-78.125000
1639,-78.125000
1640,-82.031250
1641,-82.031250
1642,-82.031250
1643,-82.031250
1644,-82.031250
1645,-85.937500
1646,-85.937500
1647,-85.937500
1648,-85.937500
1649,-89.843750
1650,-89.843750
1651,-89.843750
1652,-89.843750
1653,-89.843750
1654,-93.750000
1655,-89.843750
1656,-93.750000
1657,-93.750000
1658,-93.750000
1659,-93.750000
1660,-97.656250
1661,-97.656250
1662,-97.656250
1663,-97.656250
1664,-97.656250
1665,-101.562500
1666,-101.562500
1667,-101.562500
1668,-101.562500
1669,-101.562500
1670,-101.562500
1671,-105.468750
1672,-105.468750
1673,-105.468750
1674,-105.468750
1675,-105.468750
1676,-109.375000
1677,-109.375000
1678,-109.375000
1679,-109.375000
1680,-109.375000
1681,-113.281250
1682,-113.281250
1683,-113.281250
1684,-113.281250
1685,-113.281250
1686,-117.187500
1687,-117.187500
1688,-117.187500
1689,-117.187500
1690,-117.187500
1691,-117.187500
1692,-117.187500
1693,-121.093750
1694,-121.093750
1695,-121.093750
1696,-121.093750
1697,-121.093750
1698,-121.093750
1699,-121.093750
1700,-125.000000
1701,-125.000000
1702,-125.000000
1703,-125.000000
1704,-125.000000
1705,-125.000000
1706,-125.000000
1707,-128.906250
1708,-128.906250
1709,-128.906250
1710,-128.906250
1711,-128.906250
1712,-128.906250
1713,-132.812500
1714,-132.812500
1715,-132.812500
1716,-132.812500
1717,-132.812500
1718,-132.812500
1719,-132.812500
1720,-132.812500
1721,-136.718750
1722,-136.718750
1723,-136.718750
1724,-136.718750
1725,-136.718750
1726,-136.718750
1727,-136.718750
1728,-136.718750
1729,-140.625000
1730,-136.718750
1731,-140.625000
1732,-140.625000
1733,-140.625000
1734,-140.625000
1735,-140.625000
1736,-140.625000
1737,-144.531250
1738,-144.531250
1739,-140.625000
1740,-144.531250
1741,-144.531250
1742,-144.531250
1743,-144.531250
1744,-144.531250
1745,-144.531250
1746,-144.531250
1747,-144.531250
1748,-148.437500
1749,-144.531250
1750,-144.531250
1751,-144.531250
1752,-148.437500
1753,-148.437500
1754,-148.437500
1755,-148.437500
1756,-148.437500
1757,-148.437500
1758,-148.437500
1759,-148.437500
1760,-148.437500
1761,-148.437500
1762,-148.437500
1763,-148.437500
1764,-152.343750
1765,-152.343750
1766,-148.437500
1767,-148.437500
1768,-152.343750
1769,-152.343750
1770,-152.343750
1771,-152.343750
1772,-152.343750
1773,-152.343750
1774,-152.343750
1775,-152.343750
1776,-152.343750
1777,-152.343750
1778,-152.343750
1779,-152.343750
1780,-152.343750
1781,-152.343750
1782,-152.343750
1783,-152.343750
1784,-152.343750
1785,-152.343750
1786,-156.250000
1787,-152.343750
1788,-152.343750
1789,-156.250000
1790,-156.250000
1791,-156.250000
1792,-156.250000
1793,-156.250000
1794,-156.250000
1795,-156.250000
1796,-156.250000
1797,-156.250000
1798,-156.250000
1799,-156.250000
1800,-156.250000
1801,-156.250000
1802,-156.250000
1803,-156.250000
1804,-156.250000
1805,-156.250000
1806,-156.250000
1807,-156.250000
1808,-156.250000
1809,-156.250000
1810,-156.250000
1811,-156.250000
1812,-156.250000
1813,-156.250000
1814,-156.250000
1815,-156.250000
1816,-156.250000
1817,-156.250000
1818,-156.250000
1819,-156.250000
1820,-156.250000
1821,-156.250000
1822,-156.250000
1823,-156.250000
1824,-156.250000
1825,-156.250000
1826,-156.250000
1827,-152.343750
1828,-152.343750
1829,-152.343750
1830,-152.343750
1831,-152.343750
1832,-152.343750
1833,-152.343750
1834,-152.343750
1835,-152.343750
1836,-152.343750
1837,-152.343750
1838,-152.343750
1839,-152.343750
1840,-152.343750
1841,-152.343750
1842,-152.343750
1843,-152.343750
1844,-148.437500
1845,-148.437500
1846,-148.437500
1847,-148.437500
1848,-148.437500
1849,-148.437500
1850,-148.437500
1851,-148.437500
1852,-148.437500
1853,-148.437500
1854,-148.437500
1855,-148.437500
1856,-148.437500
1857,-148.437500
1858,-144.531250
1859,-144.531250
1860,-144.531250
1861,-144.531250
1862,-144.531250
1863,-144.531250
1864,-144.531250
1865,-144.531250
1866,-144.531250
1867,-144.531250
1868,-140.625000
1869,-140.625000
1870,-140.625000
1871,-140.625000
1872,-140.625000
1873,-140.625000
1874,-140.625000
1875,-140.625000
1876,-140.625000
1877,-136.718750
1878,-136.718750
1879,-136.718750
1880,-136.718750
1881,-136.718750
1882,-136.718750
1883,-136.718750
1884,-136.718750
1885,-136.718750
1886,-132.812500
1887,-132.812500
1888,-132.812500
1889,-132.812500
1890,-132.812500
1891,-132.812500
1892,-132.812500
1893,-128.906250
1894,-132.812500
1895,-128.906250
1896,-128.906250
1897,-128.906250
1898,-128.906250
1899,-125.000000
1900,-125.000000
1901,-125.000000
1902,-125.000000
1903,-125.000000
1904,-125.000000
1905,-125.000000
1906,-125.000000
1907,-125.000000
1908,-121.093750
1909,-121.093750
1910,-121.093750
1911,-121.093750
1912,-121.093750
1913,-121.093750
1914,-121.093750
1915,-117.187500
1916,-117.187500
1917,-117.187500
1918,-117.187500
1919,-117.187500
1920,-117.187500
1921,-113.281250
1922,-113.281250
1923,-113.281250
1924,-113.281250
1925,-113.281250
1926,-113.281250
1927,-109.375000
1928,-109.375000
1929,-109.375000
1930,-109.375000
1931,-109.375000
1932,-109.375000
1933,-105.468750
1934,-105.468750
1935,-105.468750
1936,-105.468750
1937,-105.468750
1938,-101.562500
1939,-101.562500
1940,-101.562500
1941,-101.562500
1942,-101.562500
1943,-97.656250
1944,-97.656250
1945,-97.656250
1946,-97.656250
1947,-97.656250
1948,-97.656250
1949,-97.656250
1950,-93.750000
1951,-93.750000
1952,-93.750000
1953,-93.750000
1954,-89.843750
1955,-89.843750
1956,-89.843750
1957,-89.843750
1958,-89.843750
1959,-85.937500
1960,-85.937500
1961,-85.937500
1962,-85.937500
1963,-85.937500
1964,-85.937500
1965,-85.937500
1966,-82.031250
1967,-82.031250
1968,-82.031250
1969,-82.031250
1970,-78.125000
1971,-78.125000
1972,-78.125000
1973,-78.125000
1974,-78.125000
1975,-78.125000
1976,-74.218750
1977,-74.218750
1978,-74.218750
1979,-70.312500
1980,-70.312500
1981,-70.312500
1982,-70.312500
1983,-70.312500
1984,-66.406250
1985,-66.406250
1986,-66.406250
1987,-66.406250
1988,-66.406250
1989,-62.500000
1990,-62.500000
1991,-62.500000
1992,-62.500000
1993,-62.500000
1994,-58.593750
1995,-58.593750
1996,-58.593750
1997,-54.687500
1998,-54.687500
1999,-54.687500
2000,-54.687500
2001,-50.781250
2002,-50.781250
2003,-50.781250
2004,-50.781250
2005,-50.781250
2006,-46.875000
2007,-46.875000
2008,-46.875000
2009,-46.875000
2010,-46.875000
2011,-42.968750
2012,-42.968750
2013,-42.968750
2014,-42.968750
2015,-42.968750
2016,-39.062500
2017,-39.062500
2018,-39.062500
2019,-39.062500
2020,-35.156250
2021,-35.156250
2022,-35.156250
2023,-35.156250
2024,-35.156250
2025,-31.250000
2026,-31.250000
2027,-31.250000
2028,-31.250000
2029,-27.343750
2030,-27.343750
2031,-27.343750
2032,-27.343750
2033,-27.343750
2034,-23.437500
2035,-23.437500
2036,-23.437500
2037,-23.437500
2038,-19.531250
2039,-19.531250
2040,-19.531250
2041,-19.531250
2042,-19.531250
2043,-15.625000
2044,-15.625000
2045,-15.625000
2046,-15.625000
2047,-11.718750
2048,-11.718750
2049,-11.718750
2050,-11.718750
2051,-11.718750
2052,-7.812500
2053,-7.812500
2054,-7.812500
2055,-7.812500
2056,-3.906250
2057,-3.906250
2058,-3.906250
2059,-3.906250
2060,-3.906250
2061,-3.906250
2062,0.000000
2063,0.000000
2064,0.000000
2065,0.000000
2066,0.000000
2067,3.906250
2068,3.906250
2069,3.906250
2070,7.812500
2071,7.812500
2072,7.812500
2073,7.812500
2074,7.812500
2075,7.812500
2076,11.718750
2077,11.718750
2078,11.718750
2079,11.718750
2080,11.718750
2081,15.625000
2082,15.625000
2083,15.625000
2084,15.625000
2085,19.531250
2086,19.531250
2087,19.531250
2088,19.531250
2089,19.531250
2090,19.531250
2091,19.531250
2092,23.437500
2093,23.437500
2094,23.437500
2095,23.437500
2096,27.343750
2097,27.343750
2098,27.343750
2099,27.343750
2100,27.343750
2101,31.250000
2102,31.250000
2103,31.250000
2104,31.250000
2105,31.250000
2106,35.156250
2107,35.156250
2108,35.156250
2109,35.156250
2110,39.062500
2111,39.062500
2112,39.062500
2113,39.062500
2114,39.062500
2115,39.062500
2116,39.062500
2117,42.968750
2118,42.968750
2119,42.968750
2120,42.968750
2121,42.968750
2122,46.875000
2123,46.875000
2124,46.875000
2125,46.875000
2126,50.781250
2127,50.781250
2128,50.781250
2129,50.781250
2130,50.781250
2131,50.781250
2132,50.781250
2133,54.687500
2134,54.687500
2135,54.687500
2136,54.687500
2137,54.687500
2138,58.593750
2139,54.687500
2140,58.593750
2141,58.593750
2142,58.593750
2143,58.593750
2144,62.500000
2145,62.500000
2146,62.500000
2147,62.500000
2148,62.500000
2149,62.500000
2150,62.500000
2151,66.406250
2152,66.406250
2153,66.406250
2154,66.406250
2155,66.406250
2156,66.406250
2157,66.406250
2158,70.312500
2159,70.312500
2160,70.312500
2161,70.312500
2162,70.312500
2163,70.312500
2164,74.218750
2165,74.218750
2166,74.218750
2167,74.218750
2168,74.218750
2169,74.218750
2170,78.125000
2171,78.125000
2172,78.125000
2173,78.125000
2174,78.125000
2175,78.125000
2176,78.125000
2177,78.125000
2178,78.125000
2179,82.031250
2180,82.031250
2181,82.031250
2182,82.031250
2183,82.031250
2184,82.031250
2185,82.031250
2186,82.031250
2187,82.031250
2188,85.937500
2189,85.937500
2190,85.937500
2191,85.937500
2192,85.937500
2193,85.937500
2194,85.937500
2195,85.937500
2196,85.937500
2197,89.843750
2198,89.843750
2199,89.843750
2200,89.843750
2201,89.843750
2202,89.843750
2203,89.843750
2204,89.843750
2205,93.750000
2206,93.750000
2207,93.750000
2208,93.750000
2209,93.750000
2210,93.750000
2211,93.750000
2212,93.750000
2213,93.750000
2214,93.750000
2215,93.750000
2216,93.750000
2217,97.656250
2218,97.656250
2219,97.656250
2220,97.656250
2221,97.656250
2222,97.656250
2223,97.656250
2224,97.656250
2225,97.656250
2226,97.656250
2227,97.656250
2228,101.562500
2229,101.562500
2230,97.656250
2231,101.562500
2232,101.562500
2233,101.562500
2234,101.562500
2235,101.562500
2236,101.562500
2237,101.562500
2238,101.562500
2239,101.562500
2240,101.562500
2241,105.468750
2242,105.468750
2243,105.468750
2244,105.468750
2245,105.468750
2246,105.468750
2247,105.468750
2248,105.468750
2249,105.468750
2250,105.468750
2251,105.468750
2252,105.468750
2253,105.468750
2254,105.468750
2255,105.468750
2256,105.468750
2257,109.375000
2258,109.375000
2259,109.375000
2260,109.375000
2261,109.375000
2262,109.375000
2263,109.375000
2264,109.375000
2265,109.375000
2266,109.375000
2267,109.375000
2268,109.375000
2269,109.375000
2270,109.375000
2271,109.375000
2272,109.375000
2273,109.375000
2274,109.375000
2275,109.375000
2276,109.375000
2277,109.375000
2278,109.375000
2279,109.375000
2280,109.375000
2281,109.375000
2282,109.375000
2283,109.375000
2284,109.375000
2285,113.281250
2286,113.281250
2287,113.281250
2288,113.281250
2289,113.281250
2290,113.281250
2291,113.281250
2292,113.281250
2293,109.375000
2294,113.281250
2295,113.281250
2296,113.281250
2297,113.281250
2298,113.281250
2299,113.281250
2300,113.281250
2301,109.375000
2302,113.281250
2303,113.281250
2304,109.375000
2305,113.281250
2306,113.281250
2307,113.281250
2308,113.281250
2309,113.281250
2310,113.281250
2311,113.281250
2312,113.281250
2313,113.281250
2314,113.281250
2315,113.281250
2316,113.281250
2317,109.375000
2318,113.281250
2319,109.375000
2320,109.375000
2321,109.375000
2322,113.281250
2323,109.375000
2324,109.375000
2325,113.281250
2326,109.375000
2327,109.375000
2328,109.375000
2329,109.375000
2330,109.375000
2331,109.375000
2332,109.375000
2333,109.375000
2334,109.375000
2335,109.375000
2336,109.375000
2337,109.375000
2338,109.375000
2339,109.375000
2340,109.375000
2341,109.375000
2342,109.375000
2343,109.375000
2344,109.375000
2345,109.375000
2346,109.375000
2347,105.468750
2348,109.375000
2349,109.375000
2350,105.468750
2351,105.468750
2352,105.468750
2353,109.375000
2354,105.468750
2355,105.468750
2356,105.468750
2357,105.468750
2358,105.468750
2359,105.468750
2360,105.468750
2361,105.468750
2362,105.468750
2363,105.468750
2364,105.468750
2365,105.468750
2366,101.562500
2367,101.562500
2368,101.562500
2369,105.468750
2370,101.562500
2371,101.562500
2372,101.562500
2373,101.562500
2374,101.562500
2375,101.562500
2376,101.562500
2377,101.562500
2378,101.562500
2379,101.562500
2380,97.656250
2381,97.656250
2382,101.562500
2383,97.656250
2384,97.656250
2385,97.656250
2386,97.656250
2387,97.656250
2388,97.656250
2389,97.656250
2390,97.656250
2391,97.656250
2392,97.656250
2393,93.750000
2394,93.750000
2395,93.750000
2396,93.750000
2397,93.750000
2398,93.750000
2399,93.750000
2400,93.750000
2401,93.750000
2402,93.750000
2403,89.843750
2404,89.843750
2405,89.843750
2406,89.843750
2407,89.843750
2408,89.843750
2409,89.843750
2410,89.843750
2411,85.937500
2412,85.937500
2413,85.937500
2414,85.937500
2415,85.937500
2416,85.937500
2417,85.937500
2418,85.937500
2419,82.031250
2420,82.031250
2421,82.031250
2422,82.031250
2423,82.031250
2424,82.031250
2425,82.031250
2426,82.031250
2427,78.125000
2428,78.125000
2429,78.125000
2430,78.125000
2431,78.125000
2432,78.125000
2433,78.125000
2434,74.218750
2435,74.218750
2436,74.218750
2437,74.218750
2438,74.218750
2439,74.218750
2440,74.218750
2441,70.312500
2442,70.312500
2443,70.312500
2444,70.312500
2445,70.312500
2446,70.312500
2447,70.312500
2448,66.406250
2449,66.406250
2450,66.406250
2451,66.406250
2452,62.500000
2453,62.500000
2454,62.500000
2455,62.500000
2456,62.500000
2457,62.500000
2458,62.500000
2459,58.593750
2460,58.593750
2461,58.593750
2462,58.593750
2463,58.593750
2464,58.593750
2465,54.687500
2466,54.687500
2467,54.687500
2468,54.687500
2469,54.687500
2470,54.687500
2471,50.781250
2472,50.781250
2473,50.781250
2474,50.781250
2475,50.781250
2476,46.875000
2477,46.875000
2478,46.875000
2479,46.875000
2480,46.875000
2481,46.875000
2482,42.968750
2483,42.968750
2484,42.968750
2485,42.968750
2486,42.968750
2487,39.062500
2488,39.062500
2489,39.062500
2490,39.062500
2491,35.156250
2492,35.156250
2493,35.156250
2494,35.156250
2495,35.156250
2496,35.156250
2497,35.156250
2498,31.250000
2499,31.250000
2500,31.250000
2501,31.250000
2502,31.250000
2503,27.343750
2504,27.343750
2505,27.343750
2506,27.343750
2507,23.437500
2508,23.437500
2509,23.437500
2510,23.437500
2511,23.437500
2512,23.437500
2513,19.531250
2514,19.531250
2515,19.531250
2516,19.531250
2517,15.625000
2518,15.625000
2519,15.625000
2520,15.625000
2521,15.625000
2522,11.718750
2523,11.718750
2524,11.718750
2525,11.718750
2526,11.718750
2527,7.812500
2528,7.812500
2529,7.812500
2530,7.812500
2531,3.906250
2532,3.906250
2533,3.906250
2534,3.906250
2535,3.906250
2536,0.000000
2537,0.000000
2538,0.000000
2539,0.000000
2540,0.000000
2541,-3.906250
2542,-3.906250
2543,-3.906250
2544,-3.906250
2545,-7.812500
2546,-7.812500
2547,-7.812500
2548,-7.812500
2549,-11.718750
2550,-11.718750
2551,-11.718750
2552,-11.718750
2553,-15.625000
2554,-15.625000
2555,-15.625000
2556,-15.625000
2557,-15.625000
2558,-19.531250
2559,-19.531250
2560,-19.531250
2561,-19.531250
2562,-19.531250
2563,-23.437500
2564,-23.437500
2565,-23.437500
2566,-23.437500
2567,-27.343750
2568,-27.343750
2569,-27.343750
2570,-27.343750
2571,-31.250000
2572,-31.250000
2573,-31.250000
2574,-31.250000
2575,-35.156250
2576,-35.156250
2577,-35.156250
2578,-35.156250
2579,-39.062500
2580,-39.062500
2581,-39.062500
2582,-39.062500
2583,-39.062500
2584,-39.062500
2585,-42.968750
2586,-42.968750
2587,-42.968750
2588,-46.875000
2589,-46.875000
2590,-46.875000
2591,-46.875000
2592,-50.781250
2593,-50.781250
2594,-50.781250
2595,-50.781250
2596,-50.781250
2597,-54.687500
2598,-54.687500
2599,-54.687500
2600,-54.687500
2601,-58.593750
2602,-58.593750
2603,-58.593750
2604,-58.593750
2605,-58.593750
2606,-62.500000
2607,-62.500000
2608,-62.500000
2609,-62.500000
2610,-62.500000
2611,-66.406250
2612,-66.406250
2613,-66.406250
2614,-66.406250
2615,-70.312500
2616,-70.312500
2617,-70.312500
2618,-74.218750
2619,-74.218750
2620,-74.218750
2621,-74.218750
2622,-74.218750
2623,-74.218750
2624,-74.218750
2625,-78.125000
2626,-78.125000
2627,-78.125000
2628,-78.125000
2629,-82.031250
2630,-82.031250
2631,-82.031250
2632,-82.031250
2633,-82.031250
2634,-85.937500
2635,-85.937500
2636,-85.937500
2637,-85.937500
2638,-85.937500
2639,-85.937500
2640,-89.843750
2641,-89.843750
2642,-89.843750
2643,-89.843750
2644,-93.750000
2645,-93.750000
2646,-93.750000
2647,-93.750000
2648,-93.750000
2649,-97.656250
2650,-97.656250
2651,-97.656250
2652,-97.656250
2653,-97.656250
2654,-97.656250
2655,-101.562500
2656,-101.562500
2657,-101.562500
2658,-101.562500
2659,-101.562500
2660,-105.468750
2661,-105.468750
2662,-105.468750
2663,-105.468750
2664,-105.468750
2665,-109.375000
2666,-109.375000
2667,-109.375000
2668,-109.375000
2669,-109.375000
2670,-109.375000
2671,-109.375000
2672,-113.281250
2673,-113.281250
2674,-113.281250
2675,-113.281250
2676,-113.281250
2677,-117.187500
2678,-117.187500
2679,-117.187500
2680,-117.187500
2681,-121.093750
2682,-117.187500
2683,-121.093750
2684,-121.093750
2685,-121.093750
2686,-121.093750
2687,-121.093750
2688,-121.093750
2689,-125.000000
2690,-125.000000
2691,-125.000000
2692,-125.000000
2693,-125.000000
2694,-125.000000
2695,-125.000000
2696,-128.906250
2697,-128.906250
2698,-128.906250
2699,-128.906250
2700,-128.906250
2701,-132.812500
2702,-132.812500
2703,-132.812500
2704,-132.812500
2705,-132.812500
2706,-132.812500
2707,-132.812500
2708,-132.812500
2709,-132.812500
2710,-136.718750
2711,-136.718750
2712,-136.718750
2713,-136.718750
2714,-136.718750
2715,-136.718750
2716,-136.718750
2717,-136.718750
2718,-140.625000
2719,-140.625000
2720,-136.718750
2721,-140.625000
2722,-140.625000
2723,-140.625000
2724,-140.625000
2725,-140.625000
2726,-144.531250
2727,-140.625000
2728,-144.531250
2729,-144.531250
2730,-144.531250
2731,-144.531250
2732,-144.531250
2733,-144.531250
2734,-144.531250
2735,-144.531250
2736,-144.531250
2737,-144.531250
2738,-148.437500
2739,-148.437500
2740,-148.437500
2741,-148.437500
2742,-148.437500
2743,-148.437500
2744,-148.437500
2745,-148.437500
2746,-148.437500
2747,-148.437500
2748,-148.437500
2749,-148.437500
2750,-148.437500
2751,-148.437500
2752,-148.437500
2753,-152.343750
2754,-152.343750
2755,-152.343750
2756,-152.343750
2757,-152.343750
2758,-152.343750
2759,-152.343750
2760,-152.343750
2761,-152.343750
2762,-152.343750
2763,-152.343750
2764,-152.343750
2765,-152.343750
2766,-152.343750
2767,-152.343750
2768,-152.343750
2769,-156.250000
2770,-152.343750
2771,-152.343750
2772,-152.343750
2773,-152.343750
2774,-156.250000
2775,-152.343750
2776,-156.250000
2777,-156.250000
2778,-156.250000
2779,-156.250000
2780,-152.343750
2781,-156.250000
2782,-156.250000
2783,-156.250000
2784,-156.250000
2785,-156.250000
2786,-156.250000
2787,-156.250000
2788,-156.250000
2789,-156.250000
2790,-156.250000
2791,-156.250000
2792,-156.250000
2793,-156.250000
2794,-156.250000
2795,-156.250000
2796,-156.250000
2797,-156.250000
2798,-156.250000
2799,-156.250000
2800,-156.250000
2801,-156.250000
2802,-156.250000
2803,-156.250000
2804,-156.250000
2805,-156.250000
2806,-152.343750
2807,-152.343750
2808,-156.250000
2809,-156.250000
2810,-152.343750
2811,-152.343750
2812,-156.250000
2813,-152.343750
2814,-152.343750
2815,-152.343750
2816,-152.343750
2817,-152.343750
2818,-152.343750
2819,-152.343750
2820,-152.343750
2821,-152.343750
2822,-152.343750
2823,-152.343750
2824,-152.343750
2825,-152.343750
2826,-152.343750
2827,-152.343750
2828,-152.343750
2829,-152.343750
2830,-152.343750
2831,-152.343750
2832,-148.437500
2833,-148.437500
2834,-148.437500
2835,-148.437500
2836,-148.437500
2837,-148.437500
2838,-148.437500
2839,-148.437500
2840,-148.437500
2841,-148.437500
2842,-148.437500
2843,-148.437500
2844,-148.437500
2845,-148.437500
2846,-148.437500
2847,-144.531250
2848,-144.531250
2849,-144.531250
2850,-144.531250
2851,-144.531250
2852,-144.531250
2853,-144.531250
2854,-144.531250
2855,-144.531250
2856,-144.531250
2857,-140.625000
2858,-140.625000
2859,-140.625000
2860,-140.625000
2861,-140.625000
2862,-140.625000
2863,-140.625000
2864,-140.625000
2865,-140.625000
2866,-140.625000
2867,-140.625000
2868,-136.718750
2869,-136.718750
2870,-136.718750
2871,-136.718750
2872,-136.718750
2873,-136.718750
2874,-136.718750
2875,-132.812500
2876,-132.812500
2877,-132.812500
2878,-132.812500
2879,-132.812500
2880,-132.812500
2881,-132.812500
2882,-132.812500
2883,-128.906250
2884,-132.812500
2885,-128.906250
2886,-128.906250
2887,-128.906250
2888,-128.906250
2889,-125.000000
2890,-125.000000
2891,-125.000000
2892,-125.000000
2893,-125.000000
2894,-125.000000
2895,-125.000000
2896,-121.093750
2897,-121.093750
2898,-121.093750
2899,-121.093750
2900,-121.093750
2901,-121.093750
2902,-121.093750
2903,-117.187500
2904,-117.187500
2905,-117.187500
2906,-117.187500
2907,-117.187500
2908,-113.281250
2909,-113.281250
2910,-113.281250
2911,-113.281250
2912,-113.281250
2913,-113.281250
2914,-113.281250
2915,-109.375000
2916,-109.375000
2917,-109.375000
2918,-109.375000
2919,-109.375000
2920,-105.468750
2921,-105.468750
2922,-105.468750
2923,-105.468750
2924,-105.468750
2925,-105.468750
2926,-101.562500
2927,-101.562500
2928,-101.562500
2929,-101.562500
2930,-101.562500
2931,-101.562500
2932,-97.656250
2933,-97.656250
2934,-97.656250
2935,-97.656250
2936,-93.750000
2937,-93.750000
2938,-93.750000
2939,-93.750000
2940,-93.750000
2941,-93.750000
2942,-93.750000
2943,-89.843750
2944,-89.843750
2945,-89.843750
2946,-85.937500
2947,-85.937500
2948,-85.937500
2949,-85.937500
2950,-85.937500
2951,-85.937500
2952,-82.031250
2953,-82.031250
2954,-82.031250
2955,-82.031250
2956,-82.031250
2957,-82.031250
2958,-78.125000
2959,-78.125000
2960,-78.125000
2961,-78.125000
2962,-74.218750
2963,-74.218750
2964,-74.218750
2965,-74.218750
2966,-74.218750
2967,-70.312500
2968,-70.312500
2969,-70.312500
2970,-70.312500
2971,-66.406250
2972,-66.406250
2973,-66.406250
2974,-66.406250
2975,-66.406250
2976,-66.406250
2977,-62.500000
2978,-62.500000
2979,-62.500000
2980,-62.500000
2981,-62.500000
2982,-58.593750
2983,-58.593750
2984,-58.593750
2985,-58.593750
2986,-54.687500
2987,-54.687500
2988,-54.687500
2989,-54.687500
2990,-50.781250
2991,-50.781250
2992,-50.781250
2993,-50.781250
2994,-50.781250
2995,-50.781250
2996,-46.875000
2997,-46.875000
2998,-46.875000
2999,-46.875000
3000,-42.968750
3001,-42.968750
3002,-42.968750
3003,-42.968750
3004,-42.968750
3005,-39.062500
3006,-39.062500
3007,-39.062500
3008,-39.062500
3009,-35.156250
3010,-35.156250
3011,-35.156250
3012,-35.156250
3013,-35.156250
3014,-31.250000
3015,-31.250000
3016,-31.250000
3017,-27.343750
3018,-27.343750
3019,-27.343750
3020,-27.343750
3021,-23.437500
3022,-27.343750
3023,-23.437500
3024,-23.437500
3025,-23.437500
3026,-23.437500
3027,-23.437500
3028,-19.531250
3029,-19.531250
3030,-19.531250
3031,-19.531250
3032,-15.625000
3033,-15.625000
3034,-15.625000
3035,-15.625000
3036,-11.718750
3037,-11.718750
3038,-11.718750
3039,-11.718750
3040,-11.718750
3041,-7.812500
3042,-7.812500
3043,-7.812500
3044,-7.812500
3045,-7.812500
3046,-3.906250
3047,-3.906250
3048,-3.906250
3049,-3.906250
3050,0.000000
3051,0.000000
3052,0.000000
3053,0.000000
3054,0.000000
3055,3.906250
3056,3.906250
3057,3.906250
3058,3.906250
3059,7.812500
3060,7.812500
3061,7.812500
3062,7.812500
3063,7.812500
3064,11.718750
3065,11.718750
3066,11.718750
3067,11.718750
3068,15.625000
3069,15.625000
3070,15.625000
3071,15.625000
3072,15.625000
3073,15.625000
3074,15.625000
3075,19.531250
3076,19.531250
3077,19.531250
3078,19.531250
3079,23.437500
3080,23.437500
3081,23.437500
3082,23.437500
3083,23.437500
3084,23.437500
3085,27.343750
3086,27.343750
3087,27.343750
3088,31.250000
3089,31.250000
3090,31.250000
3091,31.250000
3092,31.250000
3093,31.250000
3094,31.250000
3095,35.156250
3096,35.156250
3097,35.156250
3098,35.156250
3099,35.156250
3100,39.062500
3101,39.062500
3102,39.062500
3103,39.062500
3104,39.062500
3105,39.062500
3106,42.968750
3107,42.968750
3108,42.968750
3109,42.968750
3110,46.875000
3111,46.875000
3112,46.875000
3113,46.875000
3114,46.875000
3115,46.875000
3116,50.781250
3117,50.781250
3118,50.781250
3119,50.781250
3120,50.781250
3121,50.781250
3122,54.687500
3123,54.687500
3124,54.687500
3125,54.687500
3126,54.687500
3127,54.687500
3128,54.687500
3129,58.593750
3130,58.593750
3131,58.593750
3132,58.593750
3133,58.593750
3134,62.500000
3135,62.500000
3136,62.500000
3137,62.500000
3138,62.500000
3139,62.500000
3140,66.406250
3141,66.406250
3142,66.406250
3143,66.406250
3144,66.406250
3145,66.406250
3146,66.406250
3147,66.406250
3148,70.312500
3149,70.312500
3150,70.312500
3151,70.312500
3152,74.218750
3153,74.218750
3154,74.218750
3155,74.218750
3156,74.218750
3157,74.218750
3158,74.218750
3159,74.218750
3160,74.218750
3161,78.125000
3162,78.125000
3163,78.125000
3164,78.125000
3165,78.125000
3166,78.125000
3167,78.125000
3168,78.125000
3169,78.125000
3170,82.031250
3171,82.031250
3172,82.031250
3173,82.031250
3174,82.031250
3175,82.031250
3176,82.031250
3177,85.937500
3178,85.937500
3179,85.937500
3180,85.937500
3181,85.937500
3182,85.937500
3183,85.937500
3184,89.843750
3185,89.843750
3186,89.843750
3187,89.843750
3188,89.843750
3189,89.843750
3190,89.843750
3191,89.843750
3192,89.843750
3193,89.843750
3194,93.750000
3195,93.750000
3196,93.750000
3197,93.750000
3198,93.750000
3199,93.750000
3200,93.750000
3201,93.750000
3202,93.750000
3203,97.656250
3204,97.656250
3205,97.656250
3206,97.656250
3207,97.656250
3208,97.656250
3209,97.656250
3210,97.656250
3211,97.656250
3212,97.656250
3213,97.656250
3214,101.562500
3215,101.562500
3216,101.562500
3217,101.562500
3218,101.562500
3219,101.562500
3220,101.562500
3221,101.562500
3222,101.562500
3223,101.562500
3224,101.562500
3225,101.562500
3226,101.562500
3227,105.468750
3228,105.468750
3229,105.468750
3230,105.468750
3231,105.468750
3232,105.468750
3233,105.468750
3234,105.468750
3235,105.468750
3236,105.468750
3237,105.468750
3238,105.468750
3239,105.468750
3240,105.468750
3241,105.468750
3242,105.468750
3243,105.468750
3244,105.468750
3245,105.468750
3246,109.375000
3247,109.375000
3248,109.375000
3249,109.375000
3250,109.375000
3251,109.375000
3252,109.375000
3253,109.375000
3254,109.375000
3255,109.375000
3256,109.375000
3257,109.375000
3258,109.375000
3259,109.375000
3260,109.375000
3261,109.375000
3262,109.375000
3263,109.375000
3264,109.375000
3265,109.375000
3266,109.375000
3267,109.375000
3268,109.375000
3269,109.375000
3270,109.375000
3271,113.281250
3272,113.281250
3273,113.281250
3274,113.281250
3275,113.281250
3276,113.281250
3277,113.281250
3278,113.281250
3279,113.281250
3280,113.281250
3281,113.281250
3282,113.281250
3283,113.281250
3284,113.281250
3285,113.281250
3286,113.281250
3287,113.281250
3288,113.281250
3289,113.281250
3290,113.281250
3291,113.281250
3292,113.281250
3293,113.281250
3294,113.281250
3295,113.281250
3296,113.281250
3297,113.281250
3298,113.281250
3299,113.281250
3300,113.281250
3301,113.281250
3302,113.281250
3303,113.281250
3304,113.281250
3305,113.281250
3306,113.281250
3307,113.281250
3308,113.281250
3309,113.281250
3310,109.375000
3311,113.281250
3312,113.281250
3313,113.281250
3314,113.281250
3315,113.281250
3316,113.281250
3317,113.281250
3318,109.375000
3319,113.281250
3320,109.375000
3321,109.375000
3322,109.375000
3323,109.375000
3324,113.281250
3325,109.375000
3326,109.375000
3327,109.375000
3328,109.375000
3329,109.375000
3330,109.375000
3331,109.375000
3332,109.375000
3333,109.375000
3334,109.375000
3335,109.375000
3336,109.375000
3337,109.375000
3338,109.375000
3339,109.375000
3340,105.468750
3341,105.468750
3342,109.375000
3343,105.468750
3344,109.375000
3345,105.468750
3346,105.468750
3347,105.468750
3348,105.468750
3349,105.468750
3350,105.468750
3351,105.468750
3352,105.468750
3353,105.468750
3354,105.468750
3355,101.562500
3356,105.468750
3357,105.468750
3358,105.468750
3359,101.562500
3360,101.562500
3361,101.562500
3362,101.562500
3363,101.562500
3364,101.562500
3365,101.562500
3366,101.562500
3367,101.562500
3368,101.562500
3369,101.562500
3370,97.656250
3371,97.656250
3372,101.562500
3373,97.656250
3374,97.656250
3375,97.656250
3376,97.656250
3377,97.656250
3378,97.656250
3379,97.656250
3380,97.656250
3381,93.750000
3382,93.750000
3383,93.750000
3384,93.750000
3385,93.750000
3386,93.750000
3387,93.750000
3388,93.750000
3389,93.750000
3390,93.750000
3391,93.750000
3392,89.843750
3393,89.843750
3394,89.843750
3395,89.843750
3396,89.843750
3397,89.843750
3398,89.843750
3399,89.843750
3400,85.937500
3401,85.937500
3402,85.937500
3403,85.937500
3404,85.937500
3405,85.937500
3406,85.937500
3407,85.937500
3408,82.031250
3409,82.031250
3410,82.031250
3411,82.031250
3412,82.031250
3413,82.031250
3414,82.031250
3415,82.031250
3416,82.031250
3417,78.125000
3418,78.125000
3419,78.125000
3420,78.125000
3421,78.125000
3422,74.218750
3423,74.218750
3424,74.218750
3425,74.218750
3426,74.218750
3427,74.218750
3428,74.218750
3429,74.218750
3430,74.218750
3431,70.312500
3432,70.312500
3433,70.312500
3434,70.312500
3435,70.312500
3436,70.312500
3437,70.312500
3438,66.406250
3439,66.406250
3440,66.406250
3441,66.406250
3442,66.406250
3443,66.406250
3444,62.500000
3445,62.500000
3446,62.500000
3447,62.500000
3448,62.500000
3449,58.593750
3450,58.593750
3451,58.593750
3452,58.593750
3453,58.593750
3454,58.593750
3455,54.687500
3456,58.593750
3457,54.687500
3458,54.687500
3459,50.781250
3460,50.781250
3461,50.781250
3462,50.781250
3463,50.781250
3464,50.781250
3465,50.781250
3466,46.875000
3467,46.875000
3468,46.875000
3469,46.875000
3470,46.875000
3471,42.968750
3472,42.968750
3473,46.875000
3474,42.968750
3475,42.968750
3476,42.968750
3477,39.062500
3478,39.062500
3479,39.062500
3480,39.062500
3481,39.062500
3482,35.156250
3483,35.156250
3484,35.156250
3485,35.156250
3486,35.156250
3487,31.250000
3488,31.250000
3489,31.250000
3490,31.250000
3491,31.250000
3492,27.343750
3493,27.343750
3494,27.343750
3495,27.343750
3496,23.437500
3497,23.437500
3498,23.437500
3499,23.437500
3500,23.437500
3501,23.437500
3502,19.531250
3503,19.531250
3504,19.531250
3505,19.531250
3506,19.531250
3507,19.531250
3508,15.625000
3509,15.625000
3510,15.625000
3511,11.718750
3512,11.718750
3513,11.718750
3514,11.718750
3515,7.812500
3516,7.812500
3517,7.812500
3518,7.812500
3519,7.812500
3520,3.906250
3521,3.906250
3522,3.906250
3523,3.906250
3524,0.000000
3525,0.000000
3526,0.000000
3527,0.000000
3528,0.000000
3529,-3.906250
3530,-3.906250
3531,-3.906250
3532,-3.906250
3533,-7.812500
3534,-7.812500
3535,-7.812500
3536,-7.812500
3537,-7.812500
3538,-11.718750
3539,-11.718750
3540,-11.718750
3541,-11.718750
3542,-15.625000
3543,-15.625000
3544,-15.625000
3545,-15.625000
3546,-15.625000
3547,-19.531250
3548,-19.531250
3549,-19.531250
3550,-19.531250
3551,-23.437500
3552,-23.437500
3553,-23.437500
3554,-23.437500
3555,-27.343750
3556,-27.343750
3557,-27.343750
3558,-27.343750
3559,-27.343750
3560,-31.250000
3561,-31.250000
3562,-31.250000
3563,-31.250000
3564,-35.156250
3565,-35.156250
3566,-35.156250
3567,-35.156250
3568,-39.062500
3569,-39.062500
3570,-39.062500
3571,-39.062500
3572,-39.062500
3573,-39.062500
3574,-42.968750
3575,-42.968750
3576,-42.968750
3577,-42.968750
3578,-42.968750
3579,-46.875000
3580,-46.875000
3581,-46.875000
3582,-50.781250
3583,-50.781250
3584,-50.781250
3585,-50.781250
3586,-50.781250
3587,-54.687500
3588,-54.687500
3589,-54.687500
3590,-54.687500
3591,-58.593750
3592,-58.593750
3593,-58.593750
3594,-58.593750
3595,-58.593750
3596,-62.500000
3597,-62.500000
3598,-62.500000
3599,-62.500000
3600,-66.406250
3601,-66.406250
3602,-66.406250
3603,-66.406250
3604,-66.406250
3605,-70.312500
3606,-70.312500
3607,-70.312500
3608,-70.312500
3609,-70.312500
3610,-74.218750
3611,-74.218750
3612,-74.218750
3613,-74.218750
3614,-78.125000
3615,-78.125000
3616,-78.125000
3617,-78.125000
3618,-78.125000
3619,-82.031250
3620,-82.031250
3621,-82.031250
3622,-82.031250
3623,-85.937500
3624,-85.937500
3625,-85.937500
3626,-85.937500
3627,-85.937500
3628,-85.937500
3629,-89.843750
3630,-89.843750
3631,-89.843750
3632,-89.843750
3633,-93.750000
3634,-93.750000
3635,-93.750000
3636,-93.750000
3637,-93.750000
3638,-93.750000
3639,-97.656250
3640,-97.656250
3641,-97.656250
3642,-97.656250
3643,-101.562500
3644,-101.562500
3645,-101.562500
3646,-101.562500
3647,-101.562500
3648,-101.562500
3649,-105.468750
3650,-105.468750
3651,-105.468750
3652,-105.468750
3653,-109.375000
3654,-109.375000
3655,-109.375000
3656,-109.375000
3657,-109.375000
3658,-109.375000
3659,-113.281250
3660,-113.281250
3661,-113.281250
3662,-113.281250
3663,-113.281250
3664,-113.281250
3665,-117.187500
3666,-117.187500
3667,-117.187500
3668,-117.187500
3669,-117.187500
3670,-117.187500
3671,-121.093750
3672,-121.093750
3673,-121.093750
3674,-121.093750
3675,-121.093750
3676,-121.093750
3677,-121.093750
3678,-121.093750
3679,-125.000000
3680,-125.000000
3681,-125.000000
3682,-125.000000
3683,-125.000000
3684,-125.000000
3685,-128.906250
3686,-128.906250
3687,-128.906250
3688,-128.906250
3689,-128.906250
3690,-128.906250
3691,-132.812500
3692,-132.812500
3693,-132.812500
3694,-132.812500
3695,-132.812500
3696,-132.812500
3697,-132.812500
3698,-132.812500
3699,-136.718750
3700,-136.718750
3701,-136.718750
3702,-136.718750
3703,-136.718750
3704,-136.718750
3705,-136.718750
3706,-136.718750
3707,-140.625000
3708,-140.625000
3709,-140.625000
3710,-140.625000
3711,-140.625000
3712,-140.625000
3713,-140.625000
3714,-140.625000
3715,-140.625000
3716,-140.625000
3717,-140.625000
3718,-144.531250
3719,-144.531250
3720,-144.531250
3721,-144.531250
3722,-144.531250
3723,-144.531250
3724,-144.531250
3725,-144.531250
3726,-144.531250
3727,-144.531250
3728,-148.437500
3729,-148.437500
3730,-148.437500
3731,-148.437500
3732,-148.437500
3733,-148.437500
3734,-148.437500
3735,-148.437500
3736,-148.437500
3737,-148.437500
3738,-148.437500
3739,-148.437500
3740,-152.343750
3741,-152.343750
3742,-152.343750
3743,-152.343750
3744,-152.343750
3745,-152.343750
3746,-152.343750
3747,-152.343750
3748,-152.343750
3749,-152.343750
3750,-152.343750
3751,-152.343750
3752,-152.343750
3753,-152.343750
3754,-152.343750
3755,-152.343750
3756,-152.343750
3757,-152.343750
3758,-156.250000
3759,-156.250000
3760,-156.250000
3761,-156.250000
3762,-152.343750
3763,-156.250000
3764,-156.250000
3765,-156.250000
3766,-156.250000
3767,-156.250000
3768,-156.250000
3769,-156.250000
3770,-156.250000
3771,-156.250000
3772,-156.250000
3773,-156.250000
3774,-156.250000
3775,-156.250000
3776,-156.250000
3777,-156.250000
3778,-156.250000
3779,-156.250000
3780,-156.250000
3781,-156.250000
3782,-156.250000
3783,-156.250000
3784,-156.250000
3785,-156.250000
3786,-156.250000
3787,-156.250000
3788,-156.250000
3789,-156.250000
3790,-156.250000
3791,-156.250000
3792,-156.250000
3793,-156.250000
3794,-156.250000
3795,-156.250000
3796,-156.250000
3797,-156.250000
3798,-156.250000
3799,-156.250000
3800,-156.250000
3801,-156.250000
3802,-152.343750
3803,-152.343750
3804,-156.250000
3805,-156.250000
3806,-152.343750
3807,-152.343750
3808,-152.343750
3809,-152.343750
3810,-152.343750
3811,-152.343750
3812,-152.343750
3813,-152.343750
3814,-152.343750
3815,-152.343750
3816,-152.343750
3817,-148.437500
3818,-152.343750
3819,-152.343750
3820,-152.343750
3821,-152.343750
3822,-148.437500
3823,-148.437500
3824,-148.437500
3825,-148.437500
3826,-148.437500
3827,-148.437500
3828,-148.437500
3829,-148.437500
3830,-148.437500
3831,-148.437500
3832,-148.437500
3833,-148.437500
3834,-148.437500
3835,-144.531250
3836,-144.531250
3837,-144.531250
3838,-144.531250
3839,-144.531250
3840,-144.531250
3841,-144.531250
3842,-144.531250
3843,-144.531250
3844,-144.531250
3845,-144.531250
3846,-140.625000
3847,-140.625000
3848,-140.625000
3849,-140.625000
3850,-140.625000
3851,-140.625000
3852,-140.625000
3853,-140.625000
3854,-140.625000
3855,-136.718750
3856,-136.718750
3857,-136.718750
3858,-136.718750
3859,-132.812500
3860,-136.718750
3861,-136.718750
3862,-136.718750
3863,-136.718750
3864,-132.812500
3865,-132.812500
3866,-132.812500
3867,-132.812500
3868,-132.812500
3869,-132.812500
3870,-132.812500
3871,-128.906250
3872,-132.812500
3873,-128.906250
3874,-128.906250
3875,-128.906250
3876,-128.906250
3877,-128.906250
3878,-128.906250
3879,-125.000000
3880,-125.000000
3881,-125.000000
3882,-125.000000
3883,-125.000000
3884,-125.000000
3885,-125.000000
3886,-121.093750
3887,-121.093750
3888,-121.093750
3889,-121.093750
3890,-121.093750
3891,-121.093750
3892,-117.187500
3893,-117.187500
3894,-117.187500
3895,-117.187500
3896,-117.187500
3897,-117.187500
3898,-117.187500
3899,-113.281250
3900,-113.281250
3901,-113.281250
3902,-113.281250
3903,-113.281250
3904,-113.281250
3905,-113.281250
3906,-109.375000
3907,-109.375000
3908,-109.375000
3909,-109.375000
3910,-109.375000
3911,-105.468750
3912,-105.468750
3913,-105.468750
3914,-105.468750
3915,-105.468750
3916,-101.562500
3917,-101.562500
3918,-101.562500
3919,-101.562500
3920,-101.562500
3921,-101.562500
3922,-97.656250
3923,-97.656250
3924,-97.656250
3925,-97.656250
3926,-97.656250
3927,-93.750000
3928,-93.750000
3929,-93.750000
3930,-89.843750
3931,-93.750000
3932,-89.843750
3933,-89.843750
3934,-89.843750
3935,-89.843750
3936,-89.843750
3937,-85.937500
3938,-85.937500
3939,-85.937500
3940,-85.937500
3941,-82.031250
3942,-82.031250
3943,-82.031250
3944,-82.031250
3945,-82.031250
3946,-78.125000
3947,-78.125000
3948,-78.125000
3949,-78.125000
3950,-78.125000
3951,-78.125000
3952,-74.218750
3953,-74.218750
3954,-74.218750
3955,-74.218750
3956,-70.312500
3957,-70.312500
3958,-70.312500
3959,-70.312500
3960,-70.312500
3961,-66.406250
3962,-66.406250
3963,-66.406250
3964,-66.406250
3965,-66.406250
3966,-62.500000
3967,-62.500000
3968,-62.500000
3969,-62.500000
3970,-58.593750
3971,-58.593750
3972,-58.593750
3973,-58.593750
3974,-58.593750
3975,-54.687500
3976,-54.687500
3977,-54.687500
3978,-54.687500
3979,-50.781250
3980,-50.781250
3981,-50.781250
3982,-50.781250
3983,-50.781250
3984,-46.875000
3985,-46.875000
3986,-46.875000
3987,-46.875000
3988,-42.968750
3989,-42.968750
3990,-42.968750
3991,-42.968750
3992,-42.968750
3993,-39.062500
3994,-39.062500
3995,-39.062500
3996,-39.062500
3997,-39.062500
3998,-35.156250
3999,-35.156250
4000,-35.156250
4001,-35.156250
4002,-35.156250
4003,-31.250000
4004,-31.250000
4005,-31.250000
4006,-31.250000
4007,-31.250000
4008,-27.343750
4009,-27.343750
4010,-27.343750
4011,-23.437500
4012,-23.437500
4013,-23.437500
4014,-23.437500
4015,-23.437500
4016,-23.437500
4017,-19.531250
4018,-19.531250
4019,-19.531250
4020,-15.625000
4021,-15.625000
4022,-15.625000
4023,-15.625000
4024,-15.625000
4025,-11.718750
4026,-11.718750
4027,-11.718750
4028,-11.718750
4029,-11.718750
4030,-7.812500
4031,-7.812500
4032,-7.812500
4033,-7.812500
4034,-7.812500
4035,-3.906250
4036,-3.906250
4037,-3.906250
4038,-3.906250
4039,0.000000
4040,0.000000
4041,0.000000
4042,0.000000
4043,0.000000
4044,3.906250
4045,3.906250
4046,3.906250
4047,3.906250
4048,7.812500
4049,7.812500
4050,7.812500
4051,7.812500
4052,7.812500
4053,11.718750
4054,11.718750
4055,11.718750
4056,11.718750
4057,11.718750
4058,15.625000
4059,15.625000
4060,15.625000
4061,15.625000
4062,15.625000
4063,19.531250
4064,19.531250
4065,19.531250
4066,19.531250
4067,19.531250
4068,23.437500
4069,23.437500
4070,23.437500
4071,23.437500
4072,27.343750
4073,27.343750
4074,27.343750
4075,27.343750
4076,27.343750
4077,27.343750
4078,31.250000
4079,31.250000
4080,31.250000
4081,31.250000
4082,35.156250
4083,31.250000
4084,35.156250
4085,35.156250
4086,35.156250
4087,35.156250
4088,39.062500
4089,39.062500
4090,39.062500
4091,39.062500
4092,39.062500
4093,42.968750
4094,42.968750
4095,42.968750
4096,42.968750
4097,42.968750
4098,42.968750
4099,42.968750
4100,46.875000
4101,46.875000
4102,46.875000
4103,46.875000
4104,46.875000
4105,50.781250
4106,50.781250
4107,50.781250
4108,50.781250
4109,50.781250
4110,50.781250
4111,54.687500
4112,54.687500
4113,54.687500
4114,54.687500
4115,54.687500
4116,54.687500
4117,58.593750
4118,58.593750
4119,58.593750
4120,58.593750
4121,58.593750
4122,58.593750
4123,62.500000
4124,62.500000
4125,62.500000
4126,62.500000
4127,62.500000
4128,66.406250
4129,66.406250
4130,66.406250
4131,66.406250
4132,66.406250
4133,66.406250
4134,66.406250
4135,66.406250
4136,66.406250
4137,70.312500
4138,70.312500
4139,70.312500
4140,70.312500
4141,70.312500
4142,70.312500
4143,70.312500
4144,74.218750
4145,74.218750
4146,74.218750
4147,74.218750
4148,74.218750
4149,74.218750
4150,78.125000
4151,78.125000
4152,78.125000
4153,78.125000
4154,78.125000
4155,78.125000
4156,78.125000
4157,78.125000
4158,82.031250
4159,82.031250
4160,82.031250
4161,82.031250
4162,82.031250
4163,82.031250
4164,82.031250
4165,82.031250
4166,85.937500
4167,85.937500
4168,85.937500
4169,85.937500
4170,85.937500
4171,85.937500
4172,85.937500
4173,89.843750
4174,85.937500
4175,89.843750
4176,85.937500
4177,89.843750
4178,89.843750
4179,89.843750
4180,89.843750
4181,93.750000
4182,89.843750
4183,93.750000
4184,89.843750
4185,93.750000
4186,93.750000
4187,93.750000
4188,93.750000
4189,93.750000
4190,93.750000
4191,93.750000
4192,93.750000
4193,97.656250
4194,97.656250
4195,97.656250
4196,97.656250
4197,97.656250
4198,101.562500
4199,101.562500
4200,97.656250
4201,97.656250
4202,97.656250
4203,97.656250
4204,97.656250
4205,101.562500
4206,101.562500
4207,101.562500
4208,101.562500
4209,101.562500
4210,101.562500
4211,105.468750
4212,101.562500
4213,101.562500
4214,101.562500
4215,101.562500
4216,101.562500
4217,101.562500
4218,105.468750
4219,105.468750
4220,105.468750
4221,105.468750
4222,105.468750
4223,105.468750
4224,105.468750
4225,105.468750
4226,105.468750
4227,105.468750
4228,105.468750
4229,105.468750
4230,105.468750
4231,105.468750
4232,109.375000
4233,109.375000
4234,105.468750
4235,109.375000
4236,109.375000
4237,109.375000
4238,109.375000
4239,109.375000
4240,109.375000
4241,109.375000
4242,109.375000
4243,109.375000
4244,109.375000
4245,109.375000
4246,109.375000
4247,109.375000
4248,109.375000
4249,109.375000
4250,109.375000
4251,109.375000
4252,109.375000
4253,109.375000
4254,109.375000
4255,109.375000
4256,109.375000
4257,109.375000
4258,109.375000
4259,109.375000
4260,113.281250
4261,113.281250
4262,113.281250
4263,113.281250
4264,113.281250
4265,113.281250
4266,113.281250
4267,113.281250
4268,113.281250
4269,113.281250
4270,113.281250
4271,113.281250
4272,113.281250
4273,113.281250
4274,113.281250
4275,113.281250
4276,113.281250
4277,113.281250
4278,113.281250
4279,113.281250
4280,113.281250
4281,113.281250
4282,113.281250
4283,113.281250
4284,113.281250
4285,113.281250
4286,113.281250
4287,113.281250
4288,113.281250
4289,113.281250
4290,113.281250
4291,113.281250
4292,113.281250
4293,113.281250
4294,113.281250
4295,113.281250
4296,109.375000
4297,113.281250
4298,113.281250
4299,113.281250
4300,113.281250
4301,113.281250
4302,113.281250
4303,113.281250
4304,113.281250
4305,109.375000
4306,109.375000
4307,109.375000
4308,109.375000
4309,109.375000
4310,109.375000
4311,109.375000
4312,109.375000
4313,109.375000
4314,113.281250
4315,109.375000
4316,109.375000
4317,109.375000
4318,109.375000
4319,109.375000
4320,109.375000
4321,109.375000
4322,109.375000
4323,109.375000
4324,109.375000
4325,109.375000
4326,109.375000
4327,109.375000
4328,109.375000
4329,109.375000
4330,109.375000
4331,109.375000
4332,109.375000
4333,109.375000
4334,105.468750
4335,105.468750
4336,105.468750
4337,105.468750
4338,105.468750
4339,105.468750
4340,105.468750
4341,105.468750
4342,105.468750
4343,105.468750
4344,105.468750
4345,105.468750
4346,105.468750
4347,105.468750
4348,105.468750
4349,105.468750
4350,101.562500
4351,101.562500
4352,101.562500
4353,101.562500
4354,101.562500
4355,101.562500
4356,101.562500
4357,101.562500
4358,101.562500
4359,101.562500
4360,101.562500
4361,97.656250
4362,97.656250
4363,97.656250
4364,97.656250
4365,97.656250
4366,97.656250
4367,97.656250
4368,97.656250
4369,97.656250
4370,97.656250
4371,97.656250
4372,97.656250
4373,93.750000
4374,93.750000
4375,93.750000
4376,93.750000
4377,93.750000
4378,93.750000
4379,93.750000
4380,93.750000
4381,93.750000
4382,89.843750
4383,89.843750
4384,89.843750
4385,89.843750
4386,89.843750
4387,89.843750
4388,89.843750
4389,89.843750
4390,85.937500
4391,85.937500
4392,85.937500
4393,85.937500
4394,85.937500
4395,85.937500
4396,85.937500
4397,85.937500
4398,85.937500
4399,82.031250
4400,82.031250
4401,82.031250
4402,82.031250
4403,82.031250
4404,82.031250
4405,82.031250
4406,82.031250
4407,78.125000
4408,78.125000
4409,78.125000
4410,78.125000
4411,78.125000
4412,78.125000
4413,74.218750
4414,74.218750
4415,74.218750
4416,74.218750
4417,74.218750
4418,74.218750
4419,74.218750
4420,74.218750
4421,70.312500
4422,70.312500
4423,70.312500
4424,70.312500
4425,70.312500
4426,66.406250
4427,66.406250
4428,66.406250
4429,66.406250
4430,66.406250
4431,66.406250
4432,66.406250
4433,62.500000
4434,62.500000
4435,62.500000
4436,62.500000
4437,62.500000
4438,58.593750
4439,58.593750
4440,58.593750
4441,58.593750
4442,58.593750
4443,58.593750
4444,58.593750
4445,54.687500
4446,54.687500
4447,54.687500
4448,54.687500
4449,54.687500
4450,50.781250
4451,50.781250
4452,50.781250
4453,50.781250
4454,50.781250
4455,50.781250
4456,46.875000
4457,46.875000
4458,46.875000
4459,46.875000
4460,46.875000
4461,42.968750
4462,42.968750
4463,42.968750
4464,42.968750
4465,42.968750
4466,39.062500
4467,39.062500
4468,39.062500
4469,39.062500
4470,39.062500
4471,39.062500
4472,35.156250
4473,35.156250
4474,35.156250
4475,35.156250
4476,31.250000
4477,31.250000
4478,31.250000
4479,31.250000
4480,31.250000
4481,31.250000
4482,27.343750
4483,27.343750
4484,27.343750
4485,27.343750
4486,27.343750
4487,23.437500
4488,23.437500
4489,23.437500
4490,23.437500
4491,23.437500
4492,19.531250
4493,19.531250
4494,19.531250
4495,19.531250
4496,15.625000
4497,15.625000
4498,15.625000
4499,15.625000
4500,15.625000
4501,11.718750
4502,11.718750
4503,11.718750
4504,11.718750
4505,7.812500
4506,7.812500
4507,7.812500
4508,7.812500
4509,3.906250
4510,3.906250
4511,3.906250
4512,3.906250
4513,3.906250
4514,0.000000
4515,0.000000
4516,0.000000
4517,0.000000
4518,0.000000
4519,-3.906250
4520,-3.906250
4521,-3.906250
4522,-7.812500
4523,-3.906250
4524,-7.812500
4525,-7.812500
4526,-7.812500
4527,-11.718750
4528,-11.718750
4529,-11.718750
4530,-11.718750
4531,-15.625000
4532,-15.625000
4533,-15.625000
4534,-15.625000
4535,-19.531250
4536,-19.531250
4537,-19.531250
4538,-19.531250
4539,-19.531250
4540,-23.437500
4541,-23.437500
4542,-23.437500
4543,-23.437500
4544,-23.437500
4545,-27.343750
4546,-27.343750
4547,-27.343750
4548,-27.343750
4549,-31.250000
4550,-31.250000
4551,-31.250000
4552,-31.250000
4553,-35.156250
4554,-35.156250
4555,-35.156250
4556,-35.156250
4557,-35.156250
4558,-39.062500
4559,-39.062500
4560,-39.062500
4561,-42.968750
4562,-42.968750
4563,-42.968750
4564,-42.968750
4565,-42.968750
4566,-46.875000
4567,-46.875000
4568,-46.875000
4569,-46.875000
4570,-46.875000
4571,-50.781250
4572,-50.781250
4573,-50.781250
4574,-54.687500
4575,-54.687500
4576,-54.687500
4577,-54.687500
4578,-54.687500
4579,-54.687500
4580,-58.593750
4581,-58.593750
4582,-58.593750
4583,-62.500000
4584,-58.593750
4585,-62.500000
4586,-62.500000
4587,-62.500000
4588,-62.500000
4589,-66.406250
4590,-66.406250
4591,-66.406250
4592,-66.406250
4593,-66.406250
4594,-70.312500
4595,-70.312500
4596,-70.312500
4597,-70.312500
4598,-74.218750
4599,-74.218750
4600,-74.218750
4601,-74.218750
4602,-74.218750
4603,-74.218750
4604,-78.125000
4605,-78.125000
4606,-78.125000
4607,-82.031250
4608,-82.031250
4609,-82.031250
4610,-82.031250
4611,-82.031250
4612,-82.031250
4613,-85.937500
4614,-85.937500
4615,-85.937500
4616,-85.937500
4617,-89.843750
4618,-89.843750
4619,-89.843750
4620,-89.843750
4621,-89.843750
4622,-89.843750
4623,-93.750000
4624,-93.750000
4625,-93.750000
4626,-93.750000
4627,-97.656250
4628,-97.656250
4629,-97.656250
4630,-97.656250
4631,-97.656250
4632,-101.562500
4633,-101.562500
4634,-101.562500
4635,-101.562500
4636,-101.562500
4637,-105.468750
4638,-105.468750
4639,-105.468750
4640,-105.468750
4641,-105.468750
4642,-105.468750
4643,-109.375000
4644,-109.375000
4645,-109.375000
4646,-109.375000
4647,-109.375000
4648,-113.281250
4649,-113.281250
4650,-113.281250
4651,-113.281250
4652,-113.281250
4653,-113.281250
4654,-117.187500
4655,-117.187500
4656,-117.187500
4657,-117.187500
4658,-117.187500
4659,-121.093750
4660,-121.093750
4661,-121.093750
4662,-121.093750
4663,-121.093750
4664,-121.093750
4665,-125.000000
4666,-121.093750
4667,-125.000000
4668,-125.000000
4669,-125.000000
4670,-125.000000
4671,-128.906250
4672,-128.906250
4673,-128.906250
4674,-128.906250
4675,-128.906250
4676,-128.906250
4677,-128.906250
4678,-128.906250
4679,-132.812500
4680,-132.812500
4681,-132.812500
4682,-132.812500
4683,-132.812500
4684,-132.812500
4685,-132.812500
4686,-132.812500
4687,-132.812500
4688,-136.718750
4689,-136.718750
4690,-136.718750
4691,-136.718750
4692,-136.718750
4693,-136.718750
4694,-136.718750
4695,-136.718750
4696,-136.718750
4697,-140.625000
4698,-140.625000
4699,-140.625000
4700,-140.625000
4701,-140.625000
4702,-144.531250
4703,-140.625000
4704,-140.625000
4705,-140.625000
4706,-144.531250
4707,-144.531250
4708,-144.531250
4709,-144.531250
4710,-144.531250
4711,-144.531250
4712,-144.531250
4713,-144.531250
4714,-148.437500
4715,-148.437500
4716,-148.437500
4717,-148.437500
4718,-148.437500
4719,-148.437500
4720,-148.437500
4721,-148.437500
4722,-148.437500
4723,-148.437500
4724,-148.437500
4725,-148.437500
4726,-148.437500
4727,-152.343750
4728,-152.343750
4729,-152.343750
4730,-152.343750
4731,-152.343750
4732,-152.343750
4733,-152.343750
4734,-148.437500
4735,-152.343750
4736,-152.343750
4737,-152.343750
4738,-152.343750
4739,-152.343750
4740,-152.343750
4741,-152.343750
4742,-152.343750
4743,-156.250000
4744,-156.250000
4745,-152.343750
4746,-152.343750
4747,-152.343750
4748,-156.250000
4749,-156.250000
4750,-156.250000
4751,-156.250000
4752,-156.250000
4753,-156.250000
4754,-156.250000
4755,-156.250000
4756,-156.250000
4757,-152.343750
4758,-156.250000
4759,-156.250000
4760,-156.250000
4761,-156.250000
4762,-156.250000
4763,-156.250000
4764,-156.250000
4765,-156.250000
4766,-156.250000
4767,-156.250000
4768,-156.250000
4769,-156.250000
4770,-156.250000
4771,-156.250000
4772,-156.250000
4773,-156.250000
4774,-156.250000
4775,-156.250000
4776,-156.250000
4777,-156.250000
4778,-156.250000
4779,-156.250000
4780,-156.250000
4781,-156.250000
4782,-156.250000
4783,-156.250000
4784,-156.250000
4785,-156.250000
4786,-156.250000
4787,-156.250000
4788,-156.250000
4789,-156.250000
4790,-156.250000
4791,-156.250000
4792,-156.250000
4793,-156.250000
4794,-156.250000
4795,-156.250000
4796,-156.250000
4797,-152.343750
4798,-152.343750
4799,-152.343750
4800,-152.343750
4801,-152.343750
4802,-152.343750
4803,-152.343750
4804,-152.343750
4805,-152.343750
4806,-152.343750
4807,-152.343750
4808,-152.343750
4809,-152.343750
4810,-152.343750
4811,-152.343750
4812,-152.343750
4813,-148.437500
4814,-148.437500
4815,-148.437500
4816,-148.437500
4817,-148.437500
4818,-148.437500
4819,-148.437500
4820,-148.437500
4821,-148.437500
4822,-148.437500
4823,-148.437500
4824,-148.437500
4825,-148.437500
4826,-144.531250
4827,-144.531250
4828,-148.437500
4829,-144.531250
4830,-144.531250
4831,-144.531250
4832,-144.531250
4833,-144.531250
4834,-144.531250
4835,-144.531250
4836,-140.625000
4837,-144.531250
4838,-140.625000
4839,-140.625000
4840,-140.625000
4841,-140.625000
4842,-140.625000
4843,-140.625000
4844,-140.625000
4845,-140.625000
4846,-140.625000
4847,-136.718750
4848,-136.718750
4849,-136.718750
4850,-136.718750
4851,-136.718750
4852,-136.718750
4853,-136.718750
4854,-132.812500
4855,-132.812500
4856,-132.812500
4857,-132.812500
4858,-132.812500
4859,-132.812500
4860,-128.906250
4861,-128.906250
4862,-128.906250
4863,-128.906250
4864,-128.906250
4865,-128.906250
4866,-128.906250
4867,-128.906250
4868,-128.906250
4869,-125.000000
4870,-125.000000
4871,-125.000000
4872,-125.000000
4873,-125.000000
4874,-121.093750
4875,-121.093750
4876,-121.093750
4877,-121.093750
4878,-121.093750
4879,-121.093750
4880,-121.093750
4881,-121.093750
4882,-117.187500
4883,-117.187500
4884,-117.187500
4885,-117.187500
4886,-113.281250
4887,-117.187500
4888,-113.281250
4889,-113.281250
4890,-113.281250
4891,-113.281250
4892,-113.281250
4893,-113.281250
4894,-109.375000
4895,-109.375000
4896,-109.375000
4897,-109.375000
4898,-109.375000
4899,-105.468750
4900,-105.468750
4901,-105.468750
4902,-105.468750
4903,-105.468750
4904,-101.562500
4905,-105.468750
4906,-101.562500
4907,-101.562500
4908,-101.562500
4909,-101.562500
4910,-101.562500
4911,-97.656250
4912,-97.656250
4913,-97.656250
4914,-97.656250
4915,-97.656250
4916,-93.750000
4917,-93.750000
4918,-93.750000
4919,-93.750000
4920,-93.750000
4921,-89.843750
4922,-89.843750
4923,-89.843750
4924,-89.843750
4925,-85.937500
4926,-85.937500
4927,-85.937500
4928,-85.937500
4929,-85.937500
4930,-82.031250
4931,-82.031250
4932,-82.031250
4933,-82.031250
4934,-82.031250
4935,-82.031250
4936,-78.125000
4937,-78.125000
4938,-78.125000
4939,-78.125000
4940,-74.218750
4941,-74.218750
4942,-74.218750
4943,-74.218750
4944,-74.218750
4945,-74.218750
4946,-70.312500
4947,-70.312500
4948,-70.312500
4949,-70.312500
4950,-70.312500
4951,-66.406250
4952,-66.406250
4953,-66.406250
4954,-66.406250
4955,-62.500000
4956,-62.500000
4957,-62.500000
4958,-58.593750
4959,-58.593750
4960,-58.593750
4961,-58.593750
4962,-58.593750
4963,-58.593750
4964,-58.593750
4965,-54.687500
4966,-54.687500
4967,-54.687500
4968,-50.781250
4969,-50.781250
4970,-50.781250
4971,-50.781250
4972,-50.781250
4973,-50.781250
4974,-46.875000
4975,-46.875000
4976,-46.875000
4977,-42.968750
4978,-42.968750
4979,-42.968750
4980,-42.968750
4981,-42.968750
4982,-42.968750
4983,-39.062500
4984,-39.062500
4985,-39.062500
4986,-39.062500
4987,-35.156250
4988,-35.156250
4989,-35.156250
4990,-31.250000
4991,-31.250000
4992,-31.250000
4993,-27.343750
4994,-31.250000
4995,-31.250000
4996,-27.343750
4997,-27.343750
4998,-27.343750
4999,-27.343750
5000,-23.437500
5001,-27.343750
5002,-23.437500
5003,-23.437500
5004,-23.437500
5005,-19.531250
5006,-19.531250
5007,-19.531250
5008,-19.531250
5009,-19.531250
5010,-15.625000
5011,-15.625000
5012,-15.625000
5013,-15.625000
5014,-11.718750
5015,-11.718750
5016,-11.718750
5017,-11.718750
5018,-11.718750
5019,-7.812500
5020,-7.812500
5021,-7.812500
5022,-3.906250
5023,-3.906250
5024,-3.906250
5025,-3.906250
5026,-3.906250
5027,-3.906250
5028,0.000000
5029,0.000000
5030,0.000000
5031,3.906250
5032,3.906250
5033,3.906250
5034,3.906250
5035,7.812500
5036,3.906250
5037,7.812500
5038,7.812500
5039,7.812500
5040,7.812500
5041,7.812500
5042,11.718750
5043,11.718750
5044,11.718750
5045,11.718750
5046,11.718750
5047,15.625000
5048,15.625000
5049,15.625000
5050,15.625000
5051,15.625000
5052,19.531250
5053,19.531250
5054,19.531250
5055,19.531250
5056,19.531250
5057,19.531250
5058,23.437500
5059,23.437500
5060,23.437500
5061,23.437500
5062,27.343750
5063,27.343750
5064,27.343750
5065,27.343750
5066,27.343750
5067,31.250000
5068,31.250000
5069,31.250000
5070,31.250000
5071,31.250000
5072,35.156250
5073,35.156250
5074,35.156250
5075,35.156250
5076,35.156250
5077,35.156250
5078,39.062500
5079,39.062500
5080,39.062500
5081,39.062500
5082,39.062500
5083,42.968750
5084,42.968750
5085,42.968750
5086,42.968750
5087,42.968750
5088,42.968750
5089,42.968750
5090,46.875000
5091,46.875000
5092,46.875000
5093,46.875000
5094,50.781250
5095,50.781250
5096,50.781250
5097,50.781250
5098,50.781250
5099,54.687500
5100,50.781250
5101,54.687500
5102,54.687500
5103,54.687500
5104,54.687500
5105,58.593750
5106,58.593750
5107,58.593750
5108,58.593750
5109,58.593750
5110,58.593750
5111,58.593750
5112,62.500000
5113,62.500000
5114,62.500000
5115,62.500000
5116,62.500000
5117,66.406250
5118,66.406250
5119,66.406250
5120,66.406250
5121,66.406250
5122,66.406250
5123,66.406250
5124,66.406250
5125,70.312500
5126,70.312500
5127,70.312500
5128,70.312500
5129,70.312500
5130,74.218750
5131,70.312500
5132,74.218750
5133,74.218750
5134,74.218750
5135,74.218750
5136,74.218750
5137,78.125000
5138,78.125000
5139,78.125000
5140,78.125000
5141,78.125000
5142,78.125000
5143,78.125000
5144,78.125000
5145,82.031250
5146,82.031250
5147,82.031250
5148,82.031250
5149,82.031250
5150,82.031250
5151,82.031250
5152,82.031250
5153,82.031250
5154,85.937500
5155,85.937500
5156,85.937500
5157,85.937500
5158,85.937500
5159,85.937500
5160,85.937500
5161,89.843750
5162,89.843750
5163,89.843750
5164,89.843750
5165,89.843750
5166,89.843750
5167,89.843750
5168,89.843750
5169,89.843750
5170,89.843750
5171,93.750000
5172,93.750000
5173,93.750000
5174,93.750000
5175,93.750000
5176,93.750000
5177,93.750000
5178,93.750000
5179,93.750000
5180,93.750000
5181,97.656250
5182,97.656250
5183,97.656250
5184,97.656250
5185,97.656250
5186,97.656250
5187,97.656250
5188,97.656250
5189,97.656250
5190,97.656250
5191,101.562500
5192,97.656250
5193,97.656250
5194,101.562500
5195,101.562500
5196,101.562500
5197,101.562500
5198,101.562500
5199,101.562500
5200,101.562500
5201,101.562500
5202,101.562500
5203,101.562500
5204,101.562500
5205,101.562500
5206,101.562500
5207,105.468750
5208,105.468750
5209,105.468750
5210,105.468750
5211,105.468750
5212,105.468750
5213,105.468750
5214,105.468750
5215,105.468750
5216,105.468750
5217,105.468750
5218,105.468750
5219,105.468750
5220,105.468750
5221,105.468750
5222,109.375000
5223,109.375000
5224,109.375000
5225,109.375000
5226,109.375000
5227,109.375000
5228,109.375000
5229,109.375000
5230,109.375000
5231,109.375000
5232,109.375000
5233,109.375000
5234,109.375000
5235,109.375000
5236,109.375000
5237,109.375000
5238,109.375000
5239,109.375000
5240,109.375000
5241,109.375000
5242,113.281250
5243,109.375000
5244,109.375000
5245,113.281250
5246,113.281250
5247,113.281250
5248,113.281250
5249,113.281250
5250,113.281250
5251,113.281250
5252,113.281250
5253,113.281250
5254,113.281250
5255,113.281250
5256,113.281250
5257,113.281250
5258,113.281250
5259,113.281250
5260,113.281250
5261,113.281250
5262,113.281250
5263,113.281250
5264,113.281250
5265,113.281250
5266,113.281250
5267,113.281250
5268,113.281250
5269,113.281250
5270,113.281250
5271,113.281250
5272,113.281250
5273,113.281250
5274,113.281250
5275,113.281250
5276,113.281250
5277,113.281250
5278,113.281250
5279,113.281250
5280,113.281250
5281,113.281250
5282,113.281250
5283,113.281250
5284,113.281250
5285,113.281250
5286,113.281250
5287,113.281250
5288,113.281250
5289,113.281250
5290,113.281250
5291,113.281250
5292,113.281250
5293,113.281250
5294,113.281250
5295,109.375000
5296,113.281250
5297,113.281250
5298,109.375000
5299,109.375000
5300,109.375000
5301,109.375000
5302,109.375000
5303,109.375000
5304,109.375000
5305,109.375000
5306,109.375000
5307,109.375000
5308,109.375000
5309,109.375000
5310,109.375000
5311,109.375000
5312,109.375000
5313,109.375000
5314,109.375000
5315,109.375000
5316,109.375000
5317,109.375000
5318,109.375000
5319,109.375000
5320,109.375000
5321,105.468750
5322,105.468750
5323,105.468750
5324,109.375000
5325,105.468750
5326,105.468750
5327,105.468750
5328,105.468750
5329,105.468750
5330,105.468750
5331,105.468750
5332,105.468750
5333,105.468750
5334,105.468750
5335,105.468750
5336,105.468750
5337,105.468750
5338,101.562500
5339,101.562500
5340,101.562500
5341,101.562500
5342,101.562500
5343,101.562500
5344,101.562500
5345,101.562500
5346,101.562500
5347,101.562500
5348,101.562500
5349,101.562500
5350,97.656250
5351,97.656250
5352,97.656250
5353,97.656250
5354,97.656250
5355,97.656250
5356,97.656250
5357,97.656250
5358,97.656250
5359,97.656250
5360,97.656250
5361,93.750000
5362,97.656250
5363,93.750000
5364,93.750000
5365,93.750000
5366,93.750000
5367,93.750000
5368,93.750000
5369,93.750000
5370,93.750000
5371,89.843750
5372,89.843750
5373,89.843750
5374,89.843750
5375,89.843750
5376,89.843750
5377,89.843750
5378,89.843750
5379,89.843750
5380,89.843750
5381,85.937500
5382,85.937500
5383,85.937500
5384,85.937500
5385,85.937500
5386,85.937500
5387,85.937500
5388,82.031250
5389,82.031250
5390,82.031250
5391,82.031250
5392,82.031250
5393,82.031250
5394,82.031250
5395,82.031250
5396,82.031250
5397,78.125000
5398,78.125000
5399,78.125000
5400,78.125000
5401,78.125000
5402,78.125000
5403,78.125000
5404,74.218750
5405,74.218750
5406,74.218750
5407,74.218750
5408,74.218750
5409,74.218750
5410,74.218750
5411,70.312500
5412,70.312500
5413,70.312500
5414,70.312500
5415,70.312500
5416,66.406250
5417,66.406250
5418,66.406250
5419,66.406250
5420,66.406250
5421,66.406250
5422,62.500000
5423,62.500000
5424,62.500000
5425,62.500000
5426,62.500000
5427,58.593750
5428,58.593750
5429,58.593750
5430,58.593750
5431,54.687500
5432,58.593750
5433,58.593750
5434,54.687500
5435,54.687500
5436,54.687500
5437,54.687500
5438,54.687500
5439,50.781250
5440,50.781250
5441,50.781250
5442,50.781250
5443,50.781250
5444,46.875000
5445,46.875000
5446,46.875000
5447,46.875000
5448,46.875000
5449,42.968750
5450,42.968750
5451,42.968750
5452,42.968750
5453,42.968750
5454,42.968750
5455,39.062500
5456,39.062500
5457,39.062500
5458,39.062500
5459,39.062500
5460,35.156250
5461,35.156250
5462,35.156250
5463,35.156250
5464,35.156250
5465,31.250000
5466,31.250000
5467,31.250000
5468,31.250000
5469,31.250000
5470,27.343750
5471,27.343750
5472,27.343750
5473,27.343750
5474,27.343750
5475,23.437500
5476,23.437500
5477,23.437500
5478,23.437500
5479,23.437500
5480,19.531250
5481,19.531250
5482,19.531250
5483,19.531250
5484,19.531250
5485,15.625000
5486,15.625000
5487,15.625000
5488,15.625000
5489,11.718750
5490,11.718750
5491,11.718750
5492,11.718750
5493,11.718750
5494,7.812500
5495,7.812500
5496,7.812500
5497,7.812500
5498,7.812500
5499,3.906250
5500,3.906250
5501,3.906250
5502,3.906250
5503,0.000000
5504,0.000000
5505,0.000000
5506,0.000000
5507,-3.906250
5508,-3.906250
5509,-3.906250
5510,-3.906250
5511,-3.906250
5512,-7.812500
5513,-7.812500
5514,-7.812500
5515,-7.812500
5516,-11.718750
5517,-11.718750
5518,-11.718750
5519,-11.718750
5520,-11.718750
5521,-15.625000
5522,-15.625000
5523,-15.625000
5524,-15.625000
5525,-19.531250
5526,-19.531250
5527,-19.531250
5528,-19.531250
5529,-19.531250
5530,-23.437500
5531,-23.437500
5532,-23.437500
5533,-23.437500
5534,-27.343750
5535,-27.343750
5536,-27.343750
5537,-27.343750
5538,-27.343750
5539,-31.250000
5540,-31.250000
5541,-31.250000
5542,-31.250000
5543,-35.156250
5544,-35.156250
5545,-35.156250
5546,-35.156250
5547,-39.062500
5548,-39.062500
5549,-39.062500
5550,-39.062500
5551,-39.062500
5552,-42.968750
5553,-42.968750
5554,-42.968750
5555,-46.875000
5556,-46.875000
5557,-46.875000
5558,-46.875000
5559,-46.875000
5560,-50.781250
5561,-50.781250
5562,-50.781250
5563,-50.781250
5564,-54.687500
5565,-54.687500
5566,-54.687500
5567,-54.687500
5568,-54.687500
5569,-58.593750
5570,-58.593750
5571,-58.593750
5572,-62.500000
5573,-62.500000
5574,-62.500000
5575,-62.500000
5576,-62.500000
5577,-66.406250
5578,-66.406250
5579,-66.406250
5580,-66.406250
5581,-66.406250
5582,-70.312500
5583,-70.312500
5584,-70.312500
5585,-70.312500
5586,-74.218750
5587,-74.218750
5588,-74.218750
5589,-74.218750
5590,-74.218750
5591,-78.125000
5592,-78.125000
5593,-78.125000
5594,-78.125000
5595,-78.125000
5596,-82.031250
5597,-82.031250
5598,-82.031250
5599,-85.937500
5600,-85.937500
5601,-85.937500
5602,-85.937500
5603,-85.937500
5604,-85.937500
5605,-89.843750
5606,-89.843750
5607,-89.843750
5608,-89.843750
5609,-89.843750
5610,-89.843750
5611,-93.750000
5612,-93.750000
5613,-93.750000
5614,-93.750000
5615,-97.656250
5616,-97.656250
5617,-97.656250
5618,-97.656250
5619,-97.656250
5620,-97.656250
5621,-101.562500
5622,-101.562500
5623,-101.562500
5624,-101.562500
5625,-101.562500
5626,-105.468750
5627,-105.468750
5628,-105.468750
5629,-105.468750
5630,-105.468750
5631,-105.468750
5632,-109.375000
5633,-109.375000
5634,-109.375000
5635,-109.375000
5636,-109.375000
5637,-113.281250
5638,-113.281250
5639,-113.281250
5640,-113.281250
5641,-113.281250
5642,-113.281250
5643,-117.187500
5644,-117.187500
5645,-117.187500
5646,-117.187500
5647,-117.187500
5648,-121.093750
5649,-121.093750
5650,-121.093750
5651,-121.093750
5652,-121.093750
5653,-121.093750
5654,-121.093750
5655,-125.000000
5656,-125.000000
5657,-125.000000
5658,-125.000000
5659,-125.000000
5660,-125.000000
5661,-125.000000
5662,-128.906250
5663,-128.906250
5664,-128.906250
5665,-128.906250
5666,-128.906250
5667,-128.906250
5668,-132.812500
5669,-132.812500
5670,-132.812500
5671,-132.812500
5672,-132.812500
5673,-132.812500
5674,-132.812500
5675,-132.812500
5676,-136.718750
5677,-136.718750
5678,-136.718750
5679,-136.718750
5680,-136.718750
5681,-136.718750
5682,-136.718750
5683,-140.625000
5684,-140.625000
5685,-140.625000
5686,-140.625000
5687,-140.625000
5688,-140.625000
5689,-140.625000
5690,-140.625000
5691,-140.625000
5692,-144.531250
5693,-144.531250
5694,-144.531250
5695,-144.531250
5696,-144.531250
5697,-144.531250
5698,-144.531250
5699,-144.531250
5700,-144.531250
5701,-144.531250
5702,-148.437500
5703,-148.437500
5704,-148.437500
5705,-148.437500
5706,-148.437500
5707,-148.437500
5708,-148.437500
5709,-148.437500
5710,-148.437500
5711,-148.437500
5712,-152.343750
5713,-148.437500
5714,-152.343750
5715,-152.343750
5716,-152.343750
5717,-152.343750
5718,-152.343750
5719,-152.343750
5720,-152.343750
5721,-152.343750
5722,-152.343750
5723,-152.343750
5724,-152.343750
5725,-152.343750
5726,-152.343750
5727,-152.343750
5728,-156.250000
5729,-156.250000
5730,-156.250000
5731,-156.250000
5732,-156.250000
5733,-156.250000
5734,-156.250000
5735,-156.250000
5736,-156.250000
5737,-156.250000
5738,-156.250000
5739,-156.250000
5740,-156.250000
5741,-156.250000
5742,-156.250000
5743,-156.250000
5744,-156.250000
5745,-156.250000
5746,-156.250000
5747,-156.250000
5748,-156.250000
5749,-156.250000
5750,-156.250000
5751,-156.250000
5752,-156.250000
5753,-156.250000
5754,-156.250000
5755,-156.250000
5756,-156.250000
5757,-156.250000
5758,-156.250000
5759,-156.250000
5760,-156.250000
5761,-156.250000
5762,-156.250000
5763,-156.250000
5764,-156.250000
5765,-156.250000
5766,-156.250000
5767,-156.250000
5768,-156.250000
5769,-156.250000
5770,-156.250000
5771,-156.250000
5772,-156.250000
5773,-156.250000
5774,-156.250000
5775,-156.250000
5776,-156.250000
5777,-156.250000
5778,-156.250000
5779,-156.250000
5780,-156.250000
5781,-156.250000
5782,-156.250000
5783,-156.250000
5784,-156.250000
5785,-156.250000
5786,-156.250000
5787,-152.343750
5788,-156.250000
5789,-156.250000
5790,-152.343750
5791,-152.343750
5792,-152.343750
5793,-152.343750
5794,-152.343750
5795,-152.343750
5796,-152.343750
5797,-152.343750
5798,-152.343750
5799,-152.343750
5800,-152.343750
5801,-152.343750
5802,-152.343750
5803,-152.343750
5804,-152.343750
5805,-152.343750
5806,-152.343750
5807,-148.437500
5808,-148.437500
5809,-148.437500
5810,-148.437500
5811,-148.437500
5812,-148.437500
5813,-148.437500
5814,-148.437500
5815,-148.437500
5816,-148.437500
5817,-148.437500
5818,-148.437500
5819,-144.531250
5820,-144.531250
5821,-144.531250
5822,-144.531250
5823,-144.531250
5824,-144.531250
5825,-144.531250
5826,-144.531250
5827,-144.531250
5828,-140.625000
5829,-140.625000
5830,-140.625000
5831,-140.625000
5832,-140.625000
5833,-140.625000
5834,-140.625000
5835,-140.625000
5836,-140.625000
5837,-140.625000
5838,-136.718750
5839,-136.718750
5840,-136.718750
5841,-136.718750
5842,-136.718750
5843,-136.718750
5844,-136.718750
5845,-136.718750
5846,-132.812500
5847,-132.812500
5848,-132.812500
5849,-132.812500
5850,-132.812500
5851,-132.812500
5852,-132.812500
5853,-128.906250
5854,-128.906250
5855,-128.906250
5856,-128.906250
5857,-128.906250
5858,-128.906250
5859,-125.000000
5860,-125.000000
5861,-125.000000
5862,-125.000000
5863,-125.000000
5864,-125.000000
5865,-125.000000
5866,-121.093750
5867,-121.093750
5868,-121.093750
5869,-121.093750
5870,-121.093750
5871,-121.093750
5872,-117.187500
5873,-117.187500
5874,-117.187500
5875,-117.187500
5876,-117.187500
5877,-117.187500
5878,-113.281250
5879,-113.281250
5880,-113.281250
5881,-113.281250
5882,-113.281250
5883,-113.281250
5884,-109.375000
5885,-109.375000
5886,-109.375000
5887,-109.375000
5888,-109.375000
5889,-105.468750
5890,-105.468750
5891,-105.468750
5892,-105.468750
5893,-105.468750
5894,-105.468750
5895,-101.562500
5896,-101.562500
5897,-101.562500
5898,-101.562500
5899,-101.562500
5900,-97.656250
5901,-97.656250
5902,-97.656250
5903,-97.656250
5904,-97.656250
5905,-97.656250
5906,-93.750000
5907,-93.750000
5908,-93.750000
5909,-93.750000
5910,-89.843750
5911,-89.843750
5912,-89.843750
5913,-89.843750
5914,-89.843750
5915,-89.843750
5916,-89.843750
5917,-85.937500
5918,-85.937500
5919,-85.937500
5920,-82.031250
5921,-82.031250
5922,-82.031250
5923,-82.031250
5924,-82.031250
5925,-78.125000
5926,-78.125000
5927,-78.125000
5928,-78.125000
5929,-78.125000
5930,-74.218750
5931,-74.218750
5932,-74.218750
5933,-74.218750
5934,-70.312500
5935,-70.312500
5936,-70.312500
5937,-70.312500
5938,-70.312500
5939,-70.312500
5940,-66.406250
5941,-66.406250
5942,-66.406250
5943,-66.406250
5944,-66.406250
5945,-62.500000
5946,-62.500000
5947,-62.500000
5948,-58.593750
5949,-58.593750
5950,-58.593750
5951,-58.593750
5952,-58.593750
5953,-54.687500
5954,-54.687500
5955,-54.687500
5956,-54.687500
5957,-54.687500
5958,-50.781250
5959,-50.781250
5960,-50.781250
5961,-50.781250
5962,-50.781250
5963,-46.875000
5964,-46.875000
5965,-46.875000
5966,-46.875000
5967,-46.875000
5968,-42.968750
5969,-42.968750
5970,-42.968750
5971,-42.968750
5972,-39.062500
5973,-39.062500
5974,-39.062500
5975,-35.156250
5976,-35.156250
5977,-35.156250
5978,-35.156250
5979,-35.156250
5980,-31.250000
5981,-31.250000
5982,-31.250000
5983,-31.250000
5984,-31.250000
5985,-27.343750
5986,-27.343750
5987,-27.343750
5988,-27.343750
5989,-27.343750
5990,-23.437500
5991,-23.437500
5992,-23.437500
5993,-23.437500
5994,-19.531250
5995,-19.531250
5996,-19.531250
5997,-19.531250
5998,-15.625000
5999,-15.625000
6000,-15.625000
6001,-15.625000
6002,-15.625000
6003,-11.718750
6004,-11.718750
6005,-11.718750
6006,-11.718750
6007,-11.718750
6008,-7.812500
6009,-7.812500
6010,-7.812500
6011,-7.812500
6012,-7.812500
6013,-3.906250
6014,-3.906250
6015,-3.906250
6016,0.000000
6017,0.000000
6018,0.000000
6019,0.000000
6020,0.000000
6021,0.000000
6022,3.906250
6023,3.906250
6024,3.906250
6025,3.906250
6026,7.812500
6027,7.812500
6028,7.812500
6029,7.812500
6030,7.812500
6031,11.718750
6032,11.718750
6033,11.718750
6034,11.718750
6035,15.625000
6036,15.625000
6037,15.625000
6038,15.625000
6039,15.625000
6040,19.531250
6041,19.531250
6042,19.531250
6043,19.531250
6044,19.531250
6045,23.437500
6046,23.437500
6047,23.437500
6048,23.437500
6049,23.437500
6050,27.343750
6051,27.343750
6052,27.343750
6053,27.343750
6054,27.343750
6055,31.250000
6056,31.250000
6057,31.250000
6058,31.250000
6059,31.250000
6060,35.156250
6061,35.156250
6062,35.156250
6063,35.156250
6064,39.062500
6065,39.062500
6066,39.062500
6067,39.062500
6068,39.062500
6069,39.062500
6070,42.968750
6071,42.968750
6072,42.968750
6073,42.968750
6074,42.968750
6075,42.968750
6076,42.968750
6077,46.875000
6078,46.875000
6079,46.875000
6080,46.875000
6081,46.875000
6082,50.781250
6083,50.781250
6084,50.781250
6085,50.781250
6086,50.781250
6087,50.781250
6088,54.687500
6089,54.687500
6090,54.687500
6091,54.687500
6092,54.687500
6093,54.687500
6094,58.593750
6095,58.593750
6096,58.593750
6097,58.593750
6098,58.593750
6099,58.593750
6100,62.500000
6101,62.500000
6102,62.500000
6103,62.500000
6104,62.500000
6105,62.500000
6106,62.500000
6107,66.406250
6108,66.406250
6109,66.406250
6110,66.406250
6111,66.406250
6112,70.312500
6113,70.312500
6114,70.312500
6115,70.312500
6116,70.312500
6117,70.312500
6118,70.312500
6119,70.312500
6120,74.218750
6121,74.218750
6122,74.218750
6123,74.218750
6124,74.218750
6125,74.218750
6126,74.218750
6127,78.125000
6128,78.125000
6129,78.125000
6130,78.125000
6131,78.125000
6132,78.125000
6133,78.125000
6134,82.031250
6135,82.031250
6136,82.031250
6137,82.031250
6138,82.031250
6139,82.031250
6140,82.031250
6141,82.031250
6142,85.937500
6143,85.937500
6144,85.937500
6145,85.937500
6146,85.937500
6147,85.937500
6148,85.937500
6149,85.937500
6150,89.843750
6151,89.843750
6152,89.843750
6153,89.843750
6154,89.843750
6155,89.843750
6156,89.843750
6157,89.843750
6158,93.750000
6159,93.750000
6160,93.750000
6161,93.750000
6162,93.750000
6163,93.750000
6164,93.750000
6165,93.750000
6166,93.750000
6167,97.656250
6168,97.656250
6169,93.750000
6170,97.656250
6171,97.656250
6172,97.656250
6173,97.656250
6174,97.656250
6175,97.656250
6176,97.656250
6177,101.562500
6178,101.562500
6179,97.656250
6180,97.656250
6181,101.562500
6182,101.562500
6183,101.562500
6184,101.562500
6185,101.562500
6186,101.562500
6187,101.562500
6188,101.562500
6189,101.562500
6190,101.562500
6191,105.468750
6192,105.468750
6193,105.468750
6194,105.468750
6195,105.468750
6196,105.468750
6197,105.468750
6198,105.468750
6199,105.468750
6200,105.468750
6201,105.468750
6202,105.468750
6203,105.468750
6204,109.375000
6205,109.375000
6206,105.468750
6207,105.468750
6208,109.375000
6209,109.375000
6210,109.375000
6211,109.375000
6212,109.375000
6213,109.375000
6214,109.375000
6215,109.375000
6216,109.375000
6217,109.375000
6218,109.375000
6219,109.375000
6220,109.375000
6221,109.375000
6222,109.375000
6223,109.375000
6224,109.375000
6225,109.375000
6226,109.375000
6227,109.375000
6228,109.375000
6229,109.375000
6230,113.281250
6231,113.281250
6232,109.375000
6233,113.281250
6234,113.281250
6235,113.281250
6236,113.281250
6237,113.281250
6238,113.281250
6239,113.281250
6240,113.281250
6241,113.281250
6242,113.281250
6243,113.281250
6244,113.281250
6245,113.281250
6246,113.281250
6247,113.281250
6248,113.281250
6249,113.281250
6250,113.281250
6251,113.281250
6252,113.281250
6253,113.281250
6254,113.281250
6255,113.281250
6256,113.281250
6257,113.281250
6258,113.281250
6259,113.281250
6260,113.281250
6261,113.281250
6262,113.281250
6263,113.281250
6264,113.281250
6265,113.281250
6266,113.281250
6267,113.281250
6268,113.281250
6269,113.281250
6270,113.281250
6271,113.281250
6272,113.281250
6273,113.281250
6274,113.281250
6275,113.281250
6276,113.281250
6277,113.281250
6278,113.281250
6279,113.281250
6280,113.281250
6281,109.375000
6282,113.281250
6283,113.281250
6284,113.281250
6285,113.281250
6286,113.281250
6287,113.281250
6288,109.375000
6289,113.281250
6290,109.375000
6291,113.281250
6292,109.375000
6293,109.375000
6294,109.375000
6295,109.375000
6296,109.375000
6297,109.375000
6298,109.375000
6299,109.375000
6300,109.375000
6301,109.375000
6302,109.375000
6303,109.375000
6304,109.375000
6305,109.375000
6306,109.375000
6307,109.375000
6308,109.375000
6309,109.375000
6310,109.375000
6311,109.375000
6312,109.375000
6313,109.375000
6314,109.375000
6315,105.468750
6316,105.468750
6317,105.468750
6318,105.468750
6319,105.468750
6320,105.468750
6321,105.468750
6322,105.468750
6323,105.468750
6324,105.468750
6325,105.468750
6326,105.468750
6327,101.562500
6328,101.562500
6329,101.562500
6330,101.562500
6331,101.562500
6332,101.562500
6333,101.562500
6334,101.562500
6335,101.562500
6336,101.562500
6337,101.562500
6338,101.562500
6339,101.562500
6340,101.562500
6341,97.656250
6342,97.656250
6343,97.656250
6344,97.656250
6345,97.656250
6346,97.656250
6347,97.656250
6348,97.656250
6349,97.656250
6350,93.750000
6351,93.750000
6352,93.750000
6353,93.750000
6354,93.750000
6355,93.750000
6356,93.750000
6357,93.750000
6358,93.750000
6359,89.843750
6360,89.843750
6361,89.843750
6362,89.843750
6363,89.843750
6364,89.843750
6365,89.843750
6366,89.843750
6367,89.843750
6368,89.843750
6369,85.937500
6370,85.937500
6371,85.937500
6372,85.937500
6373,85.937500
6374,85.937500
6375,85.937500
6376,85.937500
6377,82.031250
6378,82.031250
6379,82.031250
6380,82.031250
6381,82.031250
6382,82.031250
6383,82.031250
6384,78.125000
6385,78.125000
6386,78.125000
6387,78.125000
6388,78.125000
6389,78.125000
6390,78.125000
6391,74.218750
6392,74.218750
6393,74.218750
6394,74.218750
6395,74.218750
6396,74.218750
6397,74.218750
6398,70.312500
6399,70.312500
6400,70.312500
6401,70.312500
6402,70.312500
6403,70.312500
6404,70.312500
6405,70.312500
6406,66.406250
6407,66.406250
6408,66.406250
6409,66.406250
6410,62.500000
6411,62.500000
6412,62.500000
6413,62.500000
6414,62.500000
6415,62.500000
6416,62.500000
6417,58.593750
6418,58.593750
6419,58.593750
6420,58.593750
6421,58.593750
6422,54.687500
6423,54.687500
6424,54.687500
6425,54.687500
6426,54.687500
6427,54.687500
6428,54.687500
6429,50.781250
6430,50.781250
6431,50.781250
6432,46.875000
6433,46.875000
6434,46.875000
6435,46.875000
6436,46.875000
6437,46.875000
6438,42.968750
6439,42.968750
6440,42.968750
6441,42.968750
6442,42.968750
6443,42.968750
6444,39.062500
6445,39.062500
6446,39.062500
6447,39.062500
6448,39.062500
6449,35.156250
6450,35.156250
6451,35.156250
6452,35.156250
6453,31.250000
6454,35.156250
6455,31.250000
6456,31.250000
6457,31.250000
6458,31.250000
6459,27.343750
6460,27.343750
6461,27.343750
6462,27.343750
6463,23.437500
6464,23.437500
6465,23.437500
6466,23.437500
6467,23.437500
6468,23.437500
6469,19.531250
6470,19.531250
6471,19.531250
6472,19.531250
6473,15.625000
6474,15.625000
6475,15.625000
6476,15.625000
6477,15.625000
6478,11.718750
6479,11.718750
6480,11.718750
6481,11.718750
6482,7.812500
6483,7.812500
6484,7.812500
6485,7.812500
6486,7.812500
6487,3.906250
6488,3.906250
6489,3.906250
6490,3.906250
6491,3.906250
6492,0.000000
6493,0.000000
6494,0.000000
6495,-3.906250
6496,-3.906250
6497,-3.906250
6498,-3.906250
6499,-3.906250
6500,-7.812500
6501,-7.812500
6502,-7.812500
6503,-7.812500
6504,-11.718750
6505,-11.718750
6506,-11.718750
6507,-11.718750
6508,-11.718750
6509,-15.625000
6510,-15.625000
6511,-15.625000
6512,-15.625000
6513,-19.531250
6514,-19.531250
6515,-19.531250
6516,-19.531250
6517,-19.531250
6518,-23.437500
6519,-23.437500
6520,-23.437500
6521,-23.437500
6522,-27.343750
6523,-27.343750
6524,-27.343750
6525,-27.343750
6526,-31.250000
6527,-31.250000
6528,-31.250000
6529,-31.250000
6530,-31.250000
6531,-35.156250
6532,-35.156250
6533,-35.156250
6534,-39.062500
6535,-39.062500
6536,-39.062500
6537,-39.062500
6538,-39.062500
6539,-42.968750
6540,-42.968750
6541,-42.968750
6542,-42.968750
6543,-46.875000
6544,-46.875000
6545,-46.875000
6546,-46.875000
6547,-46.875000
6548,-50.781250
6549,-50.781250
6550,-46.875000
6551,-50.781250
6552,-54.687500
6553,-54.687500
6554,-54.687500
6555,-54.687500
6556,-54.687500
6557,-58.593750
6558,-58.593750
6559,-58.593750
6560,-62.500000
6561,-62.500000
6562,-62.500000
6563,-62.500000
6564,-62.500000
6565,-66.406250
6566,-66.406250
6567,-66.406250
6568,-66.406250
6569,-66.406250
6570,-70.312500
6571,-70.312500
6572,-70.312500
6573,-70.312500
6574,-74.218750
6575,-74.218750
6576,-74.218750
6577,-74.218750
6578,-78.125000
6579,-78.125000
6580,-78.125000
6581,-78.125000
6582,-78.125000
6583,-78.125000
6584,-82.031250
6585,-82.031250
6586,-82.031250
6587,-82.031250
6588,-82.031250
6589,-85.937500
6590,-85.937500
6591,-85.937500
6592,-85.937500
6593,-89.843750
6594,-89.843750
6595,-89.843750
6596,-89.843750
6597,-89.843750
6598,-93.750000
6599,-93.750000
6600,-93.750000
6601,-93.750000
6602,-97.656250
6603,-97.656250
6604,-93.750000
6605,-97.656250
6606,-97.656250
6607,-101.562500
6608,-97.656250
6609,-101.562500
6610,-101.562500
6611,-101.562500
6612,-101.562500
6613,-105.468750
6614,-105.468750
6615,-105.468750
6616,-105.468750
6617,-105.468750
6618,-109.375000
6619,-109.375000
6620,-109.375000
6621,-109.375000
6622,-109.375000
6623,-113.281250
6624,-113.281250
6625,-113.281250
6626,-113.281250
6627,-113.281250
6628,-113.281250
6629,-117.187500
6630,-117.187500
6631,-117.187500
6632,-117.187500
6633,-117.187500
6634,-121.093750
6635,-121.093750
6636,-121.093750
6637,-121.093750
6638,-121.093750
6639,-121.093750
6640,-121.093750
6641,-121.093750
6642,-125.000000
6643,-125.000000
6644,-125.000000
6645,-125.000000
6646,-125.000000
6647,-125.000000
6648,-128.906250
6649,-128.906250
6650,-128.906250
6651,-128.906250
6652,-128.906250
6653,-128.906250
6654,-132.812500
6655,-132.812500
6656,-132.812500
6657,-132.812500
6658,-132.812500
6659,-132.812500
6660,-132.812500
6661,-132.812500
6662,-136.718750
6663,-136.718750
6664,-136.718750
6665,-136.718750
6666,-136.718750
6667,-136.718750
6668,-140.625000
6669,-136.718750
6670,-140.625000
6671,-140.625000
6672,-140.625000
6673,-140.625000
6674,-140.625000
6675,-140.625000
6676,-140.625000
6677,-140.625000
6678,-140.625000
6679,-144.531250
6680,-144.531250
6681,-144.531250
6682,-144.531250
6683,-144.531250
6684,-144.531250
6685,-144.531250
6686,-144.531250
6687,-144.531250
6688,-148.437500
6689,-148.437500
6690,-148.437500
6691,-148.437500
6692,-148.437500
6693,-148.437500
6694,-148.437500
6695,-148.437500
6696,-148.437500
6697,-148.437500
6698,-148.437500
6699,-152.343750
6700,-152.343750
6701,-152.343750
6702,-152.343750
6703,-152.343750
6704,-152.343750
6705,-152.343750
6706,-152.343750
6707,-152.343750
6708,-152.343750
6709,-152.343750
6710,-152.343750
6711,-152.343750
6712,-152.343750
6713,-152.343750
6714,-152.343750
6715,-152.343750
6716,-152.343750
6717,-156.250000
6718,-156.250000
6719,-156.250000
6720,-156.250000
6721,-156.250000
6722,-156.250000
6723,-156.250000
6724,-156.250000
6725,-156.250000
6726,-156.250000
6727,-156.250000
6728,-156.250000
6729,-156.250000
6730,-156.250000
6731,-156.250000
6732,-156.250000
6733,-156.250000
6734,-156.250000
6735,-156.250000
6736,-156.250000
6737,-156.250000
6738,-156.250000
6739,-156.250000
6740,-160.156250
6741,-156.250000
6742,-156.250000
6743,-156.250000
6744,-156.250000
6745,-156.250000
6746,-156.250000
6747,-160.156250
6748,-160.156250
6749,-160.156250
6750,-156.250000
6751,-156.250000
6752,-156.250000
6753,-156.250000
6754,-160.156250
6755,-156.250000
6756,-156.250000
6757,-156.250000
6758,-156.250000
6759,-156.250000
6760,-156.250000
6761,-156.250000
6762,-156.250000
6763,-156.250000
6764,-156.250000
6765,-156.250000
6766,-156.250000
6767,-156.250000
6768,-156.250000
6769,-156.250000
6770,-156.250000
6771,-156.250000
6772,-156.250000
6773,-156.250000
6774,-156.250000
6775,-156.250000
6776,-156.250000
6777,-156.250000
6778,-156.250000
6779,-156.250000
6780,-156.250000
6781,-152.343750
6782,-152.343750
6783,-156.250000
6784,-152.343750
6785,-152.343750
6786,-152.343750
6787,-152.343750
6788,-152.343750
6789,-152.343750
6790,-152.343750
6791,-152.343750
6792,-152.343750
6793,-152.343750
6794,-152.343750
6795,-148.437500
6796,-152.343750
6797,-148.437500
6798,-148.437500
6799,-148.437500
6800,-148.437500
6801,-148.437500
6802,-148.437500
6803,-148.437500
6804,-148.437500
6805,-148.437500
6806,-148.437500
6807,-148.437500
6808,-144.531250
6809,-144.531250
6810,-144.531250
6811,-144.531250
6812,-144.531250
6813,-144.531250
6814,-144.531250
6815,-144.531250
6816,-144.531250
6817,-140.625000
6818,-140.625000
6819,-140.625000
6820,-140.625000
6821,-140.625000
6822,-140.625000
6823,-140.625000
6824,-140.625000
6825,-140.625000
6826,-140.625000
6827,-136.718750
6828,-136.718750
6829,-136.718750
6830,-136.718750
6831,-136.718750
6832,-136.718750
6833,-136.718750
6834,-132.812500
6835,-132.812500
6836,-132.812500
6837,-132.812500
6838,-132.812500
6839,-132.812500
6840,-132.812500
6841,-128.906250
6842,-128.906250
6843,-128.906250
6844,-128.906250
6845,-128.906250
6846,-128.906250
6847,-128.906250
6848,-125.000000
6849,-125.000000
6850,-128.906250
6851,-125.000000
6852,-125.000000
6853,-125.000000
6854,-121.093750
6855,-121.093750
6856,-121.093750
6857,-121.093750
6858,-121.093750
6859,-121.093750
6860,-121.093750
6861,-117.187500
6862,-117.187500
6863,-117.187500
6864,-117.187500
6865,-117.187500
6866,-117.187500
6867,-113.281250
6868,-113.281250
6869,-113.281250
6870,-113.281250
6871,-113.281250
6872,-113.281250
6873,-113.281250
6874,-109.375000
6875,-109.375000
6876,-109.375000
6877,-109.375000
6878,-109.375000
6879,-105.468750
6880,-105.468750
6881,-105.468750
6882,-105.468750
6883,-105.468750
6884,-101.562500
6885,-105.468750
6886,-101.562500
6887,-101.562500
6888,-101.562500
6889,-101.562500
6890,-97.656250
6891,-97.656250
6892,-97.656250
6893,-97.656250
6894,-93.750000
6895,-93.750000
6896,-93.750000
6897,-93.750000
6898,-93.750000
6899,-93.750000
6900,-89.843750
6901,-89.843750
6902,-89.843750
6903,-89.843750
6904,-85.937500
6905,-85.937500
6906,-85.937500
6907,-85.937500
6908,-85.937500
6909,-82.031250
6910,-82.031250
6911,-82.031250
6912,-82.031250
6913,-82.031250
6914,-78.125000
6915,-78.125000
6916,-78.125000
6917,-78.125000
6918,-78.125000
6919,-74.218750
6920,-74.218750
6921,-74.218750
6922,-74.218750
6923,-74.218750
6924,-70.312500
6925,-70.312500
6926,-70.312500
6927,-70.312500
6928,-66.406250
6929,-66.406250
6930,-66.406250
6931,-66.406250
6932,-66.406250
6933,-62.500000
6934,-62.500000
6935,-58.593750
6936,-62.500000
6937,-62.500000
6938,-58.593750
6939,-58.593750
6940,-58.593750
6941,-54.687500
6942,-54.687500
6943,-58.593750
6944,-54.687500
6945,-54.687500
6946,-54.687500
6947,-50.781250
6948,-50.781250
6949,-50.781250
6950,-50.781250
6951,-46.875000
6952,-46.875000
6953,-46.875000
6954,-46.875000
6955,-42.968750
6956,-42.968750
6957,-42.968750
6958,-42.968750
6959,-39.062500
6960,-39.062500
6961,-39.062500
6962,-39.062500
6963,-39.062500
6964,-39.062500
6965,-35.156250
6966,-35.156250
6967,-35.156250
6968,-31.250000
6969,-31.250000
6970,-31.250000
6971,-31.250000
6972,-31.250000
6973,-27.343750
6974,-27.343750
6975,-27.343750
6976,-27.343750
6977,-23.437500
6978,-23.437500
6979,-23.437500
6980,-23.437500
6981,-23.437500
6982,-19.531250
6983,-19.531250
6984,-19.531250
6985,-19.531250
6986,-19.531250
6987,-15.625000
6988,-15.625000
6989,-15.625000
6990,-15.625000
6991,-11.718750
6992,-11.718750
6993,-11.718750
6994,-11.718750
6995,-11.718750
6996,-7.812500
6997,-7.812500
6998,-7.812500
6999,-7.812500
7000,-7.812500
7001,-3.906250
7002,-3.906250
7003,-3.906250
7004,-3.906250
7005,-3.906250
7006,0.000000
7007,0.000000
7008,0.000000
7009,0.000000
7010,3.906250
7011,3.906250
7012,3.906250
7013,3.906250
7014,7.812500
7015,7.812500
7016,7.812500
7017,7.812500
7018,7.812500
7019,11.718750
7020,11.718750
7021,11.718750
7022,11.718750
7023,11.718750
7024,11.718750
7025,15.625000
7026,15.625000
7027,15.625000
7028,19.531250
7029,19.531250
7030,19.531250
7031,19.531250
7032,19.531250
7033,23.437500
7034,23.437500
7035,23.437500
7036,23.437500
7037,23.437500
7038,27.343750
7039,27.343750
7040,27.343750
7041,27.343750
7042,27.343750
7043,31.250000
7044,31.250000
7045,31.250000
7046,31.250000
7047,31.250000
7048,31.250000
7049,35.156250
7050,35.156250
7051,35.156250
7052,35.156250
7053,35.156250
7054,39.062500
7055,39.062500
7056,39.062500
7057,39.062500
7058,39.062500
7059,42.968750
7060,42.968750
7061,42.968750
7062,42.968750
7063,46.875000
7064,46.875000
7065,46.875000
7066,46.875000
7067,46.875000
7068,46.875000
7069,50.781250
7070,50.781250
7071,50.781250
7072,50.781250
7073,50.781250
7074,50.781250
7075,54.687500
7076,54.687500
7077,54.687500
7078,54.687500
7079,54.687500
7080,54.687500
7081,54.687500
7082,58.593750
7083,58.593750
7084,58.593750
7085,58.593750
7086,58.593750
7087,58.593750
7088,62.500000
7089,62.500000
7090,62.500000
7091,62.500000
7092,62.500000
7093,66.406250
7094,66.406250
7095,66.406250
7096,66.406250
7097,66.406250
7098,66.406250
7099,66.406250
7100,70.312500
7101,70.312500
7102,70.312500
7103,70.312500
7104,70.312500
7105,70.312500
7106,74.218750
7107,74.218750
7108,74.218750
7109,74.218750
7110,74.218750
7111,74.218750
7112,78.125000
7113,74.218750
7114,78.125000
7115,78.125000
7116,78.125000
7117,78.125000
7118,78.125000
7119,78.125000
7120,78.125000
7121,78.125000
7122,82.031250
7123,82.031250
7124,82.031250
7125,82.031250
7126,82.031250
7127,82.031250
7128,85.937500
7129,85.937500
7130,85.937500
7131,85.937500
7132,85.937500
7133,85.937500
7134,85.937500
7135,85.937500
7136,85.937500
7137,89.843750
7138,89.843750
7139,89.843750
7140,89.843750
7141,89.843750
7142,89.843750
7143,89.843750
7144,89.843750
7145,89.843750
7146,89.843750
7147,93.750000
7148,93.750000
7149,93.750000
7150,93.750000
7151,93.750000
7152,93.750000
7153,93.750000
7154,93.750000
7155,93.750000
7156,93.750000
7157,97.656250
7158,97.656250
7159,97.656250
7160,97.656250
7161,97.656250
7162,97.656250
7163,97.656250
7164,97.656250
7165,97.656250
7166,101.562500
7167,97.656250
7168,101.562500
7169,101.562500
7170,101.562500
7171,101.562500
7172,101.562500
7173,101.562500
7174,101.562500
7175,101.562500
7176,101.562500
7177,101.562500
7178,101.562500
7179,101.562500
7180,105.468750
7181,105.468750
7182,105.468750
7183,105.468750
7184,105.468750
7185,105.468750
7186,105.468750
7187,105.468750
7188,105.468750
7189,109.375000
7190,105.468750
7191,105.468750
7192,105.468750
7193,109.375000
7194,109.375000
7195,109.375000
7196,109.375000
7197,105.468750
7198,109.375000
7199,109.375000
7200,109.375000
7201,109.375000
7202,109.375000
7203,109.375000
7204,109.375000
7205,109.375000
7206,109.375000
7207,109.375000
7208,109.375000
7209,109.375000
7210,113.281250
7211,109.375000
7212,113.281250
7213,113.281250
7214,109.375000
7215,113.281250
7216,113.281250
7217,113.281250
7218,113.281250
7219,113.281250
7220,113.281250
7221,113.281250
7222,113.281250
7223,113.281250
7224,113.281250
7225,113.281250
7226,113.281250
7227,113.281250
7228,113.281250
7229,113.281250
7230,113.281250
7231,113.281250
7232,113.281250
7233,113.281250
7234,113.281250
7235,113.281250
7236,113.281250
7237,113.281250
7238,113.281250
7239,113.281250
7240,113.281250
7241,113.281250
7242,113.281250
7243,113.281250
7244,113.281250
7245,113.281250
7246,113.281250
7247,113.281250
7248,113.281250
7249,113.281250
7250,113.281250
7251,113.281250
7252,113.281250
7253,113.281250
7254,113.281250
7255,113.281250
7256,113.281250
7257,113.281250
7258,113.281250
7259,113.281250
7260,113.281250
7261,113.281250
7262,113.281250
7263,113.281250
7264,113.281250
7265,113.281250
7266,113.281250
7267,113.281250
7268,113.281250
7269,113.281250
7270,113.281250
7271,109.375000
7272,113.281250
7273,113.281250
7274,113.281250
7275,109.375000
7276,109.375000
7277,109.375000
7278,109.375000
7279,109.375000
7280,113.281250
7281,109.375000
7282,109.375000
7283,109.375000
7284,109.375000
7285,109.375000
7286,109.375000
7287,109.375000
7288,109.375000
7289,109.375000
7290,109.375000
7291,109.375000
7292,109.375000
7293,105.468750
7294,109.375000
7295,109.375000
7296,109.375000
7297,105.468750
7298,109.375000
7299,109.375000
7300,109.375000
7301,105.468750
7302,105.468750
7303,105.468750
7304,105.468750
7305,105.468750
7306,105.468750
7307,105.468750
7308,105.468750
7309,105.468750
7310,105.468750
7311,105.468750
7312,105.468750
7313,105.468750
7314,105.468750
7315,101.562500
7316,101.562500
7317,101.562500
7318,101.562500
7319,101.562500
7320,101.562500
7321,101.562500
7322,101.562500
7323,101.562500
7324,101.562500
7325,101.562500
7326,101.562500
7327,101.562500
7328,97.656250
7329,97.656250
7330,97.656250
7331,97.656250
7332,97.656250
7333,97.656250
7334,97.656250
7335,97.656250
7336,97.656250
7337,97.656250
7338,93.750000
7339,93.750000
7340,93.750000
7341,93.750000
7342,93.750000
7343,93.750000
7344,93.750000
7345,93.750000
7346,93.750000
7347,93.750000
7348,93.750000
7349,89.843750
7350,89.843750
7351,89.843750
7352,89.843750
7353,89.843750
7354,89.843750
7355,89.843750
7356,89.843750
7357,89.843750
7358,85.937500
7359,85.937500
7360,85.937500
7361,85.937500
7362,85.937500
7363,85.937500
7364,85.937500
7365,82.031250
7366,82.031250
7367,82.031250
7368,82.031250
7369,82.031250
7370,82.031250
7371,78.125000
7372,78.125000
7373,78.125000
7374,78.125000
7375,78.125000
7376,78.125000
7377,78.125000
7378,78.125000
7379,74.218750
7380,74.218750
7381,74.218750
7382,74.218750
7383,74.218750
7384,74.218750
7385,70.312500
7386,70.312500
7387,70.312500
7388,70.312500
7389,70.312500
7390,70.312500
7391,70.312500
7392,66.406250
7393,66.406250
7394,66.406250
7395,66.406250
7396,66.406250
7397,66.406250
7398,66.406250
7399,62.500000
7400,62.500000
7401,62.500000
7402,62.500000
7403,62.500000
7404,58.593750
7405,58.593750
7406,58.593750
7407,58.593750
7408,58.593750
7409,58.593750
7410,54.687500
7411,54.687500
7412,54.687500
7413,54.687500
7414,54.687500
7415,54.687500
7416,50.781250
7417,50.781250
7418,50.781250
7419,50.781250
7420,46.875000
7421,46.875000
7422,46.875000
7423,46.875000
7424,46.875000
7425,46.875000
7426,42.968750
7427,42.968750
7428,42.968750
7429,42.968750
7430,42.968750
7431,39.062500
7432,39.062500
7433,39.062500
7434,39.062500
7435,39.062500
7436,35.156250
7437,35.156250
7438,35.156250
7439,35.156250
7440,35.156250
7441,31.250000
7442,31.250000
7443,31.250000
7444,31.250000
7445,31.250000
7446,27.343750
7447,27.343750
7448,27.343750
7449,27.343750
7450,27.343750
7451,23.437500
7452,23.437500
7453,23.437500
7454,23.437500
7455,23.437500
7456,23.437500
7457,19.531250
7458,19.531250
7459,19.531250
7460,19.531250
7461,15.625000
7462,15.625000
7463,15.625000
7464,15.625000
7465,11.718750
7466,11.718750
7467,11.718750
7468,11.718750
7469,7.812500
7470,7.812500
7471,7.812500
7472,7.812500
7473,7.812500
7474,3.906250
7475,3.906250
7476,3.906250
7477,3.906250
7478,3.906250
7479,0.000000
7480,0.000000
7481,0.000000
7482,0.000000
7483,-3.906250
7484,-3.906250
7485,-3.906250
7486,-3.906250
7487,-3.906250
7488,-7.812500
7489,-7.812500
7490,-7.812500
7491,-11.718750
7492,-7.812500
7493,-11.718750
7494,-11.718750
7495,-11.718750
7496,-11.718750
7497,-15.625000
7498,-15.625000
7499,-15.625000
7500,-15.625000
7501,-19.531250
7502,-19.531250
7503,-19.531250
7504,-19.531250
7505,-23.437500
7506,-23.437500
7507,-23.437500
7508,-23.437500
7509,-23.437500
7510,-27.343750
7511,-27.343750
7512,-27.343750
7513,-27.343750
7514,-31.250000
7515,-31.250000
7516,-31.250000
7517,-31.250000
7518,-35.156250
7519,-35.156250
7520,-35.156250
7521,-35.156250
7522,-35.156250
7523,-39.062500
7524,-39.062500
7525,-39.062500
7526,-39.062500
7527,-42.968750
7528,-42.968750
7529,-42.968750
7530,-42.968750
7531,-46.875000
7532,-46.875000
7533,-46.875000
7534,-46.875000
7535,-50.781250
7536,-50.781250
7537,-50.781250
7538,-50.781250
7539,-54.687500
7540,-54.687500
7541,-54.687500
7542,-54.687500
7543,-58.593750
7544,-58.593750
7545,-58.593750
7546,-58.593750
7547,-58.593750
7548,-62.500000
7549,-62.500000
7550,-62.500000
7551,-62.500000
7552,-62.500000
7553,-66.406250
7554,-66.406250
7555,-66.406250
7556,-66.406250
7557,-70.312500
7558,-70.312500
7559,-70.312500
7560,-70.312500
7561,-70.312500
7562,-74.218750
7563,-74.218750
7564,-74.218750
7565,-74.218750
7566,-74.218750
7567,-78.125000
7568,-78.125000
7569,-78.125000
7570,-78.125000
7571,-82.031250
7572,-82.031250
7573,-82.031250
7574,-82.031250
7575,-82.031250
7576,-85.937500
7577,-85.937500
7578,-85.937500
7579,-85.937500
7580,-85.937500
7581,-89.843750
7582,-89.843750
7583,-89.843750
7584,-89.843750
7585,-89.843750
7586,-93.750000
7587,-93.750000
7588,-93.750000
7589,-93.750000
7590,-97.656250
7591,-97.656250
7592,-97.656250
7593,-97.656250
7594,-97.656250
7595,-97.656250
7596,-101.562500
7597,-101.562500
7598,-101.562500
7599,-101.562500
7600,-101.562500
7601,-101.562500
7602,-105.468750
7603,-105.468750
7604,-105.468750
7605,-105.468750
7606,-105.468750
7607,-105.468750
7608,-109.375000
7609,-109.375000
7610,-109.375000
7611,-109.375000
7612,-113.281250
7613,-113.281250
7614,-113.281250
7615,-113.281250
7616,-113.281250
7617,-113.281250
7618,-113.281250
7619,-117.187500
7620,-117.187500
7621,-117.187500
7622,-117.187500
7623,-117.187500
7624,-121.093750
7625,-121.093750
7626,-121.093750
7627,-121.093750
7628,-121.093750
7629,-121.093750
7630,-125.000000
7631,-125.000000
7632,-125.000000
7633,-125.000000
7634,-125.000000
7635,-125.000000
7636,-128.906250
7637,-125.000000
7638,-128.906250
7639,-128.906250
7640,-128.906250
7641,-128.906250
7642,-132.812500
7643,-132.812500
7644,-132.812500
7645,-132.812500
7646,-132.812500
7647,-132.812500
7648,-132.812500
7649,-132.812500
7650,-136.718750
7651,-136.718750
7652,-136.718750
7653,-136.718750
7654,-136.718750
7655,-136.718750
7656,-136.718750
7657,-140.625000
7658,-140.625000
7659,-140.625000
7660,-140.625000
7661,-140.625000
7662,-140.625000
7663,-140.625000
7664,-140.625000
7665,-144.531250
7666,-144.531250
7667,-144.531250
7668,-144.531250
7669,-144.531250
7670,-144.531250
7671,-144.531250
7672,-144.531250
7673,-144.531250
7674,-144.531250
7675,-148.437500
7676,-148.437500
7677,-148.437500
7678,-148.437500
7679,-148.437500
7680,-148.437500
7681,-148.437500
7682,-148.437500
7683,-148.437500
7684,-148.437500
7685,-148.437500
7686,-152.343750
7687,-152.343750
7688,-152.343750
7689,-152.343750
7690,-152.343750
7691,-152.343750
7692,-152.343750
7693,-152.343750
7694,-152.343750
7695,-152.343750
7696,-152.343750
7697,-152.343750
7698,-152.343750
7699,-156.250000
7700,-156.250000
7701,-152.343750
7702,-152.343750
7703,-152.343750
7704,-156.250000
7705,-156.250000
7706,-156.250000
7707,-156.250000
7708,-156.250000
7709,-156.250000
7710,-156.250000
7711,-156.250000
7712,-156.250000
7713,-156.250000
7714,-156.250000
7715,-156.250000
7716,-156.250000
7717,-156.250000
7718,-156.250000
7719,-156.250000
7720,-156.250000
7721,-156.250000
7722,-156.250000
7723,-156.250000
7724,-156.250000
7725,-156.250000
7726,-156.250000
7727,-156.250000
7728,-156.250000
7729,-156.250000
7730,-156.250000
7731,-156.250000
7732,-156.250000
7733,-156.250000
7734,-156.250000
7735,-156.250000
7736,-156.250000
7737,-156.250000
7738,-156.250000
7739,-156.250000
7740,-156.250000
7741,-156.250000
7742,-156.250000
7743,-156.250000
7744,-156.250000
7745,-156.250000
7746,-156.250000
7747,-156.250000
7748,-156.250000
7749,-156.250000
7750,-156.250000
7751,-156.250000
7752,-156.250000
7753,-156.250000
7754,-156.250000
7755,-156.250000
7756,-156.250000
7757,-156.250000
7758,-156.250000
7759,-156.250000
7760,-156.250000
7761,-156.250000
7762,-156.250000
7763,-156.250000
7764,-156.250000
7765,-156.250000
7766,-156.250000
7767,-156.250000
7768,-156.250000
7769,-152.343750
7770,-156.250000
7771,-152.343750
7772,-152.343750
7773,-152.343750
7774,-152.343750
7775,-152.343750
7776,-152.343750
7777,-152.343750
7778,-152.343750
7779,-152.343750
7780,-152.343750
7781,-152.343750
7782,-152.343750
7783,-152.343750
7784,-148.437500
7785,-148.437500
7786,-148.437500
7787,-148.437500
7788,-148.437500
7789,-148.437500
7790,-148.437500
7791,-148.437500
7792,-148.437500
7793,-148.437500
7794,-148.437500
7795,-148.437500
7796,-148.437500
7797,-148.437500
7798,-144.531250
7799,-144.531250
7800,-144.531250
7801,-144.531250
7802,-144.531250
7803,-144.531250
7804,-144.531250
7805,-144.531250
7806,-140.625000
7807,-140.625000
7808,-140.625000
7809,-140.625000
7810,-140.625000
7811,-140.625000
7812,-140.625000
7813,-140.625000
7814,-140.625000
7815,-136.718750
7816,-136.718750
7817,-136.718750
7818,-136.718750
7819,-136.718750
7820,-136.718750
7821,-136.718750
7822,-136.718750
7823,-132.812500
7824,-132.812500
7825,-132.812500
7826,-132.812500
7827,-132.812500
7828,-132.812500
7829,-128.906250
7830,-128.906250
7831,-128.906250
7832,-128.906250
7833,-128.906250
7834,-128.906250
7835,-125.000000
7836,-125.000000
7837,-125.000000
7838,-125.000000
7839,-125.000000
7840,-125.000000
7841,-125.000000
7842,-121.093750
7843,-121.093750
7844,-121.093750
7845,-121.093750
7846,-121.093750
7847,-121.093750
7848,-121.093750
7849,-121.093750
7850,-117.187500
7851,-117.187500
7852,-117.187500
7853,-117.187500
7854,-113.281250
7855,-113.281250
7856,-113.281250
7857,-113.281250
7858,-113.281250
7859,-113.281250
7860,-109.375000
7861,-109.375000
7862,-109.375000
7863,-109.375000
7864,-109.375000
7865,-109.375000
7866,-105.468750
7867,-105.468750
7868,-105.468750
7869,-105.468750
7870,-105.468750
7871,-105.468750
7872,-101.562500
7873,-101.562500
7874,-101.562500
7875,-101.562500
7876,-101.562500
7877,-97.656250
7878,-97.656250
7879,-97.656250
7880,-97.656250
7881,-97.656250
7882,-93.750000
7883,-93.750000
7884,-93.750000
7885,-93.750000
7886,-89.843750
7887,-93.750000
7888,-89.843750
7889,-89.843750
7890,-89.843750
7891,-89.843750
7892,-85.937500
7893,-85.937500
7894,-85.937500
7895,-85.937500
7896,-82.031250
7897,-82.031250
7898,-82.031250
7899,-82.031250
7900,-82.031250
7901,-82.031250
7902,-78.125000
7903,-78.125000
7904,-78.125000
7905,-78.125000
7906,-78.125000
7907,-78.125000
7908,-74.218750
7909,-74.218750
7910,-74.218750
7911,-70.312500
7912,-70.312500
7913,-70.312500
7914,-70.312500
7915,-70.312500
7916,-66.406250
7917,-66.406250
7918,-66.406250
7919,-66.406250
7920,-66.406250
7921,-62.500000
7922,-62.500000
7923,-62.500000
7924,-62.500000
7925,-62.500000
7926,-58.593750
7927,-58.593750
7928,-58.593750
7929,-58.593750
7930,-54.687500
7931,-54.687500
7932,-54.687500
7933,-54.687500
7934,-50.781250
7935,-50.781250
7936,-50.781250
7937,-50.781250
7938,-50.781250
7939,-46.875000
7940,-46.875000
7941,-46.875000
7942,-46.875000
7943,-46.875000
7944,-42.968750
7945,-42.968750
7946,-42.968750
7947,-42.968750
7948,-39.062500
7949,-39.062500
7950,-39.062500
7951,-35.156250
7952,-35.156250
7953,-35.156250
7954,-35.156250
7955,-35.156250
7956,-31.250000
7957,-31.250000
7958,-31.250000
7959,-31.250000
7960,-31.250000
7961,-31.250000
7962,-27.343750
7963,-27.343750
7964,-27.343750
7965,-23.437500
7966,-23.437500
7967,-23.437500
7968,-23.437500
7969,-23.437500
7970,-19.531250
7971,-19.531250
7972,-19.531250
7973,-19.531250
7974,-15.625000
7975,-15.625000
7976,-15.625000
7977,-15.625000
7978,-15.625000
7979,-11.718750
7980,-11.718750
7981,-11.718750
7982,-11.718750
7983,-7.812500
7984,-7.812500
7985,-7.812500
7986,-7.812500
7987,-7.812500
7988,-3.906250
7989,-3.906250
7990,-3.906250
7991,-3.906250
7992,-3.906250
7993,0.000000
7994,0.000000
7995,0.000000
7996,0.000000
7997,3.906250
7998,3.906250
7999,3.906250
8000,3.906250
8001,7.812500
8002,7.812500
8003,7.812500
8004,7.812500
8005,7.812500
8006,11.718750
8007,11.718750
8008,11.718750
8009,11.718750
8010,11.718750
8011,15.625000
8012,15.625000
8013,15.625000
8014,15.625000
8015,19.531250
8016,19.531250
8017,19.531250
8018,19.531250
8019,19.531250
8020,19.531250
8021,23.437500
8022,23.437500
8023,23.437500
8024,23.437500
8025,27.343750
8026,27.343750
8027,27.343750
8028,27.343750
8029,27.343750
8030,27.343750
8031,31.250000
8032,31.250000
8033,31.250000
8034,31.250000
8035,31.250000
8036,35.156250
8037,35.156250
8038,35.156250
8039,35.156250
8040,35.156250
8041,35.156250
8042,39.062500
8043,39.062500
8044,39.062500
8045,39.062500
8046,42.968750
8047,42.968750
8048,42.968750
8049,42.968750
8050,42.968750
8051,42.968750
8052,42.968750
8053,46.875000
8054,46.875000
8055,46.875000
8056,46.875000
8057,46.875000
8058,50.781250
8059,50.781250
8060,50.781250
8061,50.781250
8062,50.781250
8063,50.781250
8064,54.687500
8065,54.687500
8066,54.687500
8067,54.687500
8068,54.687500
8069,58.593750
8070,58.593750
8071,58.593750
8072,58.593750
8073,58.593750
8074,62.500000
8075,62.500000
8076,62.500000
8077,62.500000
8078,62.500000
8079,62.500000
8080,62.500000
8081,66.406250
8082,62.500000
8083,66.406250
8084,66.406250
8085,66.406250
8086,66.406250
8087,66.406250
8088,70.312500
8089,70.312500
8090,70.312500
8091,70.312500
8092,70.312500
8093,66.406250
8094,70.312500
8095,74.218750
8096,74.218750
8097,74.218750
8098,74.218750
8099,74.218750
8100,74.218750
8101,74.218750
8102,74.218750
8103,78.125000
8104,78.125000
8105,78.125000
8106,78.125000
8107,78.125000
8108,82.031250
8109,82.031250
8110,82.031250
8111,82.031250
8112,82.031250
8113,82.031250
8114,82.031250
8115,82.031250
8116,82.031250
8117,85.937500
8118,85.937500
8119,85.937500
8120,85.937500
8121,85.937500
8122,85.937500
8123,85.937500
8124,85.937500
8125,85.937500
8126,89.843750
8127,89.843750
8128,89.843750
8129,89.843750
8130,89.843750
8131,89.843750
8132,89.843750
8133,89.843750
8134,93.750000
8135,93.750000
8136,93.750000
8137,93.750000
8138,93.750000
8139,93.750000
8140,93.750000
8141,93.750000
8142,97.656250
8143,93.750000
8144,93.750000
8145,97.656250
8146,97.656250
8147,97.656250
8148,97.656250
8149,97.656250
8150,97.656250
8151,97.656250
8152,97.656250
8153,101.562500
8154,101.562500
8155,101.562500
8156,101.562500
8157,101.562500
8158,101.562500
8159,101.562500
8160,101.562500
8161,101.562500
8162,101.562500
8163,101.562500
8164,101.562500
8165,101.562500
8166,101.562500
8167,105.468750
8168,105.468750
8169,105.468750
8170,105.468750
8171,105.468750
8172,105.468750
8173,105.468750
8174,105.468750
8175,105.468750
8176,105.468750
8177,105.468750
8178,109.375000
8179,105.468750
8180,109.375000
8181,105.468750
8182,105.468750
8183,109.375000
8184,109.375000
8185,109.375000
8186,109.375000
8187,109.375000
8188,109.375000
8189,109.375000
8190,109.375000
8191,109.375000
8192,109.375000
8193,109.375000
8194,109.375000
8195,109.375000
8196,109.375000
8197,109.375000
8198,109.375000
8199,109.375000
8200,109.375000
8201,109.375000
8202,109.375000
8203,109.375000
8204,113.281250
8205,113.281250
8206,113.281250
8207,113.281250
8208,113.281250
8209,113.281250
8210,113.281250
8211,113.281250
8212,113.281250
8213,113.281250
8214,113.281250
8215,113.281250
8216,113.281250
8217,113.281250
8218,113.281250
8219,113.281250
8220,113.281250
8221,113.281250
8222,113.281250
8223,113.281250
8224,113.281250
8225,113.281250
8226,113.281250
8227,113.281250
8228,113.281250
8229,113.281250
8230,113.281250
8231,113.281250
8232,113.281250
8233,113.281250
8234,113.281250
8235,113.281250
8236,113.281250
8237,113.281250
8238,113.281250
8239,113.281250
8240,113.281250
8241,113.281250
8242,113.281250
8243,113.281250
8244,113.281250
8245,113.281250
8246,113.281250
8247,113.281250
8248,113.281250
8249,113.281250
8250,113.281250
8251,113.281250
8252,113.281250
8253,113.281250
8254,113.281250
8255,113.281250
8256,113.281250
8257,113.281250
8258,113.281250
8259,113.281250
8260,113.281250
8261,113.281250
8262,113.281250
8263,113.281250
8264,113.281250
8265,109.375000
8266,113.281250
8267,113.281250
8268,113.281250
8269,109.375000
8270,109.375000
8271,109.375000
8272,109.375000
8273,109.375000
8274,109.375000
8275,109.375000
8276,109.375000
8277,109.375000
8278,109.375000
8279,109.375000
8280,109.375000
8281,109.375000
8282,109.375000
8283,109.375000
8284,109.375000
8285,109.375000
8286,109.375000
8287,109.375000
8288,109.375000
8289,105.468750
8290,105.468750
8291,105.468750
8292,105.468750
8293,105.468750
8294,105.468750
8295,105.468750
8296,105.468750
8297,105.468750
8298,105.468750
8299,105.468750
8300,105.468750
8301,105.468750
8302,105.468750
8303,101.562500
8304,105.468750
8305,101.562500
8306,101.562500
8307,101.562500
8308,101.562500
8309,101.562500
8310,101.562500
8311,101.562500
8312,101.562500
8313,101.562500
8314,101.562500
8315,97.656250
8316,97.656250
8317,97.656250
8318,97.656250
8319,97.656250
8320,97.656250
8321,97.656250
8322,97.656250
8323,97.656250
8324,93.750000
8325,93.750000
8326,93.750000
8327,93.750000
8328,93.750000
8329,93.750000
8330,93.750000
8331,93.750000
8332,93.750000
8333,93.750000
8334,89.843750
8335,89.843750
8336,89.843750
8337,89.843750
8338,89.843750
8339,89.843750
8340,89.843750
8341,89.843750
8342,89.843750
8343,85.937500
8344,85.937500
8345,85.937500
8346,85.937500
8347,85.937500
8348,85.937500
8349,85.937500
8350,85.937500
8351,85.937500
8352,82.031250
8353,82.031250
8354,82.031250
8355,82.031250
8356,82.031250
8357,82.031250
8358,82.031250
8359,78.125000
8360,78.125000
8361,78.125000
8362,78.125000
8363,78.125000
8364,78.125000
8365,78.125000
8366,78.125000
8367,74.218750
8368,74.218750
8369,74.218750
8370,74.218750
8371,74.218750
8372,74.218750
8373,70.312500
8374,70.312500
8375,70.312500
8376,70.312500
8377,70.312500
8378,70.312500
8379,70.312500
8380,66.406250
8381,66.406250
8382,66.406250
8383,66.406250
8384,66.406250
8385,66.406250
8386,66.406250
8387,62.500000
8388,62.500000
8389,62.500000
8390,62.500000
8391,62.500000
8392,58.593750
8393,58.593750
8394,62.500000
8395,58.593750
8396,58.593750
8397,58.593750
8398,58.593750
8399,54.687500
8400,54.687500
8401,54.687500
8402,54.687500
8403,50.781250
8404,50.781250
8405,50.781250
8406,50.781250
8407,50.781250
8408,50.781250
8409,50.781250
8410,46.875000
8411,46.875000
8412,46.875000
8413,46.875000
8414,46.875000
8415,42.968750
8416,42.968750
8417,42.968750
8418,42.968750
8419,42.968750
8420,39.062500
8421,39.062500
8422,39.062500
8423,39.062500
8424,35.156250
8425,35.156250
8426,35.156250
8427,35.156250
8428,35.156250
8429,35.156250
8430,35.156250
8431,31.250000
8432,31.250000
8433,31.250000
8434,31.250000
8435,27.343750
8436,27.343750
8437,27.343750
8438,23.437500
8439,23.437500
8440,23.437500
8441,23.437500
8442,23.437500
8443,23.437500
8444,19.531250
8445,19.531250
8446,19.531250
8447,19.531250
8448,15.625000
8449,15.625000
8450,15.625000
8451,15.625000
8452,15.625000
8453,11.718750
8454,11.718750
8455,11.718750
8456,11.718750
8457,11.718750
8458,7.812500
8459,7.812500
8460,11.718750
8461,7.812500
8462,7.812500
8463,3.906250
8464,3.906250
8465,3.906250
8466,3.906250
8467,0.000000
8468,0.000000
8469,0.000000
8470,0.000000
8471,0.000000
8472,-3.906250
8473,-3.906250
8474,-3.906250
8475,-3.906250
8476,-7.812500
8477,-7.812500
8478,-7.812500
8479,-7.812500
8480,-11.718750
8481,-11.718750
8482,-11.718750
8483,-11.718750
8484,-11.718750
8485,-15.625000
8486,-15.625000
8487,-15.625000
8488,-19.531250
8489,-19.531250
8490,-19.531250
8491,-19.531250
8492,-19.531250
8493,-19.531250
8494,-23.437500
8495,-23.437500
8496,-23.437500
8497,-23.437500
8498,-27.343750
8499,-27.343750
8500,-27.343750
8501,-31.250000
8502,-31.250000
8503,-27.343750
8504,-35.156250
8505,-31.250000
8506,-35.156250
8507,-35.156250
8508,-35.156250
8509,-35.156250
8510,-39.062500
8511,-39.062500
8512,-39.062500
8513,-39.062500
8514,-39.062500
8515,-39.062500
8516,-42.968750
8517,-42.968750
8518,-42.968750
8519,-42.968750
8520,-46.875000
8521,-46.875000
8522,-46.875000
8523,-46.875000
8524,-50.781250
8525,-50.781250
8526,-50.781250
8527,-50.781250
8528,-50.781250
8529,-54.687500
8530,-54.687500
8531,-54.687500
8532,-54.687500
8533,-58.593750
8534,-58.593750
8535,-58.593750
8536,-58.593750
8537,-62.500000
8538,-62.500000
8539,-62.500000
8540,-62.500000
8541,-66.406250
8542,-66.406250
8543,-66.406250
8544,-66.406250
8545,-66.406250
8546,-70.312500
8547,-70.312500
8548,-70.312500
8549,-70.312500
8550,-74.218750
8551,-74.218750
8552,-74.218750
8553,-74.218750
8554,-74.218750
8555,-78.125000
8556,-78.125000
8557,-78.125000
8558,-78.125000
8559,-78.125000
8560,-82.031250
8561,-82.031250
8562,-82.031250
8563,-82.031250
8564,-82.031250
8565,-85.937500
8566,-85.937500
8567,-85.937500
8568,-85.937500
8569,-89.843750
8570,-89.843750
8571,-89.843750
8572,-89.843750
8573,-89.843750
8574,-93.750000
8575,-93.750000
8576,-93.750000
8577,-93.750000
8578,-93.750000
8579,-97.656250
8580,-97.656250
8581,-101.562500
8582,-97.656250
8583,-101.562500
8584,-101.562500
8585,-101.562500
8586,-101.562500
8587,-101.562500
8588,-101.562500
8589,-105.468750
8590,-105.468750
8591,-105.468750
8592,-105.468750
8593,-105.468750
8594,-109.375000
8595,-109.375000
8596,-109.375000
8597,-109.375000
8598,-109.375000
8599,-109.375000
8600,-113.281250
8601,-113.281250
8602,-113.281250
8603,-113.281250
8604,-113.281250
8605,-113.281250
8606,-117.187500
8607,-117.187500
8608,-117.187500
8609,-117.187500
8610,-117.187500
8611,-117.187500
8612,-117.187500
8613,-121.093750
8614,-121.093750
8615,-121.093750
8616,-121.093750
8617,-121.093750
8618,-121.093750
8619,-125.000000
8620,-125.000000
8621,-125.000000
8622,-125.000000
8623,-125.000000
8624,-125.000000
8625,-128.906250
8626,-128.906250
8627,-128.906250
8628,-128.906250
8629,-128.906250
8630,-128.906250
8631,-128.906250
8632,-132.812500
8633,-132.812500
8634,-132.812500
8635,-132.812500
8636,-132.812500
8637,-132.812500
8638,-132.812500
8639,-132.812500
8640,-136.718750
8641,-136.718750
8642,-136.718750
8643,-136.718750
8644,-136.718750
8645,-136.718750
8646,-140.625000
8647,-140.625000
8648,-140.625000
8649,-140.625000
8650,-140.625000
8651,-140.625000
8652,-140.625000
8653,-140.625000
8654,-140.625000
8655,-140.625000
8656,-140.625000
8657,-144.531250
8658,-144.531250
8659,-144.531250
8660,-144.531250
8661,-144.531250
8662,-144.531250
8663,-144.531250
8664,-144.531250
8665,-148.437500
8666,-148.437500
8667,-144.531250
8668,-148.437500
8669,-148.437500
8670,-148.437500
8671,-148.437500
8672,-148.437500
8673,-148.437500
8674,-148.437500
8675,-148.437500
8676,-152.343750
8677,-152.343750
8678,-152.343750
8679,-152.343750
8680,-152.343750
8681,-152.343750
8682,-152.343750
8683,-152.343750
8684,-152.343750
8685,-152.343750
8686,-152.343750
8687,-152.343750
8688,-152.343750
8689,-156.250000
8690,-152.343750
8691,-156.250000
8692,-152.343750
8693,-152.343750
8694,-152.343750
8695,-156.250000
8696,-156.250000
8697,-156.250000
8698,-156.250000
8699,-156.250000
8700,-156.250000
8701,-156.250000
8702,-156.250000
8703,-156.250000
8704,-156.250000
8705,-156.250000
8706,-156.250000
8707,-156.250000
8708,-156.250000
8709,-156.250000
8710,-156.250000
8711,-156.250000
8712,-156.250000
8713,-156.250000
8714,-156.250000
8715,-156.250000
8716,-156.250000
8717,-156.250000
8718,-156.250000
8719,-156.250000
8720,-156.250000
8721,-156.250000
8722,-156.250000
8723,-156.250000
8724,-156.250000
8725,-156.250000
8726,-156.250000
8727,-156.250000
8728,-156.250000
8729,-156.250000
8730,-156.250000
8731,-156.250000
8732,-156.250000
8733,-156.250000
8734,-160.156250
8735,-156.250000
8736,-156.250000
8737,-156.250000
8738,-156.250000
8739,-156.250000
8740,-156.250000
8741,-156.250000
8742,-156.250000
8743,-156.250000
8744,-156.250000
8745,-156.250000
8746,-156.250000
8747,-156.250000
8748,-156.250000
8749,-156.250000
8750,-156.250000
8751,-156.250000
8752,-156.250000
8753,-152.343750
8754,-156.250000
8755,-156.250000
8756,-156.250000
8757,-152.343750
8758,-152.343750
8759,-152.343750
8760,-152.343750
8761,-152.343750
8762,-152.343750
8763,-152.343750
8764,-152.343750
8765,-152.343750
8766,-152.343750
8767,-152.343750
8768,-152.343750
8769,-152.343750
8770,-152.343750
8771,-148.437500
8772,-148.437500
8773,-148.437500
8774,-148.437500
8775,-148.437500
8776,-148.437500
8777,-148.437500
8778,-148.437500
8779,-148.437500
8780,-148.437500
8781,-144.531250
8782,-144.531250
8783,-144.531250
8784,-144.531250
8785,-144.531250
8786,-144.531250
8787,-144.531250
8788,-144.531250
8789,-144.531250
8790,-144.531250
8791,-144.531250
8792,-140.625000
8793,-140.625000
8794,-140.625000
8795,-140.625000
8796,-140.625000
8797,-140.625000
8798,-140.625000
8799,-140.625000
8800,-140.625000
8801,-136.718750
8802,-136.718750
8803,-136.718750
8804,-136.718750
8805,-136.718750
8806,-136.718750
8807,-136.718750
8808,-136.718750
8809,-132.812500
8810,-132.812500
8811,-132.812500
8812,-132.812500
8813,-132.812500
8814,-132.812500
8815,-132.812500
8816,-132.812500
8817,-128.906250
8818,-128.906250
8819,-128.906250
8820,-128.906250
8821,-128.906250
8822,-128.906250
8823,-128.906250
8824,-125.000000
8825,-125.000000
8826,-125.000000
8827,-125.000000
8828,-125.000000
8829,-125.000000
8830,-125.000000
8831,-121.093750
8832,-121.093750
8833,-121.093750
8834,-121.093750
8835,-121.093750
8836,-121.093750
8837,-117.187500
8838,-117.187500
8839,-117.187500
8840,-117.187500
8841,-117.187500
8842,-113.281250
8843,-113.281250
8844,-113.281250
8845,-113.281250
8846,-113.281250
8847,-113.281250
8848,-113.281250
8849,-113.281250
8850,-109.375000
8851,-109.375000
8852,-109.375000
8853,-109.375000
8854,-109.375000
8855,-109.375000
8856,-105.468750
8857,-105.468750
8858,-105.468750
8859,-105.468750
8860,-101.562500
8861,-105.468750
8862,-101.562500
8863,-101.562500
8864,-101.562500
8865,-97.656250
8866,-97.656250
8867,-101.562500
8868,-97.656250
8869,-97.656250
8870,-97.656250
8871,-93.750000
8872,-93.750000
8873,-93.750000
8874,-93.750000
8875,-89.843750
8876,-89.843750
8877,-89.843750
8878,-89.843750
8879,-89.843750
8880,-85.937500
8881,-85.937500
8882,-85.937500
8883,-85.937500
8884,-82.031250
8885,-82.031250
8886,-82.031250
8887,-82.031250
8888,-82.031250
8889,-82.031250
8890,-78.125000
8891,-78.125000
8892,-78.125000
8893,-74.218750
8894,-74.218750
8895,-74.218750
8896,-74.218750
8897,-74.218750
8898,-70.312500
8899,-70.312500
8900,-70.312500
8901,-70.312500
8902,-70.312500
8903,-70.312500
8904,-66.406250
8905,-66.406250
8906,-66.406250
8907,-66.406250
8908,-66.406250
8909,-62.500000
8910,-62.500000
8911,-62.500000
8912,-62.500000
8913,-62.500000
8914,-58.593750
8915,-58.593750
8916,-58.593750
8917,-58.593750
8918,-54.687500
8919,-54.687500
8920,-54.687500
8921,-50.781250
8922,-50.781250
8923,-50.781250
8924,-50.781250
8925,-50.781250
8926,-50.781250
8927,-46.875000
8928,-46.875000
8929,-46.875000
8930,-46.875000
8931,-46.875000
8932,-42.968750
8933,-42.968750
8934,-42.968750
8935,-39.062500
8936,-39.062500
8937,-39.062500
8938,-39.062500
8939,-39.062500
8940,-39.062500
8941,-35.156250
8942,-35.156250
8943,-35.156250
8944,-35.156250
8945,-31.250000
8946,-31.250000
8947,-31.250000
8948,-31.250000
8949,-31.250000
8950,-27.343750
8951,-27.343750
8952,-27.343750
8953,-27.343750
8954,-23.437500
8955,-23.437500
8956,-23.437500
8957,-23.437500
8958,-23.437500
8959,-19.531250
8960,-19.531250
8961,-19.531250
8962,-19.531250
8963,-19.531250
8964,-15.625000
8965,-15.625000
8966,-15.625000
8967,-15.625000
8968,-11.718750
8969,-11.718750
8970,-11.718750
8971,-11.718750
8972,-7.812500
8973,-7.812500
8974,-7.812500
8975,-7.812500
8976,-3.906250
8977,-3.906250
8978,-3.906250
8979,-3.906250
8980,-3.906250
8981,-3.906250
8982,0.000000
8983,0.000000
8984,0.000000
8985,3.906250
8986,3.906250
8987,3.906250
8988,3.906250
8989,3.906250
8990,3.906250
8991,7.812500
8992,7.812500
8993,7.812500
8994,7.812500
8995,11.718750
8996,11.718750
8997,11.718750
8998,11.718750
8999,15.625000
9000,11.718750
9001,15.625000
9002,15.625000
9003,15.625000
9004,15.625000
9005,19.531250
9006,19.531250
9007,19.531250
9008,19.531250
9009,19.531250
9010,23.437500
9011,23.437500
9012,23.437500
9013,23.437500
9014,27.343750
9015,27.343750
9016,27.343750
9017,27.343750
9018,27.343750
9019,27.343750
9020,31.250000
9021,31.250000
9022,31.250000
9023,31.250000
9024,35.156250
9025,35.156250
9026,35.156250
9027,35.156250
9028,35.156250
9029,39.062500
9030,39.062500
9031,39.062500
9032,39.062500
9033,39.062500
9034,42.968750
9035,42.968750
9036,42.968750
9037,42.968750
9038,42.968750
9039,42.968750
9040,46.875000
9041,46.875000
9042,46.875000
9043,46.875000
9044,46.875000
9045,46.875000
9046,50.781250
9047,50.781250
9048,50.781250
9049,50.781250
9050,50.781250
9051,50.781250
9052,54.687500
9053,54.687500
9054,54.687500
9055,54.687500
9056,54.687500
9057,58.593750
9058,58.593750
9059,54.687500
9060,58.593750
9061,58.593750
9062,58.593750
9063,58.593750
9064,62.500000
9065,62.500000
9066,62.500000
9067,62.500000
9068,62.500000
9069,66.406250
9070,66.406250
9071,66.406250
9072,66.406250
9073,66.406250
9074,66.406250
9075,66.406250
9076,70.312500
9077,70.312500
9078,70.312500
9079,70.312500
9080,70.312500
9081,70.312500
9082,70.312500
9083,74.218750
9084,74.218750
9085,74.218750
9086,74.218750
9087,74.218750
9088,74.218750
9089,78.125000
9090,74.218750
9091,74.218750
9092,78.125000
9093,78.125000
9094,78.125000
9095,78.125000
9096,78.125000
9097,82.031250
9098,82.031250
9099,82.031250
9100,82.031250
9101,82.031250
9102,82.031250
9103,82.031250
9104,82.031250
9105,82.031250
9106,85.937500
9107,85.937500
9108,85.937500
9109,85.937500
9110,85.937500
9111,85.937500
9112,85.937500
9113,85.937500
9114,85.937500
9115,89.843750
9116,89.843750
9117,89.843750
9118,89.843750
9119,89.843750
9120,89.843750
9121,89.843750
9122,93.750000
9123,93.750000
9124,93.750000
9125,93.750000
9126,93.750000
9127,93.750000
9128,93.750000
9129,93.750000
9130,93.750000
9131,93.750000
9132,93.750000
9133,97.656250
9134,97.656250
9135,97.656250
9136,97.656250
9137,97.656250
9138,97.656250
9139,97.656250
9140,97.656250
9141,97.656250
9142,97.656250
9143,97.656250
9144,101.562500
9145,101.562500
9146,101.562500
9147,101.562500
9148,101.562500
9149,101.562500
9150,101.562500
9151,101.562500
9152,101.562500
9153,101.562500
9154,105.468750
9155,105.468750
9156,105.468750
9157,105.468750
9158,105.468750
9159,105.468750
9160,105.468750
9161,105.468750
9162,105.468750
9163,105.468750
9164,105.468750
9165,105.468750
9166,105.468750
9167,109.375000
9168,105.468750
9169,109.375000
9170,109.375000
9171,109.375000
9172,109.375000
9173,109.375000
9174,109.375000
9175,109.375000
9176,109.375000
9177,109.375000
9178,109.375000
9179,109.375000
9180,109.375000
9181,109.375000
9182,109.375000
9183,109.375000
9184,109.375000
9185,109.375000
9186,109.375000
9187,109.375000
9188,109.375000
9189,109.375000
9190,109.375000
9191,113.281250
9192,113.281250
9193,113.281250
9194,113.281250
9195,113.281250
9196,113.281250
9197,113.281250
9198,113.281250
9199,113.281250
9200,113.281250
9201,113.281250
9202,113.281250
9203,113.281250
9204,113.281250
9205,113.281250
9206,113.281250
9207,113.281250
9208,113.281250
9209,113.281250
9210,113.281250
9211,113.281250
9212,113.281250
9213,113.281250
9214,113.281250
9215,113.281250
9216,113.281250
9217,113.281250
9218,113.281250
9219,113.281250
9220,113.281250
9221,113.281250
9222,113.281250
9223,113.281250
9224,113.281250
9225,113.281250
9226,113.281250
9227,113.281250
9228,113.281250
9229,113.281250
9230,113.281250
9231,113.281250
9232,113.281250
9233,113.281250
9234,113.281250
9235,113.281250
9236,113.281250
9237,113.281250
9238,113.281250
9239,113.281250
9240,113.281250
9241,113.281250
9242,113.281250
9243,113.281250
9244,113.281250
9245,113.281250
9246,113.281250
9247,113.281250
9248,113.281250
9249,113.281250
9250,113.281250
9251,113.281250
9252,113.281250
9253,113.281250
9254,113.281250
9255,113.281250
9256,113.281250
9257,109.375000
9258,109.375000
9259,109.375000
9260,109.375000
9261,109.375000
9262,109.375000
9263,109.375000
9264,109.375000
9265,109.375000
9266,109.375000
9267,109.375000
9268,109.375000
9269,109.375000
9270,109.375000
9271,109.375000
9272,109.375000
9273,109.375000
9274,109.375000
9275,109.375000
9276,109.375000
9277,105.468750
9278,109.375000
9279,105.468750
9280,105.468750
9281,105.468750
9282,105.468750
9283,105.468750
9284,105.468750
9285,105.468750
9286,105.468750
9287,105.468750
9288,105.468750
9289,105.468750
9290,105.468750
9291,101.562500
9292,105.468750
9293,101.562500
9294,101.562500
9295,101.562500
9296,101.562500
9297,101.562500
9298,101.562500
9299,101.562500
9300,101.562500
9301,101.562500
9302,101.562500
9303,101.562500
9304,101.562500
9305,97.656250
9306,97.656250
9307,97.656250
9308,97.656250
9309,97.656250
9310,97.656250
9311,97.656250
9312,97.656250
9313,97.656250
9314,97.656250
9315,93.750000
9316,93.750000
9317,93.750000
9318,93.750000
9319,93.750000
9320,93.750000
9321,93.750000
9322,93.750000
9323,89.843750
9324,89.843750
9325,89.843750
9326,89.843750
9327,89.843750
9328,89.843750
9329,89.843750
9330,89.843750
9331,89.843750
9332,85.937500
9333,85.937500
9334,85.937500
9335,85.937500
9336,85.937500
9337,85.937500
9338,85.937500
9339,85.937500
9340,82.031250
9341,82.031250
9342,82.031250
9343,82.031250
9344,82.031250
9345,82.031250
9346,82.031250
9347,82.031250
9348,78.125000
9349,78.125000
9350,78.125000
9351,78.125000
9352,78.125000
9353,78.125000
9354,78.125000
9355,74.218750
9356,74.218750
9357,74.218750
9358,74.218750
9359,74.218750
9360,70.312500
9361,70.312500
9362,70.312500
9363,70.312500
9364,70.312500
9365,70.312500
9366,70.312500
9367,70.312500
9368,66.406250
9369,66.406250
9370,66.406250
9371,66.406250
9372,66.406250
9373,66.406250
9374,62.500000
9375,62.500000
9376,62.500000
9377,62.500000
9378,62.500000
9379,62.500000
9380,62.500000
9381,58.593750
9382,58.593750
9383,58.593750
9384,58.593750
9385,58.593750
9386,54.687500
9387,54.687500
9388,54.687500
9389,54.687500
9390,54.687500
9391,54.687500
9392,50.781250
9393,50.781250
9394,50.781250
9395,50.781250
9396,50.781250
9397,50.781250
9398,46.875000
9399,46.875000
9400,46.875000
9401,46.875000
9402,42.968750
9403,42.968750
9404,42.968750
9405,42.968750
9406,42.968750
9407,42.968750
9408,39.062500
9409,39.062500
9410,39.062500
9411,39.062500
9412,39.062500
9413,35.156250
9414,35.156250
9415,35.156250
9416,35.156250
9417,35.156250
9418,35.156250
9419,31.250000
9420,31.250000
9421,31.250000
9422,31.250000
9423,31.250000
9424,27.343750
9425,27.343750
9426,27.343750
9427,27.343750
9428,23.437500
9429,23.437500
9430,23.437500
9431,23.437500
9432,23.437500
9433,19.531250
9434,19.531250
9435,19.531250
9436,19.531250
9437,19.531250
9438,15.625000
9439,15.625000
9440,15.625000
9441,11.718750
9442,11.718750
9443,11.718750
9444,11.718750
9445,11.718750
9446,7.812500
9447,7.812500
9448,7.812500
9449,7.812500
9450,7.812500
9451,3.906250
9452,3.906250
9453,3.906250
9454,3.906250
9455,3.906250
9456,0.000000
9457,0.000000
9458,0.000000
9459,0.000000
9460,-3.906250
9461,-3.906250
9462,-3.906250
9463,-3.906250
9464,-3.906250
9465,-7.812500
9466,-7.812500
9467,-7.812500
9468,-7.812500
9469,-11.718750
9470,-11.718750
9471,-11.718750
9472,-11.718750
9473,-15.625000
9474,-15.625000
9475,-15.625000
9476,-15.625000
9477,-19.531250
9478,-19.531250
9479,-19.531250
9480,-19.531250
9481,-19.531250
9482,-23.437500
9483,-23.437500
9484,-23.437500
9485,-23.437500
9486,-27.343750
9487,-27.343750
9488,-27.343750
9489,-27.343750
9490,-27.343750
9491,-31.250000
9492,-31.250000
9493,-31.250000
9494,-31.250000
9495,-35.156250
9496,-35.156250
9497,-35.156250
9498,-35.156250
9499,-39.062500
9500,-39.062500
9501,-39.062500
9502,-39.062500
9503,-42.968750
9504,-42.968750
9505,-42.968750
9506,-42.968750
9507,-46.875000
9508,-46.875000
9509,-46.875000
9510,-46.875000
9511,-46.875000
9512,-50.781250
9513,-50.781250
9514,-50.781250
9515,-50.781250
9516,-54.687500
9517,-54.687500
9518,-54.687500
9519,-54.687500
9520,-54.687500
9521,-54.687500
9522,-58.593750
9523,-58.593750
9524,-58.593750
9525,-58.593750
9526,-62.500000
9527,-62.500000
9528,-62.500000
9529,-62.500000
9530,-66.406250
9531,-66.406250
9532,-66.406250
9533,-66.406250
9534,-66.406250
9535,-70.312500
9536,-70.312500
9537,-70.312500
9538,-70.312500
9539,-74.218750
9540,-74.218750
9541,-74.218750
9542,-74.218750
9543,-74.218750
9544,-74.218750
9545,-78.125000
9546,-78.125000
9547,-78.125000
9548,-78.125000
9549,-82.031250
9550,-82.031250
9551,-82.031250
9552,-82.031250
9553,-82.031250
9554,-85.937500
9555,-85.937500
9556,-85.937500
9557,-85.937500
9558,-89.843750
9559,-89.843750
9560,-89.843750
9561,-89.843750
9562,-89.843750
9563,-89.843750
9564,-93.750000
9565,-93.750000
9566,-93.750000
9567,-93.750000
9568,-97.656250
9569,-97.656250
9570,-97.656250
9571,-97.656250
9572,-97.656250
9573,-101.562500
9574,-101.562500
9575,-101.562500
9576,-101.562500
9577,-101.562500
9578,-105.468750
9579,-105.468750
9580,-105.468750
9581,-105.468750
9582,-105.468750
9583,-105.468750
9584,-109.375000
9585,-109.375000
9586,-109.375000
9587,-109.375000
9588,-109.375000
9589,-109.375000
9590,-113.281250
9591,-113.281250
9592,-113.281250
9593,-113.281250
9594,-113.281250
9595,-117.187500
9596,-117.187500
9597,-117.187500
9598,-117.187500
9599,-117.187500
9600,-117.187500
9601,-121.093750
9602,-121.093750
9603,-121.093750
9604,-121.093750
9605,-121.093750
9606,-121.093750
9607,-125.000000
9608,-125.000000
9609,-125.000000
9610,-125.000000
9611,-128.906250
9612,-125.000000
9613,-125.000000
9614,-128.906250
9615,-128.906250
9616,-128.906250
9617,-128.906250
9618,-128.906250
9619,-128.906250
9620,-132.812500
9621,-132.812500
9622,-132.812500
9623,-132.812500
9624,-132.812500
9625,-132.812500
9626,-132.812500
9627,-136.718750
9628,-136.718750
9629,-136.718750
9630,-136.718750
9631,-136.718750
9632,-136.718750
9633,-136.718750
9634,-136.718750
9635,-136.718750
9636,-140.625000
9637,-140.625000
9638,-140.625000
9639,-140.625000
9640,-140.625000
9641,-140.625000
9642,-140.625000
9643,-140.625000
9644,-144.531250
9645,-144.531250
9646,-144.531250
9647,-144.531250
9648,-144.531250
9649,-144.531250
9650,-144.531250
9651,-144.531250
9652,-144.531250
9653,-144.531250
9654,-148.437500
9655,-148.437500
9656,-148.437500
9657,-148.437500
9658,-148.437500
9659,-148.437500
9660,-148.437500
9661,-148.437500
9662,-148.437500
9663,-148.437500
9664,-148.437500
9665,-148.437500
9666,-152.343750
9667,-152.343750
9668,-148.437500
9669,-152.343750
9670,-152.343750
9671,-152.343750
9672,-152.343750
9673,-152.343750
9674,-152.343750
9675,-152.343750
9676,-152.343750
9677,-152.343750
9678,-152.343750
9679,-152.343750
9680,-152.343750
9681,-152.343750
9682,-152.343750
9683,-152.343750
9684,-156.250000
9685,-152.343750
9686,-152.343750
9687,-152.343750
9688,-156.250000
9689,-156.250000
9690,-156.250000
9691,-156.250000
9692,-156.250000
9693,-156.250000
9694,-156.250000
9695,-156.250000
9696,-156.250000
9697,-156.250000
9698,-156.250000
9699,-156.250000
9700,-156.250000
9701,-156.250000
9702,-156.250000
9703,-156.250000
9704,-156.250000
9705,-156.250000
9706,-156.250000
9707,-156.250000
9708,-156.250000
9709,-156.250000
9710,-156.250000
9711,-156.250000
9712,-156.250000
9713,-156.250000
9714,-156.250000
9715,-156.250000
9716,-156.250000
9717,-156.250000
9718,-156.250000
9719,-156.250000
9720,-156.250000
9721,-156.250000
9722,-156.250000
9723,-156.250000
9724,-156.250000
9725,-156.250000
9726,-156.250000
9727,-156.250000
9728,-156.250000
9729,-156.250000
9730,-156.250000
9731,-156.250000
9732,-156.250000
9733,-156.250000
9734,-156.250000
9735,-156.250000
9736,-156.250000
9737,-156.250000
9738,-156.250000
9739,-152.343750
9740,-152.343750
9741,-156.250000
9742,-152.343750
9743,-152.343750
9744,-152.343750
9745,-152.343750
9746,-152.343750
9747,-152.343750
9748,-152.343750
9749,-152.343750
9750,-152.343750
9751,-152.343750
9752,-152.343750
9753,-152.343750
9754,-152.343750
9755,-152.343750
9756,-152.343750
9757,-148.437500
9758,-148.437500
9759,-152.343750
9760,-152.343750
9761,-148.437500
9762,-148.437500
9763,-148.437500
9764,-148.437500
9765,-148.437500
9766,-148.437500
9767,-148.437500
9768,-148.437500
9769,-148.437500
9770,-148.437500
9771,-148.437500
9772,-144.531250
9773,-144.531250
9774,-144.531250
9775,-144.531250
9776,-144.531250
9777,-144.531250
9778,-144.531250
9779,-144.531250
9780,-144.531250
9781,-144.531250
9782,-140.625000
9783,-140.625000
9784,-140.625000
9785,-140.625000
9786,-140.625000
9787,-140.625000
9788,-140.625000
9789,-136.718750
9790,-136.718750
9791,-136.718750
9792,-136.718750
9793,-136.718750
9794,-136.718750
9795,-136.718750
9796,-136.718750
9797,-136.718750
9798,-132.812500
9799,-132.812500
9800,-132.812500
9801,-132.812500
9802,-132.812500
9803,-132.812500
9804,-132.812500
9805,-128.906250
9806,-128.906250
9807,-128.906250
9808,-128.906250
9809,-128.906250
9810,-128.906250
9811,-128.906250
9812,-125.000000
9813,-125.000000
9814,-125.000000
9815,-125.000000
9816,-125.000000
9817,-125.000000
9818,-121.093750
9819,-121.093750
9820,-121.093750
9821,-121.093750
9822,-121.093750
9823,-121.093750
9824,-121.093750
9825,-121.093750
9826,-117.187500
9827,-117.187500
9828,-117.187500
9829,-117.187500
9830,-113.281250
9831,-113.281250
9832,-113.281250
9833,-113.281250
9834,-113.281250
9835,-113.281250
9836,-113.281250
9837,-113.281250
9838,-109.375000
9839,-109.375000
9840,-109.375000
9841,-109.375000
9842,-109.375000
9843,-105.468750
9844,-105.468750
9845,-105.468750
9846,-105.468750
9847,-105.468750
9848,-105.468750
9849,-101.562500
9850,-101.562500
9851,-101.562500
9852,-101.562500
9853,-101.562500
9854,-97.656250
9855,-97.656250
9856,-97.656250
9857,-97.656250
9858,-97.656250
9859,-93.750000
9860,-93.750000
9861,-93.750000
9862,-93.750000
9863,-93.750000
9864,-89.843750
9865,-89.843750
9866,-89.843750
9867,-89.843750
9868,-89.843750
9869,-89.843750
9870,-85.937500
9871,-85.937500
9872,-85.937500
9873,-85.937500
9874,-82.031250
9875,-82.031250
9876,-82.031250
9877,-82.031250
9878,-82.031250
9879,-78.125000
9880,-78.125000
9881,-78.125000
9882,-78.125000
9883,-74.218750
9884,-74.218750
9885,-74.218750
9886,-74.218750
9887,-74.218750
9888,-74.218750
9889,-70.312500
9890,-70.312500
9891,-70.312500
9892,-66.406250
9893,-66.406250
9894,-66.406250
9895,-66.406250
9896,-66.406250
9897,-66.406250
9898,-62.500000
9899,-62.500000
9900,-62.500000
9901,-62.500000
9902,-62.500000
9903,-58.593750
9904,-58.593750
9905,-58.593750
9906,-54.687500
9907,-54.687500
9908,-54.687500
9909,-54.687500
9910,-54.687500
9911,-54.687500
9912,-50.781250
9913,-50.781250
9914,-50.781250
9915,-50.781250
9916,-46.875000
9917,-46.875000
9918,-46.875000
9919,-46.875000
9920,-42.968750
9921,-42.968750
9922,-42.968750
9923,-42.968750
9924,-42.968750
9925,-39.062500
9926,-39.062500
9927,-39.062500
9928,-39.062500
9929,-35.156250
9930,-35.156250
9931,-35.156250
9932,-35.156250
9933,-35.156250
9934,-31.250000
9935,-31.250000
9936,-31.250000
9937,-27.343750
9938,-27.343750
9939,-27.343750
9940,-27.343750
9941,-27.343750
9942,-23.437500
9943,-23.437500
9944,-23.437500
9945,-23.437500
9946,-23.437500
9947,-19.531250
9948,-19.531250
9949,-19.531250
9950,-15.625000
9951,-15.625000
9952,-15.625000
9953,-15.625000
9954,-15.625000
9955,-15.625000
9956,-11.718750
9957,-11.718750
9958,-11.718750
9959,-11.718750
9960,-11.718750
9961,-7.812500
9962,-7.812500
9963,-7.812500
9964,-7.812500
9965,-3.906250
9966,-3.906250
9967,-3.906250
9968,-3.906250
9969,-3.906250
9970,0.000000
9971,0.000000
9972,3.906250
9973,0.000000
9974,3.906250
9975,3.906250
9976,3.906250
9977,3.906250
9978,3.906250
9979,3.906250
9980,7.812500
9981,7.812500
9982,7.812500
9983,11.718750
9984,7.812500
9985,11.718750
9986,11.718750
9987,11.718750
9988,15.625000
9989,15.625000
9990,15.625000
9991,15.625000
9992,15.625000
9993,15.625000
9994,19.531250
9995,19.531250
9996,19.531250
9997,19.531250
9998,23.437500
9999,23.437500
10000,23.437500
