Channel              :,CH1
Frequency            :,1.010kHz
Period               :,0.990ms
PK-PK                :,218.8mV
Probe attenuation    :,1X
Voltage per ADC value:,0.244141mV
Time interval        :,1.00000us

index,CH1_Voltage(mV)
1,-58.593750
2,-58.593750
3,-58.593750
4,-58.593750
5,-54.687500
6,-54.687500
7,-54.687500
8,-54.687500
9,-54.687500
10,-54.687500
11,-50.781250
12,-50.781250
13,-50.781250
14,-50.781250
15,-50.781250
16,-50.781250
17,-46.875000
18,-46.875000
19,-46.875000
20,-46.875000
21,-46.875000
22,-46.875000
23,-42.968750
24,-42.968750
25,-42.968750
26,-42.968750
27,-42.968750
28,-39.062500
29,-39.062500
30,-39.062500
31,-39.062500
32,-39.062500
33,-39.062500
34,-39.062500
35,-35.156250
36,-35.156250
37,-35.156250
38,-31.250000
39,-35.156250
40,-31.250000
41,-31.250000
42,-31.250000
43,-31.250000
44,-31.250000
45,-31.250000
46,-27.343750
47,-27.343750
48,-27.343750
49,-27.343750
50,-23.437500
51,-23.437500
52,-23.437500
53,-23.437500
54,-23.437500
55,-23.437500
56,-19.531250
57,-19.531250
58,-19.531250
59,-19.531250
60,-19.531250
61,-19.531250
62,-15.625000
63,-15.625000
64,-15.625000
65,-15.625000
66,-15.625000
67,-11.718750
68,-11.718750
69,-11.718750
70,-11.718750
71,-11.718750
72,-11.718750
73,-7.812500
74,-7.812500
75,-7.812500
76,-7.812500
77,-7.812500
78,-3.906250
79,-3.906250
80,-3.906250
81,-3.906250
82,-3.906250
83,-3.906250
84,-3.906250
85,0.000000
86,0.000000
87,0.000000
88,0.000000
89,0.000000
90,0.000000
91,3.906250
92,3.906250
93,3.906250
94,3.906250
95,3.906250
96,7.812500
97,7.812500
98,7.812500
99,7.812500
100,7.812500
101,7.812500
102,11.718750
103,11.718750
104,11.718750
105,11.718750
106,11.718750
107,11.718750
108,15.625000
109,15.625000
110,15.625000
111,15.625000
112,15.625000
113,15.625000
114,15.625000
115,19.531250
116,19.531250
117,19.531250
118,19.531250
119,19.531250
120,23.437500
121,23.437500
122,23.437500
123,23.437500
124,23.437500
125,23.437500
126,23.437500
127,27.343750
128,27.343750
129,27.343750
130,27.343750
131,27.343750
132,27.343750
133,27.343750
134,31.250000
135,31.250000
136,31.250000
137,31.250000
138,31.250000
139,35.156250
140,35.156250
141,35.156250
142,35.156250
143,35.156250
144,35.156250
145,35.156250
146,39.062500
147,39.062500
148,39.062500
149,39.062500
150,39.062500
151,39.062500
152,39.062500
153,39.062500
154,42.968750
155,42.968750
156,42.968750
157,42.968750
158,42.968750
159,46.875000
160,46.875000
161,46.875000
162,46.875000
163,46.875000
164,46.875000
165,46.875000
166,46.875000
167,50.781250
168,50.781250
169,50.781250
170,50.781250
171,50.781250
172,50.781250
173,50.781250
174,50.781250
175,54.687500
176,54.687500
177,54.687500
178,54.687500
179,54.687500
180,54.687500
181,54.687500
182,54.687500
183,58.593750
184,58.593750
185,58.593750
186,58.593750
187,58.593750
188,62.500000
189,58.593750
190,62.500000
191,62.500000
192,62.500000
193,62.500000
194,62.500000
195,62.500000
196,62.500000
197,62.500000
198,66.406250
199,66.406250
200,66.406250
201,66.406250
202,66.406250
203,66.406250
204,66.406250
205,66.406250
206,66.406250
207,66.406250
208,66.406250
209,70.312500
210,70.312500
211,70.312500
212,70.312500
213,70.312500
214,70.312500
215,70.312500
216,70.312500
217,70.312500
218,70.312500
219,70.312500
220,74.218750
221,74.218750
222,74.218750
223,74.218750
224,74.218750
225,74.218750
226,74.218750
227,74.218750
228,78.125000
229,78.125000
230,78.125000
231,78.125000
232,78.125000
233,78.125000
234,78.125000
235,78.125000
236,78.125000
237,78.125000
238,78.125000
239,78.125000
240,78.125000
241,78.125000
242,78.125000
243,78.125000
244,82.031250
245,82.031250
246,82.031250
247,82.031250
248,82.031250
249,82.031250
250,82.031250
251,82.031250
252,82.031250
253,82.031250
254,82.031250
255,82.031250
256,85.937500
257,85.937500
258,85.937500
259,85.937500
260,85.937500
261,85.937500
262,82.031250
263,85.937500
264,85.937500
265,85.937500
266,85.937500
267,85.937500
268,85.937500
269,85.937500
270,85.937500
271,85.937500
272,85.937500
273,85.937500
274,85.937500
275,89.843750
276,89.843750
277,89.843750
278,89.843750
279,89.843750
280,89.843750
281,89.843750
282,89.843750
283,89.843750
284,89.843750
285,89.843750
286,89.843750
287,89.843750
288,89.843750
289,89.843750
290,89.843750
291,89.843750
292,89.843750
293,89.843750
294,89.843750
295,89.843750
296,89.843750
297,89.843750
298,89.843750
299,89.843750
300,89.843750
301,89.843750
302,89.843750
303,89.843750
304,89.843750
305,89.843750
306,93.750000
307,93.750000
308,89.843750
309,93.750000
310,93.750000
311,89.843750
312,93.750000
313,89.843750
314,93.750000
315,93.750000
316,89.843750
317,93.750000
318,93.750000
319,89.843750
320,89.843750
321,89.843750
322,93.750000
323,89.843750
324,93.750000
325,93.750000
326,93.750000
327,93.750000
328,93.750000
329,93.750000
330,89.843750
331,89.843750
332,89.843750
333,89.843750
334,93.750000
335,93.750000
336,93.750000
337,89.843750
338,93.750000
339,89.843750
340,89.843750
341,89.843750
342,89.843750
343,89.843750
344,89.843750
345,89.843750
346,89.843750
347,89.843750
348,89.843750
349,89.843750
350,89.843750
351,89.843750
352,89.843750
353,89.843750
354,89.843750
355,89.843750
356,89.843750
357,89.843750
358,89.843750
359,89.843750
360,89.843750
361,89.843750
362,89.843750
363,89.843750
364,89.843750
365,89.843750
366,89.843750
367,89.843750
368,89.843750
369,85.937500
370,85.937500
371,85.937500
372,85.937500
373,85.937500
374,85.937500
375,85.937500
376,85.937500
377,85.937500
378,85.937500
379,85.937500
380,85.937500
381,85.937500
382,85.937500
383,85.937500
384,85.937500
385,85.937500
386,85.937500
387,85.937500
388,85.937500
389,82.031250
390,82.031250
391,82.031250
392,82.031250
393,82.031250
394,82.031250
395,82.031250
396,82.031250
397,82.031250
398,82.031250
399,82.031250
400,82.031250
401,82.031250
402,78.125000
403,78.125000
404,78.125000
405,78.125000
406,82.031250
407,78.125000
408,78.125000
409,78.125000
410,78.125000
411,78.125000
412,78.125000
413,78.125000
414,78.125000
415,78.125000
416,78.125000
417,74.218750
418,74.218750
419,74.218750
420,74.218750
421,74.218750
422,74.218750
423,74.218750
424,74.218750
425,74.218750
426,74.218750
427,70.312500
428,70.312500
429,70.312500
430,70.312500
431,70.312500
432,70.312500
433,70.312500
434,70.312500
435,70.312500
436,70.312500
437,70.312500
438,70.312500
439,66.406250
440,66.406250
441,66.406250
442,66.406250
443,66.406250
444,66.406250
445,66.406250
446,66.406250
447,66.406250
448,62.500000
449,62.500000
450,62.500000
451,62.500000
452,62.500000
453,62.500000
454,62.500000
455,62.500000
456,62.500000
457,58.593750
458,58.593750
459,58.593750
460,58.593750
461,58.593750
462,58.593750
463,54.687500
464,54.687500
465,54.687500
466,54.687500
467,54.687500
468,54.687500
469,54.687500
470,54.687500
471,50.781250
472,50.781250
473,50.781250
474,50.781250
475,50.781250
476,50.781250
477,50.781250
478,50.781250
479,46.875000
480,46.875000
481,46.875000
482,46.875000
483,46.875000
484,46.875000
485,46.875000
486,42.968750
487,42.968750
488,42.968750
489,42.968750
490,42.968750
491,42.968750
492,42.968750
493,39.062500
494,39.062500
495,39.062500
496,39.062500
497,39.062500
498,39.062500
499,39.062500
500,35.156250
501,35.156250
502,35.156250
503,35.156250
504,35.156250
505,35.156250
506,31.250000
507,31.250000
508,31.250000
509,31.250000
510,31.250000
511,27.343750
512,27.343750
513,27.343750
514,27.343750
515,27.343750
516,27.343750
517,27.343750
518,27.343750
519,23.437500
520,23.437500
521,23.437500
522,23.437500
523,23.437500
524,23.437500
525,19.531250
526,19.531250
527,19.531250
528,19.531250
529,19.531250
530,15.625000
531,15.625000
532,15.625000
533,15.625000
534,15.625000
535,15.625000
536,15.625000
537,11.718750
538,11.718750
539,11.718750
540,11.718750
541,11.718750
542,11.718750
543,7.812500
544,7.812500
545,7.812500
546,7.812500
547,7.812500
548,7.812500
549,3.906250
550,3.906250
551,3.906250
552,3.906250
553,3.906250
554,3.906250
555,0.000000
556,0.000000
557,0.000000
558,0.000000
559,-3.906250
560,-3.906250
561,-3.906250
562,-3.906250
563,-3.906250
564,-3.906250
565,-3.906250
566,-7.812500
567,-7.812500
568,-7.812500
569,-7.812500
570,-7.812500
571,-11.718750
572,-11.718750
573,-11.718750
574,-11.718750
575,-11.718750
576,-11.718750
577,-11.718750
578,-15.625000
579,-15.625000
580,-15.625000
581,-15.625000
582,-15.625000
583,-19.531250
584,-19.531250
585,-19.531250
586,-19.531250
587,-19.531250
588,-23.437500
589,-23.437500
590,-23.437500
591,-23.437500
592,-23.437500
593,-23.437500
594,-27.343750
595,-27.343750
596,-27.343750
597,-27.343750
598,-27.343750
599,-31.250000
600,-31.250000
601,-31.250000
602,-31.250000
603,-31.250000
604,-31.250000
605,-31.250000
606,-35.156250
607,-35.156250
608,-35.156250
609,-35.156250
610,-39.062500
611,-39.062500
612,-39.062500
613,-39.062500
614,-39.062500
615,-39.062500
616,-42.968750
617,-42.968750
618,-42.968750
619,-42.968750
620,-42.968750
621,-46.875000
622,-46.875000
623,-46.875000
624,-46.875000
625,-46.875000
626,-46.875000
627,-46.875000
628,-50.781250
629,-50.781250
630,-50.781250
631,-50.781250
632,-50.781250
633,-54.687500
634,-54.687500
635,-54.687500
636,-54.687500
637,-54.687500
638,-54.687500
639,-58.593750
640,-58.593750
641,-58.593750
642,-58.593750
643,-58.593750
644,-58.593750
645,-62.500000
646,-62.500000
647,-62.500000
648,-62.500000
649,-62.500000
650,-66.406250
651,-66.406250
652,-66.406250
653,-66.406250
654,-66.406250
655,-66.406250
656,-66.406250
657,-70.312500
658,-70.312500
659,-70.312500
660,-70.312500
661,-70.312500
662,-74.218750
663,-74.218750
664,-74.218750
665,-74.218750
666,-74.218750
667,-74.218750
668,-74.218750
669,-78.125000
670,-78.125000
671,-78.125000
672,-78.125000
673,-78.125000
674,-78.125000
675,-78.125000
676,-82.031250
677,-82.031250
678,-82.031250
679,-82.031250
680,-82.031250
681,-82.031250
682,-85.937500
683,-85.937500
684,-85.937500
685,-85.937500
686,-85.937500
687,-85.937500
688,-89.843750
689,-89.843750
690,-89.843750
691,-89.843750
692,-89.843750
693,-89.843750
694,-89.843750
695,-93.750000
696,-89.843750
697,-89.843750
698,-93.750000
699,-93.750000
700,-93.750000
701,-93.750000
702,-93.750000
703,-93.750000
704,-93.750000
705,-97.656250
706,-97.656250
707,-97.656250
708,-97.656250
709,-97.656250
710,-97.656250
711,-97.656250
712,-97.656250
713,-97.656250
714,-101.562500
715,-101.562500
716,-101.562500
717,-101.562500
718,-101.562500
719,-101.562500
720,-101.562500
721,-101.562500
722,-105.468750
723,-105.468750
724,-105.468750
725,-105.468750
726,-105.468750
727,-105.468750
728,-105.468750
729,-105.468750
730,-105.468750
731,-109.375000
732,-109.375000
733,-109.375000
734,-109.375000
735,-109.375000
736,-109.375000
737,-109.375000
738,-109.375000
739,-109.375000
740,-113.281250
741,-109.375000
742,-113.281250
743,-113.281250
744,-113.281250
745,-113.281250
746,-113.281250
747,-113.281250
748,-113.281250
749,-113.281250
750,-113.281250
751,-113.281250
752,-113.281250
753,-117.187500
754,-117.187500
755,-117.187500
756,-113.281250
757,-117.187500
758,-117.187500
759,-117.187500
760,-117.187500
761,-117.187500
762,-117.187500
763,-117.187500
764,-117.187500
765,-121.093750
766,-117.187500
767,-117.187500
768,-121.093750
769,-121.093750
770,-121.093750
771,-121.093750
772,-121.093750
773,-121.093750
774,-121.093750
775,-121.093750
776,-121.093750
777,-121.093750
778,-121.093750
779,-121.093750
780,-121.093750
781,-121.093750
782,-121.093750
783,-121.093750
784,-121.093750
785,-121.093750
786,-121.093750
787,-125.000000
788,-125.000000
789,-125.000000
790,-125.000000
791,-125.000000
792,-125.000000
793,-125.000000
794,-125.000000
795,-125.000000
796,-125.000000
797,-125.000000
798,-125.000000
799,-125.000000
800,-125.000000
801,-125.000000
802,-125.000000
803,-125.000000
804,-125.000000
805,-125.000000
806,-125.000000
807,-125.000000
808,-125.000000
809,-125.000000
810,-125.000000
811,-125.000000
812,-125.000000
813,-125.000000
814,-125.000000
815,-125.000000
816,-125.000000
817,-125.000000
818,-125.000000
819,-125.000000
820,-125.000000
821,-125.000000
822,-125.000000
823,-125.000000
824,-125.000000
825,-125.000000
826,-125.000000
827,-125.000000
828,-125.000000
829,-125.000000
830,-125.000000
831,-125.000000
832,-125.000000
833,-125.000000
834,-125.000000
835,-125.000000
836,-121.093750
837,-125.000000
838,-125.000000
839,-125.000000
840,-121.093750
841,-121.093750
842,-121.093750
843,-121.093750
844,-121.093750
845,-121.093750
846,-121.093750
847,-121.093750
848,-121.093750
849,-121.093750
850,-121.093750
851,-121.093750
852,-121.093750
853,-121.093750
854,-121.093750
855,-121.093750
856,-121.093750
857,-121.093750
858,-121.093750
859,-121.093750
860,-117.187500
861,-121.093750
862,-117.187500
863,-117.187500
864,-117.187500
865,-117.187500
866,-117.187500
867,-117.187500
868,-117.187500
869,-117.187500
870,-117.187500
871,-117.187500
872,-117.187500
873,-117.187500
874,-117.187500
875,-117.187500
876,-117.187500
877,-117.187500
878,-113.281250
879,-113.281250
880,-113.281250
881,-113.281250
882,-113.281250
883,-113.281250
884,-113.281250
885,-113.281250
886,-113.281250
887,-113.281250
888,-113.281250
889,-113.281250
890,-113.281250
891,-109.375000
892,-109.375000
893,-109.375000
894,-109.375000
895,-109.375000
896,-109.375000
897,-109.375000
898,-109.375000
899,-109.375000
900,-109.375000
901,-105.468750
902,-105.468750
903,-105.468750
904,-105.468750
905,-105.468750
906,-105.468750
907,-105.468750
908,-105.468750
909,-105.468750
910,-105.468750
911,-105.468750
912,-101.562500
913,-101.562500
914,-101.562500
915,-101.562500
916,-101.562500
917,-101.562500
918,-101.562500
919,-97.656250
920,-101.562500
921,-97.656250
922,-97.656250
923,-97.656250
924,-97.656250
925,-97.656250
926,-97.656250
927,-93.750000
928,-93.750000
929,-93.750000
930,-93.750000
931,-93.750000
932,-93.750000
933,-93.750000
934,-93.750000
935,-89.843750
936,-89.843750
937,-89.843750
938,-89.843750
939,-89.843750
940,-89.843750
941,-89.843750
942,-89.843750
943,-85.937500
944,-85.937500
945,-85.937500
946,-85.937500
947,-85.937500
948,-85.937500
949,-82.031250
950,-82.031250
951,-82.031250
952,-82.031250
953,-82.031250
954,-82.031250
955,-82.031250
956,-78.125000
957,-78.125000
958,-78.125000
959,-78.125000
960,-78.125000
961,-78.125000
962,-78.125000
963,-74.218750
964,-74.218750
965,-74.218750
966,-74.218750
967,-74.218750
968,-74.218750
969,-70.312500
970,-70.312500
971,-70.312500
972,-70.312500
973,-70.312500
974,-70.312500
975,-66.406250
976,-66.406250
977,-66.406250
978,-66.406250
979,-66.406250
980,-66.406250
981,-62.500000
982,-62.500000
983,-62.500000
984,-62.500000
985,-62.500000
986,-62.500000
987,-58.593750
988,-58.593750
989,-58.593750
990,-58.593750
991,-58.593750
992,-58.593750
993,-54.687500
994,-54.687500
995,-54.687500
996,-54.687500
997,-54.687500
998,-54.687500
999,-54.687500
1000,-50.781250
1001,-50.781250
1002,-50.781250
1003,-50.781250
1004,-50.781250
1005,-46.875000
1006,-46.875000
1007,-46.875000
1008,-46.875000
1009,-46.875000
1010,-46.875000
1011,-42.968750
1012,-42.968750
1013,-42.968750
1014,-42.968750
1015,-42.968750
1016,-39.062500
1017,-39.062500
1018,-39.062500
1019,-39.062500
1020,-39.062500
1021,-39.062500
1022,-39.062500
1023,-35.156250
1024,-35.156250
1025,-35.156250
1026,-35.156250
1027,-31.250000
1028,-31.250000
1029,-31.250000
1030,-31.250000
1031,-31.250000
1032,-31.250000
1033,-27.343750
1034,-27.343750
1035,-27.343750
1036,-27.343750
1037,-27.343750
1038,-27.343750
1039,-27.343750
1040,-23.437500
1041,-23.437500
1042,-23.437500
1043,-23.437500
1044,-23.437500
1045,-19.531250
1046,-19.531250
1047,-19.531250
1048,-19.531250
1049,-19.531250
1050,-19.531250
1051,-15.625000
1052,-15.625000
1053,-15.625000
1054,-15.625000
1055,-15.625000
1056,-11.718750
1057,-11.718750
1058,-11.718750
1059,-11.718750
1060,-11.718750
1061,-11.718750
1062,-11.718750
1063,-7.812500
1064,-7.812500
1065,-7.812500
1066,-7.812500
1067,-3.906250
1068,-7.812500
1069,-3.906250
1070,-3.906250
1071,-3.906250
1072,-3.906250
1073,-3.906250
1074,0.000000
1075,0.000000
1076,0.000000
1077,0.000000
1078,0.000000
1079,3.906250
1080,3.906250
1081,3.906250
1082,3.906250
1083,3.906250
1084,3.906250
1085,3.906250
1086,7.812500
1087,7.812500
1088,7.812500
1089,7.812500
1090,7.812500
1091,11.718750
1092,11.718750
1093,11.718750
1094,11.718750
1095,11.718750
1096,15.625000
1097,15.625000
1098,15.625000
1099,15.625000
1100,15.625000
1101,15.625000
1102,19.531250
1103,19.531250
1104,19.531250
1105,19.531250
1106,19.531250
1107,19.531250
1108,19.531250
1109,23.437500
1110,23.437500
1111,23.437500
1112,23.437500
1113,23.437500
1114,23.437500
1115,27.343750
1116,27.343750
1117,27.343750
1118,27.343750
1119,27.343750
1120,27.343750
1121,27.343750
1122,31.250000
1123,31.250000
1124,31.250000
1125,31.250000
1126,31.250000
1127,31.250000
1128,31.250000
1129,35.156250
1130,35.156250
1131,35.156250
1132,35.156250
1133,35.156250
1134,39.062500
1135,39.062500
1136,39.062500
1137,39.062500
1138,39.062500
1139,39.062500
1140,39.062500
1141,39.062500
1142,39.062500
1143,42.968750
1144,42.968750
1145,42.968750
1146,42.968750
1147,42.968750
1148,42.968750
1149,42.968750
1150,46.875000
1151,46.875000
1152,46.875000
1153,46.875000
1154,46.875000
1155,46.875000
1156,50.781250
1157,50.781250
1158,50.781250
1159,50.781250
1160,50.781250
1161,50.781250
1162,50.781250
1163,50.781250
1164,54.687500
1165,54.687500
1166,54.687500
1167,54.687500
1168,54.687500
1169,54.687500
1170,54.687500
1171,54.687500
1172,54.687500
1173,54.687500
1174,58.593750
1175,58.593750
1176,58.593750
1177,58.593750
1178,58.593750
1179,58.593750
1180,58.593750
1181,62.500000
1182,62.500000
1183,62.500000
1184,62.500000
1185,62.500000
1186,62.500000
1187,62.500000
1188,62.500000
1189,62.500000
1190,66.406250
1191,66.406250
1192,66.406250
1193,66.406250
1194,66.406250
1195,66.406250
1196,66.406250
1197,66.406250
1198,66.406250
1199,70.312500
1200,70.312500
1201,70.312500
1202,70.312500
1203,70.312500
1204,70.312500
1205,70.312500
1206,70.312500
1207,70.312500
1208,74.218750
1209,74.218750
1210,74.218750
1211,74.218750
1212,74.218750
1213,74.218750
1214,74.218750
1215,74.218750
1216,74.218750
1217,74.218750
1218,78.125000
1219,78.125000
1220,78.125000
1221,78.125000
1222,78.125000
1223,78.125000
1224,78.125000
1225,78.125000
1226,78.125000
1227,78.125000
1228,78.125000
1229,78.125000
1230,78.125000
1231,78.125000
1232,82.031250
1233,82.031250
1234,82.031250
1235,82.031250
1236,82.031250
1237,82.031250
1238,82.031250
1239,82.031250
1240,82.031250
1241,82.031250
1242,82.031250
1243,82.031250
1244,85.937500
1245,82.031250
1246,85.937500
1247,85.937500
1248,85.937500
1249,85.937500
1250,85.937500
1251,85.937500
1252,85.937500
1253,85.937500
1254,85.937500
1255,85.937500
1256,85.937500
1257,85.937500
1258,85.937500
1259,85.937500
1260,85.937500
1261,85.937500
1262,85.937500
1263,85.937500
1264,89.843750
1265,85.937500
1266,89.843750
1267,89.843750
1268,89.843750
1269,89.843750
1270,89.843750
1271,89.843750
1272,89.843750
1273,89.843750
1274,89.843750
1275,89.843750
1276,89.843750
1277,89.843750
1278,89.843750
1279,89.843750
1280,89.843750
1281,89.843750
1282,89.843750
1283,89.843750
1284,89.843750
1285,89.843750
1286,89.843750
1287,89.843750
1288,89.843750
1289,89.843750
1290,89.843750
1291,89.843750
1292,89.843750
1293,89.843750
1294,89.843750
1295,89.843750
1296,89.843750
1297,93.750000
1298,89.843750
1299,89.843750
1300,93.750000
1301,93.750000
1302,89.843750
1303,93.750000
1304,89.843750
1305,93.750000
1306,93.750000
1307,93.750000
1308,89.843750
1309,93.750000
1310,89.843750
1311,93.750000
1312,93.750000
1313,93.750000
1314,93.750000
1315,93.750000
1316,93.750000
1317,89.843750
1318,89.843750
1319,93.750000
1320,89.843750
1321,89.843750
1322,89.843750
1323,93.750000
1324,89.843750
1325,89.843750
1326,93.750000
1327,93.750000
1328,89.843750
1329,89.843750
1330,89.843750
1331,89.843750
1332,89.843750
1333,89.843750
1334,89.843750
1335,89.843750
1336,89.843750
1337,89.843750
1338,89.843750
1339,89.843750
1340,89.843750
1341,89.843750
1342,89.843750
1343,89.843750
1344,89.843750
1345,89.843750
1346,89.843750
1347,89.843750
1348,89.843750
1349,89.843750
1350,89.843750
1351,89.843750
1352,89.843750
1353,89.843750
1354,89.843750
1355,89.843750
1356,89.843750
1357,89.843750
1358,89.843750
1359,89.843750
1360,85.937500
1361,85.937500
1362,85.937500
1363,85.937500
1364,85.937500
1365,85.937500
1366,85.937500
1367,85.937500
1368,85.937500
1369,85.937500
1370,85.937500
1371,85.937500
1372,85.937500
1373,85.937500
1374,85.937500
1375,85.937500
1376,85.937500
1377,85.937500
1378,85.937500
1379,82.031250
1380,82.031250
1381,82.031250
1382,82.031250
1383,82.031250
1384,82.031250
1385,82.031250
1386,82.031250
1387,82.031250
1388,82.031250
1389,82.031250
1390,82.031250
1391,82.031250
1392,82.031250
1393,82.031250
1394,78.125000
1395,78.125000
1396,78.125000
1397,78.125000
1398,78.125000
1399,78.125000
1400,78.125000
1401,78.125000
1402,78.125000
1403,78.125000
1404,78.125000
1405,74.218750
1406,74.218750
1407,74.218750
1408,74.218750
1409,74.218750
1410,74.218750
1411,74.218750
1412,74.218750
1413,74.218750
1414,74.218750
1415,74.218750
1416,70.312500
1417,70.312500
1418,70.312500
1419,70.312500
1420,70.312500
1421,70.312500
1422,70.312500
1423,70.312500
1424,70.312500
1425,70.312500
1426,70.312500
1427,66.406250
1428,66.406250
1429,66.406250
1430,66.406250
1431,66.406250
1432,66.406250
1433,66.406250
1434,66.406250
1435,66.406250
1436,62.500000
1437,62.500000
1438,62.500000
1439,62.500000
1440,62.500000
1441,62.500000
1442,62.500000
1443,62.500000
1444,62.500000
1445,58.593750
1446,58.593750
1447,58.593750
1448,58.593750
1449,58.593750
1450,58.593750
1451,58.593750
1452,58.593750
1453,58.593750
1454,54.687500
1455,54.687500
1456,54.687500
1457,54.687500
1458,54.687500
1459,54.687500
1460,54.687500
1461,50.781250
1462,50.781250
1463,50.781250
1464,50.781250
1465,50.781250
1466,50.781250
1467,50.781250
1468,50.781250
1469,46.875000
1470,46.875000
1471,46.875000
1472,46.875000
1473,46.875000
1474,46.875000
1475,46.875000
1476,42.968750
1477,42.968750
1478,42.968750
1479,42.968750
1480,42.968750
1481,42.968750
1482,42.968750
1483,39.062500
1484,39.062500
1485,39.062500
1486,39.062500
1487,39.062500
1488,39.062500
1489,35.156250
1490,35.156250
1491,35.156250
1492,35.156250
1493,35.156250
1494,35.156250
1495,35.156250
1496,35.156250
1497,31.250000
1498,31.250000
1499,31.250000
1500,31.250000
1501,31.250000
1502,31.250000
1503,27.343750
1504,27.343750
1505,27.343750
1506,27.343750
1507,27.343750
1508,23.437500
1509,23.437500
1510,23.437500
1511,23.437500
1512,23.437500
1513,23.437500
1514,19.531250
1515,19.531250
1516,19.531250
1517,19.531250
1518,19.531250
1519,19.531250
1520,15.625000
1521,15.625000
1522,15.625000
1523,15.625000
1524,15.625000
1525,11.718750
1526,11.718750
1527,11.718750
1528,11.718750
1529,11.718750
1530,11.718750
1531,7.812500
1532,7.812500
1533,7.812500
1534,7.812500
1535,7.812500
1536,7.812500
1537,3.906250
1538,3.906250
1539,3.906250
1540,3.906250
1541,3.906250
1542,3.906250
1543,0.000000
1544,0.000000
1545,0.000000
1546,0.000000
1547,0.000000
1548,-3.906250
1549,-3.906250
1550,-3.906250
1551,-3.906250
1552,-3.906250
1553,-3.906250
1554,-7.812500
1555,-7.812500
1556,-7.812500
1557,-7.812500
1558,-7.812500
1559,-7.812500
1560,-11.718750
1561,-11.718750
1562,-11.718750
1563,-11.718750
1564,-11.718750
1565,-11.718750
1566,-15.625000
1567,-15.625000
1568,-15.625000
1569,-15.625000
1570,-19.531250
1571,-19.531250
1572,-19.531250
1573,-19.531250
1574,-19.531250
1575,-19.531250
1576,-19.531250
1577,-23.437500
1578,-23.437500
1579,-23.437500
1580,-23.437500
1581,-23.437500
1582,-27.343750
1583,-27.343750
1584,-27.343750
1585,-27.343750
1586,-27.343750
1587,-31.250000
1588,-31.250000
1589,-31.250000
1590,-31.250000
1591,-31.250000
1592,-31.250000
1593,-31.250000
1594,-35.156250
1595,-35.156250
1596,-35.156250
1597,-35.156250
1598,-35.156250
1599,-39.062500
1600,-39.062500
1601,-39.062500
1602,-39.062500
1603,-39.062500
1604,-39.062500
1605,-42.968750
1606,-42.968750
1607,-42.968750
1608,-42.968750
1609,-42.968750
1610,-42.968750
1611,-46.875000
1612,-46.875000
1613,-46.875000
1614,-46.875000
1615,-46.875000
1616,-50.781250
1617,-50.781250
1618,-50.781250
1619,-50.781250
1620,-50.781250
1621,-50.781250
1622,-50.781250
1623,-54.687500
1624,-54.687500
1625,-54.687500
1626,-54.687500
1627,-54.687500
1628,-58.593750
1629,-58.593750
1630,-58.593750
1631,-58.593750
1632,-58.593750
1633,-58.593750
1634,-58.593750
1635,-62.500000
1636,-62.500000
1637,-62.500000
1638,-62.500000
1639,-66.406250
1640,-66.406250
1641,-66.406250
1642,-66.406250
1643,-66.406250
1644,-66.406250
1645,-66.406250
1646,-70.312500
1647,-70.312500
1648,-70.312500
1649,-70.312500
1650,-70.312500
1651,-70.312500
1652,-74.218750
1653,-74.218750
1654,-74.218750
1655,-74.218750
1656,-74.218750
1657,-74.218750
1658,-78.125000
1659,-78.125000
1660,-78.125000
1661,-78.125000
1662,-78.125000
1663,-78.125000
1664,-78.125000
1665,-82.031250
1666,-82.031250
1667,-82.031250
1668,-82.031250
1669,-82.031250
1670,-82.031250
1671,-85.937500
1672,-82.031250
1673,-85.937500
1674,-85.937500
1675,-85.937500
1676,-85.937500
1677,-85.937500
1678,-89.843750
1679,-89.843750
1680,-89.843750
1681,-89.843750
1682,-89.843750
1683,-89.843750
1684,-89.843750
1685,-89.843750
1686,-93.750000
1687,-93.750000
1688,-93.750000
1689,-93.750000
1690,-93.750000
1691,-93.750000
1692,-97.656250
1693,-97.656250
1694,-97.656250
1695,-97.656250
1696,-97.656250
1697,-97.656250
1698,-97.656250
1699,-97.656250
1700,-97.656250
1701,-101.562500
1702,-101.562500
1703,-101.562500
1704,-101.562500
1705,-101.562500
1706,-101.562500
1707,-101.562500
1708,-105.468750
1709,-105.468750
1710,-105.468750
1711,-105.468750
1712,-105.468750
1713,-105.468750
1714,-105.468750
1715,-105.468750
1716,-105.468750
1717,-109.375000
1718,-109.375000
1719,-109.375000
1720,-105.468750
1721,-109.375000
1722,-109.375000
1723,-109.375000
1724,-109.375000
1725,-109.375000
1726,-109.375000
1727,-109.375000
1728,-109.375000
1729,-113.281250
1730,-113.281250
1731,-113.281250
1732,-113.281250
1733,-113.281250
1734,-113.281250
1735,-113.281250
1736,-113.281250
1737,-113.281250
1738,-113.281250
1739,-113.281250
1740,-113.281250
1741,-117.187500
1742,-113.281250
1743,-117.187500
1744,-117.187500
1745,-117.187500
1746,-117.187500
1747,-117.187500
1748,-117.187500
1749,-117.187500
1750,-117.187500
1751,-117.187500
1752,-117.187500
1753,-117.187500
1754,-121.093750
1755,-121.093750
1756,-121.093750
1757,-121.093750
1758,-121.093750
1759,-121.093750
1760,-121.093750
1761,-121.093750
1762,-121.093750
1763,-121.093750
1764,-121.093750
1765,-121.093750
1766,-121.093750
1767,-121.093750
1768,-121.093750
1769,-121.093750
1770,-121.093750
1771,-121.093750
1772,-121.093750
1773,-121.093750
1774,-125.000000
1775,-125.000000
1776,-125.000000
1777,-125.000000
1778,-125.000000
1779,-125.000000
1780,-125.000000
1781,-125.000000
1782,-125.000000
1783,-125.000000
1784,-125.000000
1785,-125.000000
1786,-125.000000
1787,-125.000000
1788,-125.000000
1789,-125.000000
1790,-125.000000
1791,-125.000000
1792,-125.000000
1793,-125.000000
1794,-125.000000
1795,-125.000000
1796,-125.000000
1797,-125.000000
1798,-125.000000
1799,-125.000000
1800,-125.000000
1801,-125.000000
1802,-125.000000
1803,-125.000000
1804,-125.000000
1805,-125.000000
1806,-125.000000
1807,-125.000000
1808,-125.000000
1809,-125.000000
1810,-125.000000
1811,-125.000000
1812,-125.000000
1813,-125.000000
1814,-125.000000
1815,-125.000000
1816,-125.000000
1817,-125.000000
1818,-125.000000
1819,-125.000000
1820,-125.000000
1821,-125.000000
1822,-125.000000
1823,-125.000000
1824,-125.000000
1825,-125.000000
1826,-125.000000
1827,-125.000000
1828,-125.000000
1829,-125.000000
1830,-125.000000
1831,-125.000000
1832,-125.000000
1833,-125.000000
1834,-125.000000
1835,-125.000000
1836,-125.000000
1837,-121.093750
1838,-121.093750
1839,-125.000000
1840,-121.093750
1841,-121.093750
1842,-121.093750
1843,-121.093750
1844,-121.093750
1845,-121.093750
1846,-121.093750
1847,-121.093750
1848,-121.093750
1849,-121.093750
1850,-121.093750
1851,-121.093750
1852,-117.187500
1853,-117.187500
1854,-121.093750
1855,-121.093750
1856,-121.093750
1857,-117.187500
1858,-117.187500
1859,-117.187500
1860,-117.187500
1861,-117.187500
1862,-117.187500
1863,-117.187500
1864,-117.187500
1865,-117.187500
1866,-117.187500
1867,-117.187500
1868,-117.187500
1869,-117.187500
1870,-117.187500
1871,-113.281250
1872,-113.281250
1873,-113.281250
1874,-113.281250
1875,-113.281250
1876,-113.281250
1877,-113.281250
1878,-113.281250
1879,-113.281250
1880,-109.375000
1881,-109.375000
1882,-109.375000
1883,-109.375000
1884,-109.375000
1885,-109.375000
1886,-109.375000
1887,-109.375000
1888,-109.375000
1889,-109.375000
1890,-109.375000
1891,-105.468750
1892,-105.468750
1893,-105.468750
1894,-105.468750
1895,-105.468750
1896,-105.468750
1897,-105.468750
1898,-105.468750
1899,-105.468750
1900,-105.468750
1901,-101.562500
1902,-101.562500
1903,-101.562500
1904,-101.562500
1905,-101.562500
1906,-101.562500
1907,-101.562500
1908,-101.562500
1909,-97.656250
1910,-97.656250
1911,-97.656250
1912,-97.656250
1913,-97.656250
1914,-97.656250
1915,-97.656250
1916,-97.656250
1917,-97.656250
1918,-93.750000
1919,-93.750000
1920,-93.750000
1921,-93.750000
1922,-93.750000
1923,-93.750000
1924,-93.750000
1925,-93.750000
1926,-89.843750
1927,-89.843750
1928,-89.843750
1929,-89.843750
1930,-89.843750
1931,-89.843750
1932,-89.843750
1933,-85.937500
1934,-85.937500
1935,-85.937500
1936,-85.937500
1937,-85.937500
1938,-82.031250
1939,-85.937500
1940,-82.031250
1941,-82.031250
1942,-82.031250
1943,-82.031250
1944,-82.031250
1945,-82.031250
1946,-82.031250
1947,-78.125000
1948,-78.125000
1949,-78.125000
1950,-78.125000
1951,-78.125000
1952,-78.125000
1953,-74.218750
1954,-74.218750
1955,-74.218750
1956,-74.218750
1957,-74.218750
1958,-74.218750
1959,-74.218750
1960,-70.312500
1961,-70.312500
1962,-70.312500
1963,-70.312500
1964,-70.312500
1965,-70.312500
1966,-70.312500
1967,-66.406250
1968,-66.406250
1969,-66.406250
1970,-66.406250
1971,-66.406250
1972,-62.500000
1973,-62.500000
1974,-62.500000
1975,-62.500000
1976,-62.500000
1977,-62.500000
1978,-58.593750
1979,-58.593750
1980,-58.593750
1981,-58.593750
1982,-58.593750
1983,-58.593750
1984,-54.687500
1985,-54.687500
1986,-54.687500
1987,-54.687500
1988,-54.687500
1989,-54.687500
1990,-50.781250
1991,-50.781250
1992,-50.781250
1993,-50.781250
1994,-50.781250
1995,-50.781250
1996,-46.875000
1997,-46.875000
1998,-46.875000
1999,-46.875000
2000,-46.875000
2001,-42.968750
2002,-42.968750
2003,-42.968750
2004,-42.968750
2005,-42.968750
2006,-39.062500
2007,-39.062500
2008,-39.062500
2009,-39.062500
2010,-39.062500
2011,-35.156250
2012,-35.156250
2013,-35.156250
2014,-35.156250
2015,-35.156250
2016,-35.156250
2017,-35.156250
2018,-31.250000
2019,-31.250000
2020,-31.250000
2021,-31.250000
2022,-31.250000
2023,-27.343750
2024,-27.343750
2025,-27.343750
2026,-27.343750
2027,-27.343750
2028,-27.343750
2029,-23.437500
2030,-23.437500
2031,-23.437500
2032,-23.437500
2033,-23.437500
2034,-23.437500
2035,-23.437500
2036,-19.531250
2037,-19.531250
2038,-19.531250
2039,-19.531250
2040,-15.625000
2041,-15.625000
2042,-15.625000
2043,-15.625000
2044,-15.625000
2045,-15.625000
2046,-11.718750
2047,-11.718750
2048,-11.718750
2049,-11.718750
2050,-11.718750
2051,-7.812500
2052,-7.812500
2053,-7.812500
2054,-7.812500
2055,-7.812500
2056,-7.812500
2057,-3.906250
2058,-3.906250
2059,-3.906250
2060,-3.906250
2061,-3.906250
2062,-3.906250
2063,-3.906250
2064,0.000000
2065,0.000000
2066,0.000000
2067,0.000000
2068,0.000000
2069,3.906250
2070,3.906250
2071,3.906250
2072,3.906250
2073,3.906250
2074,3.906250
2075,7.812500
2076,7.812500
2077,7.812500
2078,7.812500
2079,7.812500
2080,11.718750
2081,11.718750
2082,11.718750
2083,11.718750
2084,11.718750
2085,11.718750
2086,11.718750
2087,15.625000
2088,15.625000
2089,15.625000
2090,15.625000
2091,15.625000
2092,19.531250
2093,19.531250
2094,19.531250
2095,19.531250
2096,19.531250
2097,19.531250
2098,23.437500
2099,23.437500
2100,23.437500
2101,23.437500
2102,23.437500
2103,23.437500
2104,23.437500
2105,27.343750
2106,27.343750
2107,27.343750
2108,27.343750
2109,27.343750
2110,31.250000
2111,31.250000
2112,31.250000
2113,31.250000
2114,31.250000
2115,31.250000
2116,31.250000
2117,35.156250
2118,35.156250
2119,35.156250
2120,35.156250
2121,35.156250
2122,35.156250
2123,35.156250
2124,35.156250
2125,39.062500
2126,39.062500
2127,39.062500
2128,39.062500
2129,39.062500
2130,42.968750
2131,42.968750
2132,42.968750
2133,42.968750
2134,42.968750
2135,42.968750
2136,42.968750
2137,46.875000
2138,46.875000
2139,46.875000
2140,46.875000
2141,46.875000
2142,46.875000
2143,46.875000
2144,46.875000
2145,50.781250
2146,50.781250
2147,50.781250
2148,50.781250
2149,50.781250
2150,50.781250
2151,50.781250
2152,50.781250
2153,54.687500
2154,54.687500
2155,54.687500
2156,54.687500
2157,54.687500
2158,54.687500
2159,54.687500
2160,58.593750
2161,54.687500
2162,58.593750
2163,58.593750
2164,58.593750
2165,58.593750
2166,58.593750
2167,58.593750
2168,58.593750
2169,62.500000
2170,62.500000
2171,62.500000
2172,62.500000
2173,62.500000
2174,62.500000
2175,62.500000
2176,62.500000
2177,62.500000
2178,62.500000
2179,66.406250
2180,66.406250
2181,66.406250
2182,66.406250
2183,66.406250
2184,66.406250
2185,66.406250
2186,70.312500
2187,66.406250
2188,70.312500
2189,70.312500
2190,70.312500
2191,70.312500
2192,70.312500
2193,70.312500
2194,70.312500
2195,70.312500
2196,70.312500
2197,74.218750
2198,70.312500
2199,74.218750
2200,74.218750
2201,74.218750
2202,74.218750
2203,74.218750
2204,74.218750
2205,74.218750
2206,74.218750
2207,74.218750
2208,74.218750
2209,78.125000
2210,78.125000
2211,78.125000
2212,78.125000
2213,78.125000
2214,78.125000
2215,78.125000
2216,78.125000
2217,78.125000
2218,78.125000
2219,78.125000
2220,78.125000
2221,78.125000
2222,78.125000
2223,82.031250
2224,82.031250
2225,82.031250
2226,82.031250
2227,82.031250
2228,82.031250
2229,82.031250
2230,82.031250
2231,82.031250
2232,82.031250
2233,82.031250
2234,82.031250
2235,82.031250
2236,82.031250
2237,82.031250
2238,85.937500
2239,85.937500
2240,85.937500
2241,85.937500
2242,85.937500
2243,85.937500
2244,85.937500
2245,85.937500
2246,85.937500
2247,85.937500
2248,85.937500
2249,85.937500
2250,85.937500
2251,85.937500
2252,85.937500
2253,85.937500
2254,85.937500
2255,89.843750
2256,85.937500
2257,89.843750
2258,89.843750
2259,89.843750
2260,89.843750
2261,89.843750
2262,89.843750
2263,89.843750
2264,89.843750
2265,89.843750
2266,89.843750
2267,89.843750
2268,89.843750
2269,89.843750
2270,89.843750
2271,89.843750
2272,89.843750
2273,89.843750
2274,89.843750
2275,89.843750
2276,89.843750
2277,89.843750
2278,89.843750
2279,89.843750
2280,89.843750
2281,89.843750
2282,89.843750
2283,89.843750
2284,89.843750
2285,89.843750
2286,89.843750
2287,89.843750
2288,89.843750
2289,89.843750
2290,89.843750
2291,89.843750
2292,93.750000
2293,89.843750
2294,89.843750
2295,89.843750
2296,89.843750
2297,93.750000
2298,89.843750
2299,89.843750
2300,89.843750
2301,89.843750
2302,89.843750
2303,89.843750
2304,89.843750
2305,89.843750
2306,89.843750
2307,89.843750
2308,89.843750
2309,89.843750
2310,89.843750
2311,89.843750
2312,93.750000
2313,89.843750
2314,89.843750
2315,89.843750
2316,89.843750
2317,89.843750
2318,89.843750
2319,89.843750
2320,89.843750
2321,89.843750
2322,89.843750
2323,89.843750
2324,89.843750
2325,89.843750
2326,89.843750
2327,89.843750
2328,89.843750
2329,89.843750
2330,89.843750
2331,89.843750
2332,89.843750
2333,89.843750
2334,89.843750
2335,89.843750
2336,89.843750
2337,89.843750
2338,89.843750
2339,89.843750
2340,89.843750
2341,89.843750
2342,89.843750
2343,89.843750
2344,85.937500
2345,85.937500
2346,85.937500
2347,85.937500
2348,85.937500
2349,85.937500
2350,85.937500
2351,85.937500
2352,85.937500
2353,85.937500
2354,85.937500
2355,85.937500
2356,85.937500
2357,85.937500
2358,85.937500
2359,85.937500
2360,85.937500
2361,85.937500
2362,85.937500
2363,85.937500
2364,82.031250
2365,82.031250
2366,82.031250
2367,82.031250
2368,82.031250
2369,82.031250
2370,82.031250
2371,82.031250
2372,82.031250
2373,82.031250
2374,82.031250
2375,82.031250
2376,82.031250
2377,82.031250
2378,82.031250
2379,82.031250
2380,82.031250
2381,82.031250
2382,82.031250
2383,78.125000
2384,78.125000
2385,78.125000
2386,78.125000
2387,78.125000
2388,78.125000
2389,78.125000
2390,78.125000
2391,78.125000
2392,78.125000
2393,78.125000
2394,74.218750
2395,74.218750
2396,74.218750
2397,74.218750
2398,74.218750
2399,74.218750
2400,74.218750
2401,74.218750
2402,74.218750
2403,74.218750
2404,74.218750
2405,70.312500
2406,70.312500
2407,70.312500
2408,70.312500
2409,70.312500
2410,70.312500
2411,70.312500
2412,70.312500
2413,70.312500
2414,70.312500
2415,66.406250
2416,66.406250
2417,66.406250
2418,66.406250
2419,66.406250
2420,66.406250
2421,66.406250
2422,66.406250
2423,66.406250
2424,62.500000
2425,62.500000
2426,62.500000
2427,62.500000
2428,62.500000
2429,62.500000
2430,62.500000
2431,62.500000
2432,62.500000
2433,58.593750
2434,58.593750
2435,58.593750
2436,58.593750
2437,58.593750
2438,58.593750
2439,58.593750
2440,58.593750
2441,54.687500
2442,54.687500
2443,54.687500
2444,54.687500
2445,54.687500
2446,54.687500
2447,50.781250
2448,50.781250
2449,50.781250
2450,50.781250
2451,50.781250
2452,50.781250
2453,50.781250
2454,50.781250
2455,50.781250
2456,46.875000
2457,46.875000
2458,46.875000
2459,46.875000
2460,46.875000
2461,46.875000
2462,46.875000
2463,42.968750
2464,42.968750
2465,42.968750
2466,42.968750
2467,42.968750
2468,42.968750
2469,42.968750
2470,42.968750
2471,39.062500
2472,39.062500
2473,39.062500
2474,39.062500
2475,39.062500
2476,35.156250
2477,35.156250
2478,35.156250
2479,35.156250
2480,35.156250
2481,35.156250
2482,35.156250
2483,31.250000
2484,31.250000
2485,31.250000
2486,31.250000
2487,31.250000
2488,31.250000
2489,31.250000
2490,31.250000
2491,27.343750
2492,27.343750
2493,27.343750
2494,27.343750
2495,27.343750
2496,23.437500
2497,23.437500
2498,23.437500
2499,23.437500
2500,23.437500
2501,23.437500
2502,23.437500
2503,19.531250
2504,19.531250
2505,19.531250
2506,19.531250
2507,19.531250
2508,15.625000
2509,15.625000
2510,15.625000
2511,15.625000
2512,15.625000
2513,15.625000
2514,15.625000
2515,11.718750
2516,11.718750
2517,11.718750
2518,11.718750
2519,11.718750
2520,11.718750
2521,7.812500
2522,7.812500
2523,7.812500
2524,7.812500
2525,7.812500
2526,3.906250
2527,3.906250
2528,3.906250
2529,3.906250
2530,3.906250
2531,3.906250
2532,0.000000
2533,0.000000
2534,0.000000
2535,0.000000
2536,0.000000
2537,0.000000
2538,-3.906250
2539,-3.906250
2540,-3.906250
2541,-3.906250
2542,-3.906250
2543,-7.812500
2544,-7.812500
2545,-7.812500
2546,-7.812500
2547,-7.812500
2548,-7.812500
2549,-11.718750
2550,-11.718750
2551,-11.718750
2552,-11.718750
2553,-11.718750
2554,-15.625000
2555,-15.625000
2556,-15.625000
2557,-15.625000
2558,-15.625000
2559,-15.625000
2560,-15.625000
2561,-19.531250
2562,-19.531250
2563,-19.531250
2564,-19.531250
2565,-23.437500
2566,-23.437500
2567,-23.437500
2568,-23.437500
2569,-23.437500
2570,-23.437500
2571,-27.343750
2572,-27.343750
2573,-27.343750
2574,-27.343750
2575,-27.343750
2576,-31.250000
2577,-31.250000
2578,-31.250000
2579,-31.250000
2580,-31.250000
2581,-31.250000
2582,-35.156250
2583,-35.156250
2584,-35.156250
2585,-35.156250
2586,-35.156250
2587,-39.062500
2588,-39.062500
2589,-39.062500
2590,-39.062500
2591,-39.062500
2592,-39.062500
2593,-42.968750
2594,-39.062500
2595,-42.968750
2596,-39.062500
2597,-42.968750
2598,-46.875000
2599,-46.875000
2600,-46.875000
2601,-46.875000
2602,-46.875000
2603,-46.875000
2604,-50.781250
2605,-50.781250
2606,-50.781250
2607,-50.781250
2608,-50.781250
2609,-50.781250
2610,-50.781250
2611,-54.687500
2612,-54.687500
2613,-54.687500
2614,-54.687500
2615,-58.593750
2616,-58.593750
2617,-58.593750
2618,-58.593750
2619,-58.593750
2620,-58.593750
2621,-58.593750
2622,-62.500000
2623,-62.500000
2624,-62.500000
2625,-62.500000
2626,-62.500000
2627,-66.406250
2628,-66.406250
2629,-66.406250
2630,-66.406250
2631,-62.500000
2632,-66.406250
2633,-66.406250
2634,-70.312500
2635,-70.312500
2636,-70.312500
2637,-70.312500
2638,-70.312500
2639,-70.312500
2640,-70.312500
2641,-74.218750
2642,-74.218750
2643,-74.218750
2644,-74.218750
2645,-74.218750
2646,-74.218750
2647,-78.125000
2648,-78.125000
2649,-78.125000
2650,-78.125000
2651,-78.125000
2652,-78.125000
2653,-82.031250
2654,-82.031250
2655,-82.031250
2656,-82.031250
2657,-82.031250
2658,-82.031250
2659,-82.031250
2660,-82.031250
2661,-85.937500
2662,-85.937500
2663,-85.937500
2664,-89.843750
2665,-89.843750
2666,-85.937500
2667,-89.843750
2668,-89.843750
2669,-89.843750
2670,-89.843750
2671,-89.843750
2672,-89.843750
2673,-89.843750
2674,-93.750000
2675,-93.750000
2676,-93.750000
2677,-93.750000
2678,-93.750000
2679,-93.750000
2680,-93.750000
2681,-93.750000
2682,-97.656250
2683,-97.656250
2684,-97.656250
2685,-97.656250
2686,-97.656250
2687,-97.656250
2688,-97.656250
2689,-97.656250
2690,-101.562500
2691,-101.562500
2692,-101.562500
2693,-101.562500
2694,-101.562500
2695,-101.562500
2696,-101.562500
2697,-105.468750
2698,-101.562500
2699,-105.468750
2700,-105.468750
2701,-105.468750
2702,-105.468750
2703,-105.468750
2704,-105.468750
2705,-105.468750
2706,-109.375000
2707,-109.375000
2708,-109.375000
2709,-109.375000
2710,-109.375000
2711,-109.375000
2712,-109.375000
2713,-109.375000
2714,-109.375000
2715,-109.375000
2716,-109.375000
2717,-113.281250
2718,-113.281250
2719,-113.281250
2720,-113.281250
2721,-113.281250
2722,-113.281250
2723,-113.281250
2724,-113.281250
2725,-113.281250
2726,-113.281250
2727,-113.281250
2728,-117.187500
2729,-117.187500
2730,-113.281250
2731,-117.187500
2732,-117.187500
2733,-117.187500
2734,-117.187500
2735,-117.187500
2736,-117.187500
2737,-117.187500
2738,-117.187500
2739,-117.187500
2740,-117.187500
2741,-117.187500
2742,-117.187500
2743,-121.093750
2744,-121.093750
2745,-121.093750
2746,-121.093750
2747,-121.093750
2748,-121.093750
2749,-121.093750
2750,-121.093750
2751,-121.093750
2752,-121.093750
2753,-121.093750
2754,-121.093750
2755,-121.093750
2756,-121.093750
2757,-121.093750
2758,-125.000000
2759,-121.093750
2760,-121.093750
2761,-121.093750
2762,-125.000000
2763,-125.000000
2764,-125.000000
2765,-125.000000
2766,-125.000000
2767,-125.000000
2768,-125.000000
2769,-125.000000
2770,-125.000000
2771,-125.000000
2772,-125.000000
2773,-125.000000
2774,-125.000000
2775,-125.000000
2776,-125.000000
2777,-125.000000
2778,-125.000000
2779,-125.000000
2780,-125.000000
2781,-125.000000
2782,-125.000000
2783,-125.000000
2784,-125.000000
2785,-125.000000
2786,-125.000000
2787,-125.000000
2788,-125.000000
2789,-125.000000
2790,-125.000000
2791,-125.000000
2792,-125.000000
2793,-125.000000
2794,-125.000000
2795,-125.000000
2796,-125.000000
2797,-125.000000
2798,-125.000000
2799,-125.000000
2800,-125.000000
2801,-125.000000
2802,-125.000000
2803,-125.000000
2804,-125.000000
2805,-125.000000
2806,-125.000000
2807,-125.000000
2808,-125.000000
2809,-125.000000
2810,-125.000000
2811,-125.000000
2812,-125.000000
2813,-125.000000
2814,-125.000000
2815,-125.000000
2816,-125.000000
2817,-125.000000
2818,-125.000000
2819,-125.000000
2820,-125.000000
2821,-125.000000
2822,-125.000000
2823,-125.000000
2824,-125.000000
2825,-125.000000
2826,-125.000000
2827,-121.093750
2828,-121.093750
2829,-121.093750
2830,-121.093750
2831,-121.093750
2832,-121.093750
2833,-121.093750
2834,-121.093750
2835,-121.093750
2836,-121.093750
2837,-121.093750
2838,-121.093750
2839,-121.093750
2840,-121.093750
2841,-121.093750
2842,-121.093750
2843,-121.093750
2844,-121.093750
2845,-121.093750
2846,-121.093750
2847,-117.187500
2848,-117.187500
2849,-117.187500
2850,-117.187500
2851,-117.187500
2852,-117.187500
2853,-117.187500
2854,-117.187500
2855,-117.187500
2856,-117.187500
2857,-117.187500
2858,-117.187500
2859,-117.187500
2860,-117.187500
2861,-113.281250
2862,-113.281250
2863,-113.281250
2864,-113.281250
2865,-113.281250
2866,-113.281250
2867,-113.281250
2868,-113.281250
2869,-109.375000
2870,-113.281250
2871,-113.281250
2872,-109.375000
2873,-109.375000
2874,-109.375000
2875,-109.375000
2876,-109.375000
2877,-109.375000
2878,-109.375000
2879,-109.375000
2880,-105.468750
2881,-109.375000
2882,-105.468750
2883,-105.468750
2884,-105.468750
2885,-105.468750
2886,-105.468750
2887,-105.468750
2888,-105.468750
2889,-105.468750
2890,-101.562500
2891,-101.562500
2892,-101.562500
2893,-101.562500
2894,-101.562500
2895,-101.562500
2896,-101.562500
2897,-101.562500
2898,-101.562500
2899,-101.562500
2900,-97.656250
2901,-97.656250
2902,-97.656250
2903,-97.656250
2904,-97.656250
2905,-97.656250
2906,-97.656250
2907,-93.750000
2908,-93.750000
2909,-93.750000
2910,-93.750000
2911,-93.750000
2912,-93.750000
2913,-93.750000
2914,-93.750000
2915,-89.843750
2916,-89.843750
2917,-89.843750
2918,-89.843750
2919,-89.843750
2920,-89.843750
2921,-85.937500
2922,-89.843750
2923,-85.937500
2924,-85.937500
2925,-85.937500
2926,-85.937500
2927,-85.937500
2928,-82.031250
2929,-82.031250
2930,-82.031250
2931,-82.031250
2932,-78.125000
2933,-82.031250
2934,-78.125000
2935,-82.031250
2936,-78.125000
2937,-78.125000
2938,-78.125000
2939,-78.125000
2940,-78.125000
2941,-78.125000
2942,-74.218750
2943,-74.218750
2944,-74.218750
2945,-74.218750
2946,-74.218750
2947,-74.218750
2948,-70.312500
2949,-70.312500
2950,-70.312500
2951,-70.312500
2952,-70.312500
2953,-70.312500
2954,-70.312500
2955,-66.406250
2956,-66.406250
2957,-66.406250
2958,-66.406250
2959,-66.406250
2960,-62.500000
2961,-62.500000
2962,-62.500000
2963,-62.500000
2964,-62.500000
2965,-62.500000
2966,-58.593750
2967,-62.500000
2968,-58.593750
2969,-58.593750
2970,-58.593750
2971,-58.593750
2972,-58.593750
2973,-58.593750
2974,-54.687500
2975,-54.687500
2976,-54.687500
2977,-54.687500
2978,-50.781250
2979,-50.781250
2980,-50.781250
2981,-50.781250
2982,-50.781250
2983,-50.781250
2984,-50.781250
2985,-46.875000
2986,-46.875000
2987,-46.875000
2988,-46.875000
2989,-46.875000
2990,-42.968750
2991,-42.968750
2992,-42.968750
2993,-42.968750
2994,-42.968750
2995,-42.968750
2996,-39.062500
2997,-39.062500
2998,-39.062500
2999,-39.062500
3000,-39.062500
3001,-35.156250
3002,-35.156250
3003,-35.156250
3004,-35.156250
3005,-35.156250
3006,-35.156250
3007,-31.250000
3008,-31.250000
3009,-31.250000
3010,-31.250000
3011,-31.250000
3012,-31.250000
3013,-27.343750
3014,-27.343750
3015,-27.343750
3016,-27.343750
3017,-27.343750
3018,-23.437500
3019,-23.437500
3020,-23.437500
3021,-23.437500
3022,-23.437500
3023,-23.437500
3024,-19.531250
3025,-19.531250
3026,-19.531250
3027,-19.531250
3028,-19.531250
3029,-15.625000
3030,-15.625000
3031,-15.625000
3032,-15.625000
3033,-15.625000
3034,-15.625000
3035,-11.718750
3036,-11.718750
3037,-11.718750
3038,-11.718750
3039,-11.718750
3040,-7.812500
3041,-7.812500
3042,-7.812500
3043,-7.812500
3044,-7.812500
3045,-7.812500
3046,-3.906250
3047,-3.906250
3048,-3.906250
3049,-3.906250
3050,-3.906250
3051,-3.906250
3052,0.000000
3053,0.000000
3054,0.000000
3055,0.000000
3056,0.000000
3057,0.000000
3058,3.906250
3059,3.906250
3060,3.906250
3061,3.906250
3062,3.906250
3063,3.906250
3064,7.812500
3065,7.812500
3066,7.812500
3067,7.812500
3068,7.812500
3069,11.718750
3070,11.718750
3071,11.718750
3072,11.718750
3073,11.718750
3074,11.718750
3075,11.718750
3076,15.625000
3077,15.625000
3078,15.625000
3079,15.625000
3080,19.531250
3081,19.531250
3082,19.531250
3083,19.531250
3084,19.531250
3085,19.531250
3086,23.437500
3087,19.531250
3088,23.437500
3089,23.437500
3090,23.437500
3091,23.437500
3092,23.437500
3093,23.437500
3094,23.437500
3095,27.343750
3096,27.343750
3097,27.343750
3098,27.343750
3099,27.343750
3100,31.250000
3101,31.250000
3102,31.250000
3103,31.250000
3104,31.250000
3105,31.250000
3106,31.250000
3107,35.156250
3108,35.156250
3109,35.156250
3110,35.156250
3111,35.156250
3112,35.156250
3113,35.156250
3114,35.156250
3115,39.062500
3116,39.062500
3117,39.062500
3118,39.062500
3119,39.062500
3120,42.968750
3121,42.968750
3122,42.968750
3123,42.968750
3124,42.968750
3125,42.968750
3126,42.968750
3127,46.875000
3128,46.875000
3129,46.875000
3130,46.875000
3131,46.875000
3132,46.875000
3133,46.875000
3134,46.875000
3135,50.781250
3136,50.781250
3137,50.781250
3138,50.781250
3139,50.781250
3140,50.781250
3141,50.781250
3142,50.781250
3143,54.687500
3144,54.687500
3145,54.687500
3146,54.687500
3147,54.687500
3148,54.687500
3149,58.593750
3150,54.687500
3151,54.687500
3152,58.593750
3153,58.593750
3154,58.593750
3155,58.593750
3156,58.593750
3157,58.593750
3158,62.500000
3159,62.500000
3160,62.500000
3161,62.500000
3162,62.500000
3163,62.500000
3164,62.500000
3165,62.500000
3166,66.406250
3167,66.406250
3168,66.406250
3169,66.406250
3170,66.406250
3171,66.406250
3172,66.406250
3173,66.406250
3174,66.406250
3175,66.406250
3176,66.406250
3177,70.312500
3178,70.312500
3179,70.312500
3180,70.312500
3181,70.312500
3182,70.312500
3183,70.312500
3184,70.312500
3185,70.312500
3186,74.218750
3187,74.218750
3188,74.218750
3189,74.218750
3190,74.218750
3191,74.218750
3192,74.218750
3193,74.218750
3194,74.218750
3195,74.218750
3196,78.125000
3197,78.125000
3198,78.125000
3199,78.125000
3200,78.125000
3201,78.125000
3202,78.125000
3203,78.125000
3204,78.125000
3205,78.125000
3206,78.125000
3207,78.125000
3208,82.031250
3209,82.031250
3210,78.125000
3211,82.031250
3212,82.031250
3213,82.031250
3214,82.031250
3215,82.031250
3216,82.031250
3217,82.031250
3218,82.031250
3219,82.031250
3220,82.031250
3221,82.031250
3222,82.031250
3223,82.031250
3224,82.031250
3225,82.031250
3226,85.937500
3227,85.937500
3228,85.937500
3229,85.937500
3230,85.937500
3231,85.937500
3232,85.937500
3233,85.937500
3234,85.937500
3235,85.937500
3236,85.937500
3237,85.937500
3238,85.937500
3239,85.937500
3240,85.937500
3241,85.937500
3242,85.937500
3243,85.937500
3244,85.937500
3245,89.843750
3246,89.843750
3247,89.843750
3248,89.843750
3249,89.843750
3250,89.843750
3251,89.843750
3252,89.843750
3253,89.843750
3254,89.843750
3255,89.843750
3256,89.843750
3257,89.843750
3258,89.843750
3259,89.843750
3260,89.843750
3261,89.843750
3262,89.843750
3263,89.843750
3264,89.843750
3265,89.843750
3266,89.843750
3267,89.843750
3268,89.843750
3269,89.843750
3270,89.843750
3271,89.843750
3272,89.843750
3273,89.843750
3274,89.843750
3275,89.843750
3276,89.843750
3277,89.843750
3278,89.843750
3279,89.843750
3280,89.843750
3281,89.843750
3282,89.843750
3283,89.843750
3284,93.750000
3285,89.843750
3286,89.843750
3287,93.750000
3288,93.750000
3289,89.843750
3290,89.843750
3291,89.843750
3292,89.843750
3293,89.843750
3294,89.843750
3295,93.750000
3296,89.843750
3297,93.750000
3298,93.750000
3299,89.843750
3300,89.843750
3301,89.843750
3302,89.843750
3303,89.843750
3304,89.843750
3305,89.843750
3306,93.750000
3307,89.843750
3308,89.843750
3309,89.843750
3310,89.843750
3311,89.843750
3312,89.843750
3313,89.843750
3314,89.843750
3315,89.843750
3316,89.843750
3317,89.843750
3318,89.843750
3319,89.843750
3320,89.843750
3321,89.843750
3322,89.843750
3323,89.843750
3324,89.843750
3325,89.843750
3326,89.843750
3327,89.843750
3328,89.843750
3329,89.843750
3330,89.843750
3331,89.843750
3332,89.843750
3333,89.843750
3334,89.843750
3335,89.843750
3336,89.843750
3337,85.937500
3338,85.937500
3339,85.937500
3340,85.937500
3341,85.937500
3342,85.937500
3343,85.937500
3344,85.937500
3345,85.937500
3346,85.937500
3347,85.937500
3348,85.937500
3349,85.937500
3350,85.937500
3351,85.937500
3352,85.937500
3353,85.937500
3354,85.937500
3355,85.937500
3356,82.031250
3357,82.031250
3358,82.031250
3359,82.031250
3360,82.031250
3361,82.031250
3362,82.031250
3363,82.031250
3364,82.031250
3365,82.031250
3366,82.031250
3367,82.031250
3368,82.031250
3369,78.125000
3370,78.125000
3371,78.125000
3372,78.125000
3373,78.125000
3374,78.125000
3375,78.125000
3376,78.125000
3377,78.125000
3378,78.125000
3379,78.125000
3380,78.125000
3381,74.218750
3382,74.218750
3383,74.218750
3384,74.218750
3385,74.218750
3386,74.218750
3387,74.218750
3388,74.218750
3389,74.218750
3390,74.218750
3391,70.312500
3392,74.218750
3393,70.312500
3394,70.312500
3395,70.312500
3396,70.312500
3397,70.312500
3398,70.312500
3399,70.312500
3400,70.312500
3401,70.312500
3402,70.312500
3403,70.312500
3404,70.312500
3405,66.406250
3406,66.406250
3407,66.406250
3408,66.406250
3409,66.406250
3410,66.406250
3411,66.406250
3412,66.406250
3413,66.406250
3414,66.406250
3415,62.500000
3416,62.500000
3417,62.500000
3418,62.500000
3419,62.500000
3420,58.593750
3421,62.500000
3422,62.500000
3423,58.593750
3424,58.593750
3425,58.593750
3426,58.593750
3427,58.593750
3428,58.593750
3429,58.593750
3430,54.687500
3431,54.687500
3432,54.687500
3433,58.593750
3434,54.687500
3435,54.687500
3436,54.687500
3437,54.687500
3438,54.687500
3439,50.781250
3440,50.781250
3441,50.781250
3442,50.781250
3443,50.781250
3444,50.781250
3445,50.781250
3446,50.781250
3447,46.875000
3448,46.875000
3449,46.875000
3450,46.875000
3451,46.875000
3452,42.968750
3453,42.968750
3454,42.968750
3455,42.968750
3456,42.968750
3457,42.968750
3458,42.968750
3459,42.968750
3460,39.062500
3461,39.062500
3462,39.062500
3463,39.062500
3464,39.062500
3465,39.062500
3466,39.062500
3467,35.156250
3468,35.156250
3469,35.156250
3470,35.156250
3471,35.156250
3472,31.250000
3473,31.250000
3474,31.250000
3475,31.250000
3476,31.250000
3477,31.250000
3478,27.343750
3479,27.343750
3480,27.343750
3481,27.343750
3482,27.343750
3483,27.343750
3484,27.343750
3485,27.343750
3486,23.437500
3487,23.437500
3488,23.437500
3489,23.437500
3490,23.437500
3491,19.531250
3492,19.531250
3493,19.531250
3494,19.531250
3495,19.531250
3496,19.531250
3497,19.531250
3498,15.625000
3499,15.625000
3500,15.625000
3501,15.625000
3502,15.625000
3503,11.718750
3504,11.718750
3505,11.718750
3506,11.718750
3507,11.718750
3508,11.718750
3509,7.812500
3510,7.812500
3511,7.812500
3512,7.812500
3513,7.812500
3514,7.812500
3515,7.812500
3516,3.906250
3517,3.906250
3518,3.906250
3519,0.000000
3520,3.906250
3521,0.000000
3522,0.000000
3523,0.000000
3524,0.000000
3525,0.000000
3526,0.000000
3527,-3.906250
3528,-3.906250
3529,-3.906250
3530,-3.906250
3531,-3.906250
3532,-7.812500
3533,-7.812500
3534,-7.812500
3535,-7.812500
3536,-7.812500
3537,-7.812500
3538,-11.718750
3539,-11.718750
3540,-11.718750
3541,-11.718750
3542,-11.718750
3543,-11.718750
3544,-15.625000
3545,-15.625000
3546,-15.625000
3547,-15.625000
3548,-15.625000
3549,-19.531250
3550,-19.531250
3551,-19.531250
3552,-19.531250
3553,-19.531250
3554,-19.531250
3555,-19.531250
3556,-23.437500
3557,-23.437500
3558,-23.437500
3559,-23.437500
3560,-27.343750
3561,-27.343750
3562,-27.343750
3563,-27.343750
3564,-27.343750
3565,-27.343750
3566,-27.343750
3567,-31.250000
3568,-31.250000
3569,-31.250000
3570,-31.250000
3571,-35.156250
3572,-35.156250
3573,-35.156250
3574,-35.156250
3575,-35.156250
3576,-35.156250
3577,-39.062500
3578,-39.062500
3579,-39.062500
3580,-39.062500
3581,-39.062500
3582,-39.062500
3583,-42.968750
3584,-42.968750
3585,-42.968750
3586,-42.968750
3587,-42.968750
3588,-42.968750
3589,-46.875000
3590,-46.875000
3591,-46.875000
3592,-46.875000
3593,-46.875000
3594,-46.875000
3595,-50.781250
3596,-50.781250
3597,-50.781250
3598,-50.781250
3599,-54.687500
3600,-54.687500
3601,-54.687500
3602,-54.687500
3603,-54.687500
3604,-54.687500
3605,-54.687500
3606,-58.593750
3607,-58.593750
3608,-58.593750
3609,-58.593750
3610,-58.593750
3611,-62.500000
3612,-62.500000
3613,-62.500000
3614,-62.500000
3615,-62.500000
3616,-62.500000
3617,-66.406250
3618,-66.406250
3619,-66.406250
3620,-66.406250
3621,-66.406250
3622,-66.406250
3623,-66.406250
3624,-70.312500
3625,-70.312500
3626,-70.312500
3627,-70.312500
3628,-70.312500
3629,-74.218750
3630,-74.218750
3631,-74.218750
3632,-74.218750
3633,-74.218750
3634,-74.218750
3635,-74.218750
3636,-78.125000
3637,-78.125000
3638,-78.125000
3639,-78.125000
3640,-78.125000
3641,-78.125000
3642,-82.031250
3643,-82.031250
3644,-82.031250
3645,-82.031250
3646,-82.031250
3647,-82.031250
3648,-82.031250
3649,-85.937500
3650,-85.937500
3651,-85.937500
3652,-85.937500
3653,-85.937500
3654,-85.937500
3655,-85.937500
3656,-89.843750
3657,-89.843750
3658,-89.843750
3659,-89.843750
3660,-89.843750
3661,-89.843750
3662,-89.843750
3663,-89.843750
3664,-93.750000
3665,-93.750000
3666,-93.750000
3667,-93.750000
3668,-93.750000
3669,-93.750000
3670,-97.656250
3671,-97.656250
3672,-97.656250
3673,-97.656250
3674,-97.656250
3675,-97.656250
3676,-97.656250
3677,-97.656250
3678,-101.562500
3679,-101.562500
3680,-101.562500
3681,-101.562500
3682,-101.562500
3683,-101.562500
3684,-101.562500
3685,-101.562500
3686,-101.562500
3687,-101.562500
3688,-101.562500
3689,-105.468750
3690,-105.468750
3691,-105.468750
3692,-105.468750
3693,-105.468750
3694,-105.468750
3695,-105.468750
3696,-105.468750
3697,-109.375000
3698,-109.375000
3699,-109.375000
3700,-109.375000
3701,-109.375000
3702,-109.375000
3703,-109.375000
3704,-109.375000
3705,-109.375000
3706,-109.375000
3707,-109.375000
3708,-113.281250
3709,-113.281250
3710,-113.281250
3711,-113.281250
3712,-113.281250
3713,-113.281250
3714,-113.281250
3715,-113.281250
3716,-113.281250
3717,-113.281250
3718,-117.187500
3719,-117.187500
3720,-113.281250
3721,-117.187500
3722,-117.187500
3723,-117.187500
3724,-117.187500
3725,-117.187500
3726,-117.187500
3727,-117.187500
3728,-117.187500
3729,-117.187500
3730,-117.187500
3731,-117.187500
3732,-121.093750
3733,-121.093750
3734,-121.093750
3735,-121.093750
3736,-121.093750
3737,-121.093750
3738,-121.093750
3739,-121.093750
3740,-121.093750
3741,-121.093750
3742,-121.093750
3743,-121.093750
3744,-121.093750
3745,-121.093750
3746,-121.093750
3747,-121.093750
3748,-121.093750
3749,-125.000000
3750,-121.093750
3751,-125.000000
3752,-125.000000
3753,-125.000000
3754,-121.093750
3755,-125.000000
3756,-125.000000
3757,-125.000000
3758,-125.000000
3759,-125.000000
3760,-125.000000
3761,-125.000000
3762,-125.000000
3763,-125.000000
3764,-125.000000
3765,-125.000000
3766,-125.000000
3767,-125.000000
3768,-125.000000
3769,-125.000000
3770,-125.000000
3771,-125.000000
3772,-125.000000
3773,-125.000000
3774,-125.000000
3775,-125.000000
3776,-125.000000
3777,-125.000000
3778,-125.000000
3779,-125.000000
3780,-125.000000
3781,-125.000000
3782,-125.000000
3783,-125.000000
3784,-125.000000
3785,-125.000000
3786,-125.000000
3787,-125.000000
3788,-125.000000
3789,-125.000000
3790,-121.093750
3791,-125.000000
3792,-125.000000
3793,-125.000000
3794,-125.000000
3795,-125.000000
3796,-125.000000
3797,-125.000000
3798,-125.000000
3799,-125.000000
3800,-125.000000
3801,-125.000000
3802,-125.000000
3803,-121.093750
3804,-125.000000
3805,-125.000000
3806,-125.000000
3807,-125.000000
3808,-121.093750
3809,-125.000000
3810,-125.000000
3811,-121.093750
3812,-125.000000
3813,-125.000000
3814,-121.093750
3815,-121.093750
3816,-121.093750
3817,-121.093750
3818,-121.093750
3819,-121.093750
3820,-121.093750
3821,-121.093750
3822,-121.093750
3823,-121.093750
3824,-121.093750
3825,-121.093750
3826,-121.093750
3827,-121.093750
3828,-121.093750
3829,-121.093750
3830,-121.093750
3831,-121.093750
3832,-121.093750
3833,-117.187500
3834,-117.187500
3835,-117.187500
3836,-117.187500
3837,-117.187500
3838,-117.187500
3839,-117.187500
3840,-117.187500
3841,-117.187500
3842,-117.187500
3843,-113.281250
3844,-117.187500
3845,-117.187500
3846,-113.281250
3847,-117.187500
3848,-117.187500
3849,-113.281250
3850,-113.281250
3851,-113.281250
3852,-113.281250
3853,-113.281250
3854,-113.281250
3855,-113.281250
3856,-113.281250
3857,-113.281250
3858,-113.281250
3859,-113.281250
3860,-109.375000
3861,-109.375000
3862,-109.375000
3863,-109.375000
3864,-109.375000
3865,-109.375000
3866,-109.375000
3867,-109.375000
3868,-109.375000
3869,-109.375000
3870,-109.375000
3871,-105.468750
3872,-105.468750
3873,-105.468750
3874,-105.468750
3875,-105.468750
3876,-105.468750
3877,-105.468750
3878,-105.468750
3879,-105.468750
3880,-105.468750
3881,-101.562500
3882,-101.562500
3883,-101.562500
3884,-101.562500
3885,-101.562500
3886,-101.562500
3887,-101.562500
3888,-97.656250
3889,-101.562500
3890,-97.656250
3891,-97.656250
3892,-97.656250
3893,-97.656250
3894,-97.656250
3895,-97.656250
3896,-93.750000
3897,-97.656250
3898,-93.750000
3899,-93.750000
3900,-93.750000
3901,-93.750000
3902,-93.750000
3903,-93.750000
3904,-93.750000
3905,-89.843750
3906,-89.843750
3907,-89.843750
3908,-89.843750
3909,-89.843750
3910,-89.843750
3911,-85.937500
3912,-85.937500
3913,-85.937500
3914,-85.937500
3915,-85.937500
3916,-85.937500
3917,-85.937500
3918,-82.031250
3919,-82.031250
3920,-82.031250
3921,-82.031250
3922,-82.031250
3923,-82.031250
3924,-78.125000
3925,-78.125000
3926,-78.125000
3927,-78.125000
3928,-78.125000
3929,-78.125000
3930,-74.218750
3931,-74.218750
3932,-74.218750
3933,-74.218750
3934,-74.218750
3935,-74.218750
3936,-74.218750
3937,-74.218750
3938,-70.312500
3939,-70.312500
3940,-70.312500
3941,-70.312500
3942,-70.312500
3943,-70.312500
3944,-66.406250
3945,-66.406250
3946,-66.406250
3947,-66.406250
3948,-66.406250
3949,-66.406250
3950,-62.500000
3951,-62.500000
3952,-62.500000
3953,-62.500000
3954,-62.500000
3955,-62.500000
3956,-58.593750
3957,-58.593750
3958,-58.593750
3959,-58.593750
3960,-58.593750
3961,-58.593750
3962,-54.687500
3963,-54.687500
3964,-54.687500
3965,-54.687500
3966,-54.687500
3967,-54.687500
3968,-50.781250
3969,-50.781250
3970,-50.781250
3971,-50.781250
3972,-50.781250
3973,-50.781250
3974,-46.875000
3975,-46.875000
3976,-46.875000
3977,-46.875000
3978,-46.875000
3979,-42.968750
3980,-42.968750
3981,-42.968750
3982,-42.968750
3983,-42.968750
3984,-42.968750
3985,-39.062500
3986,-39.062500
3987,-39.062500
3988,-39.062500
3989,-39.062500
3990,-35.156250
3991,-35.156250
3992,-35.156250
3993,-35.156250
3994,-35.156250
3995,-35.156250
3996,-35.156250
3997,-31.250000
3998,-31.250000
3999,-31.250000
4000,-31.250000
4001,-31.250000
4002,-27.343750
4003,-27.343750
4004,-27.343750
4005,-27.343750
4006,-27.343750
4007,-23.437500
4008,-23.437500
4009,-23.437500
4010,-23.437500
4011,-23.437500
4012,-23.437500
4013,-19.531250
4014,-19.531250
4015,-19.531250
4016,-19.531250
4017,-19.531250
4018,-19.531250
4019,-15.625000
4020,-15.625000
4021,-15.625000
4022,-15.625000
4023,-15.625000
4024,-11.718750
4025,-11.718750
4026,-11.718750
4027,-11.718750
4028,-11.718750
4029,-11.718750
4030,-7.812500
4031,-7.812500
4032,-7.812500
4033,-7.812500
4034,-7.812500
4035,-3.906250
4036,-3.906250
4037,-3.906250
4038,-3.906250
4039,-3.906250
4040,-3.906250
4041,-3.906250
4042,0.000000
4043,0.000000
4044,0.000000
4045,0.000000
4046,0.000000
4047,3.906250
4048,3.906250
4049,3.906250
4050,3.906250
4051,3.906250
4052,3.906250
4053,7.812500
4054,7.812500
4055,7.812500
4056,7.812500
4057,11.718750
4058,7.812500
4059,11.718750
4060,11.718750
4061,11.718750
4062,11.718750
4063,11.718750
4064,15.625000
4065,15.625000
4066,15.625000
4067,15.625000
4068,15.625000
4069,15.625000
4070,19.531250
4071,19.531250
4072,19.531250
4073,19.531250
4074,19.531250
4075,19.531250
4076,23.437500
4077,23.437500
4078,23.437500
4079,23.437500
4080,23.437500
4081,23.437500
4082,23.437500
4083,27.343750
4084,27.343750
4085,27.343750
4086,27.343750
4087,27.343750
4088,27.343750
4089,31.250000
4090,31.250000
4091,31.250000
4092,31.250000
4093,31.250000
4094,35.156250
4095,31.250000
4096,35.156250
4097,35.156250
4098,35.156250
4099,35.156250
4100,35.156250
4101,35.156250
4102,39.062500
4103,39.062500
4104,39.062500
4105,39.062500
4106,39.062500
4107,39.062500
4108,39.062500
4109,42.968750
4110,42.968750
4111,42.968750
4112,42.968750
4113,42.968750
4114,42.968750
4115,46.875000
4116,42.968750
4117,46.875000
4118,46.875000
4119,46.875000
4120,46.875000
4121,46.875000
4122,46.875000
4123,46.875000
4124,50.781250
4125,50.781250
4126,50.781250
4127,50.781250
4128,50.781250
4129,50.781250
4130,50.781250
4131,50.781250
4132,54.687500
4133,54.687500
4134,54.687500
4135,54.687500
4136,54.687500
4137,54.687500
4138,54.687500
4139,54.687500
4140,58.593750
4141,58.593750
4142,58.593750
4143,58.593750
4144,58.593750
4145,58.593750
4146,62.500000
4147,58.593750
4148,62.500000
4149,62.500000
4150,62.500000
4151,62.500000
4152,62.500000
4153,62.500000
4154,66.406250
4155,66.406250
4156,66.406250
4157,66.406250
4158,66.406250
4159,66.406250
4160,66.406250
4161,66.406250
4162,66.406250
4163,66.406250
4164,70.312500
4165,66.406250
4166,70.312500
4167,70.312500
4168,70.312500
4169,70.312500
4170,70.312500
4171,70.312500
4172,66.406250
4173,66.406250
4174,70.312500
4175,70.312500
4176,74.218750
4177,74.218750
4178,74.218750
4179,74.218750
4180,78.125000
4181,74.218750
4182,74.218750
4183,78.125000
4184,74.218750
4185,74.218750
4186,82.031250
4187,78.125000
4188,78.125000
4189,78.125000
4190,78.125000
4191,78.125000
4192,78.125000
4193,78.125000
4194,78.125000
4195,78.125000
4196,78.125000
4197,78.125000
4198,78.125000
4199,78.125000
4200,78.125000
4201,82.031250
4202,82.031250
4203,82.031250
4204,82.031250
4205,82.031250
4206,82.031250
4207,82.031250
4208,82.031250
4209,82.031250
4210,82.031250
4211,82.031250
4212,82.031250
4213,82.031250
4214,85.937500
4215,85.937500
4216,85.937500
4217,85.937500
4218,85.937500
4219,85.937500
4220,85.937500
4221,85.937500
4222,85.937500
4223,85.937500
4224,85.937500
4225,85.937500
4226,85.937500
4227,85.937500
4228,85.937500
4229,85.937500
4230,85.937500
4231,85.937500
4232,85.937500
4233,85.937500
4234,89.843750
4235,89.843750
4236,85.937500
4237,89.843750
4238,89.843750
4239,89.843750
4240,89.843750
4241,89.843750
4242,89.843750
4243,89.843750
4244,89.843750
4245,89.843750
4246,89.843750
4247,89.843750
4248,89.843750
4249,89.843750
4250,89.843750
4251,89.843750
4252,89.843750
4253,89.843750
4254,89.843750
4255,89.843750
4256,89.843750
4257,89.843750
4258,89.843750
4259,89.843750
4260,89.843750
4261,89.843750
4262,89.843750
4263,89.843750
4264,89.843750
4265,89.843750
4266,93.750000
4267,89.843750
4268,89.843750
4269,89.843750
4270,89.843750
4271,89.843750
4272,89.843750
4273,89.843750
4274,89.843750
4275,89.843750
4276,89.843750
4277,93.750000
4278,93.750000
4279,89.843750
4280,89.843750
4281,89.843750
4282,89.843750
4283,89.843750
4284,89.843750
4285,89.843750
4286,93.750000
4287,89.843750
4288,89.843750
4289,89.843750
4290,89.843750
4291,89.843750
4292,89.843750
4293,89.843750
4294,89.843750
4295,89.843750
4296,89.843750
4297,89.843750
4298,89.843750
4299,89.843750
4300,89.843750
4301,89.843750
4302,89.843750
4303,89.843750
4304,89.843750
4305,89.843750
4306,89.843750
4307,89.843750
4308,89.843750
4309,89.843750
4310,89.843750
4311,89.843750
4312,89.843750
4313,89.843750
4314,89.843750
4315,89.843750
4316,89.843750
4317,89.843750
4318,89.843750
4319,89.843750
4320,89.843750
4321,89.843750
4322,89.843750
4323,89.843750
4324,85.937500
4325,85.937500
4326,89.843750
4327,85.937500
4328,89.843750
4329,85.937500
4330,85.937500
4331,85.937500
4332,85.937500
4333,85.937500
4334,85.937500
4335,85.937500
4336,85.937500
4337,85.937500
4338,85.937500
4339,85.937500
4340,85.937500
4341,85.937500
4342,85.937500
4343,85.937500
4344,85.937500
4345,85.937500
4346,85.937500
4347,85.937500
4348,82.031250
4349,82.031250
4350,82.031250
4351,82.031250
4352,82.031250
4353,82.031250
4354,82.031250
4355,82.031250
4356,82.031250
4357,78.125000
4358,82.031250
4359,82.031250
4360,78.125000
4361,78.125000
4362,78.125000
4363,78.125000
4364,78.125000
4365,78.125000
4366,78.125000
4367,78.125000
4368,78.125000
4369,78.125000
4370,78.125000
4371,78.125000
4372,78.125000
4373,74.218750
4374,74.218750
4375,74.218750
4376,74.218750
4377,74.218750
4378,74.218750
4379,74.218750
4380,74.218750
4381,74.218750
4382,74.218750
4383,70.312500
4384,70.312500
4385,70.312500
4386,70.312500
4387,70.312500
4388,70.312500
4389,70.312500
4390,70.312500
4391,70.312500
4392,70.312500
4393,66.406250
4394,70.312500
4395,66.406250
4396,66.406250
4397,66.406250
4398,66.406250
4399,66.406250
4400,66.406250
4401,66.406250
4402,62.500000
4403,62.500000
4404,62.500000
4405,62.500000
4406,62.500000
4407,62.500000
4408,62.500000
4409,62.500000
4410,62.500000
4411,58.593750
4412,58.593750
4413,58.593750
4414,58.593750
4415,58.593750
4416,58.593750
4417,58.593750
4418,54.687500
4419,54.687500
4420,54.687500
4421,54.687500
4422,54.687500
4423,54.687500
4424,54.687500
4425,54.687500
4426,54.687500
4427,50.781250
4428,50.781250
4429,50.781250
4430,50.781250
4431,50.781250
4432,50.781250
4433,50.781250
4434,46.875000
4435,46.875000
4436,46.875000
4437,46.875000
4438,46.875000
4439,46.875000
4440,46.875000
4441,42.968750
4442,42.968750
4443,42.968750
4444,42.968750
4445,42.968750
4446,42.968750
4447,42.968750
4448,42.968750
4449,39.062500
4450,39.062500
4451,39.062500
4452,39.062500
4453,39.062500
4454,39.062500
4455,35.156250
4456,35.156250
4457,35.156250
4458,35.156250
4459,35.156250
4460,35.156250
4461,35.156250
4462,31.250000
4463,31.250000
4464,31.250000
4465,31.250000
4466,31.250000
4467,31.250000
4468,31.250000
4469,27.343750
4470,27.343750
4471,27.343750
4472,27.343750
4473,27.343750
4474,27.343750
4475,27.343750
4476,23.437500
4477,23.437500
4478,23.437500
4479,23.437500
4480,23.437500
4481,19.531250
4482,19.531250
4483,19.531250
4484,19.531250
4485,19.531250
4486,19.531250
4487,19.531250
4488,15.625000
4489,15.625000
4490,15.625000
4491,15.625000
4492,15.625000
4493,11.718750
4494,11.718750
4495,11.718750
4496,11.718750
4497,11.718750
4498,11.718750
4499,7.812500
4500,7.812500
4501,7.812500
4502,7.812500
4503,7.812500
4504,7.812500
4505,7.812500
4506,3.906250
4507,3.906250
4508,3.906250
4509,3.906250
4510,0.000000
4511,0.000000
4512,0.000000
4513,0.000000
4514,0.000000
4515,0.000000
4516,0.000000
4517,0.000000
4518,-3.906250
4519,-3.906250
4520,-3.906250
4521,-7.812500
4522,-7.812500
4523,-7.812500
4524,-7.812500
4525,-7.812500
4526,-7.812500
4527,-7.812500
4528,-11.718750
4529,-11.718750
4530,-11.718750
4531,-11.718750
4532,-11.718750
4533,-15.625000
4534,-15.625000
4535,-15.625000
4536,-15.625000
4537,-15.625000
4538,-15.625000
4539,-15.625000
4540,-19.531250
4541,-19.531250
4542,-23.437500
4543,-19.531250
4544,-23.437500
4545,-23.437500
4546,-23.437500
4547,-23.437500
4548,-23.437500
4549,-23.437500
4550,-23.437500
4551,-27.343750
4552,-27.343750
4553,-27.343750
4554,-27.343750
4555,-31.250000
4556,-31.250000
4557,-31.250000
4558,-31.250000
4559,-31.250000
4560,-31.250000
4561,-35.156250
4562,-35.156250
4563,-35.156250
4564,-35.156250
4565,-39.062500
4566,-35.156250
4567,-39.062500
4568,-39.062500
4569,-39.062500
4570,-39.062500
4571,-39.062500
4572,-42.968750
4573,-42.968750
4574,-42.968750
4575,-42.968750
4576,-42.968750
4577,-42.968750
4578,-46.875000
4579,-46.875000
4580,-46.875000
4581,-46.875000
4582,-46.875000
4583,-50.781250
4584,-50.781250
4585,-46.875000
4586,-50.781250
4587,-50.781250
4588,-50.781250
4589,-50.781250
4590,-54.687500
4591,-54.687500
4592,-54.687500
4593,-54.687500
4594,-54.687500
4595,-54.687500
4596,-58.593750
4597,-58.593750
4598,-58.593750
4599,-58.593750
4600,-58.593750
4601,-62.500000
4602,-62.500000
4603,-62.500000
4604,-62.500000
4605,-62.500000
4606,-62.500000
4607,-62.500000
4608,-66.406250
4609,-66.406250
4610,-66.406250
4611,-66.406250
4612,-66.406250
4613,-66.406250
4614,-70.312500
4615,-70.312500
4616,-70.312500
4617,-70.312500
4618,-70.312500
4619,-74.218750
4620,-74.218750
4621,-74.218750
4622,-74.218750
4623,-74.218750
4624,-74.218750
4625,-74.218750
4626,-78.125000
4627,-78.125000
4628,-78.125000
4629,-78.125000
4630,-78.125000
4631,-78.125000
4632,-82.031250
4633,-82.031250
4634,-82.031250
4635,-82.031250
4636,-82.031250
4637,-82.031250
4638,-85.937500
4639,-85.937500
4640,-85.937500
4641,-85.937500
4642,-85.937500
4643,-85.937500
4644,-85.937500
4645,-85.937500
4646,-85.937500
4647,-89.843750
4648,-89.843750
4649,-89.843750
4650,-89.843750
4651,-89.843750
4652,-93.750000
4653,-93.750000
4654,-93.750000
4655,-93.750000
4656,-93.750000
4657,-93.750000
4658,-93.750000
4659,-93.750000
4660,-97.656250
4661,-97.656250
4662,-97.656250
4663,-97.656250
4664,-97.656250
4665,-97.656250
4666,-97.656250
4667,-97.656250
4668,-101.562500
4669,-101.562500
4670,-101.562500
4671,-101.562500
4672,-101.562500
4673,-101.562500
4674,-101.562500
4675,-101.562500
4676,-101.562500
4677,-101.562500
4678,-105.468750
4679,-105.468750
4680,-105.468750
4681,-105.468750
4682,-105.468750
4683,-105.468750
4684,-105.468750
4685,-105.468750
4686,-109.375000
4687,-109.375000
4688,-109.375000
4689,-109.375000
4690,-109.375000
4691,-109.375000
4692,-109.375000
4693,-109.375000
4694,-109.375000
4695,-109.375000
4696,-113.281250
4697,-113.281250
4698,-113.281250
4699,-113.281250
4700,-113.281250
4701,-113.281250
4702,-113.281250
4703,-113.281250
4704,-113.281250
4705,-113.281250
4706,-113.281250
4707,-117.187500
4708,-117.187500
4709,-113.281250
4710,-117.187500
4711,-117.187500
4712,-117.187500
4713,-117.187500
4714,-117.187500
4715,-117.187500
4716,-117.187500
4717,-117.187500
4718,-117.187500
4719,-117.187500
4720,-121.093750
4721,-117.187500
4722,-121.093750
4723,-121.093750
4724,-121.093750
4725,-121.093750
4726,-121.093750
4727,-121.093750
4728,-121.093750
4729,-121.093750
4730,-121.093750
4731,-121.093750
4732,-121.093750
4733,-121.093750
4734,-121.093750
4735,-121.093750
4736,-121.093750
4737,-121.093750
4738,-121.093750
4739,-121.093750
4740,-125.000000
4741,-125.000000
4742,-125.000000
4743,-125.000000
4744,-125.000000
4745,-125.000000
4746,-121.093750
4747,-125.000000
4748,-125.000000
4749,-125.000000
4750,-125.000000
4751,-125.000000
4752,-125.000000
4753,-125.000000
4754,-125.000000
4755,-125.000000
4756,-125.000000
4757,-125.000000
4758,-125.000000
4759,-125.000000
4760,-125.000000
4761,-125.000000
4762,-125.000000
4763,-125.000000
4764,-125.000000
4765,-125.000000
4766,-125.000000
4767,-125.000000
4768,-125.000000
4769,-125.000000
4770,-125.000000
4771,-125.000000
4772,-125.000000
4773,-125.000000
4774,-125.000000
4775,-125.000000
4776,-125.000000
4777,-125.000000
4778,-125.000000
4779,-125.000000
4780,-125.000000
4781,-125.000000
4782,-125.000000
4783,-125.000000
4784,-125.000000
4785,-125.000000
4786,-125.000000
4787,-125.000000
4788,-125.000000
4789,-125.000000
4790,-125.000000
4791,-125.000000
4792,-125.000000
4793,-125.000000
4794,-125.000000
4795,-125.000000
4796,-125.000000
4797,-125.000000
4798,-125.000000
4799,-125.000000
4800,-125.000000
4801,-125.000000
4802,-125.000000
4803,-125.000000
4804,-125.000000
4805,-121.093750
4806,-125.000000
4807,-121.093750
4808,-121.093750
4809,-121.093750
4810,-121.093750
4811,-121.093750
4812,-121.093750
4813,-121.093750
4814,-121.093750
4815,-121.093750
4816,-121.093750
4817,-121.093750
4818,-121.093750
4819,-121.093750
4820,-121.093750
4821,-121.093750
4822,-121.093750
4823,-121.093750
4824,-117.187500
4825,-117.187500
4826,-117.187500
4827,-117.187500
4828,-117.187500
4829,-117.187500
4830,-117.187500
4831,-117.187500
4832,-117.187500
4833,-117.187500
4834,-117.187500
4835,-117.187500
4836,-113.281250
4837,-113.281250
4838,-113.281250
4839,-113.281250
4840,-113.281250
4841,-113.281250
4842,-113.281250
4843,-113.281250
4844,-113.281250
4845,-113.281250
4846,-113.281250
4847,-113.281250
4848,-109.375000
4849,-109.375000
4850,-109.375000
4851,-109.375000
4852,-109.375000
4853,-109.375000
4854,-109.375000
4855,-109.375000
4856,-109.375000
4857,-105.468750
4858,-105.468750
4859,-105.468750
4860,-105.468750
4861,-105.468750
4862,-105.468750
4863,-105.468750
4864,-105.468750
4865,-105.468750
4866,-105.468750
4867,-101.562500
4868,-101.562500
4869,-101.562500
4870,-101.562500
4871,-101.562500
4872,-101.562500
4873,-101.562500
4874,-101.562500
4875,-101.562500
4876,-97.656250
4877,-97.656250
4878,-101.562500
4879,-97.656250
4880,-97.656250
4881,-97.656250
4882,-97.656250
4883,-97.656250
4884,-97.656250
4885,-93.750000
4886,-93.750000
4887,-93.750000
4888,-93.750000
4889,-93.750000
4890,-93.750000
4891,-93.750000
4892,-89.843750
4893,-89.843750
4894,-89.843750
4895,-89.843750
4896,-89.843750
4897,-89.843750
4898,-89.843750
4899,-89.843750
4900,-89.843750
4901,-85.937500
4902,-85.937500
4903,-85.937500
4904,-85.937500
4905,-85.937500
4906,-85.937500
4907,-82.031250
4908,-82.031250
4909,-82.031250
4910,-82.031250
4911,-82.031250
4912,-82.031250
4913,-78.125000
4914,-78.125000
4915,-78.125000
4916,-78.125000
4917,-78.125000
4918,-78.125000
4919,-78.125000
4920,-74.218750
4921,-74.218750
4922,-74.218750
4923,-74.218750
4924,-74.218750
4925,-74.218750
4926,-74.218750
4927,-74.218750
4928,-70.312500
4929,-70.312500
4930,-70.312500
4931,-70.312500
4932,-70.312500
4933,-70.312500
4934,-66.406250
4935,-66.406250
4936,-66.406250
4937,-66.406250
4938,-66.406250
4939,-66.406250
4940,-62.500000
4941,-62.500000
4942,-62.500000
4943,-62.500000
4944,-62.500000
4945,-58.593750
4946,-58.593750
4947,-58.593750
4948,-58.593750
4949,-58.593750
4950,-58.593750
4951,-58.593750
4952,-54.687500
4953,-54.687500
4954,-54.687500
4955,-54.687500
4956,-54.687500
4957,-54.687500
4958,-50.781250
4959,-50.781250
4960,-50.781250
4961,-50.781250
4962,-46.875000
4963,-46.875000
4964,-50.781250
4965,-42.968750
4966,-46.875000
4967,-46.875000
4968,-46.875000
4969,-42.968750
4970,-42.968750
4971,-42.968750
4972,-42.968750
4973,-42.968750
4974,-42.968750
4975,-39.062500
4976,-39.062500
4977,-39.062500
4978,-39.062500
4979,-39.062500
4980,-39.062500
4981,-35.156250
4982,-35.156250
4983,-35.156250
4984,-35.156250
4985,-31.250000
4986,-31.250000
4987,-31.250000
4988,-31.250000
4989,-31.250000
4990,-31.250000
4991,-31.250000
4992,-27.343750
4993,-27.343750
4994,-27.343750
4995,-27.343750
4996,-23.437500
4997,-23.437500
4998,-23.437500
4999,-23.437500
5000,-23.437500
5001,-23.437500
5002,-23.437500
5003,-19.531250
5004,-19.531250
5005,-19.531250
5006,-19.531250
5007,-15.625000
5008,-15.625000
5009,-15.625000
5010,-15.625000
5011,-15.625000
5012,-15.625000
5013,-15.625000
5014,-11.718750
5015,-11.718750
5016,-11.718750
5017,-11.718750
5018,-11.718750
5019,-7.812500
5020,-7.812500
5021,-7.812500
5022,-7.812500
5023,-7.812500
5024,-7.812500
5025,-3.906250
5026,-3.906250
5027,-3.906250
5028,-3.906250
5029,-3.906250
5030,0.000000
5031,0.000000
5032,0.000000
5033,0.000000
5034,0.000000
5035,0.000000
5036,0.000000
5037,3.906250
5038,3.906250
5039,3.906250
5040,3.906250
5041,3.906250
5042,7.812500
5043,7.812500
5044,7.812500
5045,7.812500
5046,11.718750
5047,7.812500
5048,11.718750
5049,11.718750
5050,11.718750
5051,11.718750
5052,11.718750
5053,11.718750
5054,11.718750
5055,15.625000
5056,15.625000
5057,15.625000
5058,15.625000
5059,15.625000
5060,15.625000
5061,19.531250
5062,19.531250
5063,19.531250
5064,19.531250
5065,19.531250
5066,23.437500
5067,23.437500
5068,23.437500
5069,23.437500
5070,23.437500
5071,23.437500
5072,23.437500
5073,27.343750
5074,27.343750
5075,27.343750
5076,27.343750
5077,27.343750
5078,31.250000
5079,31.250000
5080,31.250000
5081,31.250000
5082,31.250000
5083,31.250000
5084,31.250000
5085,35.156250
5086,35.156250
5087,35.156250
5088,35.156250
5089,35.156250
5090,35.156250
5091,35.156250
5092,39.062500
5093,39.062500
5094,39.062500
5095,39.062500
5096,39.062500
5097,39.062500
5098,42.968750
5099,42.968750
5100,42.968750
5101,42.968750
5102,42.968750
5103,42.968750
5104,42.968750
5105,42.968750
5106,46.875000
5107,46.875000
5108,46.875000
5109,46.875000
5110,46.875000
5111,46.875000
5112,46.875000
5113,50.781250
5114,50.781250
5115,50.781250
5116,50.781250
5117,50.781250
5118,50.781250
5119,54.687500
5120,54.687500
5121,54.687500
5122,54.687500
5123,54.687500
5124,54.687500
5125,54.687500
5126,54.687500
5127,58.593750
5128,58.593750
5129,58.593750
5130,58.593750
5131,58.593750
5132,58.593750
5133,58.593750
5134,58.593750
5135,58.593750
5136,58.593750
5137,62.500000
5138,62.500000
5139,62.500000
5140,62.500000
5141,62.500000
5142,62.500000
5143,62.500000
5144,62.500000
5145,66.406250
5146,66.406250
5147,66.406250
5148,66.406250
5149,66.406250
5150,66.406250
5151,66.406250
5152,66.406250
5153,70.312500
5154,70.312500
5155,70.312500
5156,70.312500
5157,70.312500
5158,70.312500
5159,70.312500
5160,70.312500
5161,70.312500
5162,70.312500
5163,70.312500
5164,74.218750
5165,74.218750
5166,74.218750
5167,74.218750
5168,74.218750
5169,74.218750
5170,74.218750
5171,74.218750
5172,74.218750
5173,74.218750
5174,74.218750
5175,78.125000
5176,78.125000
5177,78.125000
5178,78.125000
5179,78.125000
5180,78.125000
5181,78.125000
5182,78.125000
5183,78.125000
5184,78.125000
5185,78.125000
5186,78.125000
5187,78.125000
5188,82.031250
5189,82.031250
5190,82.031250
5191,82.031250
5192,82.031250
5193,82.031250
5194,82.031250
5195,82.031250
5196,82.031250
5197,82.031250
5198,82.031250
5199,82.031250
5200,82.031250
5201,82.031250
5202,82.031250
5203,82.031250
5204,85.937500
5205,82.031250
5206,85.937500
5207,85.937500
5208,85.937500
5209,85.937500
5210,85.937500
5211,85.937500
5212,85.937500
5213,85.937500
5214,85.937500
5215,85.937500
5216,85.937500
5217,85.937500
5218,85.937500
5219,85.937500
5220,85.937500
5221,85.937500
5222,85.937500
5223,85.937500
5224,85.937500
5225,89.843750
5226,89.843750
5227,89.843750
5228,89.843750
5229,89.843750
5230,89.843750
5231,89.843750
5232,89.843750
5233,89.843750
5234,89.843750
5235,89.843750
5236,89.843750
5237,89.843750
5238,89.843750
5239,89.843750
5240,89.843750
5241,89.843750
5242,89.843750
5243,89.843750
5244,89.843750
5245,89.843750
5246,89.843750
5247,89.843750
5248,89.843750
5249,93.750000
5250,89.843750
5251,89.843750
5252,89.843750
5253,89.843750
5254,93.750000
5255,89.843750
5256,93.750000
5257,93.750000
5258,93.750000
5259,93.750000
5260,93.750000
5261,89.843750
5262,93.750000
5263,93.750000
5264,93.750000
5265,93.750000
5266,93.750000
5267,93.750000
5268,93.750000
5269,89.843750
5270,93.750000
5271,93.750000
5272,89.843750
5273,89.843750
5274,89.843750
5275,93.750000
5276,89.843750
5277,93.750000
5278,93.750000
5279,89.843750
5280,89.843750
5281,89.843750
5282,93.750000
5283,89.843750
5284,89.843750
5285,89.843750
5286,89.843750
5287,89.843750
5288,89.843750
5289,89.843750
5290,89.843750
5291,89.843750
5292,89.843750
5293,89.843750
5294,89.843750
5295,89.843750
5296,89.843750
5297,89.843750
5298,89.843750
5299,89.843750
5300,89.843750
5301,89.843750
5302,89.843750
5303,89.843750
5304,89.843750
5305,89.843750
5306,89.843750
5307,89.843750
5308,89.843750
5309,89.843750
5310,89.843750
5311,85.937500
5312,89.843750
5313,89.843750
5314,85.937500
5315,85.937500
5316,85.937500
5317,85.937500
5318,85.937500
5319,85.937500
5320,85.937500
5321,85.937500
5322,85.937500
5323,85.937500
5324,85.937500
5325,85.937500
5326,85.937500
5327,85.937500
5328,85.937500
5329,85.937500
5330,85.937500
5331,85.937500
5332,82.031250
5333,82.031250
5334,82.031250
5335,82.031250
5336,82.031250
5337,82.031250
5338,82.031250
5339,82.031250
5340,82.031250
5341,82.031250
5342,82.031250
5343,82.031250
5344,82.031250
5345,82.031250
5346,82.031250
5347,82.031250
5348,82.031250
5349,82.031250
5350,82.031250
5351,78.125000
5352,78.125000
5353,78.125000
5354,78.125000
5355,78.125000
5356,78.125000
5357,78.125000
5358,78.125000
5359,74.218750
5360,78.125000
5361,74.218750
5362,74.218750
5363,74.218750
5364,74.218750
5365,74.218750
5366,74.218750
5367,74.218750
5368,74.218750
5369,74.218750
5370,74.218750
5371,74.218750
5372,70.312500
5373,70.312500
5374,70.312500
5375,70.312500
5376,70.312500
5377,70.312500
5378,70.312500
5379,70.312500
5380,70.312500
5381,70.312500
5382,70.312500
5383,66.406250
5384,66.406250
5385,66.406250
5386,66.406250
5387,66.406250
5388,66.406250
5389,66.406250
5390,66.406250
5391,66.406250
5392,62.500000
5393,62.500000
5394,62.500000
5395,62.500000
5396,62.500000
5397,62.500000
5398,62.500000
5399,62.500000
5400,62.500000
5401,62.500000
5402,58.593750
5403,58.593750
5404,58.593750
5405,58.593750
5406,58.593750
5407,58.593750
5408,58.593750
5409,54.687500
5410,54.687500
5411,54.687500
5412,54.687500
5413,54.687500
5414,54.687500
5415,54.687500
5416,54.687500
5417,54.687500
5418,50.781250
5419,50.781250
5420,50.781250
5421,50.781250
5422,50.781250
5423,46.875000
5424,50.781250
5425,46.875000
5426,46.875000
5427,46.875000
5428,46.875000
5429,46.875000
5430,46.875000
5431,42.968750
5432,42.968750
5433,42.968750
5434,42.968750
5435,42.968750
5436,42.968750
5437,42.968750
5438,39.062500
5439,42.968750
5440,39.062500
5441,39.062500
5442,39.062500
5443,39.062500
5444,35.156250
5445,35.156250
5446,35.156250
5447,35.156250
5448,35.156250
5449,35.156250
5450,35.156250
5451,31.250000
5452,31.250000
5453,31.250000
5454,31.250000
5455,31.250000
5456,31.250000
5457,31.250000
5458,31.250000
5459,27.343750
5460,27.343750
5461,27.343750
5462,27.343750
5463,27.343750
5464,23.437500
5465,23.437500
5466,23.437500
5467,23.437500
5468,23.437500
5469,23.437500
5470,19.531250
5471,19.531250
5472,19.531250
5473,19.531250
5474,19.531250
5475,19.531250
5476,19.531250
5477,15.625000
5478,15.625000
5479,15.625000
5480,15.625000
5481,11.718750
5482,11.718750
5483,15.625000
5484,11.718750
5485,11.718750
5486,11.718750
5487,11.718750
5488,11.718750
5489,7.812500
5490,7.812500
5491,7.812500
5492,7.812500
5493,7.812500
5494,3.906250
5495,3.906250
5496,3.906250
5497,3.906250
5498,3.906250
5499,3.906250
5500,0.000000
5501,0.000000
5502,0.000000
5503,0.000000
5504,0.000000
5505,-3.906250
5506,-3.906250
5507,-3.906250
5508,-3.906250
5509,-3.906250
5510,-3.906250
5511,-7.812500
5512,-7.812500
5513,-7.812500
5514,-7.812500
5515,-7.812500
5516,-7.812500
5517,-7.812500
5518,-11.718750
5519,-11.718750
5520,-11.718750
5521,-11.718750
5522,-15.625000
5523,-15.625000
5524,-15.625000
5525,-15.625000
5526,-15.625000
5527,-15.625000
5528,-15.625000
5529,-19.531250
5530,-19.531250
5531,-19.531250
5532,-19.531250
5533,-19.531250
5534,-23.437500
5535,-23.437500
5536,-23.437500
5537,-23.437500
5538,-23.437500
5539,-27.343750
5540,-27.343750
5541,-27.343750
5542,-27.343750
5543,-27.343750
5544,-27.343750
5545,-31.250000
5546,-31.250000
5547,-31.250000
5548,-31.250000
5549,-31.250000
5550,-31.250000
5551,-35.156250
5552,-35.156250
5553,-35.156250
5554,-35.156250
5555,-39.062500
5556,-39.062500
5557,-39.062500
5558,-39.062500
5559,-39.062500
5560,-39.062500
5561,-42.968750
5562,-42.968750
5563,-42.968750
5564,-42.968750
5565,-42.968750
5566,-42.968750
5567,-46.875000
5568,-46.875000
5569,-46.875000
5570,-46.875000
5571,-46.875000
5572,-50.781250
5573,-50.781250
5574,-50.781250
5575,-50.781250
5576,-50.781250
5577,-50.781250
5578,-54.687500
5579,-54.687500
5580,-54.687500
5581,-54.687500
5582,-54.687500
5583,-58.593750
5584,-58.593750
5585,-58.593750
5586,-58.593750
5587,-58.593750
5588,-58.593750
5589,-58.593750
5590,-62.500000
5591,-62.500000
5592,-62.500000
5593,-62.500000
5594,-62.500000
5595,-62.500000
5596,-62.500000
5597,-66.406250
5598,-66.406250
5599,-66.406250
5600,-66.406250
5601,-70.312500
5602,-70.312500
5603,-70.312500
5604,-70.312500
5605,-70.312500
5606,-70.312500
5607,-70.312500
5608,-74.218750
5609,-74.218750
5610,-74.218750
5611,-74.218750
5612,-74.218750
5613,-78.125000
5614,-78.125000
5615,-74.218750
5616,-78.125000
5617,-78.125000
5618,-78.125000
5619,-78.125000
5620,-78.125000
5621,-82.031250
5622,-82.031250
5623,-82.031250
5624,-82.031250
5625,-82.031250
5626,-82.031250
5627,-82.031250
5628,-85.937500
5629,-85.937500
5630,-85.937500
5631,-85.937500
5632,-85.937500
5633,-89.843750
5634,-85.937500
5635,-89.843750
5636,-89.843750
5637,-89.843750
5638,-89.843750
5639,-89.843750
5640,-89.843750
5641,-89.843750
5642,-93.750000
5643,-93.750000
5644,-93.750000
5645,-93.750000
5646,-93.750000
5647,-93.750000
5648,-93.750000
5649,-93.750000
5650,-97.656250
5651,-97.656250
5652,-97.656250
5653,-97.656250
5654,-97.656250
5655,-97.656250
5656,-97.656250
5657,-101.562500
5658,-101.562500
5659,-101.562500
5660,-101.562500
5661,-101.562500
5662,-101.562500
5663,-101.562500
5664,-101.562500
5665,-101.562500
5666,-101.562500
5667,-105.468750
5668,-105.468750
5669,-105.468750
5670,-105.468750
5671,-105.468750
5672,-105.468750
5673,-105.468750
5674,-105.468750
5675,-105.468750
5676,-105.468750
5677,-109.375000
5678,-109.375000
5679,-109.375000
5680,-109.375000
5681,-109.375000
5682,-109.375000
5683,-113.281250
5684,-113.281250
5685,-109.375000
5686,-109.375000
5687,-113.281250
5688,-113.281250
5689,-113.281250
5690,-113.281250
5691,-113.281250
5692,-113.281250
5693,-113.281250
5694,-113.281250
5695,-113.281250
5696,-113.281250
5697,-117.187500
5698,-117.187500
5699,-117.187500
5700,-117.187500
5701,-117.187500
5702,-117.187500
5703,-117.187500
5704,-117.187500
5705,-117.187500
5706,-121.093750
5707,-117.187500
5708,-121.093750
5709,-121.093750
5710,-121.093750
5711,-121.093750
5712,-121.093750
5713,-121.093750
5714,-121.093750
5715,-121.093750
5716,-121.093750
5717,-121.093750
5718,-121.093750
5719,-121.093750
5720,-121.093750
5721,-121.093750
5722,-121.093750
5723,-121.093750
5724,-121.093750
5725,-121.093750
5726,-121.093750
5727,-121.093750
5728,-125.000000
5729,-125.000000
5730,-125.000000
5731,-125.000000
5732,-125.000000
5733,-125.000000
5734,-125.000000
5735,-125.000000
5736,-121.093750
5737,-125.000000
5738,-125.000000
5739,-125.000000
5740,-125.000000
5741,-125.000000
5742,-125.000000
5743,-125.000000
5744,-125.000000
5745,-125.000000
5746,-125.000000
5747,-125.000000
5748,-125.000000
5749,-125.000000
5750,-125.000000
5751,-125.000000
5752,-125.000000
5753,-125.000000
5754,-125.000000
5755,-125.000000
5756,-125.000000
5757,-125.000000
5758,-125.000000
5759,-125.000000
5760,-125.000000
5761,-125.000000
5762,-125.000000
5763,-125.000000
5764,-125.000000
5765,-125.000000
5766,-125.000000
5767,-125.000000
5768,-125.000000
5769,-125.000000
5770,-125.000000
5771,-125.000000
5772,-125.000000
5773,-125.000000
5774,-125.000000
5775,-125.000000
5776,-125.000000
5777,-125.000000
5778,-125.000000
5779,-125.000000
5780,-125.000000
5781,-125.000000
5782,-125.000000
5783,-125.000000
5784,-125.000000
5785,-125.000000
5786,-125.000000
5787,-125.000000
5788,-125.000000
5789,-125.000000
5790,-125.000000
5791,-125.000000
5792,-125.000000
5793,-125.000000
5794,-121.093750
5795,-121.093750
5796,-121.093750
5797,-121.093750
5798,-121.093750
5799,-121.093750
5800,-121.093750
5801,-121.093750
5802,-121.093750
5803,-121.093750
5804,-121.093750
5805,-121.093750
5806,-121.093750
5807,-121.093750
5808,-121.093750
5809,-121.093750
5810,-121.093750
5811,-121.093750
5812,-121.093750
5813,-121.093750
5814,-117.187500
5815,-117.187500
5816,-121.093750
5817,-117.187500
5818,-117.187500
5819,-117.187500
5820,-117.187500
5821,-117.187500
5822,-117.187500
5823,-117.187500
5824,-117.187500
5825,-117.187500
5826,-117.187500
5827,-117.187500
5828,-117.187500
5829,-117.187500
5830,-117.187500
5831,-113.281250
5832,-113.281250
5833,-113.281250
5834,-113.281250
5835,-113.281250
5836,-113.281250
5837,-113.281250
5838,-113.281250
5839,-113.281250
5840,-113.281250
5841,-109.375000
5842,-109.375000
5843,-109.375000
5844,-109.375000
5845,-109.375000
5846,-109.375000
5847,-109.375000
5848,-109.375000
5849,-109.375000
5850,-109.375000
5851,-109.375000
5852,-105.468750
5853,-105.468750
5854,-105.468750
5855,-105.468750
5856,-105.468750
5857,-105.468750
5858,-105.468750
5859,-105.468750
5860,-105.468750
5861,-101.562500
5862,-101.562500
5863,-101.562500
5864,-101.562500
5865,-101.562500
5866,-97.656250
5867,-101.562500
5868,-101.562500
5869,-97.656250
5870,-97.656250
5871,-97.656250
5872,-97.656250
5873,-97.656250
5874,-93.750000
5875,-93.750000
5876,-93.750000
5877,-93.750000
5878,-93.750000
5879,-93.750000
5880,-93.750000
5881,-93.750000
5882,-89.843750
5883,-89.843750
5884,-89.843750
5885,-89.843750
5886,-89.843750
5887,-89.843750
5888,-89.843750
5889,-89.843750
5890,-89.843750
5891,-85.937500
5892,-85.937500
5893,-85.937500
5894,-85.937500
5895,-85.937500
5896,-85.937500
5897,-82.031250
5898,-82.031250
5899,-82.031250
5900,-82.031250
5901,-82.031250
5902,-82.031250
5903,-78.125000
5904,-78.125000
5905,-78.125000
5906,-78.125000
5907,-78.125000
5908,-78.125000
5909,-78.125000
5910,-78.125000
5911,-74.218750
5912,-74.218750
5913,-74.218750
5914,-74.218750
5915,-74.218750
5916,-70.312500
5917,-70.312500
5918,-70.312500
5919,-70.312500
5920,-70.312500
5921,-70.312500
5922,-66.406250
5923,-66.406250
5924,-66.406250
5925,-66.406250
5926,-66.406250
5927,-66.406250
5928,-66.406250
5929,-62.500000
5930,-62.500000
5931,-62.500000
5932,-62.500000
5933,-62.500000
5934,-58.593750
5935,-58.593750
5936,-58.593750
5937,-58.593750
5938,-58.593750
5939,-58.593750
5940,-58.593750
5941,-54.687500
5942,-54.687500
5943,-54.687500
5944,-54.687500
5945,-54.687500
5946,-54.687500
5947,-50.781250
5948,-50.781250
5949,-50.781250
5950,-50.781250
5951,-50.781250
5952,-46.875000
5953,-46.875000
5954,-46.875000
5955,-46.875000
5956,-46.875000
5957,-46.875000
5958,-42.968750
5959,-46.875000
5960,-42.968750
5961,-42.968750
5962,-42.968750
5963,-39.062500
5964,-39.062500
5965,-39.062500
5966,-39.062500
5967,-39.062500
5968,-39.062500
5969,-39.062500
5970,-35.156250
5971,-35.156250
5972,-35.156250
5973,-35.156250
5974,-35.156250
5975,-31.250000
5976,-31.250000
5977,-31.250000
5978,-31.250000
5979,-31.250000
5980,-31.250000
5981,-27.343750
5982,-27.343750
5983,-27.343750
5984,-27.343750
5985,-27.343750
5986,-23.437500
5987,-23.437500
5988,-23.437500
5989,-23.437500
5990,-23.437500
5991,-23.437500
5992,-19.531250
5993,-19.531250
5994,-19.531250
5995,-19.531250
5996,-19.531250
5997,-15.625000
5998,-15.625000
5999,-15.625000
6000,-15.625000
6001,-15.625000
6002,-15.625000
6003,-11.718750
6004,-11.718750
6005,-11.718750
6006,-11.718750
6007,-11.718750
6008,-7.812500
6009,-7.812500
6010,-7.812500
6011,-7.812500
6012,-7.812500
6013,-7.812500
6014,-3.906250
6015,-3.906250
6016,-3.906250
6017,-3.906250
6018,-3.906250
6019,-3.906250
6020,-3.906250
6021,0.000000
6022,0.000000
6023,0.000000
6024,0.000000
6025,3.906250
6026,3.906250
6027,3.906250
6028,3.906250
6029,3.906250
6030,3.906250
6031,3.906250
6032,7.812500
6033,7.812500
6034,7.812500
6035,7.812500
6036,7.812500
6037,7.812500
6038,11.718750
6039,11.718750
6040,11.718750
6041,11.718750
6042,15.625000
6043,15.625000
6044,15.625000
6045,15.625000
6046,15.625000
6047,15.625000
6048,15.625000
6049,19.531250
6050,19.531250
6051,19.531250
6052,19.531250
6053,19.531250
6054,23.437500
6055,19.531250
6056,23.437500
6057,27.343750
6058,23.437500
6059,23.437500
6060,23.437500
6061,23.437500
6062,27.343750
6063,27.343750
6064,27.343750
6065,27.343750
6066,31.250000
6067,31.250000
6068,31.250000
6069,31.250000
6070,31.250000
6071,31.250000
6072,31.250000
6073,35.156250
6074,35.156250
6075,35.156250
6076,35.156250
6077,35.156250
6078,35.156250
6079,35.156250
6080,35.156250
6081,39.062500
6082,39.062500
6083,39.062500
6084,39.062500
6085,39.062500
6086,39.062500
6087,39.062500
6088,42.968750
6089,42.968750
6090,42.968750
6091,42.968750
6092,42.968750
6093,42.968750
6094,46.875000
6095,46.875000
6096,46.875000
6097,46.875000
6098,46.875000
6099,46.875000
6100,46.875000
6101,46.875000
6102,46.875000
6103,50.781250
6104,50.781250
6105,50.781250
6106,50.781250
6107,50.781250
6108,50.781250
6109,50.781250
6110,54.687500
6111,54.687500
6112,54.687500
6113,54.687500
6114,54.687500
6115,54.687500
6116,54.687500
6117,54.687500
6118,58.593750
6119,58.593750
6120,58.593750
6121,58.593750
6122,58.593750
6123,58.593750
6124,62.500000
6125,62.500000
6126,62.500000
6127,54.687500
6128,62.500000
6129,62.500000
6130,62.500000
6131,62.500000
6132,62.500000
6133,66.406250
6134,66.406250
6135,66.406250
6136,62.500000
6137,66.406250
6138,66.406250
6139,66.406250
6140,66.406250
6141,66.406250
6142,70.312500
6143,66.406250
6144,70.312500
6145,70.312500
6146,70.312500
6147,70.312500
6148,70.312500
6149,70.312500
6150,70.312500
6151,70.312500
6152,70.312500
6153,74.218750
6154,74.218750
6155,74.218750
6156,74.218750
6157,74.218750
6158,74.218750
6159,74.218750
6160,74.218750
6161,78.125000
6162,74.218750
6163,78.125000
6164,78.125000
6165,78.125000
6166,78.125000
6167,78.125000
6168,78.125000
6169,78.125000
6170,78.125000
6171,78.125000
6172,78.125000
6173,78.125000
6174,78.125000
6175,78.125000
6176,82.031250
6177,82.031250
6178,82.031250
6179,82.031250
6180,82.031250
6181,82.031250
6182,82.031250
6183,82.031250
6184,82.031250
6185,82.031250
6186,82.031250
6187,82.031250
6188,82.031250
6189,82.031250
6190,82.031250
6191,85.937500
6192,85.937500
6193,82.031250
6194,85.937500
6195,85.937500
6196,85.937500
6197,85.937500
6198,85.937500
6199,85.937500
6200,85.937500
6201,85.937500
6202,85.937500
6203,85.937500
6204,85.937500
6205,85.937500
6206,85.937500
6207,85.937500
6208,85.937500
6209,85.937500
6210,89.843750
6211,89.843750
6212,89.843750
6213,89.843750
6214,89.843750
6215,89.843750
6216,89.843750
6217,89.843750
6218,89.843750
6219,89.843750
6220,89.843750
6221,89.843750
6222,89.843750
6223,89.843750
6224,89.843750
6225,89.843750
6226,89.843750
6227,89.843750
6228,89.843750
6229,89.843750
6230,89.843750
6231,89.843750
6232,89.843750
6233,93.750000
6234,93.750000
6235,89.843750
6236,89.843750
6237,89.843750
6238,89.843750
6239,89.843750
6240,89.843750
6241,93.750000
6242,93.750000
6243,93.750000
6244,93.750000
6245,89.843750
6246,93.750000
6247,89.843750
6248,93.750000
6249,93.750000
6250,93.750000
6251,93.750000
6252,93.750000
6253,89.843750
6254,93.750000
6255,93.750000
6256,93.750000
6257,93.750000
6258,89.843750
6259,89.843750
6260,93.750000
6261,93.750000
6262,93.750000
6263,93.750000
6264,93.750000
6265,93.750000
6266,93.750000
6267,89.843750
6268,89.843750
6269,93.750000
6270,93.750000
6271,93.750000
6272,93.750000
6273,93.750000
6274,93.750000
6275,93.750000
6276,93.750000
6277,89.843750
6278,89.843750
6279,89.843750
6280,93.750000
6281,89.843750
6282,89.843750
6283,89.843750
6284,89.843750
6285,89.843750
6286,89.843750
6287,89.843750
6288,89.843750
6289,89.843750
6290,89.843750
6291,89.843750
6292,89.843750
6293,89.843750
6294,89.843750
6295,89.843750
6296,89.843750
6297,89.843750
6298,89.843750
6299,89.843750
6300,89.843750
6301,89.843750
6302,89.843750
6303,89.843750
6304,89.843750
6305,85.937500
6306,89.843750
6307,89.843750
6308,85.937500
6309,85.937500
6310,85.937500
6311,85.937500
6312,85.937500
6313,85.937500
6314,85.937500
6315,85.937500
6316,85.937500
6317,85.937500
6318,85.937500
6319,85.937500
6320,85.937500
6321,85.937500
6322,85.937500
6323,82.031250
6324,85.937500
6325,82.031250
6326,82.031250
6327,82.031250
6328,82.031250
6329,82.031250
6330,82.031250
6331,82.031250
6332,82.031250
6333,82.031250
6334,82.031250
6335,82.031250
6336,82.031250
6337,78.125000
6338,78.125000
6339,78.125000
6340,82.031250
6341,78.125000
6342,78.125000
6343,78.125000
6344,78.125000
6345,78.125000
6346,78.125000
6347,78.125000
6348,78.125000
6349,78.125000
6350,78.125000
6351,78.125000
6352,74.218750
6353,74.218750
6354,74.218750
6355,74.218750
6356,74.218750
6357,74.218750
6358,74.218750
6359,74.218750
6360,74.218750
6361,74.218750
6362,74.218750
6363,74.218750
6364,70.312500
6365,70.312500
6366,70.312500
6367,70.312500
6368,70.312500
6369,70.312500
6370,70.312500
6371,70.312500
6372,70.312500
6373,66.406250
6374,66.406250
6375,66.406250
6376,66.406250
6377,66.406250
6378,66.406250
6379,66.406250
6380,66.406250
6381,66.406250
6382,66.406250
6383,62.500000
6384,62.500000
6385,62.500000
6386,62.500000
6387,62.500000
6388,62.500000
6389,58.593750
6390,62.500000
6391,58.593750
6392,58.593750
6393,58.593750
6394,58.593750
6395,58.593750
6396,58.593750
6397,58.593750
6398,54.687500
6399,54.687500
6400,54.687500
6401,54.687500
6402,54.687500
6403,54.687500
6404,54.687500
6405,54.687500
6406,50.781250
6407,50.781250
6408,50.781250
6409,50.781250
6410,50.781250
6411,50.781250
6412,50.781250
6413,50.781250
6414,46.875000
6415,46.875000
6416,46.875000
6417,46.875000
6418,46.875000
6419,46.875000
6420,46.875000
6421,46.875000
6422,42.968750
6423,42.968750
6424,42.968750
6425,42.968750
6426,42.968750
6427,39.062500
6428,39.062500
6429,39.062500
6430,39.062500
6431,39.062500
6432,39.062500
6433,39.062500
6434,39.062500
6435,39.062500
6436,35.156250
6437,35.156250
6438,35.156250
6439,35.156250
6440,35.156250
6441,35.156250
6442,31.250000
6443,31.250000
6444,31.250000
6445,31.250000
6446,31.250000
6447,27.343750
6448,31.250000
6449,27.343750
6450,27.343750
6451,27.343750
6452,27.343750
6453,27.343750
6454,23.437500
6455,23.437500
6456,23.437500
6457,23.437500
6458,23.437500
6459,19.531250
6460,23.437500
6461,19.531250
6462,19.531250
6463,19.531250
6464,19.531250
6465,19.531250
6466,15.625000
6467,15.625000
6468,15.625000
6469,15.625000
6470,15.625000
6471,15.625000
6472,11.718750
6473,11.718750
6474,11.718750
6475,11.718750
6476,11.718750
6477,7.812500
6478,11.718750
6479,7.812500
6480,7.812500
6481,7.812500
6482,7.812500
6483,7.812500
6484,3.906250
6485,3.906250
6486,3.906250
6487,3.906250
6488,3.906250
6489,0.000000
6490,0.000000
6491,0.000000
6492,0.000000
6493,0.000000
6494,-3.906250
6495,-3.906250
6496,-3.906250
6497,-3.906250
6498,-3.906250
6499,-3.906250
6500,-7.812500
6501,-7.812500
6502,-7.812500
6503,-7.812500
6504,-7.812500
6505,-11.718750
6506,-11.718750
6507,-11.718750
6508,-11.718750
6509,-11.718750
6510,-11.718750
6511,-11.718750
6512,-15.625000
6513,-15.625000
6514,-15.625000
6515,-15.625000
6516,-15.625000
6517,-15.625000
6518,-19.531250
6519,-19.531250
6520,-19.531250
6521,-19.531250
6522,-19.531250
6523,-23.437500
6524,-23.437500
6525,-23.437500
6526,-23.437500
6527,-23.437500
6528,-23.437500
6529,-27.343750
6530,-23.437500
6531,-27.343750
6532,-27.343750
6533,-27.343750
6534,-31.250000
6535,-31.250000
6536,-31.250000
6537,-31.250000
6538,-31.250000
6539,-31.250000
6540,-35.156250
6541,-35.156250
6542,-35.156250
6543,-35.156250
6544,-35.156250
6545,-39.062500
6546,-39.062500
6547,-39.062500
6548,-39.062500
6549,-39.062500
6550,-39.062500
6551,-42.968750
6552,-42.968750
6553,-42.968750
6554,-42.968750
6555,-42.968750
6556,-46.875000
6557,-46.875000
6558,-46.875000
6559,-46.875000
6560,-46.875000
6561,-46.875000
6562,-46.875000
6563,-50.781250
6564,-50.781250
6565,-50.781250
6566,-50.781250
6567,-50.781250
6568,-54.687500
6569,-54.687500
6570,-54.687500
6571,-54.687500
6572,-54.687500
6573,-58.593750
6574,-58.593750
6575,-58.593750
6576,-58.593750
6577,-58.593750
6578,-58.593750
6579,-62.500000
6580,-62.500000
6581,-62.500000
6582,-62.500000
6583,-62.500000
6584,-66.406250
6585,-66.406250
6586,-66.406250
6587,-66.406250
6588,-66.406250
6589,-66.406250
6590,-66.406250
6591,-70.312500
6592,-70.312500
6593,-70.312500
6594,-74.218750
6595,-70.312500
6596,-74.218750
6597,-74.218750
6598,-74.218750
6599,-74.218750
6600,-74.218750
6601,-74.218750
6602,-74.218750
6603,-74.218750
6604,-78.125000
6605,-78.125000
6606,-78.125000
6607,-78.125000
6608,-78.125000
6609,-82.031250
6610,-82.031250
6611,-82.031250
6612,-82.031250
6613,-82.031250
6614,-85.937500
6615,-85.937500
6616,-85.937500
6617,-85.937500
6618,-85.937500
6619,-85.937500
6620,-85.937500
6621,-85.937500
6622,-85.937500
6623,-89.843750
6624,-89.843750
6625,-89.843750
6626,-89.843750
6627,-89.843750
6628,-89.843750
6629,-89.843750
6630,-93.750000
6631,-93.750000
6632,-93.750000
6633,-93.750000
6634,-93.750000
6635,-93.750000
6636,-93.750000
6637,-97.656250
6638,-97.656250
6639,-97.656250
6640,-97.656250
6641,-97.656250
6642,-97.656250
6643,-97.656250
6644,-101.562500
6645,-101.562500
6646,-101.562500
6647,-101.562500
6648,-101.562500
6649,-101.562500
6650,-101.562500
6651,-101.562500
6652,-101.562500
6653,-101.562500
6654,-105.468750
6655,-105.468750
6656,-105.468750
6657,-105.468750
6658,-105.468750
6659,-105.468750
6660,-105.468750
6661,-105.468750
6662,-105.468750
6663,-109.375000
6664,-109.375000
6665,-109.375000
6666,-109.375000
6667,-109.375000
6668,-109.375000
6669,-109.375000
6670,-109.375000
6671,-113.281250
6672,-109.375000
6673,-113.281250
6674,-113.281250
6675,-113.281250
6676,-113.281250
6677,-113.281250
6678,-113.281250
6679,-113.281250
6680,-113.281250
6681,-113.281250
6682,-113.281250
6683,-113.281250
6684,-113.281250
6685,-117.187500
6686,-117.187500
6687,-117.187500
6688,-117.187500
6689,-117.187500
6690,-117.187500
6691,-117.187500
6692,-117.187500
6693,-117.187500
6694,-117.187500
6695,-117.187500
6696,-117.187500
6697,-117.187500
6698,-117.187500
6699,-121.093750
6700,-117.187500
6701,-121.093750
6702,-121.093750
6703,-121.093750
6704,-121.093750
6705,-121.093750
6706,-121.093750
6707,-121.093750
6708,-121.093750
6709,-121.093750
6710,-121.093750
6711,-121.093750
6712,-121.093750
6713,-121.093750
6714,-125.000000
6715,-121.093750
6716,-125.000000
6717,-121.093750
6718,-125.000000
6719,-125.000000
6720,-125.000000
6721,-125.000000
6722,-125.000000
6723,-125.000000
6724,-125.000000
6725,-125.000000
6726,-125.000000
6727,-125.000000
6728,-125.000000
6729,-125.000000
6730,-125.000000
6731,-125.000000
6732,-125.000000
6733,-125.000000
6734,-125.000000
6735,-125.000000
6736,-125.000000
6737,-125.000000
6738,-125.000000
6739,-125.000000
6740,-125.000000
6741,-125.000000
6742,-125.000000
6743,-125.000000
6744,-125.000000
6745,-125.000000
6746,-125.000000
6747,-125.000000
6748,-125.000000
6749,-125.000000
6750,-125.000000
6751,-125.000000
6752,-125.000000
6753,-125.000000
6754,-125.000000
6755,-125.000000
6756,-125.000000
6757,-125.000000
6758,-125.000000
6759,-125.000000
6760,-125.000000
6761,-125.000000
6762,-125.000000
6763,-125.000000
6764,-125.000000
6765,-125.000000
6766,-125.000000
6767,-125.000000
6768,-125.000000
6769,-125.000000
6770,-125.000000
6771,-125.000000
6772,-125.000000
6773,-125.000000
6774,-125.000000
6775,-125.000000
6776,-125.000000
6777,-125.000000
6778,-125.000000
6779,-125.000000
6780,-121.093750
6781,-125.000000
6782,-125.000000
6783,-125.000000
6784,-125.000000
6785,-121.093750
6786,-121.093750
6787,-121.093750
6788,-121.093750
6789,-121.093750
6790,-121.093750
6791,-121.093750
6792,-121.093750
6793,-121.093750
6794,-121.093750
6795,-121.093750
6796,-121.093750
6797,-121.093750
6798,-121.093750
6799,-121.093750
6800,-117.187500
6801,-117.187500
6802,-117.187500
6803,-117.187500
6804,-117.187500
6805,-117.187500
6806,-117.187500
6807,-117.187500
6808,-117.187500
6809,-117.187500
6810,-117.187500
6811,-117.187500
6812,-117.187500
6813,-117.187500
6814,-117.187500
6815,-117.187500
6816,-117.187500
6817,-113.281250
6818,-113.281250
6819,-113.281250
6820,-113.281250
6821,-113.281250
6822,-113.281250
6823,-113.281250
6824,-113.281250
6825,-113.281250
6826,-113.281250
6827,-113.281250
6828,-109.375000
6829,-109.375000
6830,-109.375000
6831,-109.375000
6832,-109.375000
6833,-109.375000
6834,-109.375000
6835,-109.375000
6836,-109.375000
6837,-109.375000
6838,-105.468750
6839,-105.468750
6840,-105.468750
6841,-105.468750
6842,-105.468750
6843,-105.468750
6844,-105.468750
6845,-105.468750
6846,-105.468750
6847,-105.468750
6848,-101.562500
6849,-101.562500
6850,-101.562500
6851,-101.562500
6852,-101.562500
6853,-101.562500
6854,-101.562500
6855,-101.562500
6856,-101.562500
6857,-97.656250
6858,-97.656250
6859,-97.656250
6860,-97.656250
6861,-97.656250
6862,-97.656250
6863,-97.656250
6864,-97.656250
6865,-93.750000
6866,-93.750000
6867,-93.750000
6868,-93.750000
6869,-93.750000
6870,-93.750000
6871,-93.750000
6872,-89.843750
6873,-89.843750
6874,-89.843750
6875,-89.843750
6876,-89.843750
6877,-89.843750
6878,-89.843750
6879,-85.937500
6880,-85.937500
6881,-85.937500
6882,-85.937500
6883,-85.937500
6884,-85.937500
6885,-85.937500
6886,-85.937500
6887,-82.031250
6888,-82.031250
6889,-82.031250
6890,-82.031250
6891,-82.031250
6892,-78.125000
6893,-78.125000
6894,-78.125000
6895,-78.125000
6896,-78.125000
6897,-78.125000
6898,-78.125000
6899,-74.218750
6900,-74.218750
6901,-74.218750
6902,-74.218750
6903,-74.218750
6904,-74.218750
6905,-74.218750
6906,-70.312500
6907,-70.312500
6908,-70.312500
6909,-70.312500
6910,-70.312500
6911,-70.312500
6912,-66.406250
6913,-66.406250
6914,-66.406250
6915,-66.406250
6916,-66.406250
6917,-66.406250
6918,-62.500000
6919,-62.500000
6920,-62.500000
6921,-62.500000
6922,-62.500000
6923,-62.500000
6924,-58.593750
6925,-58.593750
6926,-58.593750
6927,-58.593750
6928,-54.687500
6929,-54.687500
6930,-54.687500
6931,-54.687500
6932,-54.687500
6933,-54.687500
6934,-54.687500
6935,-54.687500
6936,-50.781250
6937,-50.781250
6938,-50.781250
6939,-50.781250
6940,-50.781250
6941,-46.875000
6942,-46.875000
6943,-46.875000
6944,-46.875000
6945,-46.875000
6946,-42.968750
6947,-42.968750
6948,-42.968750
6949,-42.968750
6950,-42.968750
6951,-42.968750
6952,-39.062500
6953,-39.062500
6954,-39.062500
6955,-39.062500
6956,-39.062500
6957,-35.156250
6958,-35.156250
6959,-35.156250
6960,-35.156250
6961,-35.156250
6962,-35.156250
6963,-35.156250
6964,-31.250000
6965,-31.250000
6966,-31.250000
6967,-31.250000
6968,-27.343750
6969,-27.343750
6970,-27.343750
6971,-27.343750
6972,-27.343750
6973,-27.343750
6974,-27.343750
6975,-23.437500
6976,-23.437500
6977,-23.437500
6978,-23.437500
6979,-23.437500
6980,-19.531250
6981,-19.531250
6982,-19.531250
6983,-19.531250
6984,-19.531250
6985,-19.531250
6986,-15.625000
6987,-15.625000
6988,-15.625000
6989,-15.625000
6990,-15.625000
6991,-15.625000
6992,-11.718750
6993,-11.718750
6994,-11.718750
6995,-11.718750
6996,-11.718750
6997,-7.812500
6998,-7.812500
6999,-7.812500
7000,-7.812500
7001,-7.812500
7002,-7.812500
7003,-7.812500
7004,-3.906250
7005,-3.906250
7006,-3.906250
7007,-3.906250
7008,0.000000
7009,0.000000
7010,0.000000
7011,0.000000
7012,0.000000
7013,0.000000
7014,0.000000
7015,3.906250
7016,3.906250
7017,3.906250
7018,3.906250
7019,3.906250
7020,7.812500
7021,7.812500
7022,7.812500
7023,7.812500
7024,7.812500
7025,7.812500
7026,11.718750
7027,11.718750
7028,11.718750
7029,11.718750
7030,11.718750
7031,11.718750
7032,15.625000
7033,15.625000
7034,15.625000
7035,15.625000
7036,15.625000
7037,19.531250
7038,19.531250
7039,19.531250
7040,19.531250
7041,19.531250
7042,19.531250
7043,19.531250
7044,23.437500
7045,23.437500
7046,23.437500
7047,23.437500
7048,23.437500
7049,27.343750
7050,27.343750
7051,27.343750
7052,27.343750
7053,27.343750
7054,27.343750
7055,27.343750
7056,31.250000
7057,31.250000
7058,31.250000
7059,31.250000
7060,31.250000
7061,31.250000
7062,31.250000
7063,35.156250
7064,35.156250
7065,35.156250
7066,35.156250
7067,35.156250
7068,39.062500
7069,39.062500
7070,39.062500
7071,39.062500
7072,39.062500
7073,39.062500
7074,39.062500
7075,39.062500
7076,42.968750
7077,42.968750
7078,42.968750
7079,42.968750
7080,42.968750
7081,42.968750
7082,42.968750
7083,42.968750
7084,46.875000
7085,46.875000
7086,46.875000
7087,46.875000
7088,46.875000
7089,50.781250
7090,50.781250
7091,50.781250
7092,50.781250
7093,50.781250
7094,50.781250
7095,50.781250
7096,50.781250
7097,50.781250
7098,54.687500
7099,54.687500
7100,54.687500
7101,54.687500
7102,54.687500
7103,54.687500
7104,54.687500
7105,54.687500
7106,58.593750
7107,58.593750
7108,58.593750
7109,58.593750
7110,58.593750
7111,58.593750
7112,58.593750
7113,58.593750
7114,58.593750
7115,58.593750
7116,62.500000
7117,62.500000
7118,62.500000
7119,62.500000
7120,62.500000
7121,62.500000
7122,62.500000
7123,66.406250
7124,66.406250
7125,66.406250
7126,66.406250
7127,66.406250
7128,66.406250
7129,66.406250
7130,66.406250
7131,66.406250
7132,70.312500
7133,70.312500
7134,70.312500
7135,70.312500
7136,70.312500
7137,70.312500
7138,70.312500
7139,70.312500
7140,70.312500
7141,70.312500
7142,70.312500
7143,70.312500
7144,74.218750
7145,74.218750
7146,74.218750
7147,74.218750
7148,74.218750
7149,74.218750
7150,74.218750
7151,74.218750
7152,74.218750
7153,74.218750
7154,74.218750
7155,78.125000
7156,78.125000
7157,78.125000
7158,78.125000
7159,78.125000
7160,78.125000
7161,78.125000
7162,78.125000
7163,78.125000
7164,78.125000
7165,78.125000
7166,82.031250
7167,82.031250
7168,82.031250
7169,82.031250
7170,82.031250
7171,82.031250
7172,82.031250
7173,82.031250
7174,82.031250
7175,82.031250
7176,82.031250
7177,82.031250
7178,85.937500
7179,85.937500
7180,85.937500
7181,85.937500
7182,85.937500
7183,85.937500
7184,85.937500
7185,85.937500
7186,85.937500
7187,85.937500
7188,85.937500
7189,85.937500
7190,85.937500
7191,85.937500
7192,85.937500
7193,85.937500
7194,85.937500
7195,89.843750
7196,89.843750
7197,89.843750
7198,89.843750
7199,89.843750
7200,89.843750
7201,89.843750
7202,89.843750
7203,89.843750
7204,89.843750
7205,89.843750
7206,89.843750
7207,89.843750
7208,89.843750
7209,89.843750
7210,89.843750
7211,89.843750
7212,89.843750
7213,89.843750
7214,89.843750
7215,89.843750
7216,89.843750
7217,89.843750
7218,89.843750
7219,89.843750
7220,93.750000
7221,89.843750
7222,89.843750
7223,89.843750
7224,89.843750
7225,89.843750
7226,93.750000
7227,93.750000
7228,93.750000
7229,93.750000
7230,93.750000
7231,89.843750
7232,89.843750
7233,89.843750
7234,89.843750
7235,93.750000
7236,93.750000
7237,93.750000
7238,93.750000
7239,93.750000
7240,93.750000
7241,93.750000
7242,89.843750
7243,89.843750
7244,89.843750
7245,93.750000
7246,93.750000
7247,93.750000
7248,93.750000
7249,93.750000
7250,89.843750
7251,89.843750
7252,93.750000
7253,89.843750
7254,89.843750
7255,89.843750
7256,93.750000
7257,93.750000
7258,93.750000
7259,89.843750
7260,93.750000
7261,93.750000
7262,93.750000
7263,89.843750
7264,89.843750
7265,93.750000
7266,93.750000
7267,89.843750
7268,89.843750
7269,89.843750
7270,89.843750
7271,89.843750
7272,89.843750
7273,89.843750
7274,89.843750
7275,89.843750
7276,89.843750
7277,89.843750
7278,89.843750
7279,89.843750
7280,89.843750
7281,89.843750
7282,89.843750
7283,89.843750
7284,89.843750
7285,89.843750
7286,89.843750
7287,89.843750
7288,89.843750
7289,89.843750
7290,89.843750
7291,89.843750
7292,89.843750
7293,89.843750
7294,89.843750
7295,85.937500
7296,89.843750
7297,85.937500
7298,85.937500
7299,85.937500
7300,85.937500
7301,85.937500
7302,85.937500
7303,85.937500
7304,85.937500
7305,85.937500
7306,85.937500
7307,85.937500
7308,85.937500
7309,85.937500
7310,85.937500
7311,85.937500
7312,85.937500
7313,82.031250
7314,85.937500
7315,85.937500
7316,82.031250
7317,82.031250
7318,82.031250
7319,82.031250
7320,82.031250
7321,82.031250
7322,82.031250
7323,82.031250
7324,82.031250
7325,82.031250
7326,82.031250
7327,82.031250
7328,82.031250
7329,82.031250
7330,78.125000
7331,78.125000
7332,78.125000
7333,78.125000
7334,78.125000
7335,78.125000
7336,78.125000
7337,78.125000
7338,78.125000
7339,78.125000
7340,78.125000
7341,74.218750
7342,74.218750
7343,74.218750
7344,74.218750
7345,74.218750
7346,74.218750
7347,74.218750
7348,74.218750
7349,74.218750
7350,74.218750
7351,70.312500
7352,74.218750
7353,70.312500
7354,70.312500
7355,70.312500
7356,70.312500
7357,70.312500
7358,70.312500
7359,70.312500
7360,70.312500
7361,66.406250
7362,66.406250
7363,66.406250
7364,66.406250
7365,66.406250
7366,66.406250
7367,66.406250
7368,66.406250
7369,66.406250
7370,62.500000
7371,62.500000
7372,62.500000
7373,62.500000
7374,62.500000
7375,62.500000
7376,62.500000
7377,62.500000
7378,62.500000
7379,62.500000
7380,58.593750
7381,58.593750
7382,58.593750
7383,58.593750
7384,58.593750
7385,58.593750
7386,58.593750
7387,58.593750
7388,54.687500
7389,54.687500
7390,54.687500
7391,54.687500
7392,54.687500
7393,54.687500
7394,54.687500
7395,50.781250
7396,50.781250
7397,50.781250
7398,50.781250
7399,50.781250
7400,50.781250
7401,46.875000
7402,46.875000
7403,46.875000
7404,46.875000
7405,46.875000
7406,46.875000
7407,46.875000
7408,46.875000
7409,42.968750
7410,42.968750
7411,42.968750
7412,42.968750
7413,42.968750
7414,42.968750
7415,39.062500
7416,42.968750
7417,39.062500
7418,39.062500
7419,39.062500
7420,39.062500
7421,39.062500
7422,35.156250
7423,35.156250
7424,35.156250
7425,35.156250
7426,35.156250
7427,35.156250
7428,35.156250
7429,35.156250
7430,31.250000
7431,31.250000
7432,31.250000
7433,31.250000
7434,31.250000
7435,31.250000
7436,27.343750
7437,27.343750
7438,27.343750
7439,27.343750
7440,27.343750
7441,27.343750
7442,23.437500
7443,23.437500
7444,23.437500
7445,23.437500
7446,23.437500
7447,23.437500
7448,23.437500
7449,19.531250
7450,19.531250
7451,19.531250
7452,19.531250
7453,19.531250
7454,15.625000
7455,15.625000
7456,15.625000
7457,15.625000
7458,15.625000
7459,15.625000
7460,15.625000
7461,11.718750
7462,11.718750
7463,11.718750
7464,11.718750
7465,11.718750
7466,11.718750
7467,7.812500
7468,7.812500
7469,7.812500
7470,7.812500
7471,7.812500
7472,3.906250
7473,3.906250
7474,3.906250
7475,3.906250
7476,3.906250
7477,3.906250
7478,3.906250
7479,0.000000
7480,0.000000
7481,0.000000
7482,0.000000
7483,-3.906250
7484,-3.906250
7485,-3.906250
7486,-3.906250
7487,-3.906250
7488,-3.906250
7489,-3.906250
7490,-7.812500
7491,-7.812500
7492,-7.812500
7493,-11.718750
7494,-11.718750
7495,-11.718750
7496,-11.718750
7497,-11.718750
7498,-11.718750
7499,-11.718750
7500,-15.625000
7501,-15.625000
7502,-15.625000
7503,-15.625000
7504,-15.625000
7505,-19.531250
7506,-19.531250
7507,-19.531250
7508,-19.531250
7509,-19.531250
7510,-19.531250
7511,-23.437500
7512,-23.437500
7513,-23.437500
7514,-23.437500
7515,-23.437500
7516,-23.437500
7517,-27.343750
7518,-27.343750
7519,-27.343750
7520,-27.343750
7521,-27.343750
7522,-31.250000
7523,-31.250000
7524,-31.250000
7525,-31.250000
7526,-31.250000
7527,-31.250000
7528,-35.156250
7529,-35.156250
7530,-35.156250
7531,-35.156250
7532,-35.156250
7533,-39.062500
7534,-39.062500
7535,-39.062500
7536,-39.062500
7537,-42.968750
7538,-39.062500
7539,-42.968750
7540,-42.968750
7541,-42.968750
7542,-42.968750
7543,-42.968750
7544,-42.968750
7545,-46.875000
7546,-46.875000
7547,-46.875000
7548,-46.875000
7549,-46.875000
7550,-46.875000
7551,-50.781250
7552,-50.781250
7553,-50.781250
7554,-50.781250
7555,-50.781250
7556,-54.687500
7557,-54.687500
7558,-54.687500
7559,-54.687500
7560,-54.687500
7561,-58.593750
7562,-58.593750
7563,-58.593750
7564,-58.593750
7565,-58.593750
7566,-58.593750
7567,-58.593750
7568,-58.593750
7569,-62.500000
7570,-62.500000
7571,-62.500000
7572,-62.500000
7573,-62.500000
7574,-66.406250
7575,-66.406250
7576,-66.406250
7577,-66.406250
7578,-66.406250
7579,-66.406250
7580,-66.406250
7581,-70.312500
7582,-70.312500
7583,-70.312500
7584,-70.312500
7585,-70.312500
7586,-74.218750
7587,-74.218750
7588,-74.218750
7589,-74.218750
7590,-74.218750
7591,-74.218750
7592,-74.218750
7593,-78.125000
7594,-78.125000
7595,-78.125000
7596,-78.125000
7597,-78.125000
7598,-78.125000
7599,-78.125000
7600,-82.031250
7601,-82.031250
7602,-82.031250
7603,-82.031250
7604,-82.031250
7605,-85.937500
7606,-85.937500
7607,-85.937500
7608,-85.937500
7609,-85.937500
7610,-85.937500
7611,-85.937500
7612,-89.843750
7613,-89.843750
7614,-89.843750
7615,-89.843750
7616,-89.843750
7617,-89.843750
7618,-89.843750
7619,-93.750000
7620,-93.750000
7621,-93.750000
7622,-93.750000
7623,-93.750000
7624,-93.750000
7625,-93.750000
7626,-93.750000
7627,-97.656250
7628,-97.656250
7629,-97.656250
7630,-97.656250
7631,-97.656250
7632,-97.656250
7633,-97.656250
7634,-101.562500
7635,-101.562500
7636,-101.562500
7637,-101.562500
7638,-101.562500
7639,-101.562500
7640,-101.562500
7641,-101.562500
7642,-105.468750
7643,-105.468750
7644,-105.468750
7645,-105.468750
7646,-105.468750
7647,-105.468750
7648,-105.468750
7649,-105.468750
7650,-105.468750
7651,-105.468750
7652,-109.375000
7653,-109.375000
7654,-109.375000
7655,-109.375000
7656,-109.375000
7657,-109.375000
7658,-109.375000
7659,-109.375000
7660,-109.375000
7661,-109.375000
7662,-113.281250
7663,-113.281250
7664,-113.281250
7665,-113.281250
7666,-113.281250
7667,-113.281250
7668,-113.281250
7669,-113.281250
7670,-113.281250
7671,-113.281250
7672,-113.281250
7673,-113.281250
7674,-117.187500
7675,-117.187500
7676,-117.187500
7677,-117.187500
7678,-117.187500
7679,-113.281250
7680,-117.187500
7681,-117.187500
7682,-117.187500
7683,-117.187500
7684,-117.187500
7685,-125.000000
7686,-117.187500
7687,-117.187500
7688,-117.187500
7689,-121.093750
7690,-121.093750
7691,-121.093750
7692,-121.093750
7693,-121.093750
7694,-121.093750
7695,-121.093750
7696,-121.093750
7697,-121.093750
7698,-121.093750
7699,-121.093750
7700,-121.093750
7701,-121.093750
7702,-121.093750
7703,-121.093750
7704,-125.000000
7705,-125.000000
7706,-125.000000
7707,-121.093750
7708,-125.000000
7709,-125.000000
7710,-121.093750
7711,-125.000000
7712,-125.000000
7713,-125.000000
7714,-125.000000
7715,-125.000000
7716,-125.000000
7717,-125.000000
7718,-125.000000
7719,-125.000000
7720,-125.000000
7721,-125.000000
7722,-125.000000
7723,-125.000000
7724,-125.000000
7725,-125.000000
7726,-125.000000
7727,-125.000000
7728,-125.000000
7729,-125.000000
7730,-125.000000
7731,-125.000000
7732,-125.000000
7733,-125.000000
7734,-125.000000
7735,-125.000000
7736,-125.000000
7737,-125.000000
7738,-125.000000
7739,-125.000000
7740,-125.000000
7741,-125.000000
7742,-125.000000
7743,-125.000000
7744,-125.000000
7745,-125.000000
7746,-125.000000
7747,-125.000000
7748,-125.000000
7749,-125.000000
7750,-125.000000
7751,-125.000000
7752,-125.000000
7753,-125.000000
7754,-125.000000
7755,-125.000000
7756,-125.000000
7757,-125.000000
7758,-125.000000
7759,-125.000000
7760,-125.000000
7761,-125.000000
7762,-125.000000
7763,-125.000000
7764,-125.000000
7765,-125.000000
7766,-125.000000
7767,-125.000000
7768,-125.000000
7769,-125.000000
7770,-121.093750
7771,-125.000000
7772,-125.000000
7773,-125.000000
7774,-125.000000
7775,-121.093750
7776,-121.093750
7777,-117.187500
7778,-121.093750
7779,-121.093750
7780,-121.093750
7781,-121.093750
7782,-121.093750
7783,-121.093750
7784,-121.093750
7785,-121.093750
7786,-121.093750
7787,-117.187500
7788,-121.093750
7789,-117.187500
7790,-117.187500
7791,-117.187500
7792,-117.187500
7793,-121.093750
7794,-121.093750
7795,-117.187500
7796,-117.187500
7797,-117.187500
7798,-117.187500
7799,-117.187500
7800,-117.187500
7801,-117.187500
7802,-117.187500
7803,-117.187500
7804,-117.187500
7805,-117.187500
7806,-113.281250
7807,-113.281250
7808,-113.281250
7809,-113.281250
7810,-113.281250
7811,-113.281250
7812,-113.281250
7813,-113.281250
7814,-113.281250
7815,-113.281250
7816,-113.281250
7817,-109.375000
7818,-109.375000
7819,-109.375000
7820,-109.375000
7821,-109.375000
7822,-109.375000
7823,-109.375000
7824,-109.375000
7825,-109.375000
7826,-105.468750
7827,-109.375000
7828,-105.468750
7829,-105.468750
7830,-105.468750
7831,-105.468750
7832,-105.468750
7833,-105.468750
7834,-105.468750
7835,-105.468750
7836,-101.562500
7837,-101.562500
7838,-101.562500
7839,-101.562500
7840,-101.562500
7841,-101.562500
7842,-101.562500
7843,-101.562500
7844,-101.562500
7845,-97.656250
7846,-97.656250
7847,-97.656250
7848,-97.656250
7849,-97.656250
7850,-97.656250
7851,-93.750000
7852,-93.750000
7853,-93.750000
7854,-93.750000
7855,-93.750000
7856,-93.750000
7857,-93.750000
7858,-93.750000
7859,-89.843750
7860,-89.843750
7861,-89.843750
7862,-89.843750
7863,-89.843750
7864,-89.843750
7865,-89.843750
7866,-89.843750
7867,-85.937500
7868,-85.937500
7869,-85.937500
7870,-85.937500
7871,-85.937500
7872,-85.937500
7873,-85.937500
7874,-82.031250
7875,-82.031250
7876,-82.031250
7877,-82.031250
7878,-82.031250
7879,-82.031250
7880,-78.125000
7881,-78.125000
7882,-78.125000
7883,-78.125000
7884,-78.125000
7885,-78.125000
7886,-78.125000
7887,-74.218750
7888,-74.218750
7889,-74.218750
7890,-74.218750
7891,-74.218750
7892,-74.218750
7893,-74.218750
7894,-70.312500
7895,-70.312500
7896,-70.312500
7897,-70.312500
7898,-70.312500
7899,-66.406250
7900,-66.406250
7901,-66.406250
7902,-66.406250
7903,-66.406250
7904,-66.406250
7905,-66.406250
7906,-62.500000
7907,-62.500000
7908,-62.500000
7909,-62.500000
7910,-62.500000
7911,-58.593750
7912,-58.593750
7913,-58.593750
7914,-58.593750
7915,-58.593750
7916,-58.593750
7917,-58.593750
7918,-54.687500
7919,-54.687500
7920,-54.687500
7921,-54.687500
7922,-54.687500
7923,-54.687500
7924,-54.687500
7925,-50.781250
7926,-50.781250
7927,-50.781250
7928,-50.781250
7929,-50.781250
7930,-46.875000
7931,-46.875000
7932,-46.875000
7933,-46.875000
7934,-46.875000
7935,-46.875000
7936,-42.968750
7937,-42.968750
7938,-42.968750
7939,-42.968750
7940,-42.968750
7941,-42.968750
7942,-39.062500
7943,-39.062500
7944,-39.062500
7945,-39.062500
7946,-39.062500
7947,-35.156250
7948,-35.156250
7949,-35.156250
7950,-35.156250
7951,-35.156250
7952,-35.156250
7953,-31.250000
7954,-31.250000
7955,-31.250000
7956,-31.250000
7957,-27.343750
7958,-27.343750
7959,-27.343750
7960,-27.343750
7961,-27.343750
7962,-27.343750
7963,-27.343750
7964,-23.437500
7965,-23.437500
7966,-23.437500
7967,-23.437500
7968,-19.531250
7969,-19.531250
7970,-19.531250
7971,-19.531250
7972,-19.531250
7973,-19.531250
7974,-19.531250
7975,-15.625000
7976,-15.625000
7977,-15.625000
7978,-15.625000
7979,-11.718750
7980,-11.718750
7981,-11.718750
7982,-11.718750
7983,-11.718750
7984,-11.718750
7985,-11.718750
7986,-7.812500
7987,-7.812500
7988,-7.812500
7989,-7.812500
7990,-3.906250
7991,-7.812500
7992,-3.906250
7993,-3.906250
7994,-3.906250
7995,-3.906250
7996,-3.906250
7997,0.000000
7998,0.000000
7999,0.000000
8000,0.000000
8001,0.000000
8002,0.000000
8003,3.906250
8004,3.906250
8005,3.906250
8006,3.906250
8007,3.906250
8008,7.812500
8009,7.812500
8010,7.812500
8011,7.812500
8012,7.812500
8013,7.812500
8014,7.812500
8015,11.718750
8016,11.718750
8017,11.718750
8018,11.718750
8019,11.718750
8020,15.625000
8021,15.625000
8022,15.625000
8023,15.625000
8024,15.625000
8025,15.625000
8026,15.625000
8027,19.531250
8028,19.531250
8029,19.531250
8030,19.531250
8031,19.531250
8032,19.531250
8033,23.437500
8034,23.437500
8035,23.437500
8036,23.437500
8037,23.437500
8038,27.343750
8039,27.343750
8040,27.343750
8041,27.343750
8042,27.343750
8043,27.343750
8044,27.343750
8045,27.343750
8046,31.250000
8047,31.250000
8048,31.250000
8049,31.250000
8050,31.250000
8051,31.250000
8052,35.156250
8053,35.156250
8054,35.156250
8055,35.156250
8056,35.156250
8057,35.156250
8058,39.062500
8059,39.062500
8060,39.062500
8061,39.062500
8062,39.062500
8063,39.062500
8064,39.062500
8065,42.968750
8066,42.968750
8067,42.968750
8068,42.968750
8069,42.968750
8070,42.968750
8071,42.968750
8072,46.875000
8073,46.875000
8074,46.875000
8075,46.875000
8076,46.875000
8077,46.875000
8078,46.875000
8079,50.781250
8080,50.781250
8081,50.781250
8082,50.781250
8083,50.781250
8084,50.781250
8085,50.781250
8086,54.687500
8087,54.687500
8088,54.687500
8089,54.687500
8090,54.687500
8091,54.687500
8092,54.687500
8093,54.687500
8094,58.593750
8095,58.593750
8096,58.593750
8097,58.593750
8098,58.593750
8099,58.593750
8100,58.593750
8101,58.593750
8102,58.593750
8103,62.500000
8104,62.500000
8105,62.500000
8106,62.500000
8107,62.500000
8108,62.500000
8109,62.500000
8110,66.406250
8111,66.406250
8112,62.500000
8113,66.406250
8114,66.406250
8115,66.406250
8116,66.406250
8117,66.406250
8118,70.312500
8119,66.406250
8120,70.312500
8121,70.312500
8122,70.312500
8123,66.406250
8124,70.312500
8125,70.312500
8126,70.312500
8127,70.312500
8128,70.312500
8129,74.218750
8130,70.312500
8131,70.312500
8132,70.312500
8133,74.218750
8134,74.218750
8135,74.218750
8136,74.218750
8137,74.218750
8138,74.218750
8139,78.125000
8140,74.218750
8141,74.218750
8142,74.218750
8143,78.125000
8144,78.125000
8145,78.125000
8146,78.125000
8147,78.125000
8148,78.125000
8149,78.125000
8150,78.125000
8151,78.125000
8152,78.125000
8153,78.125000
8154,78.125000
8155,82.031250
8156,82.031250
8157,82.031250
8158,82.031250
8159,82.031250
8160,82.031250
8161,82.031250
8162,82.031250
8163,82.031250
8164,82.031250
8165,82.031250
8166,82.031250
8167,82.031250
8168,85.937500
8169,85.937500
8170,85.937500
8171,85.937500
8172,82.031250
8173,82.031250
8174,82.031250
8175,85.937500
8176,85.937500
8177,85.937500
8178,85.937500
8179,85.937500
8180,85.937500
8181,85.937500
8182,85.937500
8183,85.937500
8184,85.937500
8185,85.937500
8186,85.937500
8187,85.937500
8188,85.937500
8189,85.937500
8190,89.843750
8191,89.843750
8192,89.843750
8193,85.937500
8194,89.843750
8195,89.843750
8196,89.843750
8197,89.843750
8198,89.843750
8199,89.843750
8200,89.843750
8201,89.843750
8202,89.843750
8203,89.843750
8204,89.843750
8205,89.843750
8206,89.843750
8207,89.843750
8208,89.843750
8209,89.843750
8210,89.843750
8211,89.843750
8212,89.843750
8213,89.843750
8214,89.843750
8215,89.843750
8216,93.750000
8217,89.843750
8218,93.750000
8219,89.843750
8220,89.843750
8221,89.843750
8222,89.843750
8223,89.843750
8224,89.843750
8225,93.750000
8226,93.750000
8227,93.750000
8228,93.750000
8229,93.750000
8230,93.750000
8231,93.750000
8232,93.750000
8233,89.843750
8234,93.750000
8235,93.750000
8236,93.750000
8237,93.750000
8238,93.750000
8239,93.750000
8240,93.750000
8241,89.843750
8242,89.843750
8243,89.843750
8244,93.750000
8245,93.750000
8246,93.750000
8247,93.750000
8248,93.750000
8249,89.843750
8250,89.843750
8251,89.843750
8252,89.843750
8253,89.843750
8254,89.843750
8255,89.843750
8256,89.843750
8257,89.843750
8258,89.843750
8259,89.843750
8260,89.843750
8261,89.843750
8262,89.843750
8263,89.843750
8264,89.843750
8265,89.843750
8266,89.843750
8267,89.843750
8268,89.843750
8269,89.843750
8270,89.843750
8271,89.843750
8272,89.843750
8273,89.843750
8274,89.843750
8275,89.843750
8276,89.843750
8277,89.843750
8278,89.843750
8279,89.843750
8280,89.843750
8281,85.937500
8282,85.937500
8283,85.937500
8284,85.937500
8285,85.937500
8286,85.937500
8287,85.937500
8288,85.937500
8289,85.937500
8290,85.937500
8291,85.937500
8292,85.937500
8293,85.937500
8294,85.937500
8295,85.937500
8296,85.937500
8297,85.937500
8298,85.937500
8299,85.937500
8300,82.031250
8301,82.031250
8302,82.031250
8303,82.031250
8304,82.031250
8305,82.031250
8306,82.031250
8307,82.031250
8308,82.031250
8309,82.031250
8310,82.031250
8311,82.031250
8312,78.125000
8313,78.125000
8314,82.031250
8315,82.031250
8316,82.031250
8317,78.125000
8318,78.125000
8319,78.125000
8320,78.125000
8321,78.125000
8322,78.125000
8323,78.125000
8324,78.125000
8325,78.125000
8326,78.125000
8327,78.125000
8328,78.125000
8329,78.125000
8330,74.218750
8331,74.218750
8332,74.218750
8333,74.218750
8334,74.218750
8335,74.218750
8336,74.218750
8337,74.218750
8338,74.218750
8339,74.218750
8340,70.312500
8341,70.312500
8342,70.312500
8343,70.312500
8344,70.312500
8345,70.312500
8346,70.312500
8347,70.312500
8348,70.312500
8349,66.406250
8350,66.406250
8351,66.406250
8352,66.406250
8353,66.406250
8354,66.406250
8355,66.406250
8356,66.406250
8357,66.406250
8358,66.406250
8359,66.406250
8360,62.500000
8361,62.500000
8362,62.500000
8363,62.500000
8364,62.500000
8365,62.500000
8366,62.500000
8367,62.500000
8368,62.500000
8369,58.593750
8370,58.593750
8371,58.593750
8372,58.593750
8373,58.593750
8374,58.593750
8375,58.593750
8376,54.687500
8377,54.687500
8378,54.687500
8379,54.687500
8380,54.687500
8381,54.687500
8382,54.687500
8383,50.781250
8384,50.781250
8385,50.781250
8386,50.781250
8387,50.781250
8388,50.781250
8389,50.781250
8390,50.781250
8391,46.875000
8392,46.875000
8393,46.875000
8394,46.875000
8395,46.875000
8396,46.875000
8397,46.875000
8398,46.875000
8399,42.968750
8400,42.968750
8401,42.968750
8402,42.968750
8403,42.968750
8404,42.968750
8405,42.968750
8406,39.062500
8407,39.062500
8408,39.062500
8409,39.062500
8410,39.062500
8411,35.156250
8412,35.156250
8413,35.156250
8414,35.156250
8415,35.156250
8416,35.156250
8417,35.156250
8418,35.156250
8419,31.250000
8420,31.250000
8421,31.250000
8422,31.250000
8423,31.250000
8424,31.250000
8425,27.343750
8426,27.343750
8427,27.343750
8428,27.343750
8429,27.343750
8430,27.343750
8431,23.437500
8432,23.437500
8433,23.437500
8434,23.437500
8435,23.437500
8436,23.437500
8437,23.437500
8438,19.531250
8439,19.531250
8440,19.531250
8441,19.531250
8442,19.531250
8443,15.625000
8444,15.625000
8445,15.625000
8446,15.625000
8447,15.625000
8448,15.625000
8449,11.718750
8450,11.718750
8451,11.718750
8452,11.718750
8453,11.718750
8454,11.718750
8455,11.718750
8456,7.812500
8457,7.812500
8458,7.812500
8459,7.812500
8460,3.906250
8461,3.906250
8462,3.906250
8463,3.906250
8464,3.906250
8465,3.906250
8466,0.000000
8467,3.906250
8468,0.000000
8469,0.000000
8470,0.000000
8471,0.000000
8472,-3.906250
8473,-3.906250
8474,-3.906250
8475,-3.906250
8476,-3.906250
8477,-3.906250
8478,-7.812500
8479,-7.812500
8480,-7.812500
8481,-7.812500
8482,-11.718750
8483,-7.812500
8484,-11.718750
8485,-11.718750
8486,-11.718750
8487,-11.718750
8488,-11.718750
8489,-15.625000
8490,-15.625000
8491,-15.625000
8492,-15.625000
8493,-19.531250
8494,-15.625000
8495,-15.625000
8496,-19.531250
8497,-19.531250
8498,-19.531250
8499,-19.531250
8500,-23.437500
8501,-23.437500
8502,-23.437500
8503,-23.437500
8504,-23.437500
8505,-23.437500
8506,-27.343750
8507,-27.343750
8508,-27.343750
8509,-27.343750
8510,-27.343750
8511,-31.250000
8512,-31.250000
8513,-31.250000
8514,-31.250000
8515,-31.250000
8516,-31.250000
8517,-35.156250
8518,-35.156250
8519,-35.156250
8520,-35.156250
8521,-35.156250
8522,-39.062500
8523,-35.156250
8524,-39.062500
8525,-39.062500
8526,-39.062500
8527,-39.062500
8528,-42.968750
8529,-39.062500
8530,-42.968750
8531,-42.968750
8532,-42.968750
8533,-46.875000
8534,-46.875000
8535,-46.875000
8536,-46.875000
8537,-46.875000
8538,-46.875000
8539,-50.781250
8540,-50.781250
8541,-50.781250
8542,-50.781250
8543,-50.781250
8544,-54.687500
8545,-54.687500
8546,-54.687500
8547,-54.687500
8548,-54.687500
8549,-54.687500
8550,-58.593750
8551,-58.593750
8552,-58.593750
8553,-58.593750
8554,-58.593750
8555,-58.593750
8556,-58.593750
8557,-62.500000
8558,-62.500000
8559,-62.500000
8560,-62.500000
8561,-66.406250
8562,-66.406250
8563,-66.406250
8564,-66.406250
8565,-66.406250
8566,-66.406250
8567,-66.406250
8568,-70.312500
8569,-70.312500
8570,-70.312500
8571,-70.312500
8572,-70.312500
8573,-70.312500
8574,-70.312500
8575,-74.218750
8576,-74.218750
8577,-74.218750
8578,-74.218750
8579,-74.218750
8580,-78.125000
8581,-78.125000
8582,-78.125000
8583,-78.125000
8584,-78.125000
8585,-78.125000
8586,-78.125000
8587,-82.031250
8588,-82.031250
8589,-82.031250
8590,-82.031250
8591,-82.031250
8592,-82.031250
8593,-82.031250
8594,-85.937500
8595,-85.937500
8596,-85.937500
8597,-85.937500
8598,-85.937500
8599,-85.937500
8600,-85.937500
8601,-89.843750
8602,-89.843750
8603,-89.843750
8604,-89.843750
8605,-89.843750
8606,-89.843750
8607,-89.843750
8608,-93.750000
8609,-93.750000
8610,-93.750000
8611,-93.750000
8612,-93.750000
8613,-93.750000
8614,-93.750000
8615,-93.750000
8616,-93.750000
8617,-97.656250
8618,-97.656250
8619,-97.656250
8620,-97.656250
8621,-97.656250
8622,-97.656250
8623,-97.656250
8624,-97.656250
8625,-97.656250
8626,-97.656250
8627,-101.562500
8628,-101.562500
8629,-101.562500
8630,-101.562500
8631,-101.562500
8632,-101.562500
8633,-105.468750
8634,-105.468750
8635,-105.468750
8636,-105.468750
8637,-105.468750
8638,-105.468750
8639,-105.468750
8640,-105.468750
8641,-105.468750
8642,-109.375000
8643,-109.375000
8644,-109.375000
8645,-109.375000
8646,-109.375000
8647,-109.375000
8648,-109.375000
8649,-109.375000
8650,-109.375000
8651,-109.375000
8652,-109.375000
8653,-113.281250
8654,-113.281250
8655,-113.281250
8656,-113.281250
8657,-113.281250
8658,-113.281250
8659,-113.281250
8660,-113.281250
8661,-113.281250
8662,-113.281250
8663,-113.281250
8664,-113.281250
8665,-113.281250
8666,-117.187500
8667,-117.187500
8668,-117.187500
8669,-117.187500
8670,-117.187500
8671,-117.187500
8672,-117.187500
8673,-117.187500
8674,-117.187500
8675,-117.187500
8676,-117.187500
8677,-117.187500
8678,-121.093750
8679,-121.093750
8680,-121.093750
8681,-121.093750
8682,-121.093750
8683,-121.093750
8684,-121.093750
8685,-121.093750
8686,-121.093750
8687,-121.093750
8688,-121.093750
8689,-121.093750
8690,-121.093750
8691,-121.093750
8692,-121.093750
8693,-121.093750
8694,-121.093750
8695,-121.093750
8696,-121.093750
8697,-125.000000
8698,-121.093750
8699,-125.000000
8700,-125.000000
8701,-125.000000
8702,-125.000000
8703,-125.000000
8704,-125.000000
8705,-125.000000
8706,-125.000000
8707,-125.000000
8708,-125.000000
8709,-125.000000
8710,-125.000000
8711,-125.000000
8712,-125.000000
8713,-125.000000
8714,-125.000000
8715,-125.000000
8716,-125.000000
8717,-125.000000
8718,-125.000000
8719,-125.000000
8720,-125.000000
8721,-125.000000
8722,-125.000000
8723,-125.000000
8724,-125.000000
8725,-125.000000
8726,-125.000000
8727,-125.000000
8728,-125.000000
8729,-125.000000
8730,-125.000000
8731,-125.000000
8732,-125.000000
8733,-125.000000
8734,-125.000000
8735,-125.000000
8736,-125.000000
8737,-125.000000
8738,-125.000000
8739,-125.000000
8740,-125.000000
8741,-125.000000
8742,-125.000000
8743,-125.000000
8744,-125.000000
8745,-125.000000
8746,-125.000000
8747,-125.000000
8748,-125.000000
8749,-125.000000
8750,-121.093750
8751,-125.000000
8752,-125.000000
8753,-121.093750
8754,-125.000000
8755,-121.093750
8756,-121.093750
8757,-121.093750
8758,-121.093750
8759,-121.093750
8760,-121.093750
8761,-121.093750
8762,-121.093750
8763,-121.093750
8764,-121.093750
8765,-121.093750
8766,-121.093750
8767,-121.093750
8768,-121.093750
8769,-121.093750
8770,-121.093750
8771,-121.093750
8772,-121.093750
8773,-117.187500
8774,-121.093750
8775,-117.187500
8776,-121.093750
8777,-117.187500
8778,-117.187500
8779,-117.187500
8780,-117.187500
8781,-117.187500
8782,-117.187500
8783,-117.187500
8784,-117.187500
8785,-117.187500
8786,-117.187500
8787,-113.281250
8788,-117.187500
8789,-117.187500
8790,-113.281250
8791,-113.281250
8792,-113.281250
8793,-113.281250
8794,-113.281250
8795,-113.281250
8796,-113.281250
8797,-113.281250
8798,-113.281250
8799,-113.281250
8800,-113.281250
8801,-113.281250
8802,-113.281250
8803,-109.375000
8804,-109.375000
8805,-109.375000
8806,-109.375000
8807,-109.375000
8808,-109.375000
8809,-109.375000
8810,-109.375000
8811,-109.375000
8812,-109.375000
8813,-105.468750
8814,-105.468750
8815,-105.468750
8816,-105.468750
8817,-105.468750
8818,-105.468750
8819,-105.468750
8820,-105.468750
8821,-105.468750
8822,-105.468750
8823,-101.562500
8824,-101.562500
8825,-101.562500
8826,-101.562500
8827,-101.562500
8828,-101.562500
8829,-101.562500
8830,-101.562500
8831,-101.562500
8832,-97.656250
8833,-97.656250
8834,-97.656250
8835,-97.656250
8836,-97.656250
8837,-97.656250
8838,-97.656250
8839,-97.656250
8840,-97.656250
8841,-93.750000
8842,-93.750000
8843,-93.750000
8844,-93.750000
8845,-93.750000
8846,-93.750000
8847,-89.843750
8848,-89.843750
8849,-89.843750
8850,-89.843750
8851,-89.843750
8852,-89.843750
8853,-89.843750
8854,-89.843750
8855,-85.937500
8856,-85.937500
8857,-85.937500
8858,-85.937500
8859,-85.937500
8860,-85.937500
8861,-85.937500
8862,-82.031250
8863,-82.031250
8864,-82.031250
8865,-82.031250
8866,-82.031250
8867,-82.031250
8868,-82.031250
8869,-78.125000
8870,-78.125000
8871,-78.125000
8872,-78.125000
8873,-78.125000
8874,-78.125000
8875,-78.125000
8876,-74.218750
8877,-74.218750
8878,-74.218750
8879,-74.218750
8880,-74.218750
8881,-70.312500
8882,-70.312500
8883,-70.312500
8884,-70.312500
8885,-70.312500
8886,-70.312500
8887,-66.406250
8888,-66.406250
8889,-66.406250
8890,-66.406250
8891,-66.406250
8892,-66.406250
8893,-62.500000
8894,-62.500000
8895,-62.500000
8896,-62.500000
8897,-62.500000
8898,-62.500000
8899,-58.593750
8900,-58.593750
8901,-58.593750
8902,-58.593750
8903,-58.593750
8904,-58.593750
8905,-58.593750
8906,-54.687500
8907,-54.687500
8908,-54.687500
8909,-54.687500
8910,-54.687500
8911,-54.687500
8912,-50.781250
8913,-50.781250
8914,-50.781250
8915,-50.781250
8916,-50.781250
8917,-46.875000
8918,-46.875000
8919,-46.875000
8920,-46.875000
8921,-46.875000
8922,-46.875000
8923,-46.875000
8924,-42.968750
8925,-42.968750
8926,-42.968750
8927,-42.968750
8928,-42.968750
8929,-42.968750
8930,-39.062500
8931,-39.062500
8932,-39.062500
8933,-39.062500
8934,-39.062500
8935,-35.156250
8936,-35.156250
8937,-35.156250
8938,-35.156250
8939,-35.156250
8940,-35.156250
8941,-31.250000
8942,-31.250000
8943,-31.250000
8944,-31.250000
8945,-31.250000
8946,-31.250000
8947,-27.343750
8948,-27.343750
8949,-27.343750
8950,-27.343750
8951,-27.343750
8952,-27.343750
8953,-23.437500
8954,-23.437500
8955,-23.437500
8956,-23.437500
8957,-23.437500
8958,-19.531250
8959,-19.531250
8960,-19.531250
8961,-19.531250
8962,-19.531250
8963,-15.625000
8964,-15.625000
8965,-15.625000
8966,-15.625000
8967,-15.625000
8968,-15.625000
8969,-11.718750
8970,-11.718750
8971,-11.718750
8972,-11.718750
8973,-11.718750
8974,-11.718750
8975,-7.812500
8976,-7.812500
8977,-7.812500
8978,-7.812500
8979,-7.812500
8980,-7.812500
8981,-3.906250
8982,-3.906250
8983,-3.906250
8984,-3.906250
8985,0.000000
8986,0.000000
8987,0.000000
8988,0.000000
8989,0.000000
8990,0.000000
8991,3.906250
8992,3.906250
8993,3.906250
8994,3.906250
8995,3.906250
8996,3.906250
8997,7.812500
8998,7.812500
8999,7.812500
9000,7.812500
9001,7.812500
9002,7.812500
9003,11.718750
9004,11.718750
9005,11.718750
9006,11.718750
9007,11.718750
9008,11.718750
9009,15.625000
9010,15.625000
9011,15.625000
9012,15.625000
9013,15.625000
9014,15.625000
9015,19.531250
9016,19.531250
9017,19.531250
9018,19.531250
9019,19.531250
9020,19.531250
9021,23.437500
9022,23.437500
9023,23.437500
9024,23.437500
9025,23.437500
9026,23.437500
9027,23.437500
9028,27.343750
9029,27.343750
9030,27.343750
9031,27.343750
9032,27.343750
9033,27.343750
9034,31.250000
9035,31.250000
9036,31.250000
9037,31.250000
9038,31.250000
9039,31.250000
9040,31.250000
9041,35.156250
9042,35.156250
9043,35.156250
9044,35.156250
9045,35.156250
9046,35.156250
9047,39.062500
9048,39.062500
9049,39.062500
9050,39.062500
9051,39.062500
9052,39.062500
9053,42.968750
9054,42.968750
9055,42.968750
9056,42.968750
9057,42.968750
9058,42.968750
9059,42.968750
9060,42.968750
9061,46.875000
9062,46.875000
9063,46.875000
9064,46.875000
9065,46.875000
9066,46.875000
9067,46.875000
9068,50.781250
9069,50.781250
9070,50.781250
9071,50.781250
9072,50.781250
9073,50.781250
9074,50.781250
9075,50.781250
9076,50.781250
9077,54.687500
9078,54.687500
9079,54.687500
9080,54.687500
9081,54.687500
9082,54.687500
9083,58.593750
9084,54.687500
9085,58.593750
9086,58.593750
9087,58.593750
9088,58.593750
9089,58.593750
9090,58.593750
9091,58.593750
9092,58.593750
9093,62.500000
9094,62.500000
9095,62.500000
9096,62.500000
9097,62.500000
9098,62.500000
9099,62.500000
9100,62.500000
9101,62.500000
9102,66.406250
9103,66.406250
9104,66.406250
9105,66.406250
9106,66.406250
9107,66.406250
9108,66.406250
9109,66.406250
9110,66.406250
9111,70.312500
9112,70.312500
9113,70.312500
9114,70.312500
9115,70.312500
9116,70.312500
9117,70.312500
9118,74.218750
9119,74.218750
9120,70.312500
9121,74.218750
9122,74.218750
9123,74.218750
9124,74.218750
9125,74.218750
9126,74.218750
9127,74.218750
9128,74.218750
9129,74.218750
9130,74.218750
9131,78.125000
9132,78.125000
9133,78.125000
9134,78.125000
9135,78.125000
9136,78.125000
9137,78.125000
9138,78.125000
9139,78.125000
9140,78.125000
9141,78.125000
9142,78.125000
9143,82.031250
9144,82.031250
9145,82.031250
9146,82.031250
9147,82.031250
9148,82.031250
9149,82.031250
9150,82.031250
9151,82.031250
9152,82.031250
9153,82.031250
9154,82.031250
9155,82.031250
9156,85.937500
9157,85.937500
9158,85.937500
9159,85.937500
9160,85.937500
9161,85.937500
9162,85.937500
9163,85.937500
9164,85.937500
9165,85.937500
9166,85.937500
9167,85.937500
9168,85.937500
9169,85.937500
9170,85.937500
9171,85.937500
9172,85.937500
9173,85.937500
9174,85.937500
9175,89.843750
9176,89.843750
9177,89.843750
9178,89.843750
9179,89.843750
9180,89.843750
9181,89.843750
9182,89.843750
9183,89.843750
9184,89.843750
9185,89.843750
9186,89.843750
9187,89.843750
9188,89.843750
9189,89.843750
9190,85.937500
9191,89.843750
9192,89.843750
9193,89.843750
9194,89.843750
9195,89.843750
9196,89.843750
9197,89.843750
9198,89.843750
9199,89.843750
9200,89.843750
9201,89.843750
9202,89.843750
9203,89.843750
9204,89.843750
9205,89.843750
9206,89.843750
9207,89.843750
9208,89.843750
9209,89.843750
9210,89.843750
9211,89.843750
9212,89.843750
9213,89.843750
9214,89.843750
9215,89.843750
9216,93.750000
9217,89.843750
9218,93.750000
9219,93.750000
9220,89.843750
9221,89.843750
9222,89.843750
9223,93.750000
9224,93.750000
9225,93.750000
9226,93.750000
9227,93.750000
9228,85.937500
9229,89.843750
9230,89.843750
9231,89.843750
9232,93.750000
9233,89.843750
9234,89.843750
9235,89.843750
9236,93.750000
9237,89.843750
9238,89.843750
9239,89.843750
9240,89.843750
9241,89.843750
9242,89.843750
9243,89.843750
9244,89.843750
9245,89.843750
9246,89.843750
9247,89.843750
9248,89.843750
9249,89.843750
9250,89.843750
9251,89.843750
9252,89.843750
9253,89.843750
9254,89.843750
9255,89.843750
9256,89.843750
9257,89.843750
9258,89.843750
9259,89.843750
9260,89.843750
9261,89.843750
9262,89.843750
9263,85.937500
9264,89.843750
9265,89.843750
9266,89.843750
9267,89.843750
9268,89.843750
9269,89.843750
9270,85.937500
9271,85.937500
9272,85.937500
9273,85.937500
9274,85.937500
9275,85.937500
9276,85.937500
9277,85.937500
9278,85.937500
9279,85.937500
9280,85.937500
9281,85.937500
9282,85.937500
9283,85.937500
9284,85.937500
9285,85.937500
9286,85.937500
9287,85.937500
9288,85.937500
9289,85.937500
9290,85.937500
9291,82.031250
9292,82.031250
9293,82.031250
9294,82.031250
9295,82.031250
9296,82.031250
9297,82.031250
9298,82.031250
9299,82.031250
9300,82.031250
9301,82.031250
9302,82.031250
9303,82.031250
9304,78.125000
9305,82.031250
9306,78.125000
9307,78.125000
9308,78.125000
9309,78.125000
9310,78.125000
9311,78.125000
9312,78.125000
9313,78.125000
9314,78.125000
9315,78.125000
9316,78.125000
9317,78.125000
9318,74.218750
9319,74.218750
9320,74.218750
9321,74.218750
9322,74.218750
9323,74.218750
9324,74.218750
9325,74.218750
9326,74.218750
9327,74.218750
9328,74.218750
9329,70.312500
9330,70.312500
9331,70.312500
9332,70.312500
9333,70.312500
9334,70.312500
9335,70.312500
9336,70.312500
9337,70.312500
9338,66.406250
9339,66.406250
9340,66.406250
9341,66.406250
9342,66.406250
9343,66.406250
9344,66.406250
9345,66.406250
9346,66.406250
9347,66.406250
9348,66.406250
9349,62.500000
9350,62.500000
9351,62.500000
9352,62.500000
9353,62.500000
9354,62.500000
9355,62.500000
9356,58.593750
9357,58.593750
9358,58.593750
9359,58.593750
9360,58.593750
9361,58.593750
9362,58.593750
9363,58.593750
9364,54.687500
9365,54.687500
9366,54.687500
9367,54.687500
9368,54.687500
9369,54.687500
9370,54.687500
9371,54.687500
9372,50.781250
9373,50.781250
9374,50.781250
9375,50.781250
9376,50.781250
9377,50.781250
9378,50.781250
9379,50.781250
9380,46.875000
9381,46.875000
9382,46.875000
9383,46.875000
9384,46.875000
9385,46.875000
9386,46.875000
9387,46.875000
9388,42.968750
9389,42.968750
9390,42.968750
9391,42.968750
9392,42.968750
9393,42.968750
9394,42.968750
9395,39.062500
9396,39.062500
9397,39.062500
9398,39.062500
9399,39.062500
9400,39.062500
9401,35.156250
9402,35.156250
9403,35.156250
9404,35.156250
9405,35.156250
9406,35.156250
9407,35.156250
9408,31.250000
9409,31.250000
9410,31.250000
9411,31.250000
9412,31.250000
9413,31.250000
9414,31.250000
9415,27.343750
9416,27.343750
9417,27.343750
9418,27.343750
9419,27.343750
9420,23.437500
9421,23.437500
9422,23.437500
9423,23.437500
9424,23.437500
9425,23.437500
9426,23.437500
9427,19.531250
9428,19.531250
9429,19.531250
9430,19.531250
9431,19.531250
9432,15.625000
9433,15.625000
9434,15.625000
9435,15.625000
9436,15.625000
9437,15.625000
9438,11.718750
9439,11.718750
9440,11.718750
9441,11.718750
9442,11.718750
9443,11.718750
9444,11.718750
9445,7.812500
9446,7.812500
9447,7.812500
9448,7.812500
9449,7.812500
9450,3.906250
9451,3.906250
9452,3.906250
9453,3.906250
9454,3.906250
9455,3.906250
9456,0.000000
9457,0.000000
9458,0.000000
9459,0.000000
9460,0.000000
9461,-3.906250
9462,-3.906250
9463,-3.906250
9464,-3.906250
9465,-3.906250
9466,-3.906250
9467,-7.812500
9468,-7.812500
9469,-7.812500
9470,-7.812500
9471,-7.812500
9472,-7.812500
9473,-11.718750
9474,-11.718750
9475,-11.718750
9476,-11.718750
9477,-11.718750
9478,-15.625000
9479,-15.625000
9480,-15.625000
9481,-15.625000
9482,-15.625000
9483,-15.625000
9484,-15.625000
9485,-19.531250
9486,-19.531250
9487,-19.531250
9488,-19.531250
9489,-23.437500
9490,-23.437500
9491,-23.437500
9492,-23.437500
9493,-23.437500
9494,-23.437500
9495,-23.437500
9496,-27.343750
9497,-27.343750
9498,-27.343750
9499,-27.343750
9500,-31.250000
9501,-31.250000
9502,-27.343750
9503,-31.250000
9504,-31.250000
9505,-31.250000
9506,-31.250000
9507,-35.156250
9508,-35.156250
9509,-35.156250
9510,-35.156250
9511,-35.156250
9512,-35.156250
9513,-39.062500
9514,-39.062500
9515,-39.062500
9516,-39.062500
9517,-39.062500
9518,-42.968750
9519,-42.968750
9520,-42.968750
9521,-42.968750
9522,-42.968750
9523,-42.968750
9524,-42.968750
9525,-46.875000
9526,-46.875000
9527,-46.875000
9528,-46.875000
9529,-50.781250
9530,-50.781250
9531,-50.781250
9532,-50.781250
9533,-50.781250
9534,-50.781250
9535,-50.781250
9536,-54.687500
9537,-54.687500
9538,-54.687500
9539,-54.687500
9540,-54.687500
9541,-58.593750
9542,-58.593750
9543,-58.593750
9544,-58.593750
9545,-58.593750
9546,-58.593750
9547,-62.500000
9548,-62.500000
9549,-62.500000
9550,-62.500000
9551,-62.500000
9552,-62.500000
9553,-62.500000
9554,-66.406250
9555,-66.406250
9556,-66.406250
9557,-66.406250
9558,-66.406250
9559,-70.312500
9560,-70.312500
9561,-70.312500
9562,-70.312500
9563,-70.312500
9564,-70.312500
9565,-74.218750
9566,-74.218750
9567,-74.218750
9568,-74.218750
9569,-74.218750
9570,-74.218750
9571,-78.125000
9572,-78.125000
9573,-78.125000
9574,-78.125000
9575,-78.125000
9576,-78.125000
9577,-78.125000
9578,-82.031250
9579,-82.031250
9580,-82.031250
9581,-82.031250
9582,-82.031250
9583,-82.031250
9584,-82.031250
9585,-82.031250
9586,-85.937500
9587,-85.937500
9588,-85.937500
9589,-85.937500
9590,-85.937500
9591,-85.937500
9592,-89.843750
9593,-89.843750
9594,-89.843750
9595,-89.843750
9596,-89.843750
9597,-89.843750
9598,-89.843750
9599,-93.750000
9600,-93.750000
9601,-93.750000
9602,-93.750000
9603,-93.750000
9604,-93.750000
9605,-93.750000
9606,-93.750000
9607,-97.656250
9608,-93.750000
9609,-101.562500
9610,-97.656250
9611,-97.656250
9612,-97.656250
9613,-97.656250
9614,-97.656250
9615,-97.656250
9616,-101.562500
9617,-101.562500
9618,-101.562500
9619,-101.562500
9620,-101.562500
9621,-101.562500
9622,-101.562500
9623,-101.562500
9624,-101.562500
9625,-105.468750
9626,-105.468750
9627,-105.468750
9628,-105.468750
9629,-105.468750
9630,-105.468750
9631,-105.468750
9632,-105.468750
9633,-105.468750
9634,-109.375000
9635,-109.375000
9636,-109.375000
9637,-109.375000
9638,-109.375000
9639,-109.375000
9640,-109.375000
9641,-109.375000
9642,-109.375000
9643,-113.281250
9644,-109.375000
9645,-113.281250
9646,-113.281250
9647,-113.281250
9648,-113.281250
9649,-113.281250
9650,-113.281250
9651,-113.281250
9652,-113.281250
9653,-113.281250
9654,-113.281250
9655,-113.281250
9656,-113.281250
9657,-117.187500
9658,-117.187500
9659,-117.187500
9660,-117.187500
9661,-117.187500
9662,-117.187500
9663,-117.187500
9664,-117.187500
9665,-117.187500
9666,-117.187500
9667,-117.187500
9668,-117.187500
9669,-121.093750
9670,-117.187500
9671,-121.093750
9672,-121.093750
9673,-121.093750
9674,-121.093750
9675,-121.093750
9676,-121.093750
9677,-121.093750
9678,-121.093750
9679,-121.093750
9680,-121.093750
9681,-121.093750
9682,-121.093750
9683,-121.093750
9684,-121.093750
9685,-121.093750
9686,-125.000000
9687,-121.093750
9688,-121.093750
9689,-121.093750
9690,-121.093750
9691,-121.093750
9692,-121.093750
9693,-121.093750
9694,-121.093750
9695,-121.093750
9696,-121.093750
9697,-125.000000
9698,-125.000000
9699,-125.000000
9700,-125.000000
9701,-125.000000
9702,-125.000000
9703,-125.000000
9704,-125.000000
9705,-125.000000
9706,-125.000000
9707,-125.000000
9708,-125.000000
9709,-125.000000
9710,-125.000000
9711,-125.000000
9712,-125.000000
9713,-125.000000
9714,-125.000000
9715,-125.000000
9716,-125.000000
9717,-125.000000
9718,-125.000000
9719,-125.000000
9720,-125.000000
9721,-125.000000
9722,-125.000000
9723,-125.000000
9724,-125.000000
9725,-125.000000
9726,-125.000000
9727,-125.000000
9728,-125.000000
9729,-125.000000
9730,-125.000000
9731,-125.000000
9732,-125.000000
9733,-125.000000
9734,-125.000000
9735,-125.000000
9736,-125.000000
9737,-125.000000
9738,-125.000000
9739,-125.000000
9740,-125.000000
9741,-125.000000
9742,-121.093750
9743,-121.093750
9744,-121.093750
9745,-121.093750
9746,-121.093750
9747,-121.093750
9748,-121.093750
9749,-121.093750
9750,-121.093750
9751,-121.093750
9752,-121.093750
9753,-121.093750
9754,-121.093750
9755,-121.093750
9756,-121.093750
9757,-121.093750
9758,-121.093750
9759,-121.093750
9760,-121.093750
9761,-117.187500
9762,-117.187500
9763,-121.093750
9764,-117.187500
9765,-117.187500
9766,-117.187500
9767,-117.187500
9768,-117.187500
9769,-117.187500
9770,-117.187500
9771,-117.187500
9772,-117.187500
9773,-117.187500
9774,-117.187500
9775,-117.187500
9776,-113.281250
9777,-117.187500
9778,-117.187500
9779,-113.281250
9780,-113.281250
9781,-113.281250
9782,-113.281250
9783,-113.281250
9784,-113.281250
9785,-113.281250
9786,-113.281250
9787,-113.281250
9788,-113.281250
9789,-113.281250
9790,-113.281250
9791,-109.375000
9792,-109.375000
9793,-109.375000
9794,-109.375000
9795,-109.375000
9796,-109.375000
9797,-109.375000
9798,-109.375000
9799,-109.375000
9800,-109.375000
9801,-105.468750
9802,-105.468750
9803,-105.468750
9804,-105.468750
9805,-105.468750
9806,-105.468750
9807,-105.468750
9808,-105.468750
9809,-105.468750
9810,-105.468750
9811,-101.562500
9812,-101.562500
9813,-101.562500
9814,-101.562500
9815,-101.562500
9816,-101.562500
9817,-101.562500
9818,-101.562500
9819,-101.562500
9820,-97.656250
9821,-97.656250
9822,-97.656250
9823,-97.656250
9824,-97.656250
9825,-97.656250
9826,-97.656250
9827,-97.656250
9828,-97.656250
9829,-93.750000
9830,-93.750000
9831,-93.750000
9832,-93.750000
9833,-93.750000
9834,-93.750000
9835,-93.750000
9836,-89.843750
9837,-89.843750
9838,-89.843750
9839,-89.843750
9840,-89.843750
9841,-89.843750
9842,-85.937500
9843,-85.937500
9844,-85.937500
9845,-85.937500
9846,-85.937500
9847,-85.937500
9848,-85.937500
9849,-85.937500
9850,-82.031250
9851,-82.031250
9852,-82.031250
9853,-82.031250
9854,-82.031250
9855,-82.031250
9856,-82.031250
9857,-82.031250
9858,-78.125000
9859,-78.125000
9860,-78.125000
9861,-78.125000
9862,-78.125000
9863,-78.125000
9864,-74.218750
9865,-74.218750
9866,-74.218750
9867,-74.218750
9868,-74.218750
9869,-74.218750
9870,-70.312500
9871,-70.312500
9872,-70.312500
9873,-70.312500
9874,-70.312500
9875,-70.312500
9876,-70.312500
9877,-66.406250
9878,-66.406250
9879,-66.406250
9880,-66.406250
9881,-66.406250
9882,-62.500000
9883,-62.500000
9884,-62.500000
9885,-62.500000
9886,-62.500000
9887,-62.500000
9888,-62.500000
9889,-58.593750
9890,-58.593750
9891,-58.593750
9892,-58.593750
9893,-58.593750
9894,-58.593750
9895,-58.593750
9896,-54.687500
9897,-54.687500
9898,-54.687500
9899,-54.687500
9900,-54.687500
9901,-50.781250
9902,-50.781250
9903,-50.781250
9904,-50.781250
9905,-50.781250
9906,-46.875000
9907,-46.875000
9908,-46.875000
9909,-46.875000
9910,-46.875000
9911,-42.968750
9912,-42.968750
9913,-42.968750
9914,-42.968750
9915,-42.968750
9916,-42.968750
9917,-42.968750
9918,-42.968750
9919,-39.062500
9920,-39.062500
9921,-39.062500
9922,-39.062500
9923,-39.062500
9924,-35.156250
9925,-35.156250
9926,-35.156250
9927,-35.156250
9928,-35.156250
9929,-31.250000
9930,-31.250000
9931,-31.250000
9932,-31.250000
9933,-31.250000
9934,-27.343750
9935,-27.343750
9936,-27.343750
9937,-27.343750
9938,-27.343750
9939,-27.343750
9940,-23.437500
9941,-23.437500
9942,-23.437500
9943,-23.437500
9944,-23.437500
9945,-23.437500
9946,-23.437500
9947,-19.531250
9948,-19.531250
9949,-19.531250
9950,-19.531250
9951,-19.531250
9952,-15.625000
9953,-15.625000
9954,-15.625000
9955,-15.625000
9956,-15.625000
9957,-15.625000
9958,-11.718750
9959,-11.718750
9960,-11.718750
9961,-11.718750
9962,-7.812500
9963,-7.812500
9964,-7.812500
9965,-7.812500
9966,-7.812500
9967,-7.812500
9968,-3.906250
9969,-7.812500
9970,-3.906250
9971,-3.906250
9972,-3.906250
9973,-3.906250
9974,0.000000
9975,0.000000
9976,0.000000
9977,0.000000
9978,0.000000
9979,0.000000
9980,3.906250
9981,3.906250
9982,3.906250
9983,3.906250
9984,3.906250
9985,3.906250
9986,3.906250
9987,7.812500
9988,7.812500
9989,7.812500
9990,7.812500
9991,7.812500
9992,11.718750
9993,11.718750
9994,11.718750
9995,11.718750
9996,11.718750
9997,11.718750
9998,11.718750
9999,15.625000
10000,15.625000
