Channel              :,CH1
Frequency            :,1.010kHz
Period               :,0.990ms
PK-PK                :,261.7mV
Probe attenuation    :,1X
Voltage per ADC value:,0.244141mV
Time interval        :,1.00000us

index,CH1_Voltage(mV)
1,-70.312500
2,-70.312500
3,-66.406250
4,-66.406250
5,-66.406250
6,-66.406250
7,-66.406250
8,-62.500000
9,-62.500000
10,-62.500000
11,-62.500000
12,-62.500000
13,-58.593750
14,-58.593750
15,-58.593750
16,-58.593750
17,-58.593750
18,-54.687500
19,-54.687500
20,-54.687500
21,-54.687500
22,-50.781250
23,-50.781250
24,-50.781250
25,-50.781250
26,-50.781250
27,-46.875000
28,-46.875000
29,-46.875000
30,-46.875000
31,-42.968750
32,-42.968750
33,-42.968750
34,-42.968750
35,-42.968750
36,-39.062500
37,-39.062500
38,-39.062500
39,-39.062500
40,-39.062500
41,-39.062500
42,-35.156250
43,-35.156250
44,-35.156250
45,-35.156250
46,-31.250000
47,-31.250000
48,-31.250000
49,-31.250000
50,-31.250000
51,-27.343750
52,-27.343750
53,-27.343750
54,-27.343750
55,-23.437500
56,-23.437500
57,-23.437500
58,-23.437500
59,-23.437500
60,-19.531250
61,-19.531250
62,-19.531250
63,-19.531250
64,-19.531250
65,-15.625000
66,-15.625000
67,-15.625000
68,-15.625000
69,-15.625000
70,-11.718750
71,-11.718750
72,-11.718750
73,-11.718750
74,-11.718750
75,-7.812500
76,-7.812500
77,-7.812500
78,-7.812500
79,-7.812500
80,-3.906250
81,-7.812500
82,-3.906250
83,-3.906250
84,-3.906250
85,0.000000
86,0.000000
87,0.000000
88,0.000000
89,0.000000
90,3.906250
91,3.906250
92,3.906250
93,3.906250
94,3.906250
95,7.812500
96,7.812500
97,7.812500
98,7.812500
99,7.812500
100,11.718750
101,11.718750
102,11.718750
103,11.718750
104,11.718750
105,15.625000
106,15.625000
107,15.625000
108,15.625000
109,15.625000
110,19.531250
111,19.531250
112,19.531250
113,19.531250
114,19.531250
115,23.437500
116,23.437500
117,23.437500
118,23.437500
119,23.437500
120,27.343750
121,27.343750
122,27.343750
123,27.343750
124,27.343750
125,31.250000
126,31.250000
127,31.250000
128,31.250000
129,31.250000
130,35.156250
131,35.156250
132,35.156250
133,35.156250
134,35.156250
135,35.156250
136,39.062500
137,39.062500
138,39.062500
139,39.062500
140,39.062500
141,39.062500
142,42.968750
143,42.968750
144,42.968750
145,42.968750
146,46.875000
147,46.875000
148,46.875000
149,46.875000
150,46.875000
151,46.875000
152,46.875000
153,50.781250
154,50.781250
155,50.781250
156,50.781250
157,50.781250
158,54.687500
159,54.687500
160,54.687500
161,54.687500
162,54.687500
163,54.687500
164,54.687500
165,58.593750
166,58.593750
167,58.593750
168,58.593750
169,58.593750
170,58.593750
171,62.500000
172,62.500000
173,62.500000
174,62.500000
175,62.500000
176,62.500000
177,62.500000
178,66.406250
179,66.406250
180,66.406250
181,66.406250
182,66.406250
183,66.406250
184,70.312500
185,66.406250
186,70.312500
187,70.312500
188,70.312500
189,70.312500
190,70.312500
191,74.218750
192,74.218750
193,74.218750
194,74.218750
195,74.218750
196,74.218750
197,74.218750
198,74.218750
199,74.218750
200,78.125000
201,78.125000
202,78.125000
203,78.125000
204,78.125000
205,78.125000
206,78.125000
207,78.125000
208,82.031250
209,82.031250
210,82.031250
211,82.031250
212,82.031250
213,82.031250
214,82.031250
215,85.937500
216,85.937500
217,85.937500
218,85.937500
219,85.937500
220,85.937500
221,85.937500
222,85.937500
223,85.937500
224,85.937500
225,85.937500
226,89.843750
227,89.843750
228,89.843750
229,89.843750
230,89.843750
231,89.843750
232,89.843750
233,89.843750
234,89.843750
235,89.843750
236,89.843750
237,89.843750
238,93.750000
239,93.750000
240,93.750000
241,93.750000
242,93.750000
243,93.750000
244,93.750000
245,93.750000
246,97.656250
247,93.750000
248,93.750000
249,93.750000
250,97.656250
251,97.656250
252,97.656250
253,97.656250
254,97.656250
255,97.656250
256,97.656250
257,97.656250
258,97.656250
259,97.656250
260,97.656250
261,97.656250
262,101.562500
263,101.562500
264,101.562500
265,101.562500
266,101.562500
267,101.562500
268,101.562500
269,101.562500
270,101.562500
271,101.562500
272,101.562500
273,101.562500
274,101.562500
275,101.562500
276,101.562500
277,101.562500
278,105.468750
279,105.468750
280,105.468750
281,105.468750
282,105.468750
283,105.468750
284,105.468750
285,105.468750
286,105.468750
287,105.468750
288,105.468750
289,105.468750
290,105.468750
291,105.468750
292,105.468750
293,105.468750
294,109.375000
295,105.468750
296,109.375000
297,109.375000
298,105.468750
299,109.375000
300,109.375000
301,109.375000
302,109.375000
303,109.375000
304,109.375000
305,109.375000
306,109.375000
307,109.375000
308,109.375000
309,109.375000
310,109.375000
311,109.375000
312,109.375000
313,109.375000
314,109.375000
315,109.375000
316,109.375000
317,109.375000
318,109.375000
319,109.375000
320,109.375000
321,109.375000
322,109.375000
323,109.375000
324,109.375000
325,109.375000
326,109.375000
327,109.375000
328,109.375000
329,109.375000
330,109.375000
331,109.375000
332,109.375000
333,109.375000
334,109.375000
335,109.375000
336,109.375000
337,109.375000
338,109.375000
339,109.375000
340,109.375000
341,109.375000
342,109.375000
343,109.375000
344,109.375000
345,109.375000
346,109.375000
347,109.375000
348,109.375000
349,109.375000
350,105.468750
351,105.468750
352,105.468750
353,105.468750
354,105.468750
355,105.468750
356,109.375000
357,105.468750
358,105.468750
359,105.468750
360,105.468750
361,105.468750
362,105.468750
363,105.468750
364,105.468750
365,105.468750
366,105.468750
367,105.468750
368,105.468750
369,105.468750
370,105.468750
371,105.468750
372,105.468750
373,105.468750
374,105.468750
375,101.562500
376,105.468750
377,105.468750
378,105.468750
379,101.562500
380,101.562500
381,101.562500
382,101.562500
383,101.562500
384,101.562500
385,101.562500
386,101.562500
387,101.562500
388,101.562500
389,101.562500
390,101.562500
391,101.562500
392,101.562500
393,101.562500
394,97.656250
395,97.656250
396,97.656250
397,97.656250
398,97.656250
399,97.656250
400,97.656250
401,97.656250
402,97.656250
403,97.656250
404,97.656250
405,97.656250
406,97.656250
407,93.750000
408,93.750000
409,93.750000
410,93.750000
411,93.750000
412,93.750000
413,93.750000
414,93.750000
415,93.750000
416,93.750000
417,93.750000
418,93.750000
419,89.843750
420,89.843750
421,89.843750
422,89.843750
423,89.843750
424,89.843750
425,89.843750
426,89.843750
427,89.843750
428,85.937500
429,85.937500
430,85.937500
431,85.937500
432,85.937500
433,85.937500
434,85.937500
435,85.937500
436,85.937500
437,82.031250
438,85.937500
439,82.031250
440,82.031250
441,82.031250
442,82.031250
443,82.031250
444,82.031250
445,78.125000
446,78.125000
447,78.125000
448,78.125000
449,78.125000
450,78.125000
451,78.125000
452,74.218750
453,74.218750
454,78.125000
455,74.218750
456,74.218750
457,74.218750
458,74.218750
459,74.218750
460,70.312500
461,70.312500
462,70.312500
463,70.312500
464,70.312500
465,70.312500
466,70.312500
467,70.312500
468,66.406250
469,66.406250
470,66.406250
471,66.406250
472,66.406250
473,66.406250
474,66.406250
475,62.500000
476,62.500000
477,62.500000
478,62.500000
479,62.500000
480,58.593750
481,58.593750
482,58.593750
483,58.593750
484,58.593750
485,58.593750
486,54.687500
487,54.687500
488,54.687500
489,54.687500
490,54.687500
491,54.687500
492,54.687500
493,50.781250
494,50.781250
495,50.781250
496,50.781250
497,50.781250
498,50.781250
499,46.875000
500,46.875000
501,46.875000
502,46.875000
503,46.875000
504,42.968750
505,42.968750
506,42.968750
507,42.968750
508,42.968750
509,42.968750
510,42.968750
511,39.062500
512,39.062500
513,39.062500
514,39.062500
515,35.156250
516,35.156250
517,35.156250
518,35.156250
519,35.156250
520,35.156250
521,31.250000
522,31.250000
523,31.250000
524,31.250000
525,31.250000
526,27.343750
527,27.343750
528,27.343750
529,27.343750
530,27.343750
531,27.343750
532,23.437500
533,23.437500
534,23.437500
535,19.531250
536,19.531250
537,19.531250
538,19.531250
539,19.531250
540,19.531250
541,15.625000
542,15.625000
543,15.625000
544,15.625000
545,15.625000
546,15.625000
547,11.718750
548,11.718750
549,11.718750
550,11.718750
551,7.812500
552,7.812500
553,7.812500
554,7.812500
555,7.812500
556,3.906250
557,3.906250
558,3.906250
559,3.906250
560,3.906250
561,0.000000
562,0.000000
563,0.000000
564,0.000000
565,-3.906250
566,-3.906250
567,-3.906250
568,-3.906250
569,-3.906250
570,-7.812500
571,-7.812500
572,-7.812500
573,-7.812500
574,-11.718750
575,-11.718750
576,-11.718750
577,-11.718750
578,-15.625000
579,-15.625000
580,-15.625000
581,-15.625000
582,-15.625000
583,-19.531250
584,-19.531250
585,-19.531250
586,-19.531250
587,-19.531250
588,-23.437500
589,-23.437500
590,-23.437500
591,-23.437500
592,-23.437500
593,-27.343750
594,-27.343750
595,-27.343750
596,-27.343750
597,-31.250000
598,-31.250000
599,-35.156250
600,-31.250000
601,-31.250000
602,-35.156250
603,-35.156250
604,-35.156250
605,-39.062500
606,-39.062500
607,-39.062500
608,-39.062500
609,-39.062500
610,-39.062500
611,-42.968750
612,-42.968750
613,-42.968750
614,-42.968750
615,-46.875000
616,-46.875000
617,-46.875000
618,-46.875000
619,-50.781250
620,-50.781250
621,-50.781250
622,-50.781250
623,-54.687500
624,-54.687500
625,-54.687500
626,-54.687500
627,-54.687500
628,-58.593750
629,-58.593750
630,-58.593750
631,-58.593750
632,-58.593750
633,-62.500000
634,-62.500000
635,-62.500000
636,-62.500000
637,-62.500000
638,-66.406250
639,-66.406250
640,-66.406250
641,-66.406250
642,-66.406250
643,-70.312500
644,-70.312500
645,-70.312500
646,-70.312500
647,-74.218750
648,-74.218750
649,-74.218750
650,-74.218750
651,-74.218750
652,-74.218750
653,-78.125000
654,-78.125000
655,-78.125000
656,-78.125000
657,-82.031250
658,-82.031250
659,-82.031250
660,-82.031250
661,-82.031250
662,-82.031250
663,-85.937500
664,-85.937500
665,-85.937500
666,-85.937500
667,-89.843750
668,-89.843750
669,-89.843750
670,-89.843750
671,-89.843750
672,-89.843750
673,-89.843750
674,-93.750000
675,-93.750000
676,-93.750000
677,-93.750000
678,-93.750000
679,-97.656250
680,-97.656250
681,-97.656250
682,-97.656250
683,-97.656250
684,-97.656250
685,-101.562500
686,-101.562500
687,-101.562500
688,-101.562500
689,-105.468750
690,-105.468750
691,-105.468750
692,-105.468750
693,-105.468750
694,-105.468750
695,-109.375000
696,-109.375000
697,-109.375000
698,-109.375000
699,-109.375000
700,-109.375000
701,-109.375000
702,-113.281250
703,-113.281250
704,-113.281250
705,-113.281250
706,-113.281250
707,-113.281250
708,-117.187500
709,-117.187500
710,-117.187500
711,-117.187500
712,-117.187500
713,-117.187500
714,-121.093750
715,-121.093750
716,-121.093750
717,-121.093750
718,-121.093750
719,-121.093750
720,-121.093750
721,-125.000000
722,-125.000000
723,-125.000000
724,-125.000000
725,-125.000000
726,-125.000000
727,-125.000000
728,-128.906250
729,-128.906250
730,-128.906250
731,-128.906250
732,-128.906250
733,-128.906250
734,-128.906250
735,-128.906250
736,-132.812500
737,-132.812500
738,-132.812500
739,-132.812500
740,-132.812500
741,-132.812500
742,-132.812500
743,-136.718750
744,-132.812500
745,-136.718750
746,-136.718750
747,-136.718750
748,-136.718750
749,-136.718750
750,-136.718750
751,-136.718750
752,-136.718750
753,-136.718750
754,-136.718750
755,-136.718750
756,-140.625000
757,-140.625000
758,-140.625000
759,-140.625000
760,-140.625000
761,-140.625000
762,-140.625000
763,-140.625000
764,-140.625000
765,-140.625000
766,-144.531250
767,-144.531250
768,-144.531250
769,-144.531250
770,-144.531250
771,-144.531250
772,-144.531250
773,-140.625000
774,-144.531250
775,-144.531250
776,-144.531250
777,-144.531250
778,-144.531250
779,-144.531250
780,-144.531250
781,-144.531250
782,-144.531250
783,-148.437500
784,-148.437500
785,-148.437500
786,-148.437500
787,-148.437500
788,-148.437500
789,-148.437500
790,-148.437500
791,-148.437500
792,-148.437500
793,-148.437500
794,-148.437500
795,-148.437500
796,-148.437500
797,-148.437500
798,-148.437500
799,-148.437500
800,-148.437500
801,-148.437500
802,-148.437500
803,-148.437500
804,-148.437500
805,-148.437500
806,-148.437500
807,-148.437500
808,-148.437500
809,-148.437500
810,-148.437500
811,-148.437500
812,-148.437500
813,-148.437500
814,-148.437500
815,-148.437500
816,-152.343750
817,-148.437500
818,-148.437500
819,-148.437500
820,-148.437500
821,-148.437500
822,-148.437500
823,-148.437500
824,-148.437500
825,-148.437500
826,-148.437500
827,-148.437500
828,-148.437500
829,-148.437500
830,-148.437500
831,-148.437500
832,-148.437500
833,-148.437500
834,-148.437500
835,-148.437500
836,-148.437500
837,-148.437500
838,-148.437500
839,-148.437500
840,-148.437500
841,-148.437500
842,-148.437500
843,-148.437500
844,-148.437500
845,-148.437500
846,-148.437500
847,-144.531250
848,-148.437500
849,-148.437500
850,-144.531250
851,-144.531250
852,-144.531250
853,-144.531250
854,-144.531250
855,-144.531250
856,-144.531250
857,-144.531250
858,-144.531250
859,-144.531250
860,-140.625000
861,-144.531250
862,-144.531250
863,-144.531250
864,-140.625000
865,-140.625000
866,-140.625000
867,-144.531250
868,-144.531250
869,-140.625000
870,-140.625000
871,-140.625000
872,-140.625000
873,-140.625000
874,-140.625000
875,-140.625000
876,-140.625000
877,-140.625000
878,-136.718750
879,-136.718750
880,-136.718750
881,-136.718750
882,-136.718750
883,-136.718750
884,-136.718750
885,-136.718750
886,-136.718750
887,-136.718750
888,-132.812500
889,-136.718750
890,-132.812500
891,-132.812500
892,-132.812500
893,-132.812500
894,-132.812500
895,-132.812500
896,-132.812500
897,-128.906250
898,-128.906250
899,-128.906250
900,-128.906250
901,-128.906250
902,-128.906250
903,-128.906250
904,-128.906250
905,-125.000000
906,-125.000000
907,-125.000000
908,-125.000000
909,-125.000000
910,-125.000000
911,-121.093750
912,-121.093750
913,-121.093750
914,-121.093750
915,-121.093750
916,-121.093750
917,-121.093750
918,-121.093750
919,-121.093750
920,-117.187500
921,-117.187500
922,-117.187500
923,-117.187500
924,-117.187500
925,-117.187500
926,-113.281250
927,-113.281250
928,-113.281250
929,-113.281250
930,-109.375000
931,-109.375000
932,-109.375000
933,-109.375000
934,-109.375000
935,-109.375000
936,-109.375000
937,-109.375000
938,-105.468750
939,-105.468750
940,-105.468750
941,-105.468750
942,-105.468750
943,-101.562500
944,-101.562500
945,-101.562500
946,-101.562500
947,-101.562500
948,-101.562500
949,-97.656250
950,-97.656250
951,-97.656250
952,-97.656250
953,-97.656250
954,-93.750000
955,-93.750000
956,-93.750000
957,-93.750000
958,-93.750000
959,-93.750000
960,-89.843750
961,-93.750000
962,-89.843750
963,-89.843750
964,-89.843750
965,-89.843750
966,-85.937500
967,-85.937500
968,-85.937500
969,-85.937500
970,-85.937500
971,-82.031250
972,-82.031250
973,-82.031250
974,-82.031250
975,-82.031250
976,-82.031250
977,-78.125000
978,-78.125000
979,-78.125000
980,-78.125000
981,-74.218750
982,-74.218750
983,-74.218750
984,-74.218750
985,-74.218750
986,-74.218750
987,-70.312500
988,-70.312500
989,-70.312500
990,-70.312500
991,-70.312500
992,-66.406250
993,-66.406250
994,-66.406250
995,-66.406250
996,-66.406250
997,-66.406250
998,-62.500000
999,-62.500000
1000,-62.500000
1001,-62.500000
1002,-58.593750
1003,-58.593750
1004,-58.593750
1005,-58.593750
1006,-54.687500
1007,-54.687500
1008,-54.687500
1009,-54.687500
1010,-54.687500
1011,-54.687500
1012,-50.781250
1013,-50.781250
1014,-50.781250
1015,-50.781250
1016,-50.781250
1017,-46.875000
1018,-46.875000
1019,-46.875000
1020,-46.875000
1021,-46.875000
1022,-42.968750
1023,-42.968750
1024,-42.968750
1025,-42.968750
1026,-39.062500
1027,-39.062500
1028,-39.062500
1029,-39.062500
1030,-39.062500
1031,-35.156250
1032,-35.156250
1033,-35.156250
1034,-35.156250
1035,-35.156250
1036,-31.250000
1037,-31.250000
1038,-31.250000
1039,-31.250000
1040,-27.343750
1041,-27.343750
1042,-27.343750
1043,-27.343750
1044,-23.437500
1045,-23.437500
1046,-23.437500
1047,-23.437500
1048,-23.437500
1049,-19.531250
1050,-19.531250
1051,-19.531250
1052,-19.531250
1053,-19.531250
1054,-15.625000
1055,-15.625000
1056,-15.625000
1057,-15.625000
1058,-11.718750
1059,-11.718750
1060,-11.718750
1061,-11.718750
1062,-11.718750
1063,-7.812500
1064,-7.812500
1065,-7.812500
1066,-7.812500
1067,-7.812500
1068,-3.906250
1069,-3.906250
1070,-3.906250
1071,-3.906250
1072,0.000000
1073,0.000000
1074,0.000000
1075,0.000000
1076,0.000000
1077,3.906250
1078,3.906250
1079,3.906250
1080,3.906250
1081,3.906250
1082,7.812500
1083,7.812500
1084,7.812500
1085,7.812500
1086,7.812500
1087,11.718750
1088,11.718750
1089,11.718750
1090,11.718750
1091,11.718750
1092,11.718750
1093,11.718750
1094,15.625000
1095,15.625000
1096,15.625000
1097,15.625000
1098,19.531250
1099,19.531250
1100,19.531250
1101,19.531250
1102,19.531250
1103,23.437500
1104,23.437500
1105,23.437500
1106,23.437500
1107,23.437500
1108,27.343750
1109,27.343750
1110,27.343750
1111,27.343750
1112,31.250000
1113,31.250000
1114,31.250000
1115,31.250000
1116,31.250000
1117,31.250000
1118,31.250000
1119,31.250000
1120,35.156250
1121,35.156250
1122,35.156250
1123,35.156250
1124,39.062500
1125,39.062500
1126,39.062500
1127,39.062500
1128,39.062500
1129,39.062500
1130,42.968750
1131,42.968750
1132,42.968750
1133,42.968750
1134,42.968750
1135,42.968750
1136,46.875000
1137,46.875000
1138,46.875000
1139,46.875000
1140,46.875000
1141,46.875000
1142,50.781250
1143,50.781250
1144,50.781250
1145,50.781250
1146,50.781250
1147,50.781250
1148,54.687500
1149,54.687500
1150,54.687500
1151,54.687500
1152,54.687500
1153,54.687500
1154,58.593750
1155,58.593750
1156,58.593750
1157,58.593750
1158,58.593750
1159,58.593750
1160,62.500000
1161,62.500000
1162,62.500000
1163,62.500000
1164,62.500000
1165,62.500000
1166,62.500000
1167,62.500000
1168,66.406250
1169,66.406250
1170,66.406250
1171,66.406250
1172,66.406250
1173,70.312500
1174,70.312500
1175,70.312500
1176,70.312500
1177,70.312500
1178,70.312500
1179,70.312500
1180,70.312500
1181,74.218750
1182,74.218750
1183,74.218750
1184,74.218750
1185,74.218750
1186,74.218750
1187,74.218750
1188,78.125000
1189,78.125000
1190,78.125000
1191,78.125000
1192,78.125000
1193,78.125000
1194,78.125000
1195,78.125000
1196,82.031250
1197,82.031250
1198,82.031250
1199,82.031250
1200,82.031250
1201,82.031250
1202,82.031250
1203,82.031250
1204,85.937500
1205,82.031250
1206,85.937500
1207,85.937500
1208,85.937500
1209,85.937500
1210,85.937500
1211,85.937500
1212,85.937500
1213,85.937500
1214,89.843750
1215,89.843750
1216,89.843750
1217,89.843750
1218,89.843750
1219,89.843750
1220,89.843750
1221,89.843750
1222,89.843750
1223,89.843750
1224,89.843750
1225,93.750000
1226,93.750000
1227,93.750000
1228,93.750000
1229,93.750000
1230,93.750000
1231,93.750000
1232,93.750000
1233,93.750000
1234,93.750000
1235,97.656250
1236,97.656250
1237,97.656250
1238,97.656250
1239,97.656250
1240,97.656250
1241,97.656250
1242,97.656250
1243,97.656250
1244,97.656250
1245,97.656250
1246,97.656250
1247,97.656250
1248,97.656250
1249,97.656250
1250,101.562500
1251,101.562500
1252,101.562500
1253,101.562500
1254,101.562500
1255,101.562500
1256,101.562500
1257,101.562500
1258,101.562500
1259,101.562500
1260,101.562500
1261,101.562500
1262,101.562500
1263,101.562500
1264,101.562500
1265,101.562500
1266,101.562500
1267,101.562500
1268,105.468750
1269,105.468750
1270,105.468750
1271,105.468750
1272,105.468750
1273,105.468750
1274,105.468750
1275,105.468750
1276,105.468750
1277,105.468750
1278,105.468750
1279,105.468750
1280,105.468750
1281,105.468750
1282,105.468750
1283,105.468750
1284,105.468750
1285,105.468750
1286,105.468750
1287,105.468750
1288,105.468750
1289,105.468750
1290,105.468750
1291,109.375000
1292,109.375000
1293,105.468750
1294,109.375000
1295,109.375000
1296,109.375000
1297,109.375000
1298,109.375000
1299,109.375000
1300,109.375000
1301,109.375000
1302,109.375000
1303,109.375000
1304,109.375000
1305,109.375000
1306,109.375000
1307,109.375000
1308,109.375000
1309,109.375000
1310,109.375000
1311,109.375000
1312,109.375000
1313,109.375000
1314,109.375000
1315,109.375000
1316,109.375000
1317,109.375000
1318,109.375000
1319,109.375000
1320,109.375000
1321,109.375000
1322,109.375000
1323,109.375000
1324,109.375000
1325,109.375000
1326,109.375000
1327,109.375000
1328,109.375000
1329,109.375000
1330,109.375000
1331,109.375000
1332,109.375000
1333,109.375000
1334,109.375000
1335,109.375000
1336,109.375000
1337,109.375000
1338,109.375000
1339,109.375000
1340,109.375000
1341,105.468750
1342,109.375000
1343,109.375000
1344,109.375000
1345,105.468750
1346,105.468750
1347,105.468750
1348,105.468750
1349,105.468750
1350,105.468750
1351,105.468750
1352,105.468750
1353,105.468750
1354,105.468750
1355,105.468750
1356,105.468750
1357,105.468750
1358,105.468750
1359,105.468750
1360,105.468750
1361,105.468750
1362,105.468750
1363,105.468750
1364,105.468750
1365,105.468750
1366,105.468750
1367,105.468750
1368,101.562500
1369,101.562500
1370,101.562500
1371,101.562500
1372,101.562500
1373,101.562500
1374,101.562500
1375,101.562500
1376,101.562500
1377,101.562500
1378,101.562500
1379,101.562500
1380,101.562500
1381,101.562500
1382,101.562500
1383,97.656250
1384,97.656250
1385,97.656250
1386,97.656250
1387,97.656250
1388,97.656250
1389,97.656250
1390,97.656250
1391,97.656250
1392,97.656250
1393,97.656250
1394,97.656250
1395,97.656250
1396,97.656250
1397,93.750000
1398,93.750000
1399,93.750000
1400,93.750000
1401,93.750000
1402,93.750000
1403,93.750000
1404,93.750000
1405,93.750000
1406,93.750000
1407,89.843750
1408,89.843750
1409,89.843750
1410,89.843750
1411,89.843750
1412,89.843750
1413,89.843750
1414,89.843750
1415,89.843750
1416,89.843750
1417,89.843750
1418,85.937500
1419,85.937500
1420,85.937500
1421,85.937500
1422,85.937500
1423,85.937500
1424,85.937500
1425,85.937500
1426,85.937500
1427,82.031250
1428,82.031250
1429,82.031250
1430,82.031250
1431,82.031250
1432,82.031250
1433,82.031250
1434,82.031250
1435,78.125000
1436,78.125000
1437,78.125000
1438,78.125000
1439,78.125000
1440,78.125000
1441,78.125000
1442,74.218750
1443,74.218750
1444,74.218750
1445,74.218750
1446,74.218750
1447,74.218750
1448,74.218750
1449,74.218750
1450,70.312500
1451,70.312500
1452,70.312500
1453,70.312500
1454,70.312500
1455,70.312500
1456,70.312500
1457,66.406250
1458,66.406250
1459,66.406250
1460,66.406250
1461,66.406250
1462,66.406250
1463,62.500000
1464,62.500000
1465,62.500000
1466,62.500000
1467,62.500000
1468,62.500000
1469,62.500000
1470,58.593750
1471,58.593750
1472,58.593750
1473,58.593750
1474,58.593750
1475,58.593750
1476,54.687500
1477,54.687500
1478,54.687500
1479,54.687500
1480,54.687500
1481,54.687500
1482,50.781250
1483,50.781250
1484,50.781250
1485,50.781250
1486,50.781250
1487,46.875000
1488,46.875000
1489,46.875000
1490,46.875000
1491,46.875000
1492,46.875000
1493,42.968750
1494,42.968750
1495,42.968750
1496,42.968750
1497,42.968750
1498,39.062500
1499,39.062500
1500,39.062500
1501,39.062500
1502,39.062500
1503,39.062500
1504,35.156250
1505,35.156250
1506,35.156250
1507,35.156250
1508,35.156250
1509,31.250000
1510,31.250000
1511,31.250000
1512,31.250000
1513,27.343750
1514,27.343750
1515,27.343750
1516,27.343750
1517,27.343750
1518,27.343750
1519,23.437500
1520,23.437500
1521,23.437500
1522,23.437500
1523,23.437500
1524,19.531250
1525,19.531250
1526,19.531250
1527,19.531250
1528,15.625000
1529,15.625000
1530,15.625000
1531,15.625000
1532,15.625000
1533,11.718750
1534,11.718750
1535,11.718750
1536,11.718750
1537,11.718750
1538,7.812500
1539,7.812500
1540,7.812500
1541,7.812500
1542,7.812500
1543,3.906250
1544,3.906250
1545,3.906250
1546,3.906250
1547,3.906250
1548,3.906250
1549,0.000000
1550,0.000000
1551,0.000000
1552,0.000000
1553,-3.906250
1554,-3.906250
1555,-3.906250
1556,-3.906250
1557,-3.906250
1558,-7.812500
1559,-7.812500
1560,-7.812500
1561,-7.812500
1562,-11.718750
1563,-11.718750
1564,-11.718750
1565,-11.718750
1566,-11.718750
1567,-15.625000
1568,-15.625000
1569,-15.625000
1570,-15.625000
1571,-19.531250
1572,-19.531250
1573,-19.531250
1574,-19.531250
1575,-19.531250
1576,-19.531250
1577,-23.437500
1578,-23.437500
1579,-23.437500
1580,-27.343750
1581,-27.343750
1582,-27.343750
1583,-27.343750
1584,-27.343750
1585,-31.250000
1586,-31.250000
1587,-31.250000
1588,-31.250000
1589,-31.250000
1590,-35.156250
1591,-35.156250
1592,-35.156250
1593,-35.156250
1594,-39.062500
1595,-39.062500
1596,-39.062500
1597,-39.062500
1598,-39.062500
1599,-39.062500
1600,-42.968750
1601,-42.968750
1602,-42.968750
1603,-42.968750
1604,-46.875000
1605,-46.875000
1606,-46.875000
1607,-46.875000
1608,-50.781250
1609,-50.781250
1610,-50.781250
1611,-50.781250
1612,-50.781250
1613,-54.687500
1614,-54.687500
1615,-54.687500
1616,-58.593750
1617,-58.593750
1618,-58.593750
1619,-58.593750
1620,-58.593750
1621,-58.593750
1622,-62.500000
1623,-62.500000
1624,-62.500000
1625,-66.406250
1626,-62.500000
1627,-66.406250
1628,-66.406250
1629,-66.406250
1630,-66.406250
1631,-66.406250
1632,-70.312500
1633,-70.312500
1634,-70.312500
1635,-70.312500
1636,-70.312500
1637,-74.218750
1638,-74.218750
1639,-74.218750
1640,-74.218750
1641,-78.125000
1642,-78.125000
1643,-78.125000
1644,-78.125000
1645,-78.125000
1646,-78.125000
1647,-82.031250
1648,-82.031250
1649,-82.031250
1650,-82.031250
1651,-85.937500
1652,-85.937500
1653,-85.937500
1654,-85.937500
1655,-85.937500
1656,-89.843750
1657,-89.843750
1658,-89.843750
1659,-89.843750
1660,-89.843750
1661,-89.843750
1662,-93.750000
1663,-93.750000
1664,-93.750000
1665,-93.750000
1666,-93.750000
1667,-93.750000
1668,-97.656250
1669,-97.656250
1670,-97.656250
1671,-97.656250
1672,-97.656250
1673,-101.562500
1674,-101.562500
1675,-101.562500
1676,-101.562500
1677,-101.562500
1678,-105.468750
1679,-105.468750
1680,-105.468750
1681,-105.468750
1682,-105.468750
1683,-105.468750
1684,-105.468750
1685,-109.375000
1686,-109.375000
1687,-109.375000
1688,-109.375000
1689,-109.375000
1690,-113.281250
1691,-113.281250
1692,-113.281250
1693,-113.281250
1694,-113.281250
1695,-113.281250
1696,-113.281250
1697,-117.187500
1698,-117.187500
1699,-117.187500
1700,-117.187500
1701,-117.187500
1702,-121.093750
1703,-117.187500
1704,-121.093750
1705,-121.093750
1706,-121.093750
1707,-121.093750
1708,-121.093750
1709,-121.093750
1710,-121.093750
1711,-125.000000
1712,-125.000000
1713,-125.000000
1714,-125.000000
1715,-125.000000
1716,-125.000000
1717,-125.000000
1718,-125.000000
1719,-128.906250
1720,-128.906250
1721,-128.906250
1722,-128.906250
1723,-128.906250
1724,-128.906250
1725,-128.906250
1726,-128.906250
1727,-132.812500
1728,-132.812500
1729,-132.812500
1730,-132.812500
1731,-132.812500
1732,-132.812500
1733,-132.812500
1734,-132.812500
1735,-132.812500
1736,-136.718750
1737,-136.718750
1738,-136.718750
1739,-136.718750
1740,-136.718750
1741,-136.718750
1742,-136.718750
1743,-136.718750
1744,-136.718750
1745,-136.718750
1746,-140.625000
1747,-140.625000
1748,-140.625000
1749,-140.625000
1750,-140.625000
1751,-140.625000
1752,-140.625000
1753,-140.625000
1754,-140.625000
1755,-140.625000
1756,-140.625000
1757,-144.531250
1758,-144.531250
1759,-144.531250
1760,-144.531250
1761,-144.531250
1762,-144.531250
1763,-144.531250
1764,-144.531250
1765,-144.531250
1766,-144.531250
1767,-144.531250
1768,-144.531250
1769,-148.437500
1770,-144.531250
1771,-148.437500
1772,-148.437500
1773,-148.437500
1774,-148.437500
1775,-148.437500
1776,-148.437500
1777,-148.437500
1778,-148.437500
1779,-148.437500
1780,-148.437500
1781,-148.437500
1782,-148.437500
1783,-148.437500
1784,-148.437500
1785,-148.437500
1786,-148.437500
1787,-148.437500
1788,-148.437500
1789,-148.437500
1790,-148.437500
1791,-148.437500
1792,-148.437500
1793,-148.437500
1794,-148.437500
1795,-148.437500
1796,-148.437500
1797,-148.437500
1798,-148.437500
1799,-152.343750
1800,-148.437500
1801,-152.343750
1802,-148.437500
1803,-148.437500
1804,-148.437500
1805,-148.437500
1806,-148.437500
1807,-148.437500
1808,-148.437500
1809,-148.437500
1810,-148.437500
1811,-148.437500
1812,-148.437500
1813,-148.437500
1814,-148.437500
1815,-148.437500
1816,-148.437500
1817,-148.437500
1818,-148.437500
1819,-148.437500
1820,-148.437500
1821,-148.437500
1822,-148.437500
1823,-148.437500
1824,-148.437500
1825,-148.437500
1826,-148.437500
1827,-148.437500
1828,-148.437500
1829,-148.437500
1830,-148.437500
1831,-148.437500
1832,-148.437500
1833,-148.437500
1834,-148.437500
1835,-144.531250
1836,-148.437500
1837,-144.531250
1838,-144.531250
1839,-148.437500
1840,-144.531250
1841,-144.531250
1842,-144.531250
1843,-144.531250
1844,-144.531250
1845,-144.531250
1846,-144.531250
1847,-144.531250
1848,-144.531250
1849,-144.531250
1850,-144.531250
1851,-144.531250
1852,-140.625000
1853,-140.625000
1854,-140.625000
1855,-140.625000
1856,-140.625000
1857,-140.625000
1858,-140.625000
1859,-140.625000
1860,-140.625000
1861,-140.625000
1862,-140.625000
1863,-140.625000
1864,-136.718750
1865,-136.718750
1866,-136.718750
1867,-136.718750
1868,-136.718750
1869,-136.718750
1870,-136.718750
1871,-136.718750
1872,-136.718750
1873,-136.718750
1874,-136.718750
1875,-132.812500
1876,-132.812500
1877,-132.812500
1878,-132.812500
1879,-132.812500
1880,-132.812500
1881,-132.812500
1882,-132.812500
1883,-132.812500
1884,-128.906250
1885,-128.906250
1886,-128.906250
1887,-128.906250
1888,-128.906250
1889,-128.906250
1890,-128.906250
1891,-128.906250
1892,-125.000000
1893,-125.000000
1894,-125.000000
1895,-125.000000
1896,-125.000000
1897,-125.000000
1898,-125.000000
1899,-125.000000
1900,-125.000000
1901,-121.093750
1902,-121.093750
1903,-121.093750
1904,-121.093750
1905,-121.093750
1906,-121.093750
1907,-121.093750
1908,-117.187500
1909,-117.187500
1910,-117.187500
1911,-117.187500
1912,-117.187500
1913,-117.187500
1914,-113.281250
1915,-113.281250
1916,-113.281250
1917,-113.281250
1918,-113.281250
1919,-113.281250
1920,-113.281250
1921,-109.375000
1922,-109.375000
1923,-109.375000
1924,-109.375000
1925,-109.375000
1926,-109.375000
1927,-105.468750
1928,-105.468750
1929,-105.468750
1930,-105.468750
1931,-105.468750
1932,-101.562500
1933,-101.562500
1934,-101.562500
1935,-101.562500
1936,-101.562500
1937,-101.562500
1938,-97.656250
1939,-97.656250
1940,-97.656250
1941,-97.656250
1942,-97.656250
1943,-97.656250
1944,-97.656250
1945,-93.750000
1946,-93.750000
1947,-93.750000
1948,-93.750000
1949,-93.750000
1950,-89.843750
1951,-89.843750
1952,-89.843750
1953,-89.843750
1954,-89.843750
1955,-85.937500
1956,-85.937500
1957,-85.937500
1958,-85.937500
1959,-85.937500
1960,-82.031250
1961,-82.031250
1962,-82.031250
1963,-82.031250
1964,-82.031250
1965,-78.125000
1966,-78.125000
1967,-78.125000
1968,-78.125000
1969,-78.125000
1970,-78.125000
1971,-78.125000
1972,-74.218750
1973,-74.218750
1974,-74.218750
1975,-74.218750
1976,-70.312500
1977,-70.312500
1978,-70.312500
1979,-70.312500
1980,-70.312500
1981,-66.406250
1982,-66.406250
1983,-66.406250
1984,-66.406250
1985,-62.500000
1986,-62.500000
1987,-62.500000
1988,-62.500000
1989,-62.500000
1990,-58.593750
1991,-58.593750
1992,-58.593750
1993,-58.593750
1994,-58.593750
1995,-58.593750
1996,-54.687500
1997,-54.687500
1998,-54.687500
1999,-54.687500
2000,-50.781250
2001,-50.781250
2002,-50.781250
2003,-50.781250
2004,-50.781250
2005,-46.875000
2006,-46.875000
2007,-46.875000
2008,-46.875000
2009,-42.968750
2010,-42.968750
2011,-42.968750
2012,-42.968750
2013,-42.968750
2014,-39.062500
2015,-39.062500
2016,-39.062500
2017,-39.062500
2018,-39.062500
2019,-39.062500
2020,-35.156250
2021,-35.156250
2022,-35.156250
2023,-35.156250
2024,-31.250000
2025,-31.250000
2026,-31.250000
2027,-31.250000
2028,-27.343750
2029,-27.343750
2030,-27.343750
2031,-27.343750
2032,-27.343750
2033,-27.343750
2034,-23.437500
2035,-23.437500
2036,-23.437500
2037,-23.437500
2038,-19.531250
2039,-19.531250
2040,-19.531250
2041,-19.531250
2042,-15.625000
2043,-15.625000
2044,-15.625000
2045,-15.625000
2046,-15.625000
2047,-15.625000
2048,-11.718750
2049,-11.718750
2050,-11.718750
2051,-11.718750
2052,-7.812500
2053,-7.812500
2054,-7.812500
2055,-7.812500
2056,-7.812500
2057,-3.906250
2058,-3.906250
2059,-3.906250
2060,-3.906250
2061,-3.906250
2062,0.000000
2063,0.000000
2064,0.000000
2065,0.000000
2066,0.000000
2067,3.906250
2068,3.906250
2069,3.906250
2070,3.906250
2071,7.812500
2072,7.812500
2073,7.812500
2074,7.812500
2075,7.812500
2076,11.718750
2077,11.718750
2078,11.718750
2079,11.718750
2080,11.718750
2081,15.625000
2082,15.625000
2083,15.625000
2084,15.625000
2085,15.625000
2086,15.625000
2087,19.531250
2088,19.531250
2089,19.531250
2090,19.531250
2091,23.437500
2092,23.437500
2093,23.437500
2094,23.437500
2095,23.437500
2096,23.437500
2097,27.343750
2098,27.343750
2099,27.343750
2100,27.343750
2101,27.343750
2102,31.250000
2103,31.250000
2104,31.250000
2105,31.250000
2106,31.250000
2107,35.156250
2108,35.156250
2109,35.156250
2110,35.156250
2111,35.156250
2112,39.062500
2113,39.062500
2114,39.062500
2115,39.062500
2116,39.062500
2117,42.968750
2118,42.968750
2119,42.968750
2120,42.968750
2121,42.968750
2122,42.968750
2123,42.968750
2124,46.875000
2125,46.875000
2126,46.875000
2127,46.875000
2128,46.875000
2129,46.875000
2130,50.781250
2131,50.781250
2132,50.781250
2133,50.781250
2134,50.781250
2135,54.687500
2136,54.687500
2137,54.687500
2138,54.687500
2139,54.687500
2140,54.687500
2141,54.687500
2142,58.593750
2143,58.593750
2144,58.593750
2145,58.593750
2146,58.593750
2147,58.593750
2148,62.500000
2149,58.593750
2150,62.500000
2151,62.500000
2152,62.500000
2153,62.500000
2154,62.500000
2155,62.500000
2156,66.406250
2157,66.406250
2158,66.406250
2159,66.406250
2160,66.406250
2161,66.406250
2162,66.406250
2163,66.406250
2164,70.312500
2165,70.312500
2166,70.312500
2167,70.312500
2168,70.312500
2169,70.312500
2170,70.312500
2171,74.218750
2172,74.218750
2173,74.218750
2174,74.218750
2175,74.218750
2176,74.218750
2177,78.125000
2178,78.125000
2179,78.125000
2180,78.125000
2181,78.125000
2182,78.125000
2183,78.125000
2184,78.125000
2185,78.125000
2186,82.031250
2187,82.031250
2188,82.031250
2189,82.031250
2190,82.031250
2191,82.031250
2192,82.031250
2193,82.031250
2194,82.031250
2195,85.937500
2196,85.937500
2197,85.937500
2198,85.937500
2199,85.937500
2200,85.937500
2201,85.937500
2202,85.937500
2203,89.843750
2204,89.843750
2205,89.843750
2206,89.843750
2207,89.843750
2208,89.843750
2209,89.843750
2210,89.843750
2211,89.843750
2212,89.843750
2213,93.750000
2214,93.750000
2215,93.750000
2216,93.750000
2217,93.750000
2218,93.750000
2219,93.750000
2220,93.750000
2221,93.750000
2222,93.750000
2223,93.750000
2224,93.750000
2225,97.656250
2226,97.656250
2227,97.656250
2228,97.656250
2229,97.656250
2230,97.656250
2231,97.656250
2232,97.656250
2233,97.656250
2234,97.656250
2235,97.656250
2236,97.656250
2237,101.562500
2238,101.562500
2239,101.562500
2240,97.656250
2241,101.562500
2242,101.562500
2243,101.562500
2244,101.562500
2245,101.562500
2246,101.562500
2247,101.562500
2248,101.562500
2249,101.562500
2250,101.562500
2251,101.562500
2252,101.562500
2253,101.562500
2254,101.562500
2255,105.468750
2256,105.468750
2257,105.468750
2258,105.468750
2259,105.468750
2260,105.468750
2261,105.468750
2262,105.468750
2263,105.468750
2264,105.468750
2265,105.468750
2266,105.468750
2267,105.468750
2268,105.468750
2269,105.468750
2270,105.468750
2271,105.468750
2272,105.468750
2273,105.468750
2274,105.468750
2275,105.468750
2276,105.468750
2277,105.468750
2278,105.468750
2279,105.468750
2280,105.468750
2281,109.375000
2282,105.468750
2283,109.375000
2284,105.468750
2285,109.375000
2286,109.375000
2287,109.375000
2288,109.375000
2289,109.375000
2290,109.375000
2291,109.375000
2292,109.375000
2293,109.375000
2294,109.375000
2295,109.375000
2296,109.375000
2297,109.375000
2298,109.375000
2299,109.375000
2300,109.375000
2301,109.375000
2302,109.375000
2303,109.375000
2304,109.375000
2305,105.468750
2306,109.375000
2307,109.375000
2308,109.375000
2309,109.375000
2310,109.375000
2311,109.375000
2312,109.375000
2313,109.375000
2314,109.375000
2315,109.375000
2316,109.375000
2317,109.375000
2318,109.375000
2319,109.375000
2320,109.375000
2321,105.468750
2322,105.468750
2323,105.468750
2324,109.375000
2325,109.375000
2326,105.468750
2327,105.468750
2328,105.468750
2329,105.468750
2330,105.468750
2331,105.468750
2332,105.468750
2333,105.468750
2334,105.468750
2335,105.468750
2336,105.468750
2337,105.468750
2338,105.468750
2339,105.468750
2340,105.468750
2341,105.468750
2342,105.468750
2343,105.468750
2344,105.468750
2345,105.468750
2346,105.468750
2347,105.468750
2348,105.468750
2349,105.468750
2350,105.468750
2351,105.468750
2352,105.468750
2353,105.468750
2354,105.468750
2355,105.468750
2356,101.562500
2357,101.562500
2358,101.562500
2359,101.562500
2360,101.562500
2361,101.562500
2362,101.562500
2363,101.562500
2364,101.562500
2365,101.562500
2366,101.562500
2367,101.562500
2368,101.562500
2369,97.656250
2370,97.656250
2371,101.562500
2372,97.656250
2373,101.562500
2374,97.656250
2375,97.656250
2376,97.656250
2377,97.656250
2378,97.656250
2379,97.656250
2380,97.656250
2381,97.656250
2382,97.656250
2383,97.656250
2384,93.750000
2385,93.750000
2386,93.750000
2387,93.750000
2388,93.750000
2389,93.750000
2390,93.750000
2391,93.750000
2392,93.750000
2393,93.750000
2394,93.750000
2395,89.843750
2396,89.843750
2397,89.843750
2398,89.843750
2399,89.843750
2400,89.843750
2401,89.843750
2402,89.843750
2403,89.843750
2404,89.843750
2405,85.937500
2406,89.843750
2407,85.937500
2408,85.937500
2409,85.937500
2410,85.937500
2411,85.937500
2412,85.937500
2413,85.937500
2414,82.031250
2415,82.031250
2416,82.031250
2417,82.031250
2418,82.031250
2419,82.031250
2420,82.031250
2421,82.031250
2422,82.031250
2423,78.125000
2424,78.125000
2425,78.125000
2426,78.125000
2427,78.125000
2428,78.125000
2429,78.125000
2430,78.125000
2431,74.218750
2432,74.218750
2433,74.218750
2434,74.218750
2435,74.218750
2436,74.218750
2437,70.312500
2438,70.312500
2439,70.312500
2440,70.312500
2441,70.312500
2442,70.312500
2443,70.312500
2444,66.406250
2445,66.406250
2446,66.406250
2447,66.406250
2448,66.406250
2449,66.406250
2450,66.406250
2451,62.500000
2452,62.500000
2453,62.500000
2454,62.500000
2455,62.500000
2456,58.593750
2457,58.593750
2458,58.593750
2459,58.593750
2460,58.593750
2461,58.593750
2462,58.593750
2463,54.687500
2464,54.687500
2465,54.687500
2466,54.687500
2467,54.687500
2468,54.687500
2469,54.687500
2470,50.781250
2471,50.781250
2472,50.781250
2473,50.781250
2474,50.781250
2475,46.875000
2476,46.875000
2477,46.875000
2478,46.875000
2479,46.875000
2480,42.968750
2481,42.968750
2482,42.968750
2483,42.968750
2484,42.968750
2485,42.968750
2486,42.968750
2487,39.062500
2488,39.062500
2489,39.062500
2490,39.062500
2491,39.062500
2492,35.156250
2493,35.156250
2494,35.156250
2495,35.156250
2496,35.156250
2497,35.156250
2498,31.250000
2499,31.250000
2500,31.250000
2501,31.250000
2502,27.343750
2503,27.343750
2504,27.343750
2505,27.343750
2506,27.343750
2507,27.343750
2508,23.437500
2509,23.437500
2510,23.437500
2511,23.437500
2512,19.531250
2513,19.531250
2514,19.531250
2515,19.531250
2516,19.531250
2517,15.625000
2518,15.625000
2519,15.625000
2520,15.625000
2521,15.625000
2522,11.718750
2523,11.718750
2524,11.718750
2525,11.718750
2526,11.718750
2527,7.812500
2528,7.812500
2529,7.812500
2530,7.812500
2531,7.812500
2532,3.906250
2533,3.906250
2534,3.906250
2535,3.906250
2536,0.000000
2537,0.000000
2538,0.000000
2539,0.000000
2540,0.000000
2541,-3.906250
2542,-3.906250
2543,-3.906250
2544,-3.906250
2545,-3.906250
2546,-7.812500
2547,-7.812500
2548,-7.812500
2549,-11.718750
2550,-11.718750
2551,-11.718750
2552,-11.718750
2553,-11.718750
2554,-15.625000
2555,-15.625000
2556,-15.625000
2557,-15.625000
2558,-15.625000
2559,-19.531250
2560,-19.531250
2561,-19.531250
2562,-19.531250
2563,-19.531250
2564,-19.531250
2565,-23.437500
2566,-23.437500
2567,-27.343750
2568,-27.343750
2569,-27.343750
2570,-27.343750
2571,-27.343750
2572,-31.250000
2573,-31.250000
2574,-31.250000
2575,-31.250000
2576,-31.250000
2577,-35.156250
2578,-35.156250
2579,-35.156250
2580,-35.156250
2581,-39.062500
2582,-39.062500
2583,-39.062500
2584,-39.062500
2585,-39.062500
2586,-39.062500
2587,-42.968750
2588,-42.968750
2589,-42.968750
2590,-42.968750
2591,-46.875000
2592,-46.875000
2593,-46.875000
2594,-46.875000
2595,-50.781250
2596,-50.781250
2597,-50.781250
2598,-50.781250
2599,-50.781250
2600,-50.781250
2601,-54.687500
2602,-54.687500
2603,-54.687500
2604,-54.687500
2605,-58.593750
2606,-58.593750
2607,-58.593750
2608,-58.593750
2609,-62.500000
2610,-62.500000
2611,-62.500000
2612,-62.500000
2613,-62.500000
2614,-62.500000
2615,-66.406250
2616,-66.406250
2617,-66.406250
2618,-66.406250
2619,-70.312500
2620,-70.312500
2621,-70.312500
2622,-70.312500
2623,-70.312500
2624,-74.218750
2625,-74.218750
2626,-74.218750
2627,-74.218750
2628,-74.218750
2629,-74.218750
2630,-78.125000
2631,-78.125000
2632,-78.125000
2633,-78.125000
2634,-78.125000
2635,-82.031250
2636,-82.031250
2637,-82.031250
2638,-82.031250
2639,-85.937500
2640,-82.031250
2641,-85.937500
2642,-85.937500
2643,-85.937500
2644,-85.937500
2645,-85.937500
2646,-89.843750
2647,-89.843750
2648,-89.843750
2649,-89.843750
2650,-89.843750
2651,-93.750000
2652,-93.750000
2653,-97.656250
2654,-93.750000
2655,-93.750000
2656,-97.656250
2657,-97.656250
2658,-97.656250
2659,-97.656250
2660,-97.656250
2661,-101.562500
2662,-101.562500
2663,-101.562500
2664,-101.562500
2665,-101.562500
2666,-101.562500
2667,-105.468750
2668,-105.468750
2669,-105.468750
2670,-105.468750
2671,-105.468750
2672,-105.468750
2673,-109.375000
2674,-109.375000
2675,-109.375000
2676,-109.375000
2677,-109.375000
2678,-109.375000
2679,-113.281250
2680,-113.281250
2681,-113.281250
2682,-113.281250
2683,-113.281250
2684,-113.281250
2685,-117.187500
2686,-117.187500
2687,-117.187500
2688,-117.187500
2689,-117.187500
2690,-117.187500
2691,-117.187500
2692,-121.093750
2693,-121.093750
2694,-121.093750
2695,-121.093750
2696,-121.093750
2697,-121.093750
2698,-125.000000
2699,-125.000000
2700,-125.000000
2701,-125.000000
2702,-125.000000
2703,-125.000000
2704,-125.000000
2705,-125.000000
2706,-125.000000
2707,-125.000000
2708,-125.000000
2709,-128.906250
2710,-128.906250
2711,-128.906250
2712,-128.906250
2713,-128.906250
2714,-128.906250
2715,-132.812500
2716,-132.812500
2717,-132.812500
2718,-132.812500
2719,-132.812500
2720,-132.812500
2721,-132.812500
2722,-132.812500
2723,-132.812500
2724,-132.812500
2725,-132.812500
2726,-136.718750
2727,-136.718750
2728,-136.718750
2729,-136.718750
2730,-136.718750
2731,-136.718750
2732,-136.718750
2733,-136.718750
2734,-136.718750
2735,-136.718750
2736,-136.718750
2737,-140.625000
2738,-140.625000
2739,-140.625000
2740,-140.625000
2741,-140.625000
2742,-140.625000
2743,-140.625000
2744,-140.625000
2745,-140.625000
2746,-140.625000
2747,-144.531250
2748,-144.531250
2749,-140.625000
2750,-140.625000
2751,-144.531250
2752,-144.531250
2753,-144.531250
2754,-144.531250
2755,-144.531250
2756,-144.531250
2757,-144.531250
2758,-144.531250
2759,-144.531250
2760,-144.531250
2761,-144.531250
2762,-148.437500
2763,-144.531250
2764,-144.531250
2765,-144.531250
2766,-144.531250
2767,-144.531250
2768,-148.437500
2769,-148.437500
2770,-148.437500
2771,-148.437500
2772,-148.437500
2773,-148.437500
2774,-148.437500
2775,-148.437500
2776,-148.437500
2777,-148.437500
2778,-148.437500
2779,-148.437500
2780,-148.437500
2781,-148.437500
2782,-148.437500
2783,-148.437500
2784,-148.437500
2785,-148.437500
2786,-148.437500
2787,-148.437500
2788,-148.437500
2789,-148.437500
2790,-148.437500
2791,-148.437500
2792,-148.437500
2793,-148.437500
2794,-148.437500
2795,-148.437500
2796,-148.437500
2797,-148.437500
2798,-148.437500
2799,-148.437500
2800,-148.437500
2801,-148.437500
2802,-148.437500
2803,-148.437500
2804,-148.437500
2805,-148.437500
2806,-148.437500
2807,-148.437500
2808,-148.437500
2809,-148.437500
2810,-148.437500
2811,-148.437500
2812,-148.437500
2813,-148.437500
2814,-148.437500
2815,-148.437500
2816,-148.437500
2817,-148.437500
2818,-148.437500
2819,-148.437500
2820,-148.437500
2821,-148.437500
2822,-148.437500
2823,-148.437500
2824,-144.531250
2825,-148.437500
2826,-144.531250
2827,-144.531250
2828,-144.531250
2829,-144.531250
2830,-144.531250
2831,-144.531250
2832,-144.531250
2833,-144.531250
2834,-144.531250
2835,-144.531250
2836,-144.531250
2837,-144.531250
2838,-144.531250
2839,-144.531250
2840,-144.531250
2841,-140.625000
2842,-140.625000
2843,-140.625000
2844,-140.625000
2845,-140.625000
2846,-140.625000
2847,-140.625000
2848,-140.625000
2849,-140.625000
2850,-140.625000
2851,-140.625000
2852,-140.625000
2853,-140.625000
2854,-136.718750
2855,-136.718750
2856,-136.718750
2857,-136.718750
2858,-136.718750
2859,-136.718750
2860,-136.718750
2861,-136.718750
2862,-136.718750
2863,-132.812500
2864,-132.812500
2865,-132.812500
2866,-132.812500
2867,-132.812500
2868,-132.812500
2869,-132.812500
2870,-132.812500
2871,-128.906250
2872,-128.906250
2873,-132.812500
2874,-128.906250
2875,-128.906250
2876,-128.906250
2877,-128.906250
2878,-128.906250
2879,-128.906250
2880,-128.906250
2881,-125.000000
2882,-125.000000
2883,-125.000000
2884,-125.000000
2885,-125.000000
2886,-125.000000
2887,-121.093750
2888,-121.093750
2889,-121.093750
2890,-121.093750
2891,-121.093750
2892,-121.093750
2893,-121.093750
2894,-121.093750
2895,-121.093750
2896,-117.187500
2897,-117.187500
2898,-117.187500
2899,-117.187500
2900,-117.187500
2901,-117.187500
2902,-117.187500
2903,-113.281250
2904,-113.281250
2905,-113.281250
2906,-113.281250
2907,-113.281250
2908,-113.281250
2909,-109.375000
2910,-109.375000
2911,-109.375000
2912,-109.375000
2913,-109.375000
2914,-109.375000
2915,-109.375000
2916,-105.468750
2917,-105.468750
2918,-105.468750
2919,-105.468750
2920,-105.468750
2921,-101.562500
2922,-101.562500
2923,-101.562500
2924,-101.562500
2925,-97.656250
2926,-97.656250
2927,-97.656250
2928,-97.656250
2929,-97.656250
2930,-97.656250
2931,-97.656250
2932,-97.656250
2933,-93.750000
2934,-93.750000
2935,-93.750000
2936,-93.750000
2937,-93.750000
2938,-89.843750
2939,-89.843750
2940,-89.843750
2941,-89.843750
2942,-89.843750
2943,-85.937500
2944,-85.937500
2945,-85.937500
2946,-85.937500
2947,-85.937500
2948,-85.937500
2949,-85.937500
2950,-82.031250
2951,-82.031250
2952,-82.031250
2953,-82.031250
2954,-78.125000
2955,-78.125000
2956,-78.125000
2957,-78.125000
2958,-78.125000
2959,-78.125000
2960,-74.218750
2961,-74.218750
2962,-74.218750
2963,-74.218750
2964,-70.312500
2965,-70.312500
2966,-70.312500
2967,-70.312500
2968,-70.312500
2969,-66.406250
2970,-66.406250
2971,-66.406250
2972,-66.406250
2973,-66.406250
2974,-62.500000
2975,-62.500000
2976,-62.500000
2977,-62.500000
2978,-58.593750
2979,-58.593750
2980,-58.593750
2981,-58.593750
2982,-58.593750
2983,-54.687500
2984,-54.687500
2985,-54.687500
2986,-54.687500
2987,-50.781250
2988,-50.781250
2989,-50.781250
2990,-50.781250
2991,-50.781250
2992,-50.781250
2993,-46.875000
2994,-46.875000
2995,-46.875000
2996,-46.875000
2997,-46.875000
2998,-42.968750
2999,-42.968750
3000,-42.968750
3001,-42.968750
3002,-42.968750
3003,-39.062500
3004,-39.062500
3005,-39.062500
3006,-39.062500
3007,-39.062500
3008,-35.156250
3009,-35.156250
3010,-35.156250
3011,-35.156250
3012,-31.250000
3013,-31.250000
3014,-31.250000
3015,-31.250000
3016,-31.250000
3017,-27.343750
3018,-27.343750
3019,-27.343750
3020,-27.343750
3021,-27.343750
3022,-23.437500
3023,-23.437500
3024,-23.437500
3025,-23.437500
3026,-19.531250
3027,-19.531250
3028,-19.531250
3029,-19.531250
3030,-19.531250
3031,-15.625000
3032,-15.625000
3033,-15.625000
3034,-15.625000
3035,-15.625000
3036,-11.718750
3037,-11.718750
3038,-11.718750
3039,-11.718750
3040,-11.718750
3041,-7.812500
3042,-7.812500
3043,-7.812500
3044,-7.812500
3045,-7.812500
3046,-3.906250
3047,-3.906250
3048,-3.906250
3049,-3.906250
3050,0.000000
3051,0.000000
3052,0.000000
3053,0.000000
3054,0.000000
3055,0.000000
3056,3.906250
3057,3.906250
3058,3.906250
3059,3.906250
3060,7.812500
3061,7.812500
3062,7.812500
3063,7.812500
3064,7.812500
3065,11.718750
3066,11.718750
3067,11.718750
3068,11.718750
3069,11.718750
3070,11.718750
3071,15.625000
3072,15.625000
3073,15.625000
3074,15.625000
3075,15.625000
3076,19.531250
3077,19.531250
3078,19.531250
3079,23.437500
3080,19.531250
3081,23.437500
3082,23.437500
3083,23.437500
3084,23.437500
3085,23.437500
3086,27.343750
3087,27.343750
3088,27.343750
3089,27.343750
3090,27.343750
3091,31.250000
3092,31.250000
3093,31.250000
3094,31.250000
3095,31.250000
3096,31.250000
3097,35.156250
3098,35.156250
3099,35.156250
3100,35.156250
3101,39.062500
3102,39.062500
3103,39.062500
3104,39.062500
3105,39.062500
3106,39.062500
3107,39.062500
3108,42.968750
3109,42.968750
3110,42.968750
3111,42.968750
3112,42.968750
3113,46.875000
3114,46.875000
3115,46.875000
3116,46.875000
3117,46.875000
3118,46.875000
3119,46.875000
3120,50.781250
3121,50.781250
3122,50.781250
3123,50.781250
3124,50.781250
3125,50.781250
3126,54.687500
3127,54.687500
3128,54.687500
3129,54.687500
3130,54.687500
3131,58.593750
3132,58.593750
3133,58.593750
3134,58.593750
3135,58.593750
3136,62.500000
3137,58.593750
3138,62.500000
3139,62.500000
3140,62.500000
3141,62.500000
3142,62.500000
3143,62.500000
3144,62.500000
3145,66.406250
3146,66.406250
3147,66.406250
3148,66.406250
3149,66.406250
3150,66.406250
3151,66.406250
3152,70.312500
3153,70.312500
3154,70.312500
3155,70.312500
3156,70.312500
3157,70.312500
3158,70.312500
3159,74.218750
3160,74.218750
3161,74.218750
3162,74.218750
3163,74.218750
3164,74.218750
3165,74.218750
3166,74.218750
3167,78.125000
3168,78.125000
3169,78.125000
3170,78.125000
3171,78.125000
3172,78.125000
3173,78.125000
3174,82.031250
3175,82.031250
3176,82.031250
3177,82.031250
3178,78.125000
3179,82.031250
3180,82.031250
3181,82.031250
3182,82.031250
3183,85.937500
3184,85.937500
3185,85.937500
3186,85.937500
3187,85.937500
3188,85.937500
3189,85.937500
3190,85.937500
3191,85.937500
3192,85.937500
3193,85.937500
3194,89.843750
3195,85.937500
3196,89.843750
3197,89.843750
3198,89.843750
3199,89.843750
3200,89.843750
3201,89.843750
3202,89.843750
3203,89.843750
3204,93.750000
3205,93.750000
3206,93.750000
3207,93.750000
3208,93.750000
3209,93.750000
3210,93.750000
3211,93.750000
3212,93.750000
3213,97.656250
3214,97.656250
3215,97.656250
3216,93.750000
3217,93.750000
3218,97.656250
3219,97.656250
3220,97.656250
3221,97.656250
3222,97.656250
3223,97.656250
3224,97.656250
3225,97.656250
3226,97.656250
3227,97.656250
3228,101.562500
3229,97.656250
3230,101.562500
3231,101.562500
3232,101.562500
3233,101.562500
3234,101.562500
3235,101.562500
3236,101.562500
3237,101.562500
3238,101.562500
3239,101.562500
3240,101.562500
3241,101.562500
3242,101.562500
3243,101.562500
3244,101.562500
3245,101.562500
3246,101.562500
3247,105.468750
3248,105.468750
3249,105.468750
3250,105.468750
3251,105.468750
3252,105.468750
3253,105.468750
3254,105.468750
3255,105.468750
3256,105.468750
3257,105.468750
3258,105.468750
3259,105.468750
3260,105.468750
3261,105.468750
3262,105.468750
3263,105.468750
3264,105.468750
3265,105.468750
3266,105.468750
3267,105.468750
3268,105.468750
3269,105.468750
3270,105.468750
3271,109.375000
3272,105.468750
3273,109.375000
3274,109.375000
3275,109.375000
3276,105.468750
3277,109.375000
3278,109.375000
3279,109.375000
3280,109.375000
3281,109.375000
3282,109.375000
3283,109.375000
3284,109.375000
3285,109.375000
3286,109.375000
3287,109.375000
3288,109.375000
3289,109.375000
3290,105.468750
3291,109.375000
3292,109.375000
3293,109.375000
3294,109.375000
3295,109.375000
3296,109.375000
3297,109.375000
3298,109.375000
3299,109.375000
3300,109.375000
3301,109.375000
3302,109.375000
3303,109.375000
3304,109.375000
3305,109.375000
3306,109.375000
3307,109.375000
3308,109.375000
3309,105.468750
3310,105.468750
3311,105.468750
3312,105.468750
3313,109.375000
3314,109.375000
3315,105.468750
3316,105.468750
3317,105.468750
3318,109.375000
3319,105.468750
3320,105.468750
3321,105.468750
3322,105.468750
3323,105.468750
3324,105.468750
3325,105.468750
3326,105.468750
3327,105.468750
3328,105.468750
3329,105.468750
3330,105.468750
3331,105.468750
3332,105.468750
3333,105.468750
3334,105.468750
3335,105.468750
3336,105.468750
3337,105.468750
3338,105.468750
3339,101.562500
3340,101.562500
3341,105.468750
3342,105.468750
3343,101.562500
3344,101.562500
3345,101.562500
3346,101.562500
3347,101.562500
3348,101.562500
3349,101.562500
3350,101.562500
3351,101.562500
3352,101.562500
3353,101.562500
3354,101.562500
3355,101.562500
3356,97.656250
3357,101.562500
3358,101.562500
3359,97.656250
3360,97.656250
3361,97.656250
3362,97.656250
3363,97.656250
3364,97.656250
3365,97.656250
3366,97.656250
3367,97.656250
3368,97.656250
3369,97.656250
3370,93.750000
3371,93.750000
3372,93.750000
3373,93.750000
3374,93.750000
3375,93.750000
3376,93.750000
3377,93.750000
3378,93.750000
3379,93.750000
3380,93.750000
3381,93.750000
3382,93.750000
3383,93.750000
3384,89.843750
3385,93.750000
3386,89.843750
3387,89.843750
3388,89.843750
3389,89.843750
3390,89.843750
3391,89.843750
3392,89.843750
3393,85.937500
3394,85.937500
3395,85.937500
3396,85.937500
3397,85.937500
3398,85.937500
3399,85.937500
3400,85.937500
3401,82.031250
3402,82.031250
3403,82.031250
3404,82.031250
3405,82.031250
3406,82.031250
3407,82.031250
3408,82.031250
3409,82.031250
3410,82.031250
3411,78.125000
3412,78.125000
3413,78.125000
3414,78.125000
3415,78.125000
3416,78.125000
3417,74.218750
3418,74.218750
3419,74.218750
3420,74.218750
3421,74.218750
3422,74.218750
3423,74.218750
3424,74.218750
3425,74.218750
3426,74.218750
3427,70.312500
3428,70.312500
3429,70.312500
3430,70.312500
3431,70.312500
3432,70.312500
3433,70.312500
3434,66.406250
3435,66.406250
3436,66.406250
3437,66.406250
3438,66.406250
3439,66.406250
3440,62.500000
3441,62.500000
3442,62.500000
3443,62.500000
3444,62.500000
3445,62.500000
3446,62.500000
3447,58.593750
3448,58.593750
3449,58.593750
3450,58.593750
3451,58.593750
3452,54.687500
3453,54.687500
3454,54.687500
3455,54.687500
3456,54.687500
3457,54.687500
3458,50.781250
3459,50.781250
3460,50.781250
3461,50.781250
3462,50.781250
3463,50.781250
3464,46.875000
3465,46.875000
3466,46.875000
3467,46.875000
3468,46.875000
3469,46.875000
3470,42.968750
3471,42.968750
3472,42.968750
3473,42.968750
3474,42.968750
3475,42.968750
3476,39.062500
3477,39.062500
3478,39.062500
3479,39.062500
3480,35.156250
3481,39.062500
3482,35.156250
3483,35.156250
3484,35.156250
3485,35.156250
3486,31.250000
3487,31.250000
3488,31.250000
3489,31.250000
3490,31.250000
3491,31.250000
3492,27.343750
3493,31.250000
3494,27.343750
3495,27.343750
3496,27.343750
3497,23.437500
3498,23.437500
3499,23.437500
3500,23.437500
3501,23.437500
3502,19.531250
3503,19.531250
3504,19.531250
3505,19.531250
3506,19.531250
3507,19.531250
3508,15.625000
3509,15.625000
3510,15.625000
3511,11.718750
3512,11.718750
3513,11.718750
3514,11.718750
3515,11.718750
3516,7.812500
3517,7.812500
3518,7.812500
3519,7.812500
3520,7.812500
3521,7.812500
3522,3.906250
3523,3.906250
3524,3.906250
3525,0.000000
3526,0.000000
3527,0.000000
3528,0.000000
3529,0.000000
3530,0.000000
3531,-3.906250
3532,-3.906250
3533,-3.906250
3534,-3.906250
3535,-7.812500
3536,-7.812500
3537,-7.812500
3538,-7.812500
3539,-7.812500
3540,-11.718750
3541,-11.718750
3542,-11.718750
3543,-11.718750
3544,-15.625000
3545,-15.625000
3546,-15.625000
3547,-15.625000
3548,-15.625000
3549,-19.531250
3550,-19.531250
3551,-19.531250
3552,-19.531250
3553,-19.531250
3554,-23.437500
3555,-23.437500
3556,-23.437500
3557,-27.343750
3558,-27.343750
3559,-27.343750
3560,-27.343750
3561,-27.343750
3562,-27.343750
3563,-31.250000
3564,-31.250000
3565,-31.250000
3566,-31.250000
3567,-35.156250
3568,-35.156250
3569,-35.156250
3570,-35.156250
3571,-39.062500
3572,-39.062500
3573,-39.062500
3574,-39.062500
3575,-39.062500
3576,-42.968750
3577,-42.968750
3578,-42.968750
3579,-42.968750
3580,-46.875000
3581,-46.875000
3582,-46.875000
3583,-46.875000
3584,-46.875000
3585,-50.781250
3586,-50.781250
3587,-50.781250
3588,-50.781250
3589,-54.687500
3590,-54.687500
3591,-54.687500
3592,-54.687500
3593,-54.687500
3594,-58.593750
3595,-58.593750
3596,-58.593750
3597,-58.593750
3598,-58.593750
3599,-62.500000
3600,-62.500000
3601,-62.500000
3602,-62.500000
3603,-66.406250
3604,-66.406250
3605,-66.406250
3606,-66.406250
3607,-66.406250
3608,-66.406250
3609,-70.312500
3610,-70.312500
3611,-70.312500
3612,-70.312500
3613,-74.218750
3614,-74.218750
3615,-74.218750
3616,-74.218750
3617,-74.218750
3618,-78.125000
3619,-78.125000
3620,-78.125000
3621,-78.125000
3622,-78.125000
3623,-82.031250
3624,-82.031250
3625,-82.031250
3626,-82.031250
3627,-82.031250
3628,-82.031250
3629,-85.937500
3630,-85.937500
3631,-85.937500
3632,-89.843750
3633,-89.843750
3634,-89.843750
3635,-89.843750
3636,-89.843750
3637,-89.843750
3638,-89.843750
3639,-93.750000
3640,-93.750000
3641,-93.750000
3642,-93.750000
3643,-93.750000
3644,-93.750000
3645,-97.656250
3646,-97.656250
3647,-97.656250
3648,-97.656250
3649,-97.656250
3650,-101.562500
3651,-101.562500
3652,-101.562500
3653,-101.562500
3654,-101.562500
3655,-101.562500
3656,-105.468750
3657,-105.468750
3658,-105.468750
3659,-105.468750
3660,-105.468750
3661,-105.468750
3662,-105.468750
3663,-109.375000
3664,-109.375000
3665,-109.375000
3666,-109.375000
3667,-109.375000
3668,-109.375000
3669,-113.281250
3670,-113.281250
3671,-113.281250
3672,-113.281250
3673,-113.281250
3674,-113.281250
3675,-113.281250
3676,-117.187500
3677,-117.187500
3678,-117.187500
3679,-117.187500
3680,-117.187500
3681,-121.093750
3682,-121.093750
3683,-121.093750
3684,-121.093750
3685,-121.093750
3686,-121.093750
3687,-121.093750
3688,-125.000000
3689,-125.000000
3690,-125.000000
3691,-125.000000
3692,-125.000000
3693,-125.000000
3694,-125.000000
3695,-125.000000
3696,-128.906250
3697,-128.906250
3698,-128.906250
3699,-128.906250
3700,-128.906250
3701,-128.906250
3702,-128.906250
3703,-132.812500
3704,-128.906250
3705,-132.812500
3706,-132.812500
3707,-132.812500
3708,-132.812500
3709,-132.812500
3710,-132.812500
3711,-132.812500
3712,-132.812500
3713,-132.812500
3714,-136.718750
3715,-136.718750
3716,-136.718750
3717,-136.718750
3718,-136.718750
3719,-136.718750
3720,-136.718750
3721,-140.625000
3722,-140.625000
3723,-140.625000
3724,-140.625000
3725,-140.625000
3726,-140.625000
3727,-140.625000
3728,-140.625000
3729,-140.625000
3730,-140.625000
3731,-140.625000
3732,-140.625000
3733,-140.625000
3734,-140.625000
3735,-140.625000
3736,-144.531250
3737,-144.531250
3738,-144.531250
3739,-144.531250
3740,-144.531250
3741,-144.531250
3742,-144.531250
3743,-144.531250
3744,-144.531250
3745,-144.531250
3746,-144.531250
3747,-144.531250
3748,-144.531250
3749,-144.531250
3750,-144.531250
3751,-144.531250
3752,-144.531250
3753,-148.437500
3754,-148.437500
3755,-148.437500
3756,-144.531250
3757,-148.437500
3758,-148.437500
3759,-148.437500
3760,-148.437500
3761,-148.437500
3762,-148.437500
3763,-148.437500
3764,-148.437500
3765,-148.437500
3766,-148.437500
3767,-148.437500
3768,-148.437500
3769,-148.437500
3770,-148.437500
3771,-148.437500
3772,-148.437500
3773,-148.437500
3774,-148.437500
3775,-148.437500
3776,-148.437500
3777,-148.437500
3778,-148.437500
3779,-148.437500
3780,-148.437500
3781,-148.437500
3782,-148.437500
3783,-148.437500
3784,-148.437500
3785,-148.437500
3786,-148.437500
3787,-148.437500
3788,-148.437500
3789,-148.437500
3790,-148.437500
3791,-148.437500
3792,-148.437500
3793,-148.437500
3794,-148.437500
3795,-148.437500
3796,-148.437500
3797,-148.437500
3798,-148.437500
3799,-148.437500
3800,-148.437500
3801,-148.437500
3802,-148.437500
3803,-148.437500
3804,-148.437500
3805,-148.437500
3806,-148.437500
3807,-144.531250
3808,-144.531250
3809,-144.531250
3810,-144.531250
3811,-144.531250
3812,-144.531250
3813,-144.531250
3814,-144.531250
3815,-144.531250
3816,-144.531250
3817,-144.531250
3818,-144.531250
3819,-144.531250
3820,-144.531250
3821,-144.531250
3822,-144.531250
3823,-144.531250
3824,-144.531250
3825,-144.531250
3826,-144.531250
3827,-144.531250
3828,-140.625000
3829,-140.625000
3830,-140.625000
3831,-140.625000
3832,-140.625000
3833,-140.625000
3834,-140.625000
3835,-140.625000
3836,-140.625000
3837,-140.625000
3838,-140.625000
3839,-140.625000
3840,-136.718750
3841,-136.718750
3842,-136.718750
3843,-136.718750
3844,-136.718750
3845,-136.718750
3846,-136.718750
3847,-136.718750
3848,-136.718750
3849,-136.718750
3850,-136.718750
3851,-136.718750
3852,-132.812500
3853,-132.812500
3854,-132.812500
3855,-132.812500
3856,-132.812500
3857,-132.812500
3858,-132.812500
3859,-132.812500
3860,-128.906250
3861,-128.906250
3862,-128.906250
3863,-128.906250
3864,-128.906250
3865,-128.906250
3866,-128.906250
3867,-128.906250
3868,-125.000000
3869,-125.000000
3870,-125.000000
3871,-125.000000
3872,-125.000000
3873,-125.000000
3874,-125.000000
3875,-125.000000
3876,-125.000000
3877,-121.093750
3878,-121.093750
3879,-121.093750
3880,-121.093750
3881,-121.093750
3882,-121.093750
3883,-121.093750
3884,-117.187500
3885,-117.187500
3886,-121.093750
3887,-117.187500
3888,-117.187500
3889,-117.187500
3890,-117.187500
3891,-113.281250
3892,-113.281250
3893,-113.281250
3894,-113.281250
3895,-113.281250
3896,-113.281250
3897,-109.375000
3898,-109.375000
3899,-109.375000
3900,-109.375000
3901,-109.375000
3902,-109.375000
3903,-105.468750
3904,-105.468750
3905,-105.468750
3906,-105.468750
3907,-105.468750
3908,-105.468750
3909,-101.562500
3910,-101.562500
3911,-101.562500
3912,-101.562500
3913,-101.562500
3914,-101.562500
3915,-101.562500
3916,-97.656250
3917,-97.656250
3918,-97.656250
3919,-97.656250
3920,-97.656250
3921,-93.750000
3922,-93.750000
3923,-93.750000
3924,-93.750000
3925,-93.750000
3926,-93.750000
3927,-89.843750
3928,-89.843750
3929,-89.843750
3930,-89.843750
3931,-89.843750
3932,-85.937500
3933,-85.937500
3934,-85.937500
3935,-85.937500
3936,-85.937500
3937,-85.937500
3938,-82.031250
3939,-82.031250
3940,-82.031250
3941,-82.031250
3942,-78.125000
3943,-78.125000
3944,-78.125000
3945,-78.125000
3946,-78.125000
3947,-78.125000
3948,-74.218750
3949,-74.218750
3950,-74.218750
3951,-74.218750
3952,-74.218750
3953,-70.312500
3954,-70.312500
3955,-70.312500
3956,-70.312500
3957,-70.312500
3958,-66.406250
3959,-66.406250
3960,-66.406250
3961,-66.406250
3962,-62.500000
3963,-66.406250
3964,-62.500000
3965,-62.500000
3966,-62.500000
3967,-62.500000
3968,-58.593750
3969,-58.593750
3970,-58.593750
3971,-58.593750
3972,-58.593750
3973,-54.687500
3974,-54.687500
3975,-54.687500
3976,-54.687500
3977,-54.687500
3978,-50.781250
3979,-50.781250
3980,-50.781250
3981,-50.781250
3982,-46.875000
3983,-46.875000
3984,-46.875000
3985,-46.875000
3986,-46.875000
3987,-46.875000
3988,-42.968750
3989,-42.968750
3990,-42.968750
3991,-42.968750
3992,-39.062500
3993,-39.062500
3994,-39.062500
3995,-39.062500
3996,-39.062500
3997,-35.156250
3998,-35.156250
3999,-35.156250
4000,-35.156250
4001,-31.250000
4002,-31.250000
4003,-31.250000
4004,-31.250000
4005,-31.250000
4006,-31.250000
4007,-27.343750
4008,-27.343750
4009,-27.343750
4010,-27.343750
4011,-23.437500
4012,-23.437500
4013,-23.437500
4014,-23.437500
4015,-23.437500
4016,-19.531250
4017,-19.531250
4018,-19.531250
4019,-19.531250
4020,-19.531250
4021,-15.625000
4022,-15.625000
4023,-15.625000
4024,-15.625000
4025,-11.718750
4026,-11.718750
4027,-11.718750
4028,-11.718750
4029,-7.812500
4030,-7.812500
4031,-7.812500
4032,-7.812500
4033,-7.812500
4034,-7.812500
4035,-3.906250
4036,-3.906250
4037,-3.906250
4038,-3.906250
4039,0.000000
4040,0.000000
4041,0.000000
4042,0.000000
4043,0.000000
4044,3.906250
4045,3.906250
4046,3.906250
4047,3.906250
4048,3.906250
4049,7.812500
4050,7.812500
4051,7.812500
4052,7.812500
4053,7.812500
4054,11.718750
4055,11.718750
4056,11.718750
4057,11.718750
4058,11.718750
4059,15.625000
4060,15.625000
4061,15.625000
4062,15.625000
4063,15.625000
4064,19.531250
4065,19.531250
4066,19.531250
4067,19.531250
4068,19.531250
4069,19.531250
4070,23.437500
4071,23.437500
4072,23.437500
4073,23.437500
4074,23.437500
4075,27.343750
4076,27.343750
4077,27.343750
4078,27.343750
4079,31.250000
4080,31.250000
4081,31.250000
4082,31.250000
4083,31.250000
4084,31.250000
4085,35.156250
4086,35.156250
4087,35.156250
4088,35.156250
4089,35.156250
4090,35.156250
4091,39.062500
4092,39.062500
4093,39.062500
4094,39.062500
4095,39.062500
4096,42.968750
4097,42.968750
4098,42.968750
4099,42.968750
4100,42.968750
4101,42.968750
4102,46.875000
4103,46.875000
4104,46.875000
4105,46.875000
4106,46.875000
4107,46.875000
4108,46.875000
4109,50.781250
4110,50.781250
4111,50.781250
4112,50.781250
4113,50.781250
4114,54.687500
4115,54.687500
4116,54.687500
4117,54.687500
4118,54.687500
4119,54.687500
4120,54.687500
4121,54.687500
4122,58.593750
4123,58.593750
4124,58.593750
4125,58.593750
4126,58.593750
4127,58.593750
4128,58.593750
4129,62.500000
4130,62.500000
4131,62.500000
4132,62.500000
4133,62.500000
4134,66.406250
4135,66.406250
4136,66.406250
4137,66.406250
4138,66.406250
4139,66.406250
4140,66.406250
4141,66.406250
4142,70.312500
4143,70.312500
4144,70.312500
4145,70.312500
4146,70.312500
4147,70.312500
4148,70.312500
4149,74.218750
4150,74.218750
4151,74.218750
4152,74.218750
4153,74.218750
4154,74.218750
4155,74.218750
4156,78.125000
4157,78.125000
4158,78.125000
4159,78.125000
4160,78.125000
4161,78.125000
4162,78.125000
4163,78.125000
4164,82.031250
4165,82.031250
4166,82.031250
4167,82.031250
4168,82.031250
4169,82.031250
4170,82.031250
4171,82.031250
4172,85.937500
4173,85.937500
4174,82.031250
4175,85.937500
4176,85.937500
4177,85.937500
4178,85.937500
4179,85.937500
4180,85.937500
4181,85.937500
4182,85.937500
4183,89.843750
4184,89.843750
4185,89.843750
4186,89.843750
4187,89.843750
4188,89.843750
4189,89.843750
4190,89.843750
4191,89.843750
4192,93.750000
4193,93.750000
4194,93.750000
4195,93.750000
4196,93.750000
4197,93.750000
4198,93.750000
4199,93.750000
4200,93.750000
4201,93.750000
4202,93.750000
4203,93.750000
4204,97.656250
4205,97.656250
4206,97.656250
4207,97.656250
4208,97.656250
4209,97.656250
4210,97.656250
4211,97.656250
4212,97.656250
4213,97.656250
4214,97.656250
4215,97.656250
4216,97.656250
4217,101.562500
4218,101.562500
4219,101.562500
4220,101.562500
4221,101.562500
4222,101.562500
4223,101.562500
4224,101.562500
4225,101.562500
4226,101.562500
4227,101.562500
4228,101.562500
4229,101.562500
4230,101.562500
4231,101.562500
4232,101.562500
4233,101.562500
4234,101.562500
4235,101.562500
4236,101.562500
4237,101.562500
4238,101.562500
4239,105.468750
4240,105.468750
4241,105.468750
4242,105.468750
4243,105.468750
4244,105.468750
4245,105.468750
4246,105.468750
4247,105.468750
4248,105.468750
4249,105.468750
4250,105.468750
4251,105.468750
4252,105.468750
4253,105.468750
4254,105.468750
4255,105.468750
4256,105.468750
4257,105.468750
4258,105.468750
4259,105.468750
4260,105.468750
4261,105.468750
4262,105.468750
4263,105.468750
4264,105.468750
4265,105.468750
4266,109.375000
4267,105.468750
4268,105.468750
4269,109.375000
4270,109.375000
4271,109.375000
4272,109.375000
4273,109.375000
4274,109.375000
4275,109.375000
4276,109.375000
4277,109.375000
4278,109.375000
4279,105.468750
4280,109.375000
4281,109.375000
4282,109.375000
4283,109.375000
4284,109.375000
4285,109.375000
4286,109.375000
4287,109.375000
4288,109.375000
4289,109.375000
4290,109.375000
4291,105.468750
4292,105.468750
4293,105.468750
4294,109.375000
4295,109.375000
4296,109.375000
4297,105.468750
4298,109.375000
4299,105.468750
4300,109.375000
4301,109.375000
4302,105.468750
4303,105.468750
4304,109.375000
4305,105.468750
4306,109.375000
4307,109.375000
4308,105.468750
4309,105.468750
4310,105.468750
4311,105.468750
4312,105.468750
4313,105.468750
4314,105.468750
4315,105.468750
4316,105.468750
4317,105.468750
4318,105.468750
4319,105.468750
4320,105.468750
4321,105.468750
4322,105.468750
4323,105.468750
4324,105.468750
4325,105.468750
4326,105.468750
4327,101.562500
4328,105.468750
4329,101.562500
4330,101.562500
4331,101.562500
4332,105.468750
4333,101.562500
4334,101.562500
4335,101.562500
4336,101.562500
4337,101.562500
4338,101.562500
4339,101.562500
4340,101.562500
4341,101.562500
4342,101.562500
4343,101.562500
4344,97.656250
4345,101.562500
4346,101.562500
4347,97.656250
4348,97.656250
4349,97.656250
4350,97.656250
4351,97.656250
4352,97.656250
4353,97.656250
4354,97.656250
4355,97.656250
4356,97.656250
4357,97.656250
4358,93.750000
4359,93.750000
4360,93.750000
4361,93.750000
4362,93.750000
4363,93.750000
4364,93.750000
4365,93.750000
4366,93.750000
4367,93.750000
4368,93.750000
4369,93.750000
4370,93.750000
4371,89.843750
4372,93.750000
4373,89.843750
4374,89.843750
4375,89.843750
4376,89.843750
4377,89.843750
4378,89.843750
4379,89.843750
4380,89.843750
4381,85.937500
4382,85.937500
4383,85.937500
4384,85.937500
4385,85.937500
4386,85.937500
4387,85.937500
4388,85.937500
4389,82.031250
4390,82.031250
4391,82.031250
4392,82.031250
4393,82.031250
4394,82.031250
4395,82.031250
4396,82.031250
4397,78.125000
4398,82.031250
4399,78.125000
4400,78.125000
4401,78.125000
4402,78.125000
4403,78.125000
4404,78.125000
4405,78.125000
4406,78.125000
4407,74.218750
4408,74.218750
4409,74.218750
4410,74.218750
4411,74.218750
4412,74.218750
4413,74.218750
4414,70.312500
4415,70.312500
4416,70.312500
4417,70.312500
4418,70.312500
4419,70.312500
4420,70.312500
4421,70.312500
4422,66.406250
4423,66.406250
4424,66.406250
4425,66.406250
4426,66.406250
4427,66.406250
4428,66.406250
4429,62.500000
4430,62.500000
4431,62.500000
4432,62.500000
4433,62.500000
4434,62.500000
4435,58.593750
4436,58.593750
4437,58.593750
4438,58.593750
4439,58.593750
4440,58.593750
4441,54.687500
4442,54.687500
4443,54.687500
4444,54.687500
4445,54.687500
4446,54.687500
4447,50.781250
4448,50.781250
4449,50.781250
4450,50.781250
4451,50.781250
4452,50.781250
4453,46.875000
4454,46.875000
4455,46.875000
4456,46.875000
4457,46.875000
4458,46.875000
4459,42.968750
4460,42.968750
4461,42.968750
4462,42.968750
4463,42.968750
4464,39.062500
4465,39.062500
4466,39.062500
4467,39.062500
4468,39.062500
4469,39.062500
4470,35.156250
4471,35.156250
4472,35.156250
4473,35.156250
4474,35.156250
4475,31.250000
4476,31.250000
4477,31.250000
4478,31.250000
4479,27.343750
4480,27.343750
4481,27.343750
4482,27.343750
4483,27.343750
4484,27.343750
4485,27.343750
4486,23.437500
4487,23.437500
4488,23.437500
4489,23.437500
4490,23.437500
4491,19.531250
4492,19.531250
4493,19.531250
4494,19.531250
4495,15.625000
4496,15.625000
4497,15.625000
4498,15.625000
4499,15.625000
4500,11.718750
4501,11.718750
4502,11.718750
4503,11.718750
4504,11.718750
4505,7.812500
4506,7.812500
4507,7.812500
4508,7.812500
4509,7.812500
4510,3.906250
4511,3.906250
4512,3.906250
4513,3.906250
4514,0.000000
4515,0.000000
4516,0.000000
4517,0.000000
4518,0.000000
4519,-3.906250
4520,-3.906250
4521,-3.906250
4522,-3.906250
4523,-7.812500
4524,-3.906250
4525,-7.812500
4526,-7.812500
4527,-7.812500
4528,-11.718750
4529,-11.718750
4530,-11.718750
4531,-11.718750
4532,-11.718750
4533,-15.625000
4534,-15.625000
4535,-15.625000
4536,-15.625000
4537,-19.531250
4538,-19.531250
4539,-19.531250
4540,-19.531250
4541,-19.531250
4542,-23.437500
4543,-23.437500
4544,-23.437500
4545,-23.437500
4546,-23.437500
4547,-27.343750
4548,-27.343750
4549,-27.343750
4550,-27.343750
4551,-31.250000
4552,-31.250000
4553,-31.250000
4554,-31.250000
4555,-31.250000
4556,-31.250000
4557,-35.156250
4558,-35.156250
4559,-35.156250
4560,-35.156250
4561,-39.062500
4562,-39.062500
4563,-39.062500
4564,-39.062500
4565,-39.062500
4566,-42.968750
4567,-42.968750
4568,-42.968750
4569,-42.968750
4570,-42.968750
4571,-46.875000
4572,-46.875000
4573,-46.875000
4574,-46.875000
4575,-50.781250
4576,-50.781250
4577,-50.781250
4578,-50.781250
4579,-50.781250
4580,-54.687500
4581,-54.687500
4582,-54.687500
4583,-54.687500
4584,-54.687500
4585,-58.593750
4586,-58.593750
4587,-58.593750
4588,-58.593750
4589,-62.500000
4590,-62.500000
4591,-62.500000
4592,-62.500000
4593,-66.406250
4594,-66.406250
4595,-66.406250
4596,-66.406250
4597,-66.406250
4598,-66.406250
4599,-70.312500
4600,-70.312500
4601,-70.312500
4602,-70.312500
4603,-70.312500
4604,-74.218750
4605,-74.218750
4606,-74.218750
4607,-74.218750
4608,-74.218750
4609,-78.125000
4610,-78.125000
4611,-78.125000
4612,-78.125000
4613,-78.125000
4614,-82.031250
4615,-82.031250
4616,-82.031250
4617,-82.031250
4618,-85.937500
4619,-85.937500
4620,-85.937500
4621,-85.937500
4622,-85.937500
4623,-85.937500
4624,-89.843750
4625,-89.843750
4626,-89.843750
4627,-89.843750
4628,-89.843750
4629,-93.750000
4630,-93.750000
4631,-93.750000
4632,-93.750000
4633,-93.750000
4634,-97.656250
4635,-97.656250
4636,-97.656250
4637,-97.656250
4638,-97.656250
4639,-101.562500
4640,-101.562500
4641,-101.562500
4642,-105.468750
4643,-101.562500
4644,-101.562500
4645,-101.562500
4646,-105.468750
4647,-105.468750
4648,-105.468750
4649,-105.468750
4650,-105.468750
4651,-105.468750
4652,-109.375000
4653,-109.375000
4654,-109.375000
4655,-109.375000
4656,-109.375000
4657,-113.281250
4658,-113.281250
4659,-113.281250
4660,-113.281250
4661,-113.281250
4662,-113.281250
4663,-117.187500
4664,-117.187500
4665,-117.187500
4666,-117.187500
4667,-117.187500
4668,-117.187500
4669,-117.187500
4670,-117.187500
4671,-117.187500
4672,-121.093750
4673,-121.093750
4674,-121.093750
4675,-121.093750
4676,-121.093750
4677,-125.000000
4678,-125.000000
4679,-125.000000
4680,-125.000000
4681,-125.000000
4682,-125.000000
4683,-125.000000
4684,-125.000000
4685,-128.906250
4686,-125.000000
4687,-128.906250
4688,-128.906250
4689,-128.906250
4690,-128.906250
4691,-132.812500
4692,-128.906250
4693,-132.812500
4694,-132.812500
4695,-132.812500
4696,-132.812500
4697,-132.812500
4698,-132.812500
4699,-132.812500
4700,-132.812500
4701,-136.718750
4702,-132.812500
4703,-132.812500
4704,-136.718750
4705,-136.718750
4706,-136.718750
4707,-136.718750
4708,-136.718750
4709,-136.718750
4710,-136.718750
4711,-136.718750
4712,-136.718750
4713,-140.625000
4714,-140.625000
4715,-140.625000
4716,-140.625000
4717,-140.625000
4718,-140.625000
4719,-140.625000
4720,-140.625000
4721,-140.625000
4722,-140.625000
4723,-140.625000
4724,-144.531250
4725,-144.531250
4726,-144.531250
4727,-144.531250
4728,-140.625000
4729,-144.531250
4730,-144.531250
4731,-144.531250
4732,-144.531250
4733,-144.531250
4734,-144.531250
4735,-144.531250
4736,-144.531250
4737,-144.531250
4738,-144.531250
4739,-144.531250
4740,-144.531250
4741,-148.437500
4742,-148.437500
4743,-148.437500
4744,-148.437500
4745,-148.437500
4746,-144.531250
4747,-148.437500
4748,-148.437500
4749,-148.437500
4750,-148.437500
4751,-148.437500
4752,-148.437500
4753,-148.437500
4754,-152.343750
4755,-148.437500
4756,-148.437500
4757,-148.437500
4758,-148.437500
4759,-152.343750
4760,-148.437500
4761,-148.437500
4762,-148.437500
4763,-148.437500
4764,-148.437500
4765,-148.437500
4766,-148.437500
4767,-148.437500
4768,-148.437500
4769,-148.437500
4770,-148.437500
4771,-152.343750
4772,-148.437500
4773,-148.437500
4774,-148.437500
4775,-148.437500
4776,-148.437500
4777,-148.437500
4778,-148.437500
4779,-148.437500
4780,-148.437500
4781,-148.437500
4782,-148.437500
4783,-148.437500
4784,-148.437500
4785,-148.437500
4786,-148.437500
4787,-148.437500
4788,-148.437500
4789,-148.437500
4790,-148.437500
4791,-148.437500
4792,-148.437500
4793,-148.437500
4794,-148.437500
4795,-148.437500
4796,-148.437500
4797,-148.437500
4798,-148.437500
4799,-148.437500
4800,-148.437500
4801,-148.437500
4802,-148.437500
4803,-148.437500
4804,-144.531250
4805,-144.531250
4806,-144.531250
4807,-144.531250
4808,-144.531250
4809,-144.531250
4810,-144.531250
4811,-144.531250
4812,-144.531250
4813,-144.531250
4814,-144.531250
4815,-140.625000
4816,-144.531250
4817,-140.625000
4818,-144.531250
4819,-144.531250
4820,-140.625000
4821,-140.625000
4822,-140.625000
4823,-140.625000
4824,-140.625000
4825,-140.625000
4826,-140.625000
4827,-140.625000
4828,-140.625000
4829,-136.718750
4830,-136.718750
4831,-140.625000
4832,-136.718750
4833,-136.718750
4834,-136.718750
4835,-136.718750
4836,-136.718750
4837,-136.718750
4838,-136.718750
4839,-132.812500
4840,-132.812500
4841,-136.718750
4842,-132.812500
4843,-132.812500
4844,-132.812500
4845,-132.812500
4846,-132.812500
4847,-132.812500
4848,-132.812500
4849,-132.812500
4850,-128.906250
4851,-128.906250
4852,-128.906250
4853,-128.906250
4854,-128.906250
4855,-128.906250
4856,-128.906250
4857,-128.906250
4858,-125.000000
4859,-125.000000
4860,-125.000000
4861,-125.000000
4862,-125.000000
4863,-125.000000
4864,-121.093750
4865,-125.000000
4866,-125.000000
4867,-121.093750
4868,-121.093750
4869,-121.093750
4870,-121.093750
4871,-121.093750
4872,-121.093750
4873,-117.187500
4874,-117.187500
4875,-117.187500
4876,-117.187500
4877,-117.187500
4878,-117.187500
4879,-117.187500
4880,-117.187500
4881,-113.281250
4882,-113.281250
4883,-113.281250
4884,-113.281250
4885,-113.281250
4886,-113.281250
4887,-109.375000
4888,-109.375000
4889,-109.375000
4890,-109.375000
4891,-109.375000
4892,-109.375000
4893,-105.468750
4894,-105.468750
4895,-105.468750
4896,-105.468750
4897,-105.468750
4898,-105.468750
4899,-101.562500
4900,-101.562500
4901,-101.562500
4902,-101.562500
4903,-101.562500
4904,-101.562500
4905,-97.656250
4906,-97.656250
4907,-97.656250
4908,-97.656250
4909,-97.656250
4910,-97.656250
4911,-93.750000
4912,-93.750000
4913,-93.750000
4914,-93.750000
4915,-93.750000
4916,-89.843750
4917,-89.843750
4918,-89.843750
4919,-89.843750
4920,-89.843750
4921,-89.843750
4922,-85.937500
4923,-85.937500
4924,-85.937500
4925,-85.937500
4926,-82.031250
4927,-82.031250
4928,-82.031250
4929,-82.031250
4930,-82.031250
4931,-82.031250
4932,-78.125000
4933,-78.125000
4934,-78.125000
4935,-78.125000
4936,-74.218750
4937,-74.218750
4938,-74.218750
4939,-74.218750
4940,-74.218750
4941,-74.218750
4942,-70.312500
4943,-70.312500
4944,-70.312500
4945,-70.312500
4946,-66.406250
4947,-70.312500
4948,-66.406250
4949,-66.406250
4950,-66.406250
4951,-66.406250
4952,-62.500000
4953,-62.500000
4954,-62.500000
4955,-62.500000
4956,-58.593750
4957,-58.593750
4958,-58.593750
4959,-58.593750
4960,-58.593750
4961,-58.593750
4962,-54.687500
4963,-54.687500
4964,-54.687500
4965,-54.687500
4966,-50.781250
4967,-50.781250
4968,-50.781250
4969,-50.781250
4970,-46.875000
4971,-46.875000
4972,-46.875000
4973,-46.875000
4974,-46.875000
4975,-46.875000
4976,-42.968750
4977,-42.968750
4978,-42.968750
4979,-42.968750
4980,-39.062500
4981,-39.062500
4982,-39.062500
4983,-39.062500
4984,-39.062500
4985,-39.062500
4986,-35.156250
4987,-35.156250
4988,-35.156250
4989,-35.156250
4990,-35.156250
4991,-31.250000
4992,-31.250000
4993,-27.343750
4994,-31.250000
4995,-27.343750
4996,-27.343750
4997,-27.343750
4998,-27.343750
4999,-27.343750
5000,-23.437500
5001,-23.437500
5002,-23.437500
5003,-23.437500
5004,-19.531250
5005,-19.531250
5006,-19.531250
5007,-19.531250
5008,-19.531250
5009,-19.531250
5010,-15.625000
5011,-15.625000
5012,-15.625000
5013,-15.625000
5014,-11.718750
5015,-11.718750
5016,-11.718750
5017,-11.718750
5018,-11.718750
5019,-11.718750
5020,-7.812500
5021,-7.812500
5022,-7.812500
5023,-7.812500
5024,-3.906250
5025,-7.812500
5026,-3.906250
5027,-3.906250
5028,-3.906250
5029,0.000000
5030,0.000000
5031,0.000000
5032,0.000000
5033,0.000000
5034,0.000000
5035,3.906250
5036,3.906250
5037,3.906250
5038,3.906250
5039,3.906250
5040,7.812500
5041,7.812500
5042,7.812500
5043,7.812500
5044,11.718750
5045,11.718750
5046,11.718750
5047,11.718750
5048,11.718750
5049,11.718750
5050,15.625000
5051,15.625000
5052,15.625000
5053,15.625000
5054,19.531250
5055,19.531250
5056,19.531250
5057,19.531250
5058,19.531250
5059,23.437500
5060,23.437500
5061,23.437500
5062,23.437500
5063,23.437500
5064,27.343750
5065,27.343750
5066,27.343750
5067,27.343750
5068,27.343750
5069,31.250000
5070,31.250000
5071,31.250000
5072,31.250000
5073,31.250000
5074,35.156250
5075,35.156250
5076,35.156250
5077,35.156250
5078,35.156250
5079,35.156250
5080,39.062500
5081,39.062500
5082,39.062500
5083,39.062500
5084,39.062500
5085,42.968750
5086,42.968750
5087,42.968750
5088,42.968750
5089,42.968750
5090,42.968750
5091,46.875000
5092,46.875000
5093,46.875000
5094,46.875000
5095,46.875000
5096,46.875000
5097,46.875000
5098,50.781250
5099,50.781250
5100,50.781250
5101,50.781250
5102,50.781250
5103,50.781250
5104,50.781250
5105,54.687500
5106,54.687500
5107,54.687500
5108,54.687500
5109,54.687500
5110,58.593750
5111,58.593750
5112,58.593750
5113,58.593750
5114,58.593750
5115,58.593750
5116,58.593750
5117,62.500000
5118,62.500000
5119,62.500000
5120,62.500000
5121,62.500000
5122,62.500000
5123,62.500000
5124,66.406250
5125,66.406250
5126,66.406250
5127,66.406250
5128,66.406250
5129,66.406250
5130,66.406250
5131,66.406250
5132,70.312500
5133,70.312500
5134,70.312500
5135,70.312500
5136,70.312500
5137,70.312500
5138,74.218750
5139,74.218750
5140,74.218750
5141,74.218750
5142,74.218750
5143,74.218750
5144,74.218750
5145,74.218750
5146,74.218750
5147,78.125000
5148,78.125000
5149,78.125000
5150,78.125000
5151,78.125000
5152,78.125000
5153,78.125000
5154,82.031250
5155,82.031250
5156,82.031250
5157,82.031250
5158,82.031250
5159,82.031250
5160,82.031250
5161,82.031250
5162,85.937500
5163,85.937500
5164,85.937500
5165,85.937500
5166,85.937500
5167,85.937500
5168,85.937500
5169,85.937500
5170,85.937500
5171,85.937500
5172,85.937500
5173,89.843750
5174,89.843750
5175,89.843750
5176,89.843750
5177,89.843750
5178,89.843750
5179,89.843750
5180,89.843750
5181,89.843750
5182,89.843750
5183,93.750000
5184,93.750000
5185,93.750000
5186,93.750000
5187,93.750000
5188,93.750000
5189,93.750000
5190,93.750000
5191,93.750000
5192,93.750000
5193,97.656250
5194,97.656250
5195,97.656250
5196,97.656250
5197,97.656250
5198,97.656250
5199,97.656250
5200,97.656250
5201,97.656250
5202,97.656250
5203,97.656250
5204,97.656250
5205,97.656250
5206,101.562500
5207,101.562500
5208,101.562500
5209,101.562500
5210,97.656250
5211,101.562500
5212,101.562500
5213,101.562500
5214,101.562500
5215,101.562500
5216,101.562500
5217,101.562500
5218,101.562500
5219,101.562500
5220,101.562500
5221,101.562500
5222,101.562500
5223,105.468750
5224,105.468750
5225,105.468750
5226,105.468750
5227,105.468750
5228,105.468750
5229,105.468750
5230,105.468750
5231,105.468750
5232,105.468750
5233,105.468750
5234,105.468750
5235,105.468750
5236,105.468750
5237,105.468750
5238,105.468750
5239,105.468750
5240,105.468750
5241,105.468750
5242,105.468750
5243,105.468750
5244,105.468750
5245,105.468750
5246,105.468750
5247,105.468750
5248,109.375000
5249,105.468750
5250,105.468750
5251,105.468750
5252,109.375000
5253,109.375000
5254,105.468750
5255,105.468750
5256,109.375000
5257,109.375000
5258,109.375000
5259,109.375000
5260,109.375000
5261,109.375000
5262,109.375000
5263,109.375000
5264,109.375000
5265,109.375000
5266,109.375000
5267,109.375000
5268,109.375000
5269,109.375000
5270,109.375000
5271,109.375000
5272,109.375000
5273,109.375000
5274,109.375000
5275,109.375000
5276,109.375000
5277,109.375000
5278,109.375000
5279,109.375000
5280,109.375000
5281,109.375000
5282,105.468750
5283,109.375000
5284,109.375000
5285,105.468750
5286,105.468750
5287,105.468750
5288,109.375000
5289,105.468750
5290,109.375000
5291,105.468750
5292,105.468750
5293,105.468750
5294,109.375000
5295,105.468750
5296,105.468750
5297,105.468750
5298,105.468750
5299,105.468750
5300,105.468750
5301,105.468750
5302,105.468750
5303,105.468750
5304,105.468750
5305,105.468750
5306,105.468750
5307,105.468750
5308,105.468750
5309,105.468750
5310,105.468750
5311,105.468750
5312,105.468750
5313,105.468750
5314,105.468750
5315,105.468750
5316,105.468750
5317,105.468750
5318,105.468750
5319,101.562500
5320,105.468750
5321,105.468750
5322,101.562500
5323,101.562500
5324,101.562500
5325,101.562500
5326,101.562500
5327,101.562500
5328,101.562500
5329,101.562500
5330,101.562500
5331,101.562500
5332,101.562500
5333,101.562500
5334,101.562500
5335,101.562500
5336,97.656250
5337,101.562500
5338,101.562500
5339,97.656250
5340,97.656250
5341,97.656250
5342,97.656250
5343,97.656250
5344,97.656250
5345,97.656250
5346,97.656250
5347,97.656250
5348,97.656250
5349,93.750000
5350,97.656250
5351,97.656250
5352,93.750000
5353,93.750000
5354,93.750000
5355,93.750000
5356,93.750000
5357,93.750000
5358,93.750000
5359,93.750000
5360,93.750000
5361,93.750000
5362,89.843750
5363,89.843750
5364,89.843750
5365,89.843750
5366,89.843750
5367,89.843750
5368,89.843750
5369,89.843750
5370,89.843750
5371,85.937500
5372,85.937500
5373,85.937500
5374,85.937500
5375,85.937500
5376,85.937500
5377,85.937500
5378,85.937500
5379,85.937500
5380,82.031250
5381,82.031250
5382,82.031250
5383,82.031250
5384,82.031250
5385,82.031250
5386,82.031250
5387,82.031250
5388,82.031250
5389,78.125000
5390,78.125000
5391,78.125000
5392,78.125000
5393,78.125000
5394,74.218750
5395,78.125000
5396,74.218750
5397,74.218750
5398,74.218750
5399,74.218750
5400,74.218750
5401,74.218750
5402,74.218750
5403,70.312500
5404,70.312500
5405,70.312500
5406,70.312500
5407,70.312500
5408,70.312500
5409,70.312500
5410,66.406250
5411,66.406250
5412,66.406250
5413,66.406250
5414,66.406250
5415,66.406250
5416,62.500000
5417,62.500000
5418,62.500000
5419,62.500000
5420,62.500000
5421,62.500000
5422,58.593750
5423,58.593750
5424,58.593750
5425,58.593750
5426,58.593750
5427,58.593750
5428,58.593750
5429,54.687500
5430,54.687500
5431,54.687500
5432,54.687500
5433,54.687500
5434,54.687500
5435,50.781250
5436,50.781250
5437,50.781250
5438,50.781250
5439,50.781250
5440,50.781250
5441,50.781250
5442,50.781250
5443,46.875000
5444,46.875000
5445,46.875000
5446,46.875000
5447,42.968750
5448,42.968750
5449,42.968750
5450,42.968750
5451,42.968750
5452,42.968750
5453,39.062500
5454,39.062500
5455,39.062500
5456,39.062500
5457,39.062500
5458,39.062500
5459,35.156250
5460,35.156250
5461,35.156250
5462,35.156250
5463,31.250000
5464,31.250000
5465,31.250000
5466,31.250000
5467,31.250000
5468,31.250000
5469,27.343750
5470,27.343750
5471,27.343750
5472,27.343750
5473,27.343750
5474,23.437500
5475,23.437500
5476,23.437500
5477,23.437500
5478,23.437500
5479,23.437500
5480,19.531250
5481,19.531250
5482,19.531250
5483,19.531250
5484,19.531250
5485,15.625000
5486,15.625000
5487,15.625000
5488,15.625000
5489,15.625000
5490,11.718750
5491,11.718750
5492,11.718750
5493,7.812500
5494,7.812500
5495,7.812500
5496,7.812500
5497,7.812500
5498,7.812500
5499,3.906250
5500,3.906250
5501,3.906250
5502,3.906250
5503,0.000000
5504,0.000000
5505,0.000000
5506,0.000000
5507,0.000000
5508,-3.906250
5509,0.000000
5510,-3.906250
5511,-3.906250
5512,-3.906250
5513,-7.812500
5514,-7.812500
5515,-7.812500
5516,-7.812500
5517,-11.718750
5518,-11.718750
5519,-11.718750
5520,-11.718750
5521,-11.718750
5522,-15.625000
5523,-15.625000
5524,-15.625000
5525,-15.625000
5526,-19.531250
5527,-19.531250
5528,-19.531250
5529,-19.531250
5530,-19.531250
5531,-23.437500
5532,-23.437500
5533,-23.437500
5534,-23.437500
5535,-23.437500
5536,-27.343750
5537,-27.343750
5538,-27.343750
5539,-31.250000
5540,-31.250000
5541,-31.250000
5542,-31.250000
5543,-35.156250
5544,-31.250000
5545,-35.156250
5546,-35.156250
5547,-35.156250
5548,-35.156250
5549,-39.062500
5550,-39.062500
5551,-39.062500
5552,-39.062500
5553,-39.062500
5554,-42.968750
5555,-42.968750
5556,-42.968750
5557,-42.968750
5558,-42.968750
5559,-46.875000
5560,-46.875000
5561,-46.875000
5562,-46.875000
5563,-50.781250
5564,-50.781250
5565,-50.781250
5566,-50.781250
5567,-54.687500
5568,-54.687500
5569,-54.687500
5570,-54.687500
5571,-54.687500
5572,-54.687500
5573,-58.593750
5574,-58.593750
5575,-58.593750
5576,-58.593750
5577,-62.500000
5578,-62.500000
5579,-62.500000
5580,-62.500000
5581,-66.406250
5582,-66.406250
5583,-66.406250
5584,-66.406250
5585,-66.406250
5586,-66.406250
5587,-70.312500
5588,-70.312500
5589,-70.312500
5590,-70.312500
5591,-70.312500
5592,-74.218750
5593,-74.218750
5594,-74.218750
5595,-74.218750
5596,-78.125000
5597,-78.125000
5598,-78.125000
5599,-78.125000
5600,-78.125000
5601,-82.031250
5602,-82.031250
5603,-82.031250
5604,-82.031250
5605,-82.031250
5606,-82.031250
5607,-82.031250
5608,-85.937500
5609,-85.937500
5610,-85.937500
5611,-85.937500
5612,-89.843750
5613,-89.843750
5614,-89.843750
5615,-89.843750
5616,-89.843750
5617,-93.750000
5618,-93.750000
5619,-93.750000
5620,-93.750000
5621,-93.750000
5622,-93.750000
5623,-97.656250
5624,-97.656250
5625,-97.656250
5626,-97.656250
5627,-97.656250
5628,-101.562500
5629,-97.656250
5630,-101.562500
5631,-101.562500
5632,-101.562500
5633,-101.562500
5634,-101.562500
5635,-105.468750
5636,-105.468750
5637,-105.468750
5638,-105.468750
5639,-105.468750
5640,-109.375000
5641,-109.375000
5642,-109.375000
5643,-109.375000
5644,-109.375000
5645,-109.375000
5646,-109.375000
5647,-109.375000
5648,-113.281250
5649,-113.281250
5650,-113.281250
5651,-113.281250
5652,-113.281250
5653,-117.187500
5654,-117.187500
5655,-117.187500
5656,-117.187500
5657,-117.187500
5658,-117.187500
5659,-117.187500
5660,-121.093750
5661,-121.093750
5662,-121.093750
5663,-121.093750
5664,-121.093750
5665,-121.093750
5666,-121.093750
5667,-125.000000
5668,-125.000000
5669,-125.000000
5670,-125.000000
5671,-125.000000
5672,-125.000000
5673,-125.000000
5674,-125.000000
5675,-128.906250
5676,-128.906250
5677,-128.906250
5678,-128.906250
5679,-128.906250
5680,-128.906250
5681,-128.906250
5682,-132.812500
5683,-132.812500
5684,-132.812500
5685,-132.812500
5686,-132.812500
5687,-132.812500
5688,-132.812500
5689,-132.812500
5690,-132.812500
5691,-136.718750
5692,-136.718750
5693,-136.718750
5694,-136.718750
5695,-136.718750
5696,-136.718750
5697,-136.718750
5698,-136.718750
5699,-136.718750
5700,-136.718750
5701,-140.625000
5702,-140.625000
5703,-140.625000
5704,-140.625000
5705,-140.625000
5706,-140.625000
5707,-140.625000
5708,-140.625000
5709,-140.625000
5710,-140.625000
5711,-140.625000
5712,-140.625000
5713,-140.625000
5714,-140.625000
5715,-144.531250
5716,-144.531250
5717,-144.531250
5718,-144.531250
5719,-144.531250
5720,-144.531250
5721,-144.531250
5722,-144.531250
5723,-144.531250
5724,-144.531250
5725,-144.531250
5726,-144.531250
5727,-144.531250
5728,-144.531250
5729,-144.531250
5730,-144.531250
5731,-148.437500
5732,-144.531250
5733,-144.531250
5734,-148.437500
5735,-148.437500
5736,-148.437500
5737,-144.531250
5738,-148.437500
5739,-148.437500
5740,-148.437500
5741,-148.437500
5742,-148.437500
5743,-148.437500
5744,-148.437500
5745,-148.437500
5746,-148.437500
5747,-148.437500
5748,-148.437500
5749,-148.437500
5750,-148.437500
5751,-148.437500
5752,-148.437500
5753,-148.437500
5754,-148.437500
5755,-148.437500
5756,-148.437500
5757,-148.437500
5758,-148.437500
5759,-148.437500
5760,-148.437500
5761,-148.437500
5762,-148.437500
5763,-148.437500
5764,-148.437500
5765,-148.437500
5766,-148.437500
5767,-148.437500
5768,-148.437500
5769,-148.437500
5770,-148.437500
5771,-148.437500
5772,-148.437500
5773,-148.437500
5774,-148.437500
5775,-148.437500
5776,-148.437500
5777,-148.437500
5778,-148.437500
5779,-148.437500
5780,-148.437500
5781,-148.437500
5782,-148.437500
5783,-148.437500
5784,-148.437500
5785,-148.437500
5786,-148.437500
5787,-148.437500
5788,-144.531250
5789,-148.437500
5790,-144.531250
5791,-148.437500
5792,-144.531250
5793,-144.531250
5794,-144.531250
5795,-144.531250
5796,-144.531250
5797,-144.531250
5798,-144.531250
5799,-144.531250
5800,-144.531250
5801,-144.531250
5802,-144.531250
5803,-144.531250
5804,-144.531250
5805,-144.531250
5806,-140.625000
5807,-140.625000
5808,-140.625000
5809,-144.531250
5810,-140.625000
5811,-140.625000
5812,-140.625000
5813,-140.625000
5814,-140.625000
5815,-140.625000
5816,-140.625000
5817,-140.625000
5818,-140.625000
5819,-140.625000
5820,-136.718750
5821,-140.625000
5822,-136.718750
5823,-136.718750
5824,-136.718750
5825,-136.718750
5826,-136.718750
5827,-136.718750
5828,-136.718750
5829,-132.812500
5830,-132.812500
5831,-136.718750
5832,-132.812500
5833,-132.812500
5834,-132.812500
5835,-132.812500
5836,-132.812500
5837,-132.812500
5838,-132.812500
5839,-132.812500
5840,-128.906250
5841,-128.906250
5842,-128.906250
5843,-128.906250
5844,-128.906250
5845,-128.906250
5846,-125.000000
5847,-125.000000
5848,-125.000000
5849,-125.000000
5850,-125.000000
5851,-125.000000
5852,-125.000000
5853,-125.000000
5854,-125.000000
5855,-121.093750
5856,-121.093750
5857,-121.093750
5858,-121.093750
5859,-121.093750
5860,-121.093750
5861,-121.093750
5862,-117.187500
5863,-117.187500
5864,-117.187500
5865,-117.187500
5866,-117.187500
5867,-117.187500
5868,-117.187500
5869,-113.281250
5870,-113.281250
5871,-113.281250
5872,-113.281250
5873,-113.281250
5874,-113.281250
5875,-113.281250
5876,-109.375000
5877,-109.375000
5878,-109.375000
5879,-109.375000
5880,-109.375000
5881,-105.468750
5882,-105.468750
5883,-105.468750
5884,-105.468750
5885,-105.468750
5886,-105.468750
5887,-101.562500
5888,-101.562500
5889,-101.562500
5890,-101.562500
5891,-101.562500
5892,-101.562500
5893,-101.562500
5894,-97.656250
5895,-97.656250
5896,-97.656250
5897,-97.656250
5898,-97.656250
5899,-97.656250
5900,-93.750000
5901,-93.750000
5902,-93.750000
5903,-93.750000
5904,-93.750000
5905,-89.843750
5906,-89.843750
5907,-89.843750
5908,-89.843750
5909,-89.843750
5910,-89.843750
5911,-85.937500
5912,-85.937500
5913,-85.937500
5914,-85.937500
5915,-85.937500
5916,-82.031250
5917,-82.031250
5918,-82.031250
5919,-82.031250
5920,-82.031250
5921,-78.125000
5922,-78.125000
5923,-78.125000
5924,-78.125000
5925,-78.125000
5926,-78.125000
5927,-74.218750
5928,-74.218750
5929,-74.218750
5930,-74.218750
5931,-74.218750
5932,-70.312500
5933,-70.312500
5934,-70.312500
5935,-70.312500
5936,-66.406250
5937,-66.406250
5938,-66.406250
5939,-66.406250
5940,-66.406250
5941,-66.406250
5942,-62.500000
5943,-62.500000
5944,-62.500000
5945,-62.500000
5946,-58.593750
5947,-58.593750
5948,-58.593750
5949,-58.593750
5950,-58.593750
5951,-54.687500
5952,-54.687500
5953,-54.687500
5954,-54.687500
5955,-54.687500
5956,-54.687500
5957,-50.781250
5958,-50.781250
5959,-50.781250
5960,-50.781250
5961,-46.875000
5962,-46.875000
5963,-46.875000
5964,-46.875000
5965,-42.968750
5966,-42.968750
5967,-42.968750
5968,-42.968750
5969,-42.968750
5970,-39.062500
5971,-39.062500
5972,-39.062500
5973,-39.062500
5974,-35.156250
5975,-35.156250
5976,-35.156250
5977,-35.156250
5978,-35.156250
5979,-35.156250
5980,-31.250000
5981,-31.250000
5982,-31.250000
5983,-31.250000
5984,-27.343750
5985,-27.343750
5986,-27.343750
5987,-27.343750
5988,-23.437500
5989,-23.437500
5990,-23.437500
5991,-23.437500
5992,-23.437500
5993,-23.437500
5994,-19.531250
5995,-19.531250
5996,-19.531250
5997,-19.531250
5998,-15.625000
5999,-15.625000
6000,-15.625000
6001,-15.625000
6002,-11.718750
6003,-11.718750
6004,-11.718750
6005,-11.718750
6006,-11.718750
6007,-11.718750
6008,-7.812500
6009,-7.812500
6010,-7.812500
6011,-7.812500
6012,-7.812500
6013,-3.906250
6014,-3.906250
6015,-3.906250
6016,-3.906250
6017,0.000000
6018,0.000000
6019,0.000000
6020,0.000000
6021,0.000000
6022,3.906250
6023,3.906250
6024,3.906250
6025,3.906250
6026,3.906250
6027,3.906250
6028,7.812500
6029,7.812500
6030,7.812500
6031,7.812500
6032,7.812500
6033,11.718750
6034,11.718750
6035,11.718750
6036,11.718750
6037,15.625000
6038,15.625000
6039,15.625000
6040,15.625000
6041,15.625000
6042,19.531250
6043,19.531250
6044,19.531250
6045,19.531250
6046,19.531250
6047,19.531250
6048,23.437500
6049,23.437500
6050,23.437500
6051,23.437500
6052,27.343750
6053,27.343750
6054,27.343750
6055,27.343750
6056,27.343750
6057,27.343750
6058,27.343750
6059,31.250000
6060,31.250000
6061,31.250000
6062,31.250000
6063,35.156250
6064,35.156250
6065,35.156250
6066,35.156250
6067,35.156250
6068,35.156250
6069,35.156250
6070,39.062500
6071,39.062500
6072,39.062500
6073,39.062500
6074,39.062500
6075,39.062500
6076,42.968750
6077,42.968750
6078,42.968750
6079,42.968750
6080,42.968750
6081,46.875000
6082,46.875000
6083,46.875000
6084,46.875000
6085,46.875000
6086,50.781250
6087,46.875000
6088,50.781250
6089,50.781250
6090,50.781250
6091,50.781250
6092,50.781250
6093,50.781250
6094,54.687500
6095,54.687500
6096,54.687500
6097,54.687500
6098,54.687500
6099,58.593750
6100,54.687500
6101,58.593750
6102,58.593750
6103,58.593750
6104,58.593750
6105,58.593750
6106,62.500000
6107,62.500000
6108,62.500000
6109,62.500000
6110,62.500000
6111,66.406250
6112,66.406250
6113,66.406250
6114,66.406250
6115,66.406250
6116,66.406250
6117,66.406250
6118,66.406250
6119,70.312500
6120,70.312500
6121,70.312500
6122,70.312500
6123,70.312500
6124,70.312500
6125,70.312500
6126,70.312500
6127,74.218750
6128,74.218750
6129,74.218750
6130,74.218750
6131,74.218750
6132,74.218750
6133,78.125000
6134,78.125000
6135,78.125000
6136,78.125000
6137,78.125000
6138,78.125000
6139,78.125000
6140,78.125000
6141,82.031250
6142,82.031250
6143,82.031250
6144,82.031250
6145,82.031250
6146,82.031250
6147,82.031250
6148,82.031250
6149,82.031250
6150,85.937500
6151,85.937500
6152,85.937500
6153,85.937500
6154,85.937500
6155,85.937500
6156,85.937500
6157,85.937500
6158,85.937500
6159,85.937500
6160,85.937500
6161,89.843750
6162,89.843750
6163,89.843750
6164,89.843750
6165,89.843750
6166,89.843750
6167,89.843750
6168,93.750000
6169,89.843750
6170,93.750000
6171,93.750000
6172,93.750000
6173,93.750000
6174,93.750000
6175,93.750000
6176,93.750000
6177,93.750000
6178,93.750000
6179,93.750000
6180,93.750000
6181,93.750000
6182,93.750000
6183,97.656250
6184,97.656250
6185,97.656250
6186,97.656250
6187,97.656250
6188,97.656250
6189,97.656250
6190,97.656250
6191,97.656250
6192,97.656250
6193,97.656250
6194,97.656250
6195,97.656250
6196,101.562500
6197,101.562500
6198,101.562500
6199,101.562500
6200,101.562500
6201,101.562500
6202,101.562500
6203,101.562500
6204,101.562500
6205,101.562500
6206,101.562500
6207,101.562500
6208,101.562500
6209,101.562500
6210,105.468750
6211,101.562500
6212,101.562500
6213,101.562500
6214,101.562500
6215,105.468750
6216,105.468750
6217,105.468750
6218,105.468750
6219,105.468750
6220,105.468750
6221,105.468750
6222,105.468750
6223,105.468750
6224,105.468750
6225,105.468750
6226,105.468750
6227,105.468750
6228,105.468750
6229,105.468750
6230,105.468750
6231,105.468750
6232,105.468750
6233,109.375000
6234,105.468750
6235,105.468750
6236,109.375000
6237,109.375000
6238,109.375000
6239,109.375000
6240,109.375000
6241,109.375000
6242,109.375000
6243,109.375000
6244,109.375000
6245,109.375000
6246,109.375000
6247,109.375000
6248,109.375000
6249,109.375000
6250,109.375000
6251,109.375000
6252,109.375000
6253,109.375000
6254,109.375000
6255,109.375000
6256,109.375000
6257,109.375000
6258,109.375000
6259,109.375000
6260,109.375000
6261,109.375000
6262,109.375000
6263,109.375000
6264,109.375000
6265,109.375000
6266,109.375000
6267,109.375000
6268,109.375000
6269,109.375000
6270,109.375000
6271,109.375000
6272,109.375000
6273,109.375000
6274,109.375000
6275,109.375000
6276,109.375000
6277,109.375000
6278,109.375000
6279,109.375000
6280,109.375000
6281,109.375000
6282,109.375000
6283,109.375000
6284,105.468750
6285,109.375000
6286,105.468750
6287,105.468750
6288,109.375000
6289,105.468750
6290,105.468750
6291,109.375000
6292,105.468750
6293,105.468750
6294,105.468750
6295,105.468750
6296,105.468750
6297,105.468750
6298,105.468750
6299,105.468750
6300,105.468750
6301,105.468750
6302,105.468750
6303,105.468750
6304,105.468750
6305,105.468750
6306,109.375000
6307,105.468750
6308,105.468750
6309,101.562500
6310,101.562500
6311,101.562500
6312,101.562500
6313,101.562500
6314,101.562500
6315,101.562500
6316,101.562500
6317,101.562500
6318,101.562500
6319,101.562500
6320,101.562500
6321,101.562500
6322,101.562500
6323,101.562500
6324,101.562500
6325,97.656250
6326,97.656250
6327,97.656250
6328,97.656250
6329,97.656250
6330,97.656250
6331,97.656250
6332,97.656250
6333,97.656250
6334,97.656250
6335,97.656250
6336,97.656250
6337,97.656250
6338,93.750000
6339,93.750000
6340,97.656250
6341,93.750000
6342,93.750000
6343,93.750000
6344,93.750000
6345,93.750000
6346,93.750000
6347,93.750000
6348,93.750000
6349,93.750000
6350,93.750000
6351,93.750000
6352,89.843750
6353,89.843750
6354,89.843750
6355,89.843750
6356,89.843750
6357,89.843750
6358,85.937500
6359,89.843750
6360,85.937500
6361,85.937500
6362,85.937500
6363,85.937500
6364,85.937500
6365,85.937500
6366,85.937500
6367,85.937500
6368,85.937500
6369,82.031250
6370,82.031250
6371,82.031250
6372,82.031250
6373,82.031250
6374,82.031250
6375,82.031250
6376,82.031250
6377,78.125000
6378,78.125000
6379,78.125000
6380,78.125000
6381,78.125000
6382,78.125000
6383,78.125000
6384,78.125000
6385,78.125000
6386,74.218750
6387,74.218750
6388,74.218750
6389,74.218750
6390,74.218750
6391,74.218750
6392,74.218750
6393,70.312500
6394,70.312500
6395,70.312500
6396,70.312500
6397,70.312500
6398,70.312500
6399,70.312500
6400,70.312500
6401,66.406250
6402,66.406250
6403,66.406250
6404,66.406250
6405,66.406250
6406,66.406250
6407,66.406250
6408,62.500000
6409,62.500000
6410,62.500000
6411,62.500000
6412,62.500000
6413,62.500000
6414,62.500000
6415,58.593750
6416,58.593750
6417,58.593750
6418,58.593750
6419,58.593750
6420,58.593750
6421,58.593750
6422,54.687500
6423,54.687500
6424,54.687500
6425,54.687500
6426,50.781250
6427,50.781250
6428,50.781250
6429,50.781250
6430,50.781250
6431,50.781250
6432,46.875000
6433,46.875000
6434,46.875000
6435,46.875000
6436,42.968750
6437,42.968750
6438,42.968750
6439,42.968750
6440,42.968750
6441,42.968750
6442,42.968750
6443,39.062500
6444,39.062500
6445,39.062500
6446,39.062500
6447,39.062500
6448,35.156250
6449,35.156250
6450,35.156250
6451,35.156250
6452,35.156250
6453,35.156250
6454,31.250000
6455,31.250000
6456,31.250000
6457,31.250000
6458,31.250000
6459,27.343750
6460,27.343750
6461,27.343750
6462,27.343750
6463,23.437500
6464,23.437500
6465,23.437500
6466,23.437500
6467,19.531250
6468,19.531250
6469,19.531250
6470,19.531250
6471,19.531250
6472,19.531250
6473,19.531250
6474,15.625000
6475,15.625000
6476,15.625000
6477,15.625000
6478,11.718750
6479,11.718750
6480,11.718750
6481,11.718750
6482,7.812500
6483,7.812500
6484,7.812500
6485,7.812500
6486,7.812500
6487,7.812500
6488,3.906250
6489,3.906250
6490,3.906250
6491,3.906250
6492,0.000000
6493,0.000000
6494,0.000000
6495,0.000000
6496,0.000000
6497,-3.906250
6498,-3.906250
6499,-3.906250
6500,-3.906250
6501,-7.812500
6502,-7.812500
6503,-7.812500
6504,-7.812500
6505,-7.812500
6506,-7.812500
6507,-11.718750
6508,-11.718750
6509,-11.718750
6510,-11.718750
6511,-15.625000
6512,-15.625000
6513,-15.625000
6514,-15.625000
6515,-19.531250
6516,-19.531250
6517,-19.531250
6518,-19.531250
6519,-23.437500
6520,-23.437500
6521,-23.437500
6522,-23.437500
6523,-23.437500
6524,-23.437500
6525,-23.437500
6526,-27.343750
6527,-27.343750
6528,-31.250000
6529,-31.250000
6530,-31.250000
6531,-31.250000
6532,-31.250000
6533,-31.250000
6534,-31.250000
6535,-35.156250
6536,-31.250000
6537,-35.156250
6538,-39.062500
6539,-39.062500
6540,-39.062500
6541,-39.062500
6542,-39.062500
6543,-42.968750
6544,-42.968750
6545,-42.968750
6546,-42.968750
6547,-46.875000
6548,-46.875000
6549,-46.875000
6550,-46.875000
6551,-46.875000
6552,-46.875000
6553,-50.781250
6554,-50.781250
6555,-50.781250
6556,-54.687500
6557,-54.687500
6558,-54.687500
6559,-54.687500
6560,-54.687500
6561,-58.593750
6562,-58.593750
6563,-58.593750
6564,-58.593750
6565,-58.593750
6566,-62.500000
6567,-62.500000
6568,-62.500000
6569,-62.500000
6570,-62.500000
6571,-66.406250
6572,-66.406250
6573,-66.406250
6574,-66.406250
6575,-70.312500
6576,-70.312500
6577,-70.312500
6578,-70.312500
6579,-70.312500
6580,-74.218750
6581,-74.218750
6582,-74.218750
6583,-74.218750
6584,-74.218750
6585,-78.125000
6586,-78.125000
6587,-78.125000
6588,-78.125000
6589,-78.125000
6590,-78.125000
6591,-82.031250
6592,-82.031250
6593,-82.031250
6594,-85.937500
6595,-85.937500
6596,-85.937500
6597,-85.937500
6598,-85.937500
6599,-89.843750
6600,-85.937500
6601,-89.843750
6602,-89.843750
6603,-93.750000
6604,-89.843750
6605,-89.843750
6606,-93.750000
6607,-93.750000
6608,-93.750000
6609,-93.750000
6610,-97.656250
6611,-97.656250
6612,-97.656250
6613,-97.656250
6614,-97.656250
6615,-97.656250
6616,-97.656250
6617,-101.562500
6618,-101.562500
6619,-101.562500
6620,-101.562500
6621,-101.562500
6622,-101.562500
6623,-105.468750
6624,-105.468750
6625,-105.468750
6626,-105.468750
6627,-105.468750
6628,-109.375000
6629,-109.375000
6630,-109.375000
6631,-109.375000
6632,-109.375000
6633,-109.375000
6634,-113.281250
6635,-113.281250
6636,-113.281250
6637,-113.281250
6638,-113.281250
6639,-113.281250
6640,-113.281250
6641,-117.187500
6642,-117.187500
6643,-117.187500
6644,-117.187500
6645,-117.187500
6646,-117.187500
6647,-117.187500
6648,-117.187500
6649,-121.093750
6650,-121.093750
6651,-121.093750
6652,-121.093750
6653,-121.093750
6654,-121.093750
6655,-125.000000
6656,-121.093750
6657,-125.000000
6658,-125.000000
6659,-125.000000
6660,-125.000000
6661,-125.000000
6662,-128.906250
6663,-128.906250
6664,-128.906250
6665,-128.906250
6666,-128.906250
6667,-128.906250
6668,-128.906250
6669,-128.906250
6670,-128.906250
6671,-132.812500
6672,-132.812500
6673,-132.812500
6674,-132.812500
6675,-132.812500
6676,-132.812500
6677,-132.812500
6678,-132.812500
6679,-136.718750
6680,-136.718750
6681,-136.718750
6682,-136.718750
6683,-136.718750
6684,-136.718750
6685,-136.718750
6686,-136.718750
6687,-136.718750
6688,-136.718750
6689,-136.718750
6690,-136.718750
6691,-140.625000
6692,-140.625000
6693,-140.625000
6694,-140.625000
6695,-140.625000
6696,-140.625000
6697,-140.625000
6698,-140.625000
6699,-140.625000
6700,-140.625000
6701,-140.625000
6702,-144.531250
6703,-144.531250
6704,-144.531250
6705,-144.531250
6706,-144.531250
6707,-144.531250
6708,-144.531250
6709,-144.531250
6710,-144.531250
6711,-144.531250
6712,-144.531250
6713,-144.531250
6714,-144.531250
6715,-144.531250
6716,-144.531250
6717,-144.531250
6718,-148.437500
6719,-148.437500
6720,-148.437500
6721,-148.437500
6722,-148.437500
6723,-148.437500
6724,-148.437500
6725,-148.437500
6726,-148.437500
6727,-148.437500
6728,-148.437500
6729,-148.437500
6730,-148.437500
6731,-148.437500
6732,-148.437500
6733,-148.437500
6734,-148.437500
6735,-148.437500
6736,-148.437500
6737,-148.437500
6738,-148.437500
6739,-148.437500
6740,-148.437500
6741,-148.437500
6742,-148.437500
6743,-148.437500
6744,-148.437500
6745,-148.437500
6746,-148.437500
6747,-148.437500
6748,-148.437500
6749,-148.437500
6750,-148.437500
6751,-148.437500
6752,-148.437500
6753,-148.437500
6754,-148.437500
6755,-148.437500
6756,-148.437500
6757,-148.437500
6758,-148.437500
6759,-148.437500
6760,-148.437500
6761,-148.437500
6762,-148.437500
6763,-148.437500
6764,-148.437500
6765,-148.437500
6766,-148.437500
6767,-148.437500
6768,-148.437500
6769,-148.437500
6770,-148.437500
6771,-148.437500
6772,-148.437500
6773,-148.437500
6774,-148.437500
6775,-148.437500
6776,-148.437500
6777,-144.531250
6778,-144.531250
6779,-144.531250
6780,-144.531250
6781,-144.531250
6782,-144.531250
6783,-144.531250
6784,-144.531250
6785,-144.531250
6786,-144.531250
6787,-144.531250
6788,-144.531250
6789,-144.531250
6790,-144.531250
6791,-144.531250
6792,-144.531250
6793,-144.531250
6794,-144.531250
6795,-144.531250
6796,-140.625000
6797,-140.625000
6798,-140.625000
6799,-140.625000
6800,-140.625000
6801,-140.625000
6802,-140.625000
6803,-140.625000
6804,-140.625000
6805,-140.625000
6806,-140.625000
6807,-136.718750
6808,-140.625000
6809,-136.718750
6810,-136.718750
6811,-136.718750
6812,-136.718750
6813,-136.718750
6814,-136.718750
6815,-136.718750
6816,-136.718750
6817,-136.718750
6818,-132.812500
6819,-136.718750
6820,-132.812500
6821,-132.812500
6822,-132.812500
6823,-132.812500
6824,-132.812500
6825,-132.812500
6826,-132.812500
6827,-132.812500
6828,-132.812500
6829,-128.906250
6830,-128.906250
6831,-128.906250
6832,-128.906250
6833,-128.906250
6834,-128.906250
6835,-128.906250
6836,-128.906250
6837,-128.906250
6838,-125.000000
6839,-125.000000
6840,-125.000000
6841,-125.000000
6842,-125.000000
6843,-125.000000
6844,-121.093750
6845,-121.093750
6846,-121.093750
6847,-121.093750
6848,-121.093750
6849,-121.093750
6850,-121.093750
6851,-121.093750
6852,-117.187500
6853,-117.187500
6854,-117.187500
6855,-117.187500
6856,-117.187500
6857,-117.187500
6858,-117.187500
6859,-113.281250
6860,-113.281250
6861,-113.281250
6862,-113.281250
6863,-113.281250
6864,-109.375000
6865,-109.375000
6866,-109.375000
6867,-109.375000
6868,-109.375000
6869,-109.375000
6870,-109.375000
6871,-109.375000
6872,-105.468750
6873,-105.468750
6874,-105.468750
6875,-105.468750
6876,-101.562500
6877,-101.562500
6878,-101.562500
6879,-101.562500
6880,-101.562500
6881,-101.562500
6882,-101.562500
6883,-101.562500
6884,-97.656250
6885,-97.656250
6886,-97.656250
6887,-97.656250
6888,-93.750000
6889,-93.750000
6890,-93.750000
6891,-93.750000
6892,-93.750000
6893,-93.750000
6894,-93.750000
6895,-89.843750
6896,-89.843750
6897,-89.843750
6898,-89.843750
6899,-85.937500
6900,-85.937500
6901,-85.937500
6902,-85.937500
6903,-85.937500
6904,-82.031250
6905,-82.031250
6906,-82.031250
6907,-82.031250
6908,-78.125000
6909,-78.125000
6910,-78.125000
6911,-78.125000
6912,-78.125000
6913,-78.125000
6914,-74.218750
6915,-74.218750
6916,-74.218750
6917,-74.218750
6918,-74.218750
6919,-74.218750
6920,-70.312500
6921,-70.312500
6922,-70.312500
6923,-70.312500
6924,-66.406250
6925,-66.406250
6926,-66.406250
6927,-66.406250
6928,-66.406250
6929,-66.406250
6930,-62.500000
6931,-62.500000
6932,-62.500000
6933,-62.500000
6934,-58.593750
6935,-58.593750
6936,-58.593750
6937,-58.593750
6938,-58.593750
6939,-54.687500
6940,-54.687500
6941,-54.687500
6942,-54.687500
6943,-54.687500
6944,-50.781250
6945,-50.781250
6946,-50.781250
6947,-50.781250
6948,-50.781250
6949,-46.875000
6950,-46.875000
6951,-46.875000
6952,-46.875000
6953,-46.875000
6954,-42.968750
6955,-42.968750
6956,-42.968750
6957,-42.968750
6958,-42.968750
6959,-39.062500
6960,-39.062500
6961,-39.062500
6962,-39.062500
6963,-35.156250
6964,-35.156250
6965,-35.156250
6966,-35.156250
6967,-35.156250
6968,-31.250000
6969,-31.250000
6970,-31.250000
6971,-31.250000
6972,-31.250000
6973,-27.343750
6974,-27.343750
6975,-27.343750
6976,-27.343750
6977,-27.343750
6978,-23.437500
6979,-23.437500
6980,-23.437500
6981,-23.437500
6982,-23.437500
6983,-19.531250
6984,-19.531250
6985,-19.531250
6986,-19.531250
6987,-15.625000
6988,-15.625000
6989,-11.718750
6990,-15.625000
6991,-15.625000
6992,-11.718750
6993,-11.718750
6994,-11.718750
6995,-7.812500
6996,-11.718750
6997,-7.812500
6998,-7.812500
6999,-7.812500
7000,-7.812500
7001,-3.906250
7002,-3.906250
7003,-3.906250
7004,0.000000
7005,-3.906250
7006,0.000000
7007,0.000000
7008,0.000000
7009,0.000000
7010,0.000000
7011,3.906250
7012,3.906250
7013,3.906250
7014,3.906250
7015,3.906250
7016,7.812500
7017,7.812500
7018,7.812500
7019,7.812500
7020,7.812500
7021,11.718750
7022,11.718750
7023,11.718750
7024,11.718750
7025,11.718750
7026,15.625000
7027,15.625000
7028,15.625000
7029,15.625000
7030,19.531250
7031,19.531250
7032,19.531250
7033,19.531250
7034,19.531250
7035,19.531250
7036,23.437500
7037,23.437500
7038,23.437500
7039,23.437500
7040,23.437500
7041,27.343750
7042,27.343750
7043,27.343750
7044,27.343750
7045,27.343750
7046,27.343750
7047,27.343750
7048,31.250000
7049,31.250000
7050,31.250000
7051,31.250000
7052,35.156250
7053,35.156250
7054,35.156250
7055,35.156250
7056,35.156250
7057,39.062500
7058,39.062500
7059,39.062500
7060,39.062500
7061,39.062500
7062,42.968750
7063,42.968750
7064,42.968750
7065,42.968750
7066,42.968750
7067,42.968750
7068,42.968750
7069,46.875000
7070,46.875000
7071,46.875000
7072,46.875000
7073,46.875000
7074,50.781250
7075,50.781250
7076,46.875000
7077,46.875000
7078,50.781250
7079,50.781250
7080,50.781250
7081,50.781250
7082,54.687500
7083,54.687500
7084,54.687500
7085,54.687500
7086,54.687500
7087,58.593750
7088,58.593750
7089,58.593750
7090,58.593750
7091,58.593750
7092,58.593750
7093,58.593750
7094,58.593750
7095,62.500000
7096,62.500000
7097,62.500000
7098,62.500000
7099,62.500000
7100,66.406250
7101,66.406250
7102,66.406250
7103,66.406250
7104,66.406250
7105,66.406250
7106,66.406250
7107,70.312500
7108,70.312500
7109,70.312500
7110,70.312500
7111,70.312500
7112,70.312500
7113,74.218750
7114,74.218750
7115,74.218750
7116,74.218750
7117,74.218750
7118,74.218750
7119,74.218750
7120,74.218750
7121,74.218750
7122,78.125000
7123,78.125000
7124,78.125000
7125,78.125000
7126,78.125000
7127,78.125000
7128,78.125000
7129,78.125000
7130,82.031250
7131,78.125000
7132,82.031250
7133,82.031250
7134,82.031250
7135,82.031250
7136,82.031250
7137,82.031250
7138,85.937500
7139,82.031250
7140,85.937500
7141,85.937500
7142,85.937500
7143,85.937500
7144,85.937500
7145,85.937500
7146,85.937500
7147,89.843750
7148,85.937500
7149,89.843750
7150,89.843750
7151,89.843750
7152,89.843750
7153,89.843750
7154,89.843750
7155,89.843750
7156,89.843750
7157,93.750000
7158,93.750000
7159,93.750000
7160,93.750000
7161,93.750000
7162,93.750000
7163,93.750000
7164,93.750000
7165,93.750000
7166,93.750000
7167,93.750000
7168,97.656250
7169,97.656250
7170,93.750000
7171,97.656250
7172,97.656250
7173,97.656250
7174,97.656250
7175,97.656250
7176,97.656250
7177,97.656250
7178,97.656250
7179,97.656250
7180,97.656250
7181,101.562500
7182,97.656250
7183,101.562500
7184,101.562500
7185,101.562500
7186,101.562500
7187,101.562500
7188,101.562500
7189,101.562500
7190,101.562500
7191,101.562500
7192,101.562500
7193,101.562500
7194,101.562500
7195,101.562500
7196,101.562500
7197,101.562500
7198,101.562500
7199,101.562500
7200,105.468750
7201,101.562500
7202,105.468750
7203,105.468750
7204,105.468750
7205,105.468750
7206,105.468750
7207,105.468750
7208,105.468750
7209,105.468750
7210,105.468750
7211,105.468750
7212,105.468750
7213,105.468750
7214,105.468750
7215,105.468750
7216,105.468750
7217,105.468750
7218,105.468750
7219,105.468750
7220,105.468750
7221,105.468750
7222,105.468750
7223,105.468750
7224,105.468750
7225,105.468750
7226,105.468750
7227,105.468750
7228,105.468750
7229,105.468750
7230,105.468750
7231,105.468750
7232,109.375000
7233,109.375000
7234,109.375000
7235,109.375000
7236,109.375000
7237,109.375000
7238,109.375000
7239,109.375000
7240,109.375000
7241,109.375000
7242,109.375000
7243,109.375000
7244,109.375000
7245,109.375000
7246,109.375000
7247,109.375000
7248,109.375000
7249,105.468750
7250,109.375000
7251,109.375000
7252,109.375000
7253,109.375000
7254,105.468750
7255,109.375000
7256,109.375000
7257,109.375000
7258,109.375000
7259,109.375000
7260,109.375000
7261,109.375000
7262,109.375000
7263,109.375000
7264,109.375000
7265,109.375000
7266,109.375000
7267,109.375000
7268,109.375000
7269,105.468750
7270,109.375000
7271,105.468750
7272,109.375000
7273,109.375000
7274,109.375000
7275,105.468750
7276,105.468750
7277,105.468750
7278,105.468750
7279,105.468750
7280,105.468750
7281,105.468750
7282,105.468750
7283,105.468750
7284,105.468750
7285,105.468750
7286,105.468750
7287,105.468750
7288,105.468750
7289,105.468750
7290,105.468750
7291,105.468750
7292,105.468750
7293,105.468750
7294,105.468750
7295,105.468750
7296,105.468750
7297,105.468750
7298,105.468750
7299,105.468750
7300,105.468750
7301,101.562500
7302,105.468750
7303,101.562500
7304,101.562500
7305,101.562500
7306,101.562500
7307,101.562500
7308,101.562500
7309,101.562500
7310,101.562500
7311,101.562500
7312,101.562500
7313,97.656250
7314,101.562500
7315,101.562500
7316,97.656250
7317,97.656250
7318,97.656250
7319,97.656250
7320,97.656250
7321,97.656250
7322,97.656250
7323,97.656250
7324,97.656250
7325,97.656250
7326,97.656250
7327,93.750000
7328,97.656250
7329,93.750000
7330,93.750000
7331,93.750000
7332,93.750000
7333,93.750000
7334,93.750000
7335,93.750000
7336,93.750000
7337,93.750000
7338,89.843750
7339,89.843750
7340,89.843750
7341,89.843750
7342,89.843750
7343,89.843750
7344,89.843750
7345,89.843750
7346,89.843750
7347,85.937500
7348,85.937500
7349,85.937500
7350,85.937500
7351,85.937500
7352,85.937500
7353,85.937500
7354,85.937500
7355,85.937500
7356,85.937500
7357,82.031250
7358,82.031250
7359,82.031250
7360,82.031250
7361,82.031250
7362,82.031250
7363,82.031250
7364,82.031250
7365,82.031250
7366,82.031250
7367,78.125000
7368,78.125000
7369,78.125000
7370,78.125000
7371,78.125000
7372,78.125000
7373,74.218750
7374,74.218750
7375,74.218750
7376,74.218750
7377,74.218750
7378,74.218750
7379,74.218750
7380,74.218750
7381,74.218750
7382,70.312500
7383,70.312500
7384,70.312500
7385,70.312500
7386,70.312500
7387,70.312500
7388,70.312500
7389,66.406250
7390,66.406250
7391,66.406250
7392,66.406250
7393,66.406250
7394,62.500000
7395,66.406250
7396,62.500000
7397,62.500000
7398,62.500000
7399,58.593750
7400,62.500000
7401,58.593750
7402,58.593750
7403,58.593750
7404,58.593750
7405,58.593750
7406,58.593750
7407,58.593750
7408,54.687500
7409,54.687500
7410,54.687500
7411,54.687500
7412,54.687500
7413,54.687500
7414,50.781250
7415,50.781250
7416,50.781250
7417,50.781250
7418,50.781250
7419,50.781250
7420,46.875000
7421,46.875000
7422,46.875000
7423,46.875000
7424,46.875000
7425,46.875000
7426,42.968750
7427,42.968750
7428,42.968750
7429,42.968750
7430,42.968750
7431,39.062500
7432,39.062500
7433,39.062500
7434,39.062500
7435,39.062500
7436,39.062500
7437,35.156250
7438,35.156250
7439,35.156250
7440,35.156250
7441,35.156250
7442,31.250000
7443,31.250000
7444,31.250000
7445,31.250000
7446,31.250000
7447,27.343750
7448,27.343750
7449,27.343750
7450,27.343750
7451,23.437500
7452,23.437500
7453,23.437500
7454,23.437500
7455,23.437500
7456,23.437500
7457,19.531250
7458,19.531250
7459,19.531250
7460,19.531250
7461,15.625000
7462,19.531250
7463,15.625000
7464,15.625000
7465,15.625000
7466,15.625000
7467,11.718750
7468,11.718750
7469,11.718750
7470,11.718750
7471,11.718750
7472,7.812500
7473,7.812500
7474,7.812500
7475,7.812500
7476,3.906250
7477,3.906250
7478,3.906250
7479,3.906250
7480,0.000000
7481,0.000000
7482,0.000000
7483,0.000000
7484,0.000000
7485,0.000000
7486,-3.906250
7487,-3.906250
7488,-3.906250
7489,-7.812500
7490,-7.812500
7491,-7.812500
7492,-7.812500
7493,-7.812500
7494,-11.718750
7495,-11.718750
7496,-11.718750
7497,-11.718750
7498,-11.718750
7499,-11.718750
7500,-15.625000
7501,-15.625000
7502,-15.625000
7503,-19.531250
7504,-19.531250
7505,-19.531250
7506,-19.531250
7507,-19.531250
7508,-23.437500
7509,-23.437500
7510,-23.437500
7511,-23.437500
7512,-23.437500
7513,-27.343750
7514,-27.343750
7515,-27.343750
7516,-27.343750
7517,-31.250000
7518,-31.250000
7519,-31.250000
7520,-31.250000
7521,-31.250000
7522,-35.156250
7523,-35.156250
7524,-35.156250
7525,-39.062500
7526,-39.062500
7527,-39.062500
7528,-39.062500
7529,-39.062500
7530,-39.062500
7531,-42.968750
7532,-42.968750
7533,-42.968750
7534,-42.968750
7535,-46.875000
7536,-46.875000
7537,-46.875000
7538,-46.875000
7539,-46.875000
7540,-50.781250
7541,-50.781250
7542,-50.781250
7543,-50.781250
7544,-50.781250
7545,-54.687500
7546,-54.687500
7547,-54.687500
7548,-54.687500
7549,-58.593750
7550,-58.593750
7551,-58.593750
7552,-58.593750
7553,-58.593750
7554,-58.593750
7555,-62.500000
7556,-62.500000
7557,-62.500000
7558,-66.406250
7559,-66.406250
7560,-66.406250
7561,-66.406250
7562,-66.406250
7563,-66.406250
7564,-70.312500
7565,-70.312500
7566,-70.312500
7567,-70.312500
7568,-70.312500
7569,-74.218750
7570,-74.218750
7571,-74.218750
7572,-74.218750
7573,-78.125000
7574,-78.125000
7575,-78.125000
7576,-78.125000
7577,-78.125000
7578,-82.031250
7579,-82.031250
7580,-82.031250
7581,-82.031250
7582,-82.031250
7583,-82.031250
7584,-85.937500
7585,-85.937500
7586,-85.937500
7587,-85.937500
7588,-89.843750
7589,-89.843750
7590,-89.843750
7591,-89.843750
7592,-89.843750
7593,-89.843750
7594,-93.750000
7595,-93.750000
7596,-93.750000
7597,-93.750000
7598,-93.750000
7599,-97.656250
7600,-97.656250
7601,-97.656250
7602,-97.656250
7603,-97.656250
7604,-101.562500
7605,-101.562500
7606,-101.562500
7607,-101.562500
7608,-101.562500
7609,-101.562500
7610,-105.468750
7611,-105.468750
7612,-105.468750
7613,-105.468750
7614,-105.468750
7615,-105.468750
7616,-109.375000
7617,-109.375000
7618,-109.375000
7619,-109.375000
7620,-109.375000
7621,-113.281250
7622,-113.281250
7623,-113.281250
7624,-113.281250
7625,-113.281250
7626,-113.281250
7627,-113.281250
7628,-113.281250
7629,-117.187500
7630,-117.187500
7631,-117.187500
7632,-117.187500
7633,-117.187500
7634,-117.187500
7635,-121.093750
7636,-121.093750
7637,-121.093750
7638,-121.093750
7639,-121.093750
7640,-121.093750
7641,-121.093750
7642,-121.093750
7643,-125.000000
7644,-125.000000
7645,-125.000000
7646,-125.000000
7647,-125.000000
7648,-125.000000
7649,-128.906250
7650,-125.000000
7651,-128.906250
7652,-128.906250
7653,-128.906250
7654,-128.906250
7655,-128.906250
7656,-128.906250
7657,-132.812500
7658,-132.812500
7659,-132.812500
7660,-132.812500
7661,-132.812500
7662,-132.812500
7663,-132.812500
7664,-132.812500
7665,-132.812500
7666,-132.812500
7667,-136.718750
7668,-136.718750
7669,-136.718750
7670,-136.718750
7671,-136.718750
7672,-136.718750
7673,-136.718750
7674,-136.718750
7675,-136.718750
7676,-136.718750
7677,-140.625000
7678,-140.625000
7679,-140.625000
7680,-140.625000
7681,-140.625000
7682,-140.625000
7683,-140.625000
7684,-140.625000
7685,-140.625000
7686,-140.625000
7687,-140.625000
7688,-140.625000
7689,-140.625000
7690,-144.531250
7691,-144.531250
7692,-144.531250
7693,-144.531250
7694,-144.531250
7695,-144.531250
7696,-144.531250
7697,-144.531250
7698,-144.531250
7699,-144.531250
7700,-144.531250
7701,-144.531250
7702,-148.437500
7703,-148.437500
7704,-148.437500
7705,-144.531250
7706,-144.531250
7707,-144.531250
7708,-148.437500
7709,-148.437500
7710,-148.437500
7711,-148.437500
7712,-148.437500
7713,-148.437500
7714,-148.437500
7715,-148.437500
7716,-148.437500
7717,-148.437500
7718,-148.437500
7719,-148.437500
7720,-148.437500
7721,-148.437500
7722,-148.437500
7723,-148.437500
7724,-148.437500
7725,-148.437500
7726,-148.437500
7727,-148.437500
7728,-148.437500
7729,-148.437500
7730,-148.437500
7731,-148.437500
7732,-148.437500
7733,-148.437500
7734,-148.437500
7735,-148.437500
7736,-148.437500
7737,-148.437500
7738,-148.437500
7739,-148.437500
7740,-148.437500
7741,-148.437500
7742,-148.437500
7743,-148.437500
7744,-148.437500
7745,-148.437500
7746,-148.437500
7747,-148.437500
7748,-148.437500
7749,-148.437500
7750,-148.437500
7751,-148.437500
7752,-148.437500
7753,-148.437500
7754,-148.437500
7755,-148.437500
7756,-148.437500
7757,-148.437500
7758,-148.437500
7759,-148.437500
7760,-148.437500
7761,-148.437500
7762,-148.437500
7763,-148.437500
7764,-148.437500
7765,-148.437500
7766,-144.531250
7767,-144.531250
7768,-148.437500
7769,-148.437500
7770,-144.531250
7771,-144.531250
7772,-144.531250
7773,-144.531250
7774,-144.531250
7775,-144.531250
7776,-144.531250
7777,-144.531250
7778,-144.531250
7779,-144.531250
7780,-144.531250
7781,-144.531250
7782,-140.625000
7783,-144.531250
7784,-140.625000
7785,-144.531250
7786,-140.625000
7787,-140.625000
7788,-140.625000
7789,-140.625000
7790,-140.625000
7791,-140.625000
7792,-140.625000
7793,-140.625000
7794,-140.625000
7795,-140.625000
7796,-140.625000
7797,-140.625000
7798,-136.718750
7799,-136.718750
7800,-136.718750
7801,-136.718750
7802,-136.718750
7803,-136.718750
7804,-136.718750
7805,-132.812500
7806,-136.718750
7807,-136.718750
7808,-136.718750
7809,-132.812500
7810,-132.812500
7811,-132.812500
7812,-132.812500
7813,-132.812500
7814,-132.812500
7815,-132.812500
7816,-132.812500
7817,-128.906250
7818,-128.906250
7819,-128.906250
7820,-128.906250
7821,-128.906250
7822,-128.906250
7823,-128.906250
7824,-125.000000
7825,-128.906250
7826,-125.000000
7827,-125.000000
7828,-125.000000
7829,-125.000000
7830,-125.000000
7831,-121.093750
7832,-121.093750
7833,-121.093750
7834,-121.093750
7835,-121.093750
7836,-121.093750
7837,-121.093750
7838,-121.093750
7839,-117.187500
7840,-117.187500
7841,-117.187500
7842,-117.187500
7843,-117.187500
7844,-117.187500
7845,-113.281250
7846,-113.281250
7847,-113.281250
7848,-113.281250
7849,-113.281250
7850,-113.281250
7851,-113.281250
7852,-113.281250
7853,-113.281250
7854,-109.375000
7855,-109.375000
7856,-109.375000
7857,-109.375000
7858,-109.375000
7859,-105.468750
7860,-105.468750
7861,-105.468750
7862,-105.468750
7863,-105.468750
7864,-105.468750
7865,-105.468750
7866,-101.562500
7867,-101.562500
7868,-101.562500
7869,-101.562500
7870,-101.562500
7871,-97.656250
7872,-97.656250
7873,-97.656250
7874,-97.656250
7875,-97.656250
7876,-97.656250
7877,-97.656250
7878,-97.656250
7879,-93.750000
7880,-93.750000
7881,-93.750000
7882,-89.843750
7883,-89.843750
7884,-89.843750
7885,-89.843750
7886,-89.843750
7887,-89.843750
7888,-85.937500
7889,-85.937500
7890,-85.937500
7891,-85.937500
7892,-85.937500
7893,-82.031250
7894,-82.031250
7895,-82.031250
7896,-82.031250
7897,-82.031250
7898,-78.125000
7899,-78.125000
7900,-78.125000
7901,-78.125000
7902,-78.125000
7903,-74.218750
7904,-74.218750
7905,-74.218750
7906,-74.218750
7907,-74.218750
7908,-70.312500
7909,-70.312500
7910,-70.312500
7911,-70.312500
7912,-70.312500
7913,-70.312500
7914,-66.406250
7915,-66.406250
7916,-66.406250
7917,-66.406250
7918,-62.500000
7919,-62.500000
7920,-62.500000
7921,-62.500000
7922,-62.500000
7923,-58.593750
7924,-58.593750
7925,-58.593750
7926,-58.593750
7927,-58.593750
7928,-54.687500
7929,-54.687500
7930,-54.687500
7931,-54.687500
7932,-50.781250
7933,-50.781250
7934,-50.781250
7935,-50.781250
7936,-50.781250
7937,-50.781250
7938,-46.875000
7939,-46.875000
7940,-46.875000
7941,-46.875000
7942,-42.968750
7943,-42.968750
7944,-42.968750
7945,-42.968750
7946,-42.968750
7947,-39.062500
7948,-39.062500
7949,-39.062500
7950,-39.062500
7951,-39.062500
7952,-35.156250
7953,-35.156250
7954,-35.156250
7955,-35.156250
7956,-35.156250
7957,-31.250000
7958,-31.250000
7959,-31.250000
7960,-27.343750
7961,-27.343750
7962,-27.343750
7963,-27.343750
7964,-27.343750
7965,-27.343750
7966,-23.437500
7967,-23.437500
7968,-23.437500
7969,-23.437500
7970,-19.531250
7971,-19.531250
7972,-19.531250
7973,-19.531250
7974,-19.531250
7975,-15.625000
7976,-15.625000
7977,-15.625000
7978,-15.625000
7979,-15.625000
7980,-11.718750
7981,-11.718750
7982,-11.718750
7983,-11.718750
7984,-11.718750
7985,-7.812500
7986,-7.812500
7987,-7.812500
7988,-7.812500
7989,-3.906250
7990,-3.906250
7991,-3.906250
7992,-3.906250
7993,-3.906250
7994,-3.906250
7995,0.000000
7996,0.000000
7997,0.000000
7998,0.000000
7999,3.906250
8000,3.906250
8001,3.906250
8002,3.906250
8003,3.906250
8004,3.906250
8005,7.812500
8006,7.812500
8007,7.812500
8008,7.812500
8009,11.718750
8010,11.718750
8011,11.718750
8012,11.718750
8013,11.718750
8014,11.718750
8015,15.625000
8016,15.625000
8017,15.625000
8018,15.625000
8019,15.625000
8020,19.531250
8021,19.531250
8022,19.531250
8023,19.531250
8024,19.531250
8025,23.437500
8026,23.437500
8027,23.437500
8028,23.437500
8029,27.343750
8030,27.343750
8031,27.343750
8032,27.343750
8033,27.343750
8034,27.343750
8035,27.343750
8036,31.250000
8037,31.250000
8038,31.250000
8039,31.250000
8040,31.250000
8041,35.156250
8042,35.156250
8043,35.156250
8044,35.156250
8045,35.156250
8046,35.156250
8047,39.062500
8048,39.062500
8049,39.062500
8050,39.062500
8051,39.062500
8052,42.968750
8053,42.968750
8054,42.968750
8055,42.968750
8056,42.968750
8057,42.968750
8058,46.875000
8059,46.875000
8060,46.875000
8061,46.875000
8062,46.875000
8063,46.875000
8064,50.781250
8065,50.781250
8066,50.781250
8067,50.781250
8068,50.781250
8069,54.687500
8070,50.781250
8071,54.687500
8072,54.687500
8073,54.687500
8074,54.687500
8075,58.593750
8076,58.593750
8077,58.593750
8078,58.593750
8079,58.593750
8080,58.593750
8081,58.593750
8082,62.500000
8083,62.500000
8084,62.500000
8085,62.500000
8086,62.500000
8087,62.500000
8088,66.406250
8089,66.406250
8090,66.406250
8091,66.406250
8092,66.406250
8093,66.406250
8094,66.406250
8095,66.406250
8096,70.312500
8097,70.312500
8098,70.312500
8099,70.312500
8100,70.312500
8101,74.218750
8102,70.312500
8103,74.218750
8104,70.312500
8105,74.218750
8106,74.218750
8107,74.218750
8108,74.218750
8109,74.218750
8110,78.125000
8111,78.125000
8112,78.125000
8113,78.125000
8114,78.125000
8115,78.125000
8116,78.125000
8117,78.125000
8118,78.125000
8119,82.031250
8120,82.031250
8121,82.031250
8122,82.031250
8123,82.031250
8124,82.031250
8125,82.031250
8126,82.031250
8127,85.937500
8128,85.937500
8129,85.937500
8130,85.937500
8131,85.937500
8132,85.937500
8133,85.937500
8134,85.937500
8135,85.937500
8136,85.937500
8137,89.843750
8138,89.843750
8139,89.843750
8140,89.843750
8141,89.843750
8142,89.843750
8143,89.843750
8144,89.843750
8145,89.843750
8146,89.843750
8147,93.750000
8148,89.843750
8149,93.750000
8150,93.750000
8151,93.750000
8152,93.750000
8153,93.750000
8154,93.750000
8155,93.750000
8156,93.750000
8157,93.750000
8158,97.656250
8159,97.656250
8160,97.656250
8161,97.656250
8162,97.656250
8163,97.656250
8164,97.656250
8165,97.656250
8166,97.656250
8167,97.656250
8168,97.656250
8169,97.656250
8170,93.750000
8171,97.656250
8172,97.656250
8173,97.656250
8174,101.562500
8175,101.562500
8176,101.562500
8177,101.562500
8178,101.562500
8179,101.562500
8180,101.562500
8181,101.562500
8182,101.562500
8183,101.562500
8184,101.562500
8185,101.562500
8186,105.468750
8187,105.468750
8188,101.562500
8189,101.562500
8190,105.468750
8191,105.468750
8192,105.468750
8193,105.468750
8194,105.468750
8195,105.468750
8196,105.468750
8197,105.468750
8198,105.468750
8199,105.468750
8200,105.468750
8201,105.468750
8202,105.468750
8203,105.468750
8204,105.468750
8205,105.468750
8206,105.468750
8207,105.468750
8208,105.468750
8209,105.468750
8210,109.375000
8211,109.375000
8212,105.468750
8213,105.468750
8214,109.375000
8215,109.375000
8216,109.375000
8217,109.375000
8218,109.375000
8219,109.375000
8220,109.375000
8221,105.468750
8222,105.468750
8223,109.375000
8224,109.375000
8225,109.375000
8226,109.375000
8227,109.375000
8228,109.375000
8229,109.375000
8230,109.375000
8231,109.375000
8232,109.375000
8233,109.375000
8234,109.375000
8235,109.375000
8236,109.375000
8237,109.375000
8238,109.375000
8239,105.468750
8240,109.375000
8241,109.375000
8242,105.468750
8243,109.375000
8244,109.375000
8245,109.375000
8246,109.375000
8247,109.375000
8248,109.375000
8249,105.468750
8250,109.375000
8251,109.375000
8252,109.375000
8253,109.375000
8254,109.375000
8255,105.468750
8256,109.375000
8257,105.468750
8258,105.468750
8259,105.468750
8260,105.468750
8261,105.468750
8262,105.468750
8263,105.468750
8264,105.468750
8265,105.468750
8266,105.468750
8267,105.468750
8268,105.468750
8269,105.468750
8270,105.468750
8271,105.468750
8272,105.468750
8273,105.468750
8274,105.468750
8275,105.468750
8276,105.468750
8277,105.468750
8278,105.468750
8279,105.468750
8280,101.562500
8281,101.562500
8282,105.468750
8283,101.562500
8284,105.468750
8285,101.562500
8286,101.562500
8287,101.562500
8288,101.562500
8289,101.562500
8290,101.562500
8291,101.562500
8292,101.562500
8293,101.562500
8294,101.562500
8295,101.562500
8296,101.562500
8297,101.562500
8298,101.562500
8299,101.562500
8300,97.656250
8301,97.656250
8302,101.562500
8303,97.656250
8304,97.656250
8305,97.656250
8306,97.656250
8307,97.656250
8308,97.656250
8309,97.656250
8310,97.656250
8311,97.656250
8312,97.656250
8313,93.750000
8314,97.656250
8315,97.656250
8316,93.750000
8317,93.750000
8318,93.750000
8319,93.750000
8320,93.750000
8321,93.750000
8322,93.750000
8323,93.750000
8324,93.750000
8325,93.750000
8326,93.750000
8327,89.843750
8328,89.843750
8329,89.843750
8330,89.843750
8331,89.843750
8332,89.843750
8333,89.843750
8334,89.843750
8335,89.843750
8336,89.843750
8337,85.937500
8338,85.937500
8339,85.937500
8340,85.937500
8341,85.937500
8342,85.937500
8343,85.937500
8344,85.937500
8345,82.031250
8346,85.937500
8347,82.031250
8348,82.031250
8349,82.031250
8350,82.031250
8351,82.031250
8352,82.031250
8353,82.031250
8354,82.031250
8355,78.125000
8356,78.125000
8357,78.125000
8358,78.125000
8359,78.125000
8360,78.125000
8361,78.125000
8362,74.218750
8363,78.125000
8364,74.218750
8365,74.218750
8366,74.218750
8367,74.218750
8368,70.312500
8369,70.312500
8370,70.312500
8371,70.312500
8372,70.312500
8373,70.312500
8374,70.312500
8375,70.312500
8376,70.312500
8377,66.406250
8378,66.406250
8379,66.406250
8380,66.406250
8381,66.406250
8382,62.500000
8383,62.500000
8384,62.500000
8385,62.500000
8386,62.500000
8387,62.500000
8388,62.500000
8389,58.593750
8390,58.593750
8391,58.593750
8392,58.593750
8393,58.593750
8394,58.593750
8395,54.687500
8396,54.687500
8397,54.687500
8398,54.687500
8399,54.687500
8400,54.687500
8401,50.781250
8402,50.781250
8403,50.781250
8404,50.781250
8405,50.781250
8406,50.781250
8407,46.875000
8408,46.875000
8409,46.875000
8410,46.875000
8411,46.875000
8412,42.968750
8413,42.968750
8414,42.968750
8415,42.968750
8416,42.968750
8417,39.062500
8418,42.968750
8419,39.062500
8420,39.062500
8421,39.062500
8422,39.062500
8423,39.062500
8424,35.156250
8425,35.156250
8426,35.156250
8427,35.156250
8428,35.156250
8429,31.250000
8430,31.250000
8431,31.250000
8432,31.250000
8433,31.250000
8434,27.343750
8435,27.343750
8436,27.343750
8437,27.343750
8438,27.343750
8439,27.343750
8440,23.437500
8441,23.437500
8442,23.437500
8443,23.437500
8444,19.531250
8445,19.531250
8446,19.531250
8447,19.531250
8448,19.531250
8449,19.531250
8450,15.625000
8451,15.625000
8452,15.625000
8453,15.625000
8454,15.625000
8455,11.718750
8456,11.718750
8457,11.718750
8458,11.718750
8459,11.718750
8460,7.812500
8461,7.812500
8462,7.812500
8463,7.812500
8464,7.812500
8465,3.906250
8466,3.906250
8467,3.906250
8468,3.906250
8469,3.906250
8470,0.000000
8471,0.000000
8472,0.000000
8473,0.000000
8474,-3.906250
8475,-3.906250
8476,-3.906250
8477,-3.906250
8478,-7.812500
8479,-7.812500
8480,-7.812500
8481,-7.812500
8482,-7.812500
8483,-11.718750
8484,-11.718750
8485,-11.718750
8486,-11.718750
8487,-11.718750
8488,-15.625000
8489,-15.625000
8490,-15.625000
8491,-15.625000
8492,-19.531250
8493,-19.531250
8494,-19.531250
8495,-19.531250
8496,-19.531250
8497,-23.437500
8498,-23.437500
8499,-23.437500
8500,-23.437500
8501,-27.343750
8502,-27.343750
8503,-27.343750
8504,-27.343750
8505,-31.250000
8506,-31.250000
8507,-31.250000
8508,-31.250000
8509,-31.250000
8510,-35.156250
8511,-35.156250
8512,-35.156250
8513,-35.156250
8514,-35.156250
8515,-39.062500
8516,-39.062500
8517,-39.062500
8518,-39.062500
8519,-42.968750
8520,-42.968750
8521,-42.968750
8522,-42.968750
8523,-46.875000
8524,-46.875000
8525,-46.875000
8526,-46.875000
8527,-46.875000
8528,-50.781250
8529,-50.781250
8530,-50.781250
8531,-50.781250
8532,-50.781250
8533,-54.687500
8534,-54.687500
8535,-54.687500
8536,-54.687500
8537,-58.593750
8538,-58.593750
8539,-58.593750
8540,-58.593750
8541,-58.593750
8542,-62.500000
8543,-62.500000
8544,-62.500000
8545,-62.500000
8546,-62.500000
8547,-66.406250
8548,-66.406250
8549,-66.406250
8550,-66.406250
8551,-70.312500
8552,-70.312500
8553,-70.312500
8554,-70.312500
8555,-70.312500
8556,-70.312500
8557,-74.218750
8558,-74.218750
8559,-74.218750
8560,-74.218750
8561,-74.218750
8562,-78.125000
8563,-78.125000
8564,-78.125000
8565,-78.125000
8566,-78.125000
8567,-82.031250
8568,-82.031250
8569,-82.031250
8570,-82.031250
8571,-85.937500
8572,-85.937500
8573,-85.937500
8574,-85.937500
8575,-85.937500
8576,-85.937500
8577,-85.937500
8578,-89.843750
8579,-89.843750
8580,-89.843750
8581,-93.750000
8582,-89.843750
8583,-93.750000
8584,-93.750000
8585,-93.750000
8586,-93.750000
8587,-93.750000
8588,-97.656250
8589,-93.750000
8590,-97.656250
8591,-97.656250
8592,-97.656250
8593,-97.656250
8594,-101.562500
8595,-101.562500
8596,-101.562500
8597,-101.562500
8598,-101.562500
8599,-101.562500
8600,-105.468750
8601,-105.468750
8602,-105.468750
8603,-105.468750
8604,-105.468750
8605,-105.468750
8606,-109.375000
8607,-109.375000
8608,-109.375000
8609,-109.375000
8610,-109.375000
8611,-109.375000
8612,-113.281250
8613,-113.281250
8614,-113.281250
8615,-113.281250
8616,-113.281250
8617,-113.281250
8618,-113.281250
8619,-117.187500
8620,-117.187500
8621,-117.187500
8622,-117.187500
8623,-117.187500
8624,-117.187500
8625,-121.093750
8626,-121.093750
8627,-121.093750
8628,-121.093750
8629,-121.093750
8630,-121.093750
8631,-121.093750
8632,-125.000000
8633,-125.000000
8634,-125.000000
8635,-125.000000
8636,-125.000000
8637,-125.000000
8638,-125.000000
8639,-128.906250
8640,-128.906250
8641,-128.906250
8642,-128.906250
8643,-128.906250
8644,-128.906250
8645,-132.812500
8646,-128.906250
8647,-128.906250
8648,-132.812500
8649,-128.906250
8650,-132.812500
8651,-132.812500
8652,-132.812500
8653,-132.812500
8654,-132.812500
8655,-132.812500
8656,-136.718750
8657,-136.718750
8658,-136.718750
8659,-136.718750
8660,-136.718750
8661,-136.718750
8662,-136.718750
8663,-136.718750
8664,-136.718750
8665,-140.625000
8666,-140.625000
8667,-140.625000
8668,-140.625000
8669,-140.625000
8670,-140.625000
8671,-140.625000
8672,-140.625000
8673,-140.625000
8674,-140.625000
8675,-144.531250
8676,-144.531250
8677,-144.531250
8678,-144.531250
8679,-144.531250
8680,-144.531250
8681,-144.531250
8682,-144.531250
8683,-144.531250
8684,-144.531250
8685,-144.531250
8686,-144.531250
8687,-144.531250
8688,-144.531250
8689,-144.531250
8690,-144.531250
8691,-144.531250
8692,-144.531250
8693,-144.531250
8694,-148.437500
8695,-144.531250
8696,-144.531250
8697,-148.437500
8698,-148.437500
8699,-148.437500
8700,-148.437500
8701,-148.437500
8702,-148.437500
8703,-148.437500
8704,-148.437500
8705,-148.437500
8706,-148.437500
8707,-148.437500
8708,-148.437500
8709,-148.437500
8710,-148.437500
8711,-148.437500
8712,-148.437500
8713,-148.437500
8714,-148.437500
8715,-148.437500
8716,-148.437500
8717,-148.437500
8718,-148.437500
8719,-148.437500
8720,-148.437500
8721,-148.437500
8722,-148.437500
8723,-148.437500
8724,-148.437500
8725,-148.437500
8726,-148.437500
8727,-148.437500
8728,-148.437500
8729,-148.437500
8730,-148.437500
8731,-148.437500
8732,-148.437500
8733,-148.437500
8734,-148.437500
8735,-148.437500
8736,-148.437500
8737,-148.437500
8738,-148.437500
8739,-148.437500
8740,-148.437500
8741,-148.437500
8742,-148.437500
8743,-148.437500
8744,-148.437500
8745,-148.437500
8746,-148.437500
8747,-148.437500
8748,-148.437500
8749,-148.437500
8750,-148.437500
8751,-148.437500
8752,-148.437500
8753,-144.531250
8754,-144.531250
8755,-144.531250
8756,-144.531250
8757,-148.437500
8758,-144.531250
8759,-144.531250
8760,-144.531250
8761,-144.531250
8762,-144.531250
8763,-144.531250
8764,-144.531250
8765,-144.531250
8766,-144.531250
8767,-144.531250
8768,-144.531250
8769,-144.531250
8770,-140.625000
8771,-144.531250
8772,-144.531250
8773,-140.625000
8774,-140.625000
8775,-140.625000
8776,-140.625000
8777,-140.625000
8778,-140.625000
8779,-140.625000
8780,-140.625000
8781,-140.625000
8782,-140.625000
8783,-136.718750
8784,-140.625000
8785,-140.625000
8786,-136.718750
8787,-136.718750
8788,-136.718750
8789,-136.718750
8790,-136.718750
8791,-136.718750
8792,-136.718750
8793,-136.718750
8794,-136.718750
8795,-132.812500
8796,-132.812500
8797,-132.812500
8798,-132.812500
8799,-132.812500
8800,-132.812500
8801,-132.812500
8802,-132.812500
8803,-132.812500
8804,-132.812500
8805,-128.906250
8806,-128.906250
8807,-128.906250
8808,-128.906250
8809,-128.906250
8810,-128.906250
8811,-128.906250
8812,-128.906250
8813,-125.000000
8814,-125.000000
8815,-125.000000
8816,-125.000000
8817,-125.000000
8818,-125.000000
8819,-125.000000
8820,-125.000000
8821,-121.093750
8822,-121.093750
8823,-121.093750
8824,-121.093750
8825,-121.093750
8826,-121.093750
8827,-121.093750
8828,-117.187500
8829,-117.187500
8830,-117.187500
8831,-117.187500
8832,-117.187500
8833,-117.187500
8834,-113.281250
8835,-113.281250
8836,-113.281250
8837,-113.281250
8838,-113.281250
8839,-113.281250
8840,-113.281250
8841,-109.375000
8842,-109.375000
8843,-109.375000
8844,-109.375000
8845,-109.375000
8846,-105.468750
8847,-105.468750
8848,-105.468750
8849,-105.468750
8850,-105.468750
8851,-105.468750
8852,-101.562500
8853,-101.562500
8854,-101.562500
8855,-101.562500
8856,-101.562500
8857,-101.562500
8858,-101.562500
8859,-97.656250
8860,-97.656250
8861,-97.656250
8862,-97.656250
8863,-97.656250
8864,-93.750000
8865,-93.750000
8866,-93.750000
8867,-93.750000
8868,-93.750000
8869,-93.750000
8870,-89.843750
8871,-89.843750
8872,-89.843750
8873,-89.843750
8874,-89.843750
8875,-89.843750
8876,-85.937500
8877,-85.937500
8878,-85.937500
8879,-85.937500
8880,-82.031250
8881,-82.031250
8882,-82.031250
8883,-82.031250
8884,-82.031250
8885,-82.031250
8886,-78.125000
8887,-78.125000
8888,-78.125000
8889,-78.125000
8890,-78.125000
8891,-74.218750
8892,-74.218750
8893,-74.218750
8894,-74.218750
8895,-74.218750
8896,-70.312500
8897,-70.312500
8898,-70.312500
8899,-70.312500
8900,-70.312500
8901,-70.312500
8902,-66.406250
8903,-66.406250
8904,-66.406250
8905,-66.406250
8906,-62.500000
8907,-62.500000
8908,-62.500000
8909,-62.500000
8910,-62.500000
8911,-62.500000
8912,-58.593750
8913,-58.593750
8914,-58.593750
8915,-58.593750
8916,-54.687500
8917,-54.687500
8918,-54.687500
8919,-54.687500
8920,-54.687500
8921,-50.781250
8922,-50.781250
8923,-50.781250
8924,-50.781250
8925,-50.781250
8926,-46.875000
8927,-46.875000
8928,-46.875000
8929,-46.875000
8930,-46.875000
8931,-42.968750
8932,-42.968750
8933,-42.968750
8934,-42.968750
8935,-39.062500
8936,-39.062500
8937,-39.062500
8938,-39.062500
8939,-39.062500
8940,-35.156250
8941,-35.156250
8942,-35.156250
8943,-35.156250
8944,-35.156250
8945,-31.250000
8946,-31.250000
8947,-31.250000
8948,-31.250000
8949,-31.250000
8950,-27.343750
8951,-27.343750
8952,-27.343750
8953,-27.343750
8954,-23.437500
8955,-23.437500
8956,-23.437500
8957,-23.437500
8958,-23.437500
8959,-19.531250
8960,-19.531250
8961,-19.531250
8962,-19.531250
8963,-19.531250
8964,-15.625000
8965,-15.625000
8966,-15.625000
8967,-15.625000
8968,-15.625000
8969,-11.718750
8970,-11.718750
8971,-11.718750
8972,-11.718750
8973,-7.812500
8974,-7.812500
8975,-7.812500
8976,-7.812500
8977,-7.812500
8978,-3.906250
8979,-3.906250
8980,-3.906250
8981,-3.906250
8982,-3.906250
8983,-3.906250
8984,0.000000
8985,0.000000
8986,0.000000
8987,0.000000
8988,3.906250
8989,3.906250
8990,3.906250
8991,3.906250
8992,3.906250
8993,7.812500
8994,7.812500
8995,7.812500
8996,7.812500
8997,11.718750
8998,11.718750
8999,11.718750
9000,11.718750
9001,11.718750
9002,15.625000
9003,15.625000
9004,15.625000
9005,15.625000
9006,15.625000
9007,15.625000
9008,19.531250
9009,19.531250
9010,19.531250
9011,19.531250
9012,23.437500
9013,23.437500
9014,23.437500
9015,23.437500
9016,23.437500
9017,27.343750
9018,27.343750
9019,27.343750
9020,27.343750
9021,27.343750
9022,27.343750
9023,27.343750
9024,31.250000
9025,31.250000
9026,31.250000
9027,31.250000
9028,31.250000
9029,35.156250
9030,35.156250
9031,35.156250
9032,35.156250
9033,35.156250
9034,35.156250
9035,35.156250
9036,39.062500
9037,39.062500
9038,39.062500
9039,39.062500
9040,39.062500
9041,42.968750
9042,42.968750
9043,42.968750
9044,42.968750
9045,42.968750
9046,46.875000
9047,46.875000
9048,46.875000
9049,46.875000
9050,46.875000
9051,46.875000
9052,50.781250
9053,50.781250
9054,50.781250
9055,50.781250
9056,50.781250
9057,50.781250
9058,50.781250
9059,54.687500
9060,54.687500
9061,54.687500
9062,54.687500
9063,54.687500
9064,54.687500
9065,54.687500
9066,58.593750
9067,58.593750
9068,58.593750
9069,58.593750
9070,62.500000
9071,62.500000
9072,62.500000
9073,62.500000
9074,62.500000
9075,62.500000
9076,62.500000
9077,62.500000
9078,66.406250
9079,66.406250
9080,66.406250
9081,66.406250
9082,66.406250
9083,66.406250
9084,70.312500
9085,66.406250
9086,70.312500
9087,70.312500
9088,70.312500
9089,70.312500
9090,70.312500
9091,70.312500
9092,74.218750
9093,74.218750
9094,74.218750
9095,74.218750
9096,74.218750
9097,74.218750
9098,74.218750
9099,74.218750
9100,74.218750
9101,78.125000
9102,78.125000
9103,78.125000
9104,78.125000
9105,78.125000
9106,78.125000
9107,82.031250
9108,82.031250
9109,78.125000
9110,82.031250
9111,82.031250
9112,82.031250
9113,82.031250
9114,82.031250
9115,82.031250
9116,85.937500
9117,85.937500
9118,85.937500
9119,85.937500
9120,85.937500
9121,85.937500
9122,85.937500
9123,85.937500
9124,85.937500
9125,85.937500
9126,89.843750
9127,89.843750
9128,89.843750
9129,89.843750
9130,89.843750
9131,89.843750
9132,89.843750
9133,89.843750
9134,89.843750
9135,89.843750
9136,89.843750
9137,93.750000
9138,93.750000
9139,93.750000
9140,93.750000
9141,93.750000
9142,93.750000
9143,93.750000
9144,93.750000
9145,93.750000
9146,93.750000
9147,93.750000
9148,97.656250
9149,97.656250
9150,97.656250
9151,97.656250
9152,97.656250
9153,97.656250
9154,97.656250
9155,97.656250
9156,97.656250
9157,97.656250
9158,97.656250
9159,97.656250
9160,97.656250
9161,101.562500
9162,97.656250
9163,101.562500
9164,101.562500
9165,101.562500
9166,101.562500
9167,101.562500
9168,101.562500
9169,101.562500
9170,101.562500
9171,101.562500
9172,101.562500
9173,101.562500
9174,101.562500
9175,101.562500
9176,101.562500
9177,101.562500
9178,105.468750
9179,101.562500
9180,105.468750
9181,101.562500
9182,105.468750
9183,101.562500
9184,105.468750
9185,105.468750
9186,105.468750
9187,105.468750
9188,105.468750
9189,105.468750
9190,105.468750
9191,105.468750
9192,105.468750
9193,105.468750
9194,105.468750
9195,105.468750
9196,105.468750
9197,105.468750
9198,105.468750
9199,105.468750
9200,105.468750
9201,105.468750
9202,105.468750
9203,105.468750
9204,105.468750
9205,105.468750
9206,105.468750
9207,105.468750
9208,105.468750
9209,105.468750
9210,109.375000
9211,105.468750
9212,105.468750
9213,109.375000
9214,109.375000
9215,109.375000
9216,109.375000
9217,105.468750
9218,109.375000
9219,109.375000
9220,109.375000
9221,109.375000
9222,109.375000
9223,109.375000
9224,109.375000
9225,109.375000
9226,109.375000
9227,109.375000
9228,109.375000
9229,109.375000
9230,109.375000
9231,109.375000
9232,109.375000
9233,109.375000
9234,109.375000
9235,109.375000
9236,109.375000
9237,109.375000
9238,105.468750
9239,109.375000
9240,109.375000
9241,109.375000
9242,109.375000
9243,109.375000
9244,105.468750
9245,109.375000
9246,109.375000
9247,109.375000
9248,105.468750
9249,105.468750
9250,105.468750
9251,105.468750
9252,109.375000
9253,105.468750
9254,109.375000
9255,105.468750
9256,105.468750
9257,105.468750
9258,105.468750
9259,105.468750
9260,105.468750
9261,105.468750
9262,105.468750
9263,105.468750
9264,105.468750
9265,105.468750
9266,105.468750
9267,105.468750
9268,105.468750
9269,105.468750
9270,105.468750
9271,105.468750
9272,105.468750
9273,105.468750
9274,105.468750
9275,105.468750
9276,101.562500
9277,101.562500
9278,101.562500
9279,101.562500
9280,101.562500
9281,101.562500
9282,101.562500
9283,101.562500
9284,101.562500
9285,101.562500
9286,101.562500
9287,101.562500
9288,101.562500
9289,97.656250
9290,101.562500
9291,97.656250
9292,97.656250
9293,97.656250
9294,97.656250
9295,97.656250
9296,97.656250
9297,97.656250
9298,97.656250
9299,97.656250
9300,97.656250
9301,97.656250
9302,97.656250
9303,97.656250
9304,97.656250
9305,93.750000
9306,93.750000
9307,93.750000
9308,93.750000
9309,93.750000
9310,93.750000
9311,93.750000
9312,93.750000
9313,89.843750
9314,89.843750
9315,89.843750
9316,89.843750
9317,89.843750
9318,89.843750
9319,89.843750
9320,89.843750
9321,89.843750
9322,89.843750
9323,89.843750
9324,89.843750
9325,85.937500
9326,85.937500
9327,85.937500
9328,85.937500
9329,85.937500
9330,85.937500
9331,85.937500
9332,85.937500
9333,82.031250
9334,85.937500
9335,82.031250
9336,82.031250
9337,82.031250
9338,82.031250
9339,82.031250
9340,82.031250
9341,82.031250
9342,82.031250
9343,78.125000
9344,78.125000
9345,78.125000
9346,78.125000
9347,78.125000
9348,78.125000
9349,78.125000
9350,78.125000
9351,74.218750
9352,78.125000
9353,74.218750
9354,74.218750
9355,74.218750
9356,74.218750
9357,70.312500
9358,70.312500
9359,70.312500
9360,70.312500
9361,70.312500
9362,70.312500
9363,70.312500
9364,70.312500
9365,70.312500
9366,66.406250
9367,66.406250
9368,66.406250
9369,66.406250
9370,66.406250
9371,66.406250
9372,66.406250
9373,62.500000
9374,62.500000
9375,62.500000
9376,62.500000
9377,62.500000
9378,62.500000
9379,58.593750
9380,58.593750
9381,58.593750
9382,58.593750
9383,58.593750
9384,58.593750
9385,54.687500
9386,54.687500
9387,54.687500
9388,54.687500
9389,54.687500
9390,54.687500
9391,50.781250
9392,50.781250
9393,50.781250
9394,50.781250
9395,50.781250
9396,46.875000
9397,46.875000
9398,46.875000
9399,46.875000
9400,42.968750
9401,46.875000
9402,46.875000
9403,42.968750
9404,42.968750
9405,42.968750
9406,42.968750
9407,42.968750
9408,39.062500
9409,39.062500
9410,39.062500
9411,39.062500
9412,39.062500
9413,35.156250
9414,35.156250
9415,35.156250
9416,35.156250
9417,35.156250
9418,31.250000
9419,31.250000
9420,31.250000
9421,31.250000
9422,27.343750
9423,27.343750
9424,27.343750
9425,27.343750
9426,27.343750
9427,27.343750
9428,27.343750
9429,23.437500
9430,23.437500
9431,23.437500
9432,23.437500
9433,19.531250
9434,19.531250
9435,19.531250
9436,19.531250
9437,19.531250
9438,15.625000
9439,15.625000
9440,15.625000
9441,15.625000
9442,11.718750
9443,11.718750
9444,11.718750
9445,11.718750
9446,11.718750
9447,11.718750
9448,7.812500
9449,7.812500
9450,7.812500
9451,7.812500
9452,3.906250
9453,3.906250
9454,3.906250
9455,3.906250
9456,3.906250
9457,0.000000
9458,0.000000
9459,0.000000
9460,0.000000
9461,0.000000
9462,0.000000
9463,-3.906250
9464,-3.906250
9465,-3.906250
9466,-3.906250
9467,-3.906250
9468,-7.812500
9469,-7.812500
9470,-7.812500
9471,-11.718750
9472,-11.718750
9473,-11.718750
9474,-11.718750
9475,-11.718750
9476,-11.718750
9477,-15.625000
9478,-15.625000
9479,-15.625000
9480,-15.625000
9481,-19.531250
9482,-19.531250
9483,-19.531250
9484,-19.531250
9485,-19.531250
9486,-23.437500
9487,-23.437500
9488,-23.437500
9489,-23.437500
9490,-27.343750
9491,-27.343750
9492,-27.343750
9493,-27.343750
9494,-27.343750
9495,-31.250000
9496,-31.250000
9497,-31.250000
9498,-31.250000
9499,-31.250000
9500,-35.156250
9501,-35.156250
9502,-35.156250
9503,-35.156250
9504,-39.062500
9505,-39.062500
9506,-39.062500
9507,-39.062500
9508,-39.062500
9509,-42.968750
9510,-42.968750
9511,-42.968750
9512,-42.968750
9513,-46.875000
9514,-46.875000
9515,-46.875000
9516,-46.875000
9517,-46.875000
9518,-46.875000
9519,-50.781250
9520,-50.781250
9521,-50.781250
9522,-54.687500
9523,-54.687500
9524,-54.687500
9525,-54.687500
9526,-54.687500
9527,-54.687500
9528,-58.593750
9529,-58.593750
9530,-58.593750
9531,-58.593750
9532,-62.500000
9533,-62.500000
9534,-62.500000
9535,-62.500000
9536,-62.500000
9537,-66.406250
9538,-66.406250
9539,-66.406250
9540,-66.406250
9541,-70.312500
9542,-70.312500
9543,-70.312500
9544,-70.312500
9545,-70.312500
9546,-70.312500
9547,-74.218750
9548,-74.218750
9549,-74.218750
9550,-74.218750
9551,-78.125000
9552,-78.125000
9553,-78.125000
9554,-78.125000
9555,-78.125000
9556,-82.031250
9557,-82.031250
9558,-82.031250
9559,-82.031250
9560,-82.031250
9561,-85.937500
9562,-85.937500
9563,-85.937500
9564,-85.937500
9565,-85.937500
9566,-85.937500
9567,-89.843750
9568,-89.843750
9569,-89.843750
9570,-89.843750
9571,-89.843750
9572,-93.750000
9573,-93.750000
9574,-93.750000
9575,-93.750000
9576,-93.750000
9577,-93.750000
9578,-97.656250
9579,-97.656250
9580,-97.656250
9581,-97.656250
9582,-97.656250
9583,-97.656250
9584,-101.562500
9585,-101.562500
9586,-101.562500
9587,-101.562500
9588,-105.468750
9589,-105.468750
9590,-105.468750
9591,-105.468750
9592,-105.468750
9593,-105.468750
9594,-105.468750
9595,-105.468750
9596,-109.375000
9597,-109.375000
9598,-109.375000
9599,-109.375000
9600,-109.375000
9601,-113.281250
9602,-113.281250
9603,-113.281250
9604,-113.281250
9605,-113.281250
9606,-113.281250
9607,-113.281250
9608,-117.187500
9609,-117.187500
9610,-117.187500
9611,-117.187500
9612,-117.187500
9613,-117.187500
9614,-117.187500
9615,-121.093750
9616,-121.093750
9617,-121.093750
9618,-121.093750
9619,-121.093750
9620,-121.093750
9621,-125.000000
9622,-125.000000
9623,-125.000000
9624,-125.000000
9625,-125.000000
9626,-125.000000
9627,-125.000000
9628,-125.000000
9629,-125.000000
9630,-128.906250
9631,-128.906250
9632,-128.906250
9633,-128.906250
9634,-128.906250
9635,-128.906250
9636,-128.906250
9637,-128.906250
9638,-132.812500
9639,-132.812500
9640,-132.812500
9641,-132.812500
9642,-132.812500
9643,-132.812500
9644,-132.812500
9645,-132.812500
9646,-132.812500
9647,-136.718750
9648,-132.812500
9649,-136.718750
9650,-136.718750
9651,-136.718750
9652,-136.718750
9653,-136.718750
9654,-136.718750
9655,-136.718750
9656,-136.718750
9657,-136.718750
9658,-140.625000
9659,-140.625000
9660,-140.625000
9661,-140.625000
9662,-140.625000
9663,-140.625000
9664,-140.625000
9665,-140.625000
9666,-140.625000
9667,-140.625000
9668,-140.625000
9669,-144.531250
9670,-140.625000
9671,-144.531250
9672,-144.531250
9673,-144.531250
9674,-144.531250
9675,-144.531250
9676,-144.531250
9677,-144.531250
9678,-144.531250
9679,-144.531250
9680,-144.531250
9681,-144.531250
9682,-144.531250
9683,-144.531250
9684,-148.437500
9685,-144.531250
9686,-144.531250
9687,-144.531250
9688,-144.531250
9689,-144.531250
9690,-144.531250
9691,-144.531250
9692,-144.531250
9693,-144.531250
9694,-148.437500
9695,-148.437500
9696,-148.437500
9697,-148.437500
9698,-148.437500
9699,-148.437500
9700,-148.437500
9701,-148.437500
9702,-148.437500
9703,-148.437500
9704,-148.437500
9705,-148.437500
9706,-148.437500
9707,-148.437500
9708,-148.437500
9709,-148.437500
9710,-148.437500
9711,-148.437500
9712,-148.437500
9713,-148.437500
9714,-148.437500
9715,-148.437500
9716,-148.437500
9717,-148.437500
9718,-148.437500
9719,-152.343750
9720,-148.437500
9721,-148.437500
9722,-144.531250
9723,-148.437500
9724,-148.437500
9725,-148.437500
9726,-148.437500
9727,-148.437500
9728,-148.437500
9729,-148.437500
9730,-148.437500
9731,-148.437500
9732,-148.437500
9733,-148.437500
9734,-148.437500
9735,-148.437500
9736,-148.437500
9737,-148.437500
9738,-144.531250
9739,-148.437500
9740,-144.531250
9741,-148.437500
9742,-144.531250
9743,-144.531250
9744,-144.531250
9745,-144.531250
9746,-144.531250
9747,-144.531250
9748,-144.531250
9749,-144.531250
9750,-144.531250
9751,-144.531250
9752,-144.531250
9753,-144.531250
9754,-144.531250
9755,-144.531250
9756,-144.531250
9757,-144.531250
9758,-140.625000
9759,-140.625000
9760,-144.531250
9761,-144.531250
9762,-140.625000
9763,-140.625000
9764,-140.625000
9765,-140.625000
9766,-140.625000
9767,-140.625000
9768,-140.625000
9769,-140.625000
9770,-136.718750
9771,-136.718750
9772,-136.718750
9773,-136.718750
9774,-136.718750
9775,-136.718750
9776,-136.718750
9777,-136.718750
9778,-136.718750
9779,-136.718750
9780,-136.718750
9781,-136.718750
9782,-136.718750
9783,-132.812500
9784,-132.812500
9785,-132.812500
9786,-132.812500
9787,-132.812500
9788,-132.812500
9789,-132.812500
9790,-128.906250
9791,-132.812500
9792,-128.906250
9793,-128.906250
9794,-128.906250
9795,-128.906250
9796,-128.906250
9797,-128.906250
9798,-128.906250
9799,-128.906250
9800,-125.000000
9801,-125.000000
9802,-125.000000
9803,-125.000000
9804,-125.000000
9805,-125.000000
9806,-125.000000
9807,-125.000000
9808,-125.000000
9809,-121.093750
9810,-121.093750
9811,-121.093750
9812,-121.093750
9813,-121.093750
9814,-121.093750
9815,-121.093750
9816,-117.187500
9817,-117.187500
9818,-117.187500
9819,-117.187500
9820,-113.281250
9821,-117.187500
9822,-117.187500
9823,-117.187500
9824,-113.281250
9825,-113.281250
9826,-109.375000
9827,-113.281250
9828,-113.281250
9829,-109.375000
9830,-109.375000
9831,-109.375000
9832,-109.375000
9833,-109.375000
9834,-109.375000
9835,-109.375000
9836,-105.468750
9837,-105.468750
9838,-105.468750
9839,-105.468750
9840,-105.468750
9841,-105.468750
9842,-101.562500
9843,-101.562500
9844,-101.562500
9845,-101.562500
9846,-101.562500
9847,-97.656250
9848,-97.656250
9849,-97.656250
9850,-97.656250
9851,-97.656250
9852,-97.656250
9853,-93.750000
9854,-93.750000
9855,-93.750000
9856,-93.750000
9857,-93.750000
9858,-89.843750
9859,-89.843750
9860,-89.843750
9861,-89.843750
9862,-89.843750
9863,-89.843750
9864,-85.937500
9865,-85.937500
9866,-85.937500
9867,-85.937500
9868,-85.937500
9869,-85.937500
9870,-82.031250
9871,-82.031250
9872,-82.031250
9873,-82.031250
9874,-82.031250
9875,-78.125000
9876,-78.125000
9877,-78.125000
9878,-78.125000
9879,-78.125000
9880,-74.218750
9881,-74.218750
9882,-74.218750
9883,-74.218750
9884,-70.312500
9885,-70.312500
9886,-70.312500
9887,-70.312500
9888,-70.312500
9889,-70.312500
9890,-66.406250
9891,-66.406250
9892,-66.406250
9893,-66.406250
9894,-62.500000
9895,-62.500000
9896,-62.500000
9897,-62.500000
9898,-62.500000
9899,-62.500000
9900,-58.593750
9901,-58.593750
9902,-58.593750
9903,-58.593750
9904,-58.593750
9905,-54.687500
9906,-54.687500
9907,-54.687500
9908,-54.687500
9909,-54.687500
9910,-50.781250
9911,-50.781250
9912,-50.781250
9913,-50.781250
9914,-50.781250
9915,-46.875000
9916,-46.875000
9917,-46.875000
9918,-46.875000
9919,-46.875000
9920,-46.875000
9921,-42.968750
9922,-42.968750
9923,-42.968750
9924,-39.062500
9925,-39.062500
9926,-39.062500
9927,-39.062500
9928,-35.156250
9929,-35.156250
9930,-35.156250
9931,-35.156250
9932,-35.156250
9933,-35.156250
9934,-31.250000
9935,-31.250000
9936,-31.250000
9937,-31.250000
9938,-27.343750
9939,-27.343750
9940,-27.343750
9941,-27.343750
9942,-27.343750
9943,-27.343750
9944,-23.437500
9945,-23.437500
9946,-23.437500
9947,-23.437500
9948,-19.531250
9949,-19.531250
9950,-19.531250
9951,-19.531250
9952,-15.625000
9953,-15.625000
9954,-15.625000
9955,-15.625000
9956,-15.625000
9957,-15.625000
9958,-11.718750
9959,-11.718750
9960,-11.718750
9961,-11.718750
9962,-11.718750
9963,-7.812500
9964,-7.812500
9965,-7.812500
9966,-7.812500
9967,-7.812500
9968,-3.906250
9969,-3.906250
9970,-3.906250
9971,-3.906250
9972,0.000000
9973,0.000000
9974,0.000000
9975,0.000000
9976,0.000000
9977,0.000000
9978,3.906250
9979,3.906250
9980,3.906250
9981,3.906250
9982,7.812500
9983,7.812500
9984,7.812500
9985,7.812500
9986,7.812500
9987,7.812500
9988,11.718750
9989,11.718750
9990,11.718750
9991,11.718750
9992,11.718750
9993,15.625000
9994,15.625000
9995,15.625000
9996,15.625000
9997,15.625000
9998,19.531250
9999,19.531250
10000,19.531250
