Channel              :,CH1
Frequency            :,1.012kHz
Period               :,0.989ms
PK-PK                :,175.8mV
Probe attenuation    :,1X
Voltage per ADC value:,0.244141mV
Time interval        :,1.00000us

index,CH1_Voltage(mV)
1,-50.781250
2,-50.781250
3,-50.781250
4,-50.781250
5,-50.781250
6,-46.875000
7,-46.875000
8,-46.875000
9,-46.875000
10,-46.875000
11,-46.875000
12,-42.968750
13,-42.968750
14,-42.968750
15,-42.968750
16,-42.968750
17,-42.968750
18,-42.968750
19,-42.968750
20,-39.062500
21,-39.062500
22,-39.062500
23,-39.062500
24,-39.062500
25,-39.062500
26,-39.062500
27,-35.156250
28,-35.156250
29,-35.156250
30,-35.156250
31,-35.156250
32,-35.156250
33,-35.156250
34,-31.250000
35,-31.250000
36,-31.250000
37,-31.250000
38,-31.250000
39,-31.250000
40,-31.250000
41,-31.250000
42,-27.343750
43,-27.343750
44,-27.343750
45,-27.343750
46,-27.343750
47,-27.343750
48,-23.437500
49,-27.343750
50,-23.437500
51,-23.437500
52,-23.437500
53,-23.437500
54,-23.437500
55,-23.437500
56,-23.437500
57,-19.531250
58,-19.531250
59,-19.531250
60,-19.531250
61,-19.531250
62,-19.531250
63,-15.625000
64,-15.625000
65,-19.531250
66,-15.625000
67,-15.625000
68,-15.625000
69,-15.625000
70,-15.625000
71,-11.718750
72,-11.718750
73,-11.718750
74,-11.718750
75,-11.718750
76,-11.718750
77,-7.812500
78,-7.812500
79,-7.812500
80,-7.812500
81,-7.812500
82,-7.812500
83,-7.812500
84,-7.812500
85,-3.906250
86,-3.906250
87,-3.906250
88,-3.906250
89,-3.906250
90,-3.906250
91,-3.906250
92,0.000000
93,0.000000
94,0.000000
95,0.000000
96,0.000000
97,0.000000
98,3.906250
99,0.000000
100,3.906250
101,3.906250
102,3.906250
103,3.906250
104,3.906250
105,3.906250
106,7.812500
107,7.812500
108,7.812500
109,7.812500
110,7.812500
111,7.812500
112,7.812500
113,7.812500
114,7.812500
115,11.718750
116,11.718750
117,11.718750
118,11.718750
119,11.718750
120,15.625000
121,15.625000
122,15.625000
123,15.625000
124,15.625000
125,15.625000
126,19.531250
127,15.625000
128,15.625000
129,19.531250
130,15.625000
131,19.531250
132,19.531250
133,19.531250
134,19.531250
135,19.531250
136,19.531250
137,19.531250
138,23.437500
139,23.437500
140,23.437500
141,23.437500
142,23.437500
143,23.437500
144,23.437500
145,27.343750
146,27.343750
147,27.343750
148,27.343750
149,27.343750
150,27.343750
151,27.343750
152,27.343750
153,27.343750
154,27.343750
155,31.250000
156,31.250000
157,31.250000
158,31.250000
159,31.250000
160,31.250000
161,35.156250
162,35.156250
163,35.156250
164,35.156250
165,35.156250
166,35.156250
167,35.156250
168,35.156250
169,35.156250
170,39.062500
171,35.156250
172,39.062500
173,39.062500
174,39.062500
175,39.062500
176,39.062500
177,39.062500
178,39.062500
179,39.062500
180,42.968750
181,42.968750
182,42.968750
183,42.968750
184,42.968750
185,42.968750
186,42.968750
187,42.968750
188,42.968750
189,42.968750
190,46.875000
191,46.875000
192,46.875000
193,46.875000
194,46.875000
195,46.875000
196,46.875000
197,46.875000
198,46.875000
199,46.875000
200,46.875000
201,50.781250
202,46.875000
203,50.781250
204,50.781250
205,50.781250
206,50.781250
207,50.781250
208,50.781250
209,50.781250
210,50.781250
211,50.781250
212,50.781250
213,54.687500
214,54.687500
215,54.687500
216,54.687500
217,54.687500
218,54.687500
219,54.687500
220,54.687500
221,54.687500
222,54.687500
223,54.687500
224,58.593750
225,58.593750
226,58.593750
227,58.593750
228,58.593750
229,58.593750
230,58.593750
231,58.593750
232,58.593750
233,58.593750
234,58.593750
235,58.593750
236,58.593750
237,58.593750
238,58.593750
239,58.593750
240,62.500000
241,62.500000
242,62.500000
243,62.500000
244,62.500000
245,62.500000
246,62.500000
247,62.500000
248,62.500000
249,62.500000
250,62.500000
251,62.500000
252,62.500000
253,62.500000
254,62.500000
255,62.500000
256,66.406250
257,66.406250
258,66.406250
259,66.406250
260,66.406250
261,66.406250
262,66.406250
263,66.406250
264,66.406250
265,66.406250
266,66.406250
267,66.406250
268,66.406250
269,66.406250
270,66.406250
271,66.406250
272,66.406250
273,66.406250
274,66.406250
275,66.406250
276,66.406250
277,66.406250
278,66.406250
279,66.406250
280,70.312500
281,70.312500
282,70.312500
283,70.312500
284,70.312500
285,70.312500
286,70.312500
287,70.312500
288,70.312500
289,70.312500
290,70.312500
291,70.312500
292,70.312500
293,70.312500
294,70.312500
295,70.312500
296,70.312500
297,70.312500
298,70.312500
299,70.312500
300,70.312500
301,70.312500
302,70.312500
303,70.312500
304,70.312500
305,70.312500
306,70.312500
307,70.312500
308,70.312500
309,70.312500
310,70.312500
311,70.312500
312,70.312500
313,70.312500
314,70.312500
315,70.312500
316,70.312500
317,70.312500
318,70.312500
319,70.312500
320,70.312500
321,70.312500
322,70.312500
323,70.312500
324,70.312500
325,70.312500
326,70.312500
327,70.312500
328,70.312500
329,70.312500
330,70.312500
331,70.312500
332,70.312500
333,70.312500
334,70.312500
335,70.312500
336,70.312500
337,70.312500
338,70.312500
339,70.312500
340,70.312500
341,70.312500
342,70.312500
343,70.312500
344,70.312500
345,70.312500
346,70.312500
347,70.312500
348,70.312500
349,70.312500
350,70.312500
351,70.312500
352,70.312500
353,70.312500
354,70.312500
355,70.312500
356,70.312500
357,70.312500
358,70.312500
359,70.312500
360,70.312500
361,66.406250
362,66.406250
363,66.406250
364,66.406250
365,66.406250
366,66.406250
367,66.406250
368,70.312500
369,66.406250
370,66.406250
371,66.406250
372,66.406250
373,66.406250
374,66.406250
375,66.406250
376,66.406250
377,66.406250
378,66.406250
379,66.406250
380,66.406250
381,66.406250
382,66.406250
383,66.406250
384,66.406250
385,66.406250
386,66.406250
387,66.406250
388,62.500000
389,62.500000
390,66.406250
391,62.500000
392,62.500000
393,62.500000
394,62.500000
395,62.500000
396,62.500000
397,62.500000
398,62.500000
399,62.500000
400,62.500000
401,62.500000
402,62.500000
403,62.500000
404,62.500000
405,58.593750
406,62.500000
407,58.593750
408,58.593750
409,58.593750
410,58.593750
411,58.593750
412,58.593750
413,58.593750
414,58.593750
415,58.593750
416,58.593750
417,58.593750
418,58.593750
419,58.593750
420,54.687500
421,54.687500
422,54.687500
423,54.687500
424,54.687500
425,54.687500
426,54.687500
427,54.687500
428,54.687500
429,54.687500
430,54.687500
431,50.781250
432,50.781250
433,50.781250
434,50.781250
435,50.781250
436,50.781250
437,50.781250
438,50.781250
439,50.781250
440,50.781250
441,50.781250
442,50.781250
443,50.781250
444,50.781250
445,46.875000
446,46.875000
447,46.875000
448,46.875000
449,46.875000
450,46.875000
451,46.875000
452,46.875000
453,46.875000
454,46.875000
455,46.875000
456,42.968750
457,42.968750
458,42.968750
459,42.968750
460,42.968750
461,42.968750
462,42.968750
463,42.968750
464,42.968750
465,42.968750
466,39.062500
467,39.062500
468,39.062500
469,39.062500
470,39.062500
471,39.062500
472,39.062500
473,39.062500
474,39.062500
475,35.156250
476,35.156250
477,35.156250
478,35.156250
479,35.156250
480,35.156250
481,35.156250
482,35.156250
483,35.156250
484,35.156250
485,31.250000
486,31.250000
487,31.250000
488,31.250000
489,31.250000
490,31.250000
491,31.250000
492,27.343750
493,27.343750
494,27.343750
495,27.343750
496,27.343750
497,27.343750
498,27.343750
499,23.437500
500,23.437500
501,23.437500
502,23.437500
503,23.437500
504,23.437500
505,23.437500
506,23.437500
507,23.437500
508,23.437500
509,23.437500
510,19.531250
511,19.531250
512,19.531250
513,19.531250
514,19.531250
515,19.531250
516,19.531250
517,19.531250
518,15.625000
519,15.625000
520,15.625000
521,15.625000
522,15.625000
523,15.625000
524,15.625000
525,11.718750
526,11.718750
527,11.718750
528,11.718750
529,11.718750
530,11.718750
531,11.718750
532,11.718750
533,7.812500
534,7.812500
535,7.812500
536,7.812500
537,7.812500
538,7.812500
539,7.812500
540,7.812500
541,3.906250
542,7.812500
543,3.906250
544,3.906250
545,3.906250
546,3.906250
547,3.906250
548,0.000000
549,0.000000
550,0.000000
551,0.000000
552,0.000000
553,0.000000
554,0.000000
555,-3.906250
556,-3.906250
557,-3.906250
558,-3.906250
559,-3.906250
560,-3.906250
561,-3.906250
562,-3.906250
563,-7.812500
564,-7.812500
565,-7.812500
566,-7.812500
567,-7.812500
568,-7.812500
569,-7.812500
570,-11.718750
571,-11.718750
572,-11.718750
573,-11.718750
574,-11.718750
575,-11.718750
576,-11.718750
577,-15.625000
578,-15.625000
579,-15.625000
580,-15.625000
581,-15.625000
582,-15.625000
583,-15.625000
584,-15.625000
585,-19.531250
586,-19.531250
587,-19.531250
588,-19.531250
589,-19.531250
590,-23.437500
591,-23.437500
592,-23.437500
593,-23.437500
594,-23.437500
595,-23.437500
596,-27.343750
597,-27.343750
598,-27.343750
599,-27.343750
600,-27.343750
601,-27.343750
602,-27.343750
603,-27.343750
604,-27.343750
605,-31.250000
606,-31.250000
607,-31.250000
608,-31.250000
609,-31.250000
610,-31.250000
611,-35.156250
612,-35.156250
613,-35.156250
614,-35.156250
615,-35.156250
616,-35.156250
617,-35.156250
618,-39.062500
619,-39.062500
620,-39.062500
621,-39.062500
622,-39.062500
623,-39.062500
624,-39.062500
625,-39.062500
626,-42.968750
627,-42.968750
628,-42.968750
629,-42.968750
630,-42.968750
631,-42.968750
632,-42.968750
633,-46.875000
634,-46.875000
635,-46.875000
636,-46.875000
637,-46.875000
638,-46.875000
639,-46.875000
640,-50.781250
641,-50.781250
642,-50.781250
643,-50.781250
644,-50.781250
645,-50.781250
646,-50.781250
647,-50.781250
648,-50.781250
649,-54.687500
650,-54.687500
651,-54.687500
652,-54.687500
653,-54.687500
654,-54.687500
655,-54.687500
656,-54.687500
657,-58.593750
658,-58.593750
659,-58.593750
660,-58.593750
661,-58.593750
662,-58.593750
663,-58.593750
664,-62.500000
665,-58.593750
666,-62.500000
667,-62.500000
668,-62.500000
669,-62.500000
670,-62.500000
671,-62.500000
672,-62.500000
673,-62.500000
674,-66.406250
675,-66.406250
676,-66.406250
677,-66.406250
678,-66.406250
679,-66.406250
680,-66.406250
681,-70.312500
682,-70.312500
683,-70.312500
684,-70.312500
685,-70.312500
686,-70.312500
687,-70.312500
688,-70.312500
689,-70.312500
690,-74.218750
691,-74.218750
692,-74.218750
693,-74.218750
694,-74.218750
695,-74.218750
696,-74.218750
697,-74.218750
698,-74.218750
699,-74.218750
700,-78.125000
701,-78.125000
702,-78.125000
703,-78.125000
704,-78.125000
705,-78.125000
706,-78.125000
707,-78.125000
708,-78.125000
709,-78.125000
710,-78.125000
711,-82.031250
712,-82.031250
713,-82.031250
714,-82.031250
715,-82.031250
716,-82.031250
717,-82.031250
718,-82.031250
719,-82.031250
720,-82.031250
721,-82.031250
722,-85.937500
723,-82.031250
724,-85.937500
725,-85.937500
726,-85.937500
727,-85.937500
728,-85.937500
729,-85.937500
730,-85.937500
731,-85.937500
732,-89.843750
733,-89.843750
734,-89.843750
735,-89.843750
736,-89.843750
737,-89.843750
738,-89.843750
739,-89.843750
740,-89.843750
741,-89.843750
742,-89.843750
743,-89.843750
744,-89.843750
745,-89.843750
746,-93.750000
747,-93.750000
748,-89.843750
749,-93.750000
750,-93.750000
751,-93.750000
752,-93.750000
753,-93.750000
754,-93.750000
755,-93.750000
756,-93.750000
757,-93.750000
758,-93.750000
759,-93.750000
760,-93.750000
761,-93.750000
762,-93.750000
763,-97.656250
764,-93.750000
765,-97.656250
766,-97.656250
767,-97.656250
768,-97.656250
769,-97.656250
770,-97.656250
771,-97.656250
772,-97.656250
773,-97.656250
774,-97.656250
775,-97.656250
776,-97.656250
777,-97.656250
778,-97.656250
779,-97.656250
780,-97.656250
781,-97.656250
782,-97.656250
783,-97.656250
784,-97.656250
785,-97.656250
786,-97.656250
787,-97.656250
788,-97.656250
789,-97.656250
790,-97.656250
791,-97.656250
792,-97.656250
793,-97.656250
794,-101.562500
795,-101.562500
796,-101.562500
797,-101.562500
798,-101.562500
799,-101.562500
800,-97.656250
801,-101.562500
802,-101.562500
803,-101.562500
804,-101.562500
805,-101.562500
806,-101.562500
807,-101.562500
808,-101.562500
809,-101.562500
810,-101.562500
811,-101.562500
812,-101.562500
813,-101.562500
814,-101.562500
815,-101.562500
816,-101.562500
817,-101.562500
818,-101.562500
819,-101.562500
820,-101.562500
821,-101.562500
822,-101.562500
823,-101.562500
824,-101.562500
825,-101.562500
826,-101.562500
827,-101.562500
828,-101.562500
829,-101.562500
830,-101.562500
831,-101.562500
832,-101.562500
833,-101.562500
834,-101.562500
835,-101.562500
836,-101.562500
837,-101.562500
838,-101.562500
839,-101.562500
840,-101.562500
841,-97.656250
842,-101.562500
843,-101.562500
844,-101.562500
845,-101.562500
846,-97.656250
847,-101.562500
848,-97.656250
849,-101.562500
850,-97.656250
851,-97.656250
852,-97.656250
853,-101.562500
854,-97.656250
855,-97.656250
856,-97.656250
857,-97.656250
858,-97.656250
859,-97.656250
860,-97.656250
861,-97.656250
862,-97.656250
863,-97.656250
864,-97.656250
865,-97.656250
866,-97.656250
867,-97.656250
868,-97.656250
869,-93.750000
870,-93.750000
871,-97.656250
872,-97.656250
873,-97.656250
874,-97.656250
875,-93.750000
876,-93.750000
877,-93.750000
878,-93.750000
879,-93.750000
880,-93.750000
881,-93.750000
882,-93.750000
883,-93.750000
884,-93.750000
885,-93.750000
886,-93.750000
887,-93.750000
888,-93.750000
889,-93.750000
890,-89.843750
891,-89.843750
892,-89.843750
893,-89.843750
894,-89.843750
895,-89.843750
896,-89.843750
897,-89.843750
898,-89.843750
899,-89.843750
900,-89.843750
901,-89.843750
902,-85.937500
903,-89.843750
904,-85.937500
905,-85.937500
906,-85.937500
907,-85.937500
908,-85.937500
909,-85.937500
910,-85.937500
911,-85.937500
912,-85.937500
913,-85.937500
914,-85.937500
915,-85.937500
916,-82.031250
917,-82.031250
918,-82.031250
919,-82.031250
920,-82.031250
921,-82.031250
922,-82.031250
923,-82.031250
924,-82.031250
925,-82.031250
926,-78.125000
927,-78.125000
928,-78.125000
929,-78.125000
930,-78.125000
931,-78.125000
932,-78.125000
933,-78.125000
934,-74.218750
935,-78.125000
936,-78.125000
937,-74.218750
938,-74.218750
939,-74.218750
940,-74.218750
941,-74.218750
942,-74.218750
943,-74.218750
944,-74.218750
945,-70.312500
946,-70.312500
947,-74.218750
948,-70.312500
949,-70.312500
950,-70.312500
951,-70.312500
952,-70.312500
953,-70.312500
954,-70.312500
955,-66.406250
956,-66.406250
957,-66.406250
958,-66.406250
959,-66.406250
960,-66.406250
961,-66.406250
962,-62.500000
963,-66.406250
964,-62.500000
965,-66.406250
966,-62.500000
967,-62.500000
968,-62.500000
969,-62.500000
970,-62.500000
971,-62.500000
972,-58.593750
973,-58.593750
974,-58.593750
975,-58.593750
976,-58.593750
977,-58.593750
978,-58.593750
979,-58.593750
980,-54.687500
981,-54.687500
982,-54.687500
983,-54.687500
984,-54.687500
985,-54.687500
986,-54.687500
987,-54.687500
988,-54.687500
989,-50.781250
990,-50.781250
991,-50.781250
992,-50.781250
993,-50.781250
994,-50.781250
995,-50.781250
996,-46.875000
997,-46.875000
998,-46.875000
999,-46.875000
1000,-46.875000
1001,-46.875000
1002,-46.875000
1003,-42.968750
1004,-42.968750
1005,-42.968750
1006,-42.968750
1007,-42.968750
1008,-42.968750
1009,-39.062500
1010,-39.062500
1011,-39.062500
1012,-39.062500
1013,-39.062500
1014,-39.062500
1015,-39.062500
1016,-39.062500
1017,-39.062500
1018,-35.156250
1019,-35.156250
1020,-35.156250
1021,-35.156250
1022,-35.156250
1023,-35.156250
1024,-31.250000
1025,-31.250000
1026,-31.250000
1027,-31.250000
1028,-31.250000
1029,-31.250000
1030,-31.250000
1031,-31.250000
1032,-27.343750
1033,-27.343750
1034,-27.343750
1035,-27.343750
1036,-27.343750
1037,-27.343750
1038,-23.437500
1039,-23.437500
1040,-23.437500
1041,-23.437500
1042,-23.437500
1043,-23.437500
1044,-23.437500
1045,-19.531250
1046,-19.531250
1047,-19.531250
1048,-19.531250
1049,-19.531250
1050,-19.531250
1051,-15.625000
1052,-15.625000
1053,-15.625000
1054,-15.625000
1055,-15.625000
1056,-15.625000
1057,-15.625000
1058,-15.625000
1059,-11.718750
1060,-11.718750
1061,-11.718750
1062,-11.718750
1063,-11.718750
1064,-11.718750
1065,-11.718750
1066,-11.718750
1067,-7.812500
1068,-7.812500
1069,-7.812500
1070,-7.812500
1071,-7.812500
1072,-7.812500
1073,-7.812500
1074,-3.906250
1075,-3.906250
1076,-3.906250
1077,-3.906250
1078,-3.906250
1079,-3.906250
1080,0.000000
1081,0.000000
1082,0.000000
1083,0.000000
1084,0.000000
1085,0.000000
1086,0.000000
1087,0.000000
1088,3.906250
1089,3.906250
1090,3.906250
1091,3.906250
1092,3.906250
1093,3.906250
1094,3.906250
1095,7.812500
1096,7.812500
1097,7.812500
1098,7.812500
1099,7.812500
1100,7.812500
1101,7.812500
1102,11.718750
1103,11.718750
1104,11.718750
1105,11.718750
1106,11.718750
1107,11.718750
1108,11.718750
1109,11.718750
1110,15.625000
1111,11.718750
1112,15.625000
1113,15.625000
1114,15.625000
1115,15.625000
1116,15.625000
1117,15.625000
1118,19.531250
1119,19.531250
1120,19.531250
1121,19.531250
1122,19.531250
1123,19.531250
1124,19.531250
1125,19.531250
1126,19.531250
1127,19.531250
1128,23.437500
1129,23.437500
1130,23.437500
1131,23.437500
1132,23.437500
1133,27.343750
1134,23.437500
1135,23.437500
1136,27.343750
1137,27.343750
1138,27.343750
1139,27.343750
1140,27.343750
1141,27.343750
1142,27.343750
1143,27.343750
1144,31.250000
1145,31.250000
1146,31.250000
1147,31.250000
1148,31.250000
1149,31.250000
1150,31.250000
1151,31.250000
1152,31.250000
1153,35.156250
1154,35.156250
1155,35.156250
1156,35.156250
1157,35.156250
1158,35.156250
1159,35.156250
1160,39.062500
1161,39.062500
1162,39.062500
1163,39.062500
1164,39.062500
1165,39.062500
1166,39.062500
1167,39.062500
1168,39.062500
1169,39.062500
1170,42.968750
1171,42.968750
1172,42.968750
1173,42.968750
1174,42.968750
1175,42.968750
1176,46.875000
1177,42.968750
1178,42.968750
1179,46.875000
1180,46.875000
1181,46.875000
1182,46.875000
1183,46.875000
1184,46.875000
1185,46.875000
1186,46.875000
1187,46.875000
1188,50.781250
1189,46.875000
1190,50.781250
1191,50.781250
1192,50.781250
1193,50.781250
1194,50.781250
1195,50.781250
1196,50.781250
1197,50.781250
1198,50.781250
1199,54.687500
1200,54.687500
1201,54.687500
1202,54.687500
1203,54.687500
1204,54.687500
1205,54.687500
1206,54.687500
1207,54.687500
1208,54.687500
1209,54.687500
1210,54.687500
1211,54.687500
1212,58.593750
1213,54.687500
1214,58.593750
1215,54.687500
1216,58.593750
1217,58.593750
1218,58.593750
1219,58.593750
1220,58.593750
1221,58.593750
1222,58.593750
1223,58.593750
1224,58.593750
1225,58.593750
1226,58.593750
1227,62.500000
1228,62.500000
1229,62.500000
1230,62.500000
1231,62.500000
1232,62.500000
1233,62.500000
1234,62.500000
1235,62.500000
1236,62.500000
1237,62.500000
1238,62.500000
1239,62.500000
1240,62.500000
1241,62.500000
1242,66.406250
1243,62.500000
1244,66.406250
1245,66.406250
1246,66.406250
1247,62.500000
1248,62.500000
1249,66.406250
1250,66.406250
1251,66.406250
1252,66.406250
1253,66.406250
1254,66.406250
1255,66.406250
1256,66.406250
1257,66.406250
1258,66.406250
1259,66.406250
1260,66.406250
1261,66.406250
1262,66.406250
1263,66.406250
1264,66.406250
1265,66.406250
1266,66.406250
1267,66.406250
1268,66.406250
1269,66.406250
1270,70.312500
1271,70.312500
1272,70.312500
1273,70.312500
1274,70.312500
1275,70.312500
1276,70.312500
1277,66.406250
1278,70.312500
1279,70.312500
1280,70.312500
1281,70.312500
1282,70.312500
1283,70.312500
1284,70.312500
1285,70.312500
1286,70.312500
1287,70.312500
1288,70.312500
1289,70.312500
1290,70.312500
1291,70.312500
1292,70.312500
1293,70.312500
1294,70.312500
1295,70.312500
1296,70.312500
1297,70.312500
1298,70.312500
1299,70.312500
1300,70.312500
1301,70.312500
1302,70.312500
1303,70.312500
1304,70.312500
1305,70.312500
1306,70.312500
1307,70.312500
1308,70.312500
1309,70.312500
1310,70.312500
1311,70.312500
1312,70.312500
1313,70.312500
1314,70.312500
1315,70.312500
1316,70.312500
1317,70.312500
1318,70.312500
1319,70.312500
1320,70.312500
1321,70.312500
1322,70.312500
1323,70.312500
1324,70.312500
1325,70.312500
1326,70.312500
1327,70.312500
1328,70.312500
1329,70.312500
1330,70.312500
1331,70.312500
1332,70.312500
1333,70.312500
1334,70.312500
1335,70.312500
1336,70.312500
1337,70.312500
1338,70.312500
1339,70.312500
1340,70.312500
1341,70.312500
1342,70.312500
1343,70.312500
1344,70.312500
1345,70.312500
1346,70.312500
1347,70.312500
1348,70.312500
1349,70.312500
1350,70.312500
1351,70.312500
1352,66.406250
1353,66.406250
1354,70.312500
1355,66.406250
1356,70.312500
1357,70.312500
1358,70.312500
1359,66.406250
1360,66.406250
1361,66.406250
1362,66.406250
1363,66.406250
1364,66.406250
1365,66.406250
1366,66.406250
1367,66.406250
1368,66.406250
1369,66.406250
1370,66.406250
1371,66.406250
1372,66.406250
1373,66.406250
1374,66.406250
1375,62.500000
1376,62.500000
1377,66.406250
1378,62.500000
1379,62.500000
1380,62.500000
1381,66.406250
1382,62.500000
1383,62.500000
1384,62.500000
1385,62.500000
1386,62.500000
1387,62.500000
1388,62.500000
1389,62.500000
1390,58.593750
1391,62.500000
1392,62.500000
1393,58.593750
1394,62.500000
1395,58.593750
1396,58.593750
1397,58.593750
1398,58.593750
1399,58.593750
1400,58.593750
1401,58.593750
1402,58.593750
1403,58.593750
1404,58.593750
1405,58.593750
1406,58.593750
1407,54.687500
1408,54.687500
1409,54.687500
1410,54.687500
1411,54.687500
1412,54.687500
1413,54.687500
1414,54.687500
1415,54.687500
1416,54.687500
1417,54.687500
1418,54.687500
1419,54.687500
1420,54.687500
1421,50.781250
1422,50.781250
1423,50.781250
1424,50.781250
1425,50.781250
1426,50.781250
1427,50.781250
1428,50.781250
1429,50.781250
1430,50.781250
1431,50.781250
1432,50.781250
1433,46.875000
1434,46.875000
1435,46.875000
1436,46.875000
1437,46.875000
1438,46.875000
1439,46.875000
1440,46.875000
1441,46.875000
1442,46.875000
1443,42.968750
1444,42.968750
1445,42.968750
1446,42.968750
1447,42.968750
1448,42.968750
1449,42.968750
1450,42.968750
1451,42.968750
1452,42.968750
1453,42.968750
1454,42.968750
1455,39.062500
1456,39.062500
1457,39.062500
1458,39.062500
1459,39.062500
1460,39.062500
1461,39.062500
1462,39.062500
1463,39.062500
1464,39.062500
1465,39.062500
1466,35.156250
1467,35.156250
1468,35.156250
1469,35.156250
1470,35.156250
1471,35.156250
1472,35.156250
1473,31.250000
1474,35.156250
1475,31.250000
1476,31.250000
1477,31.250000
1478,31.250000
1479,31.250000
1480,31.250000
1481,27.343750
1482,27.343750
1483,27.343750
1484,27.343750
1485,27.343750
1486,27.343750
1487,27.343750
1488,27.343750
1489,27.343750
1490,23.437500
1491,23.437500
1492,23.437500
1493,23.437500
1494,23.437500
1495,23.437500
1496,23.437500
1497,23.437500
1498,19.531250
1499,19.531250
1500,19.531250
1501,19.531250
1502,19.531250
1503,19.531250
1504,19.531250
1505,15.625000
1506,15.625000
1507,15.625000
1508,15.625000
1509,15.625000
1510,15.625000
1511,15.625000
1512,15.625000
1513,11.718750
1514,11.718750
1515,11.718750
1516,11.718750
1517,11.718750
1518,11.718750
1519,11.718750
1520,11.718750
1521,7.812500
1522,7.812500
1523,7.812500
1524,7.812500
1525,7.812500
1526,7.812500
1527,7.812500
1528,7.812500
1529,3.906250
1530,3.906250
1531,3.906250
1532,3.906250
1533,3.906250
1534,3.906250
1535,3.906250
1536,0.000000
1537,0.000000
1538,0.000000
1539,0.000000
1540,0.000000
1541,0.000000
1542,0.000000
1543,0.000000
1544,0.000000
1545,-3.906250
1546,-3.906250
1547,-3.906250
1548,-3.906250
1549,-3.906250
1550,-3.906250
1551,-7.812500
1552,-7.812500
1553,-7.812500
1554,-7.812500
1555,-7.812500
1556,-7.812500
1557,-7.812500
1558,-11.718750
1559,-11.718750
1560,-11.718750
1561,-11.718750
1562,-11.718750
1563,-11.718750
1564,-11.718750
1565,-11.718750
1566,-15.625000
1567,-15.625000
1568,-15.625000
1569,-15.625000
1570,-15.625000
1571,-15.625000
1572,-15.625000
1573,-15.625000
1574,-19.531250
1575,-19.531250
1576,-19.531250
1577,-19.531250
1578,-19.531250
1579,-19.531250
1580,-19.531250
1581,-19.531250
1582,-23.437500
1583,-23.437500
1584,-23.437500
1585,-23.437500
1586,-23.437500
1587,-27.343750
1588,-27.343750
1589,-27.343750
1590,-27.343750
1591,-27.343750
1592,-27.343750
1593,-27.343750
1594,-27.343750
1595,-31.250000
1596,-31.250000
1597,-31.250000
1598,-31.250000
1599,-31.250000
1600,-31.250000
1601,-31.250000
1602,-31.250000
1603,-35.156250
1604,-35.156250
1605,-35.156250
1606,-35.156250
1607,-35.156250
1608,-39.062500
1609,-39.062500
1610,-39.062500
1611,-39.062500
1612,-39.062500
1613,-39.062500
1614,-39.062500
1615,-39.062500
1616,-39.062500
1617,-42.968750
1618,-42.968750
1619,-42.968750
1620,-42.968750
1621,-46.875000
1622,-42.968750
1623,-46.875000
1624,-46.875000
1625,-46.875000
1626,-46.875000
1627,-46.875000
1628,-46.875000
1629,-46.875000
1630,-50.781250
1631,-50.781250
1632,-50.781250
1633,-50.781250
1634,-50.781250
1635,-50.781250
1636,-50.781250
1637,-50.781250
1638,-54.687500
1639,-54.687500
1640,-54.687500
1641,-54.687500
1642,-54.687500
1643,-54.687500
1644,-54.687500
1645,-54.687500
1646,-58.593750
1647,-58.593750
1648,-58.593750
1649,-58.593750
1650,-58.593750
1651,-58.593750
1652,-58.593750
1653,-58.593750
1654,-62.500000
1655,-62.500000
1656,-62.500000
1657,-62.500000
1658,-62.500000
1659,-62.500000
1660,-66.406250
1661,-62.500000
1662,-66.406250
1663,-66.406250
1664,-66.406250
1665,-66.406250
1666,-66.406250
1667,-70.312500
1668,-66.406250
1669,-66.406250
1670,-70.312500
1671,-70.312500
1672,-70.312500
1673,-70.312500
1674,-70.312500
1675,-70.312500
1676,-70.312500
1677,-70.312500
1678,-70.312500
1679,-74.218750
1680,-70.312500
1681,-74.218750
1682,-74.218750
1683,-74.218750
1684,-74.218750
1685,-74.218750
1686,-74.218750
1687,-74.218750
1688,-74.218750
1689,-74.218750
1690,-78.125000
1691,-78.125000
1692,-78.125000
1693,-78.125000
1694,-78.125000
1695,-78.125000
1696,-78.125000
1697,-78.125000
1698,-78.125000
1699,-78.125000
1700,-78.125000
1701,-82.031250
1702,-82.031250
1703,-82.031250
1704,-82.031250
1705,-82.031250
1706,-82.031250
1707,-82.031250
1708,-82.031250
1709,-82.031250
1710,-82.031250
1711,-82.031250
1712,-85.937500
1713,-85.937500
1714,-85.937500
1715,-85.937500
1716,-85.937500
1717,-85.937500
1718,-85.937500
1719,-85.937500
1720,-85.937500
1721,-85.937500
1722,-85.937500
1723,-89.843750
1724,-89.843750
1725,-89.843750
1726,-89.843750
1727,-89.843750
1728,-89.843750
1729,-89.843750
1730,-89.843750
1731,-89.843750
1732,-89.843750
1733,-89.843750
1734,-89.843750
1735,-89.843750
1736,-93.750000
1737,-89.843750
1738,-89.843750
1739,-93.750000
1740,-93.750000
1741,-93.750000
1742,-93.750000
1743,-93.750000
1744,-93.750000
1745,-93.750000
1746,-93.750000
1747,-93.750000
1748,-93.750000
1749,-93.750000
1750,-97.656250
1751,-93.750000
1752,-93.750000
1753,-97.656250
1754,-97.656250
1755,-97.656250
1756,-97.656250
1757,-97.656250
1758,-97.656250
1759,-97.656250
1760,-97.656250
1761,-97.656250
1762,-97.656250
1763,-97.656250
1764,-97.656250
1765,-97.656250
1766,-97.656250
1767,-97.656250
1768,-97.656250
1769,-97.656250
1770,-97.656250
1771,-97.656250
1772,-97.656250
1773,-97.656250
1774,-97.656250
1775,-101.562500
1776,-101.562500
1777,-97.656250
1778,-101.562500
1779,-97.656250
1780,-101.562500
1781,-101.562500
1782,-101.562500
1783,-101.562500
1784,-101.562500
1785,-101.562500
1786,-101.562500
1787,-101.562500
1788,-101.562500
1789,-97.656250
1790,-101.562500
1791,-101.562500
1792,-101.562500
1793,-101.562500
1794,-101.562500
1795,-101.562500
1796,-101.562500
1797,-101.562500
1798,-101.562500
1799,-101.562500
1800,-101.562500
1801,-101.562500
1802,-101.562500
1803,-101.562500
1804,-101.562500
1805,-101.562500
1806,-101.562500
1807,-101.562500
1808,-101.562500
1809,-101.562500
1810,-101.562500
1811,-101.562500
1812,-101.562500
1813,-101.562500
1814,-101.562500
1815,-101.562500
1816,-101.562500
1817,-101.562500
1818,-101.562500
1819,-101.562500
1820,-101.562500
1821,-101.562500
1822,-101.562500
1823,-101.562500
1824,-101.562500
1825,-101.562500
1826,-101.562500
1827,-101.562500
1828,-101.562500
1829,-97.656250
1830,-101.562500
1831,-101.562500
1832,-101.562500
1833,-101.562500
1834,-101.562500
1835,-101.562500
1836,-97.656250
1837,-97.656250
1838,-97.656250
1839,-97.656250
1840,-97.656250
1841,-97.656250
1842,-97.656250
1843,-97.656250
1844,-97.656250
1845,-97.656250
1846,-97.656250
1847,-97.656250
1848,-97.656250
1849,-97.656250
1850,-97.656250
1851,-97.656250
1852,-97.656250
1853,-97.656250
1854,-97.656250
1855,-97.656250
1856,-97.656250
1857,-97.656250
1858,-97.656250
1859,-97.656250
1860,-97.656250
1861,-97.656250
1862,-97.656250
1863,-93.750000
1864,-93.750000
1865,-93.750000
1866,-93.750000
1867,-93.750000
1868,-93.750000
1869,-93.750000
1870,-93.750000
1871,-93.750000
1872,-93.750000
1873,-93.750000
1874,-93.750000
1875,-89.843750
1876,-93.750000
1877,-93.750000
1878,-93.750000
1879,-93.750000
1880,-93.750000
1881,-89.843750
1882,-89.843750
1883,-89.843750
1884,-89.843750
1885,-89.843750
1886,-89.843750
1887,-89.843750
1888,-89.843750
1889,-89.843750
1890,-89.843750
1891,-89.843750
1892,-85.937500
1893,-85.937500
1894,-85.937500
1895,-85.937500
1896,-85.937500
1897,-85.937500
1898,-85.937500
1899,-85.937500
1900,-85.937500
1901,-85.937500
1902,-85.937500
1903,-85.937500
1904,-85.937500
1905,-82.031250
1906,-82.031250
1907,-82.031250
1908,-82.031250
1909,-82.031250
1910,-82.031250
1911,-82.031250
1912,-82.031250
1913,-82.031250
1914,-82.031250
1915,-82.031250
1916,-78.125000
1917,-78.125000
1918,-78.125000
1919,-78.125000
1920,-78.125000
1921,-78.125000
1922,-78.125000
1923,-78.125000
1924,-78.125000
1925,-74.218750
1926,-78.125000
1927,-74.218750
1928,-74.218750
1929,-74.218750
1930,-74.218750
1931,-74.218750
1932,-74.218750
1933,-74.218750
1934,-70.312500
1935,-70.312500
1936,-74.218750
1937,-70.312500
1938,-70.312500
1939,-70.312500
1940,-70.312500
1941,-70.312500
1942,-70.312500
1943,-70.312500
1944,-66.406250
1945,-66.406250
1946,-66.406250
1947,-66.406250
1948,-66.406250
1949,-66.406250
1950,-66.406250
1951,-66.406250
1952,-62.500000
1953,-66.406250
1954,-62.500000
1955,-62.500000
1956,-62.500000
1957,-62.500000
1958,-62.500000
1959,-62.500000
1960,-58.593750
1961,-58.593750
1962,-58.593750
1963,-58.593750
1964,-58.593750
1965,-58.593750
1966,-58.593750
1967,-58.593750
1968,-58.593750
1969,-54.687500
1970,-54.687500
1971,-54.687500
1972,-54.687500
1973,-54.687500
1974,-54.687500
1975,-54.687500
1976,-54.687500
1977,-50.781250
1978,-50.781250
1979,-50.781250
1980,-50.781250
1981,-50.781250
1982,-50.781250
1983,-50.781250
1984,-46.875000
1985,-46.875000
1986,-46.875000
1987,-46.875000
1988,-46.875000
1989,-46.875000
1990,-42.968750
1991,-46.875000
1992,-42.968750
1993,-42.968750
1994,-42.968750
1995,-42.968750
1996,-42.968750
1997,-42.968750
1998,-42.968750
1999,-39.062500
2000,-39.062500
2001,-39.062500
2002,-39.062500
2003,-39.062500
2004,-39.062500
2005,-39.062500
2006,-39.062500
2007,-39.062500
2008,-35.156250
2009,-35.156250
2010,-35.156250
2011,-35.156250
2012,-35.156250
2013,-31.250000
2014,-31.250000
2015,-31.250000
2016,-31.250000
2017,-31.250000
2018,-31.250000
2019,-31.250000
2020,-31.250000
2021,-27.343750
2022,-27.343750
2023,-27.343750
2024,-27.343750
2025,-27.343750
2026,-27.343750
2027,-27.343750
2028,-23.437500
2029,-23.437500
2030,-23.437500
2031,-23.437500
2032,-23.437500
2033,-23.437500
2034,-23.437500
2035,-23.437500
2036,-19.531250
2037,-19.531250
2038,-19.531250
2039,-19.531250
2040,-15.625000
2041,-19.531250
2042,-15.625000
2043,-15.625000
2044,-15.625000
2045,-15.625000
2046,-15.625000
2047,-15.625000
2048,-15.625000
2049,-11.718750
2050,-11.718750
2051,-11.718750
2052,-11.718750
2053,-11.718750
2054,-11.718750
2055,-11.718750
2056,-7.812500
2057,-7.812500
2058,-7.812500
2059,-7.812500
2060,-7.812500
2061,-7.812500
2062,-7.812500
2063,-3.906250
2064,-3.906250
2065,-3.906250
2066,-3.906250
2067,-3.906250
2068,-3.906250
2069,-3.906250
2070,-3.906250
2071,0.000000
2072,0.000000
2073,0.000000
2074,0.000000
2075,0.000000
2076,0.000000
2077,0.000000
2078,3.906250
2079,3.906250
2080,3.906250
2081,3.906250
2082,3.906250
2083,3.906250
2084,7.812500
2085,7.812500
2086,7.812500
2087,7.812500
2088,7.812500
2089,7.812500
2090,7.812500
2091,11.718750
2092,11.718750
2093,11.718750
2094,11.718750
2095,11.718750
2096,11.718750
2097,11.718750
2098,11.718750
2099,11.718750
2100,15.625000
2101,15.625000
2102,15.625000
2103,15.625000
2104,15.625000
2105,15.625000
2106,15.625000
2107,19.531250
2108,19.531250
2109,19.531250
2110,19.531250
2111,19.531250
2112,19.531250
2113,19.531250
2114,19.531250
2115,23.437500
2116,23.437500
2117,23.437500
2118,23.437500
2119,23.437500
2120,23.437500
2121,23.437500
2122,27.343750
2123,27.343750
2124,27.343750
2125,27.343750
2126,27.343750
2127,27.343750
2128,27.343750
2129,27.343750
2130,27.343750
2131,31.250000
2132,31.250000
2133,31.250000
2134,31.250000
2135,31.250000
2136,31.250000
2137,31.250000
2138,31.250000
2139,31.250000
2140,31.250000
2141,35.156250
2142,35.156250
2143,35.156250
2144,35.156250
2145,35.156250
2146,35.156250
2147,35.156250
2148,35.156250
2149,35.156250
2150,39.062500
2151,39.062500
2152,39.062500
2153,39.062500
2154,39.062500
2155,39.062500
2156,39.062500
2157,39.062500
2158,42.968750
2159,42.968750
2160,42.968750
2161,42.968750
2162,42.968750
2163,42.968750
2164,42.968750
2165,42.968750
2166,42.968750
2167,42.968750
2168,46.875000
2169,42.968750
2170,46.875000
2171,46.875000
2172,46.875000
2173,46.875000
2174,46.875000
2175,46.875000
2176,46.875000
2177,46.875000
2178,46.875000
2179,46.875000
2180,46.875000
2181,50.781250
2182,50.781250
2183,50.781250
2184,50.781250
2185,50.781250
2186,50.781250
2187,50.781250
2188,50.781250
2189,50.781250
2190,54.687500
2191,50.781250
2192,50.781250
2193,54.687500
2194,54.687500
2195,54.687500
2196,54.687500
2197,54.687500
2198,54.687500
2199,54.687500
2200,54.687500
2201,54.687500
2202,58.593750
2203,54.687500
2204,58.593750
2205,58.593750
2206,58.593750
2207,58.593750
2208,58.593750
2209,58.593750
2210,58.593750
2211,58.593750
2212,58.593750
2213,58.593750
2214,58.593750
2215,62.500000
2216,62.500000
2217,58.593750
2218,58.593750
2219,62.500000
2220,62.500000
2221,62.500000
2222,62.500000
2223,62.500000
2224,62.500000
2225,62.500000
2226,62.500000
2227,62.500000
2228,62.500000
2229,62.500000
2230,62.500000
2231,62.500000
2232,62.500000
2233,62.500000
2234,66.406250
2235,66.406250
2236,66.406250
2237,66.406250
2238,66.406250
2239,66.406250
2240,66.406250
2241,66.406250
2242,66.406250
2243,66.406250
2244,66.406250
2245,66.406250
2246,66.406250
2247,66.406250
2248,66.406250
2249,66.406250
2250,66.406250
2251,66.406250
2252,66.406250
2253,66.406250
2254,70.312500
2255,70.312500
2256,70.312500
2257,70.312500
2258,70.312500
2259,70.312500
2260,70.312500
2261,70.312500
2262,70.312500
2263,70.312500
2264,70.312500
2265,70.312500
2266,70.312500
2267,70.312500
2268,70.312500
2269,70.312500
2270,70.312500
2271,70.312500
2272,70.312500
2273,70.312500
2274,70.312500
2275,70.312500
2276,70.312500
2277,70.312500
2278,70.312500
2279,70.312500
2280,70.312500
2281,70.312500
2282,70.312500
2283,70.312500
2284,70.312500
2285,70.312500
2286,70.312500
2287,70.312500
2288,70.312500
2289,70.312500
2290,70.312500
2291,70.312500
2292,70.312500
2293,70.312500
2294,70.312500
2295,70.312500
2296,70.312500
2297,70.312500
2298,70.312500
2299,70.312500
2300,70.312500
2301,70.312500
2302,70.312500
2303,70.312500
2304,70.312500
2305,70.312500
2306,70.312500
2307,70.312500
2308,70.312500
2309,70.312500
2310,70.312500
2311,70.312500
2312,70.312500
2313,70.312500
2314,70.312500
2315,70.312500
2316,70.312500
2317,70.312500
2318,70.312500
2319,70.312500
2320,70.312500
2321,70.312500
2322,70.312500
2323,70.312500
2324,70.312500
2325,70.312500
2326,70.312500
2327,70.312500
2328,70.312500
2329,70.312500
2330,70.312500
2331,70.312500
2332,70.312500
2333,70.312500
2334,70.312500
2335,70.312500
2336,70.312500
2337,70.312500
2338,70.312500
2339,70.312500
2340,70.312500
2341,70.312500
2342,70.312500
2343,66.406250
2344,70.312500
2345,66.406250
2346,66.406250
2347,70.312500
2348,66.406250
2349,66.406250
2350,66.406250
2351,66.406250
2352,66.406250
2353,66.406250
2354,66.406250
2355,66.406250
2356,66.406250
2357,66.406250
2358,66.406250
2359,66.406250
2360,66.406250
2361,66.406250
2362,66.406250
2363,66.406250
2364,66.406250
2365,62.500000
2366,66.406250
2367,66.406250
2368,66.406250
2369,62.500000
2370,66.406250
2371,62.500000
2372,62.500000
2373,62.500000
2374,62.500000
2375,62.500000
2376,62.500000
2377,62.500000
2378,62.500000
2379,62.500000
2380,62.500000
2381,62.500000
2382,62.500000
2383,58.593750
2384,62.500000
2385,58.593750
2386,58.593750
2387,58.593750
2388,58.593750
2389,58.593750
2390,58.593750
2391,58.593750
2392,58.593750
2393,58.593750
2394,58.593750
2395,58.593750
2396,58.593750
2397,54.687500
2398,58.593750
2399,58.593750
2400,58.593750
2401,54.687500
2402,54.687500
2403,54.687500
2404,54.687500
2405,54.687500
2406,54.687500
2407,54.687500
2408,54.687500
2409,50.781250
2410,54.687500
2411,50.781250
2412,50.781250
2413,50.781250
2414,50.781250
2415,50.781250
2416,50.781250
2417,50.781250
2418,50.781250
2419,50.781250
2420,50.781250
2421,46.875000
2422,50.781250
2423,50.781250
2424,50.781250
2425,46.875000
2426,46.875000
2427,46.875000
2428,46.875000
2429,46.875000
2430,46.875000
2431,46.875000
2432,46.875000
2433,42.968750
2434,42.968750
2435,42.968750
2436,42.968750
2437,42.968750
2438,42.968750
2439,42.968750
2440,42.968750
2441,42.968750
2442,42.968750
2443,42.968750
2444,39.062500
2445,39.062500
2446,35.156250
2447,39.062500
2448,39.062500
2449,39.062500
2450,39.062500
2451,39.062500
2452,39.062500
2453,35.156250
2454,35.156250
2455,35.156250
2456,35.156250
2457,35.156250
2458,35.156250
2459,31.250000
2460,35.156250
2461,31.250000
2462,31.250000
2463,31.250000
2464,31.250000
2465,31.250000
2466,31.250000
2467,31.250000
2468,31.250000
2469,31.250000
2470,27.343750
2471,27.343750
2472,27.343750
2473,27.343750
2474,27.343750
2475,27.343750
2476,27.343750
2477,27.343750
2478,31.250000
2479,23.437500
2480,23.437500
2481,23.437500
2482,23.437500
2483,23.437500
2484,23.437500
2485,23.437500
2486,23.437500
2487,19.531250
2488,19.531250
2489,19.531250
2490,19.531250
2491,19.531250
2492,19.531250
2493,19.531250
2494,19.531250
2495,19.531250
2496,15.625000
2497,15.625000
2498,15.625000
2499,15.625000
2500,15.625000
2501,15.625000
2502,15.625000
2503,11.718750
2504,11.718750
2505,11.718750
2506,11.718750
2507,11.718750
2508,11.718750
2509,11.718750
2510,7.812500
2511,11.718750
2512,7.812500
2513,11.718750
2514,7.812500
2515,7.812500
2516,7.812500
2517,7.812500
2518,3.906250
2519,3.906250
2520,3.906250
2521,3.906250
2522,3.906250
2523,3.906250
2524,3.906250
2525,0.000000
2526,3.906250
2527,0.000000
2528,0.000000
2529,0.000000
2530,0.000000
2531,0.000000
2532,-3.906250
2533,-3.906250
2534,-3.906250
2535,-3.906250
2536,-3.906250
2537,-3.906250
2538,-3.906250
2539,-7.812500
2540,-7.812500
2541,-7.812500
2542,-7.812500
2543,-7.812500
2544,-7.812500
2545,-7.812500
2546,-7.812500
2547,-7.812500
2548,-11.718750
2549,-11.718750
2550,-11.718750
2551,-11.718750
2552,-11.718750
2553,-15.625000
2554,-15.625000
2555,-15.625000
2556,-15.625000
2557,-15.625000
2558,-15.625000
2559,-15.625000
2560,-15.625000
2561,-15.625000
2562,-19.531250
2563,-19.531250
2564,-19.531250
2565,-19.531250
2566,-19.531250
2567,-19.531250
2568,-19.531250
2569,-23.437500
2570,-23.437500
2571,-23.437500
2572,-23.437500
2573,-23.437500
2574,-23.437500
2575,-23.437500
2576,-23.437500
2577,-27.343750
2578,-27.343750
2579,-27.343750
2580,-27.343750
2581,-27.343750
2582,-27.343750
2583,-31.250000
2584,-31.250000
2585,-31.250000
2586,-31.250000
2587,-31.250000
2588,-31.250000
2589,-31.250000
2590,-31.250000
2591,-35.156250
2592,-35.156250
2593,-35.156250
2594,-35.156250
2595,-35.156250
2596,-35.156250
2597,-39.062500
2598,-35.156250
2599,-35.156250
2600,-39.062500
2601,-39.062500
2602,-39.062500
2603,-39.062500
2604,-39.062500
2605,-42.968750
2606,-42.968750
2607,-42.968750
2608,-42.968750
2609,-42.968750
2610,-42.968750
2611,-42.968750
2612,-42.968750
2613,-46.875000
2614,-46.875000
2615,-46.875000
2616,-46.875000
2617,-46.875000
2618,-46.875000
2619,-46.875000
2620,-46.875000
2621,-50.781250
2622,-50.781250
2623,-50.781250
2624,-50.781250
2625,-50.781250
2626,-50.781250
2627,-54.687500
2628,-54.687500
2629,-54.687500
2630,-54.687500
2631,-54.687500
2632,-54.687500
2633,-54.687500
2634,-54.687500
2635,-54.687500
2636,-58.593750
2637,-58.593750
2638,-58.593750
2639,-58.593750
2640,-58.593750
2641,-58.593750
2642,-58.593750
2643,-58.593750
2644,-58.593750
2645,-62.500000
2646,-62.500000
2647,-62.500000
2648,-62.500000
2649,-62.500000
2650,-62.500000
2651,-62.500000
2652,-62.500000
2653,-62.500000
2654,-66.406250
2655,-66.406250
2656,-66.406250
2657,-66.406250
2658,-66.406250
2659,-66.406250
2660,-66.406250
2661,-70.312500
2662,-70.312500
2663,-70.312500
2664,-70.312500
2665,-70.312500
2666,-70.312500
2667,-70.312500
2668,-70.312500
2669,-70.312500
2670,-74.218750
2671,-74.218750
2672,-74.218750
2673,-74.218750
2674,-74.218750
2675,-74.218750
2676,-74.218750
2677,-74.218750
2678,-78.125000
2679,-78.125000
2680,-78.125000
2681,-78.125000
2682,-78.125000
2683,-78.125000
2684,-78.125000
2685,-78.125000
2686,-78.125000
2687,-82.031250
2688,-82.031250
2689,-82.031250
2690,-82.031250
2691,-82.031250
2692,-82.031250
2693,-82.031250
2694,-82.031250
2695,-82.031250
2696,-82.031250
2697,-82.031250
2698,-85.937500
2699,-85.937500
2700,-82.031250
2701,-85.937500
2702,-85.937500
2703,-85.937500
2704,-85.937500
2705,-85.937500
2706,-85.937500
2707,-85.937500
2708,-85.937500
2709,-85.937500
2710,-85.937500
2711,-85.937500
2712,-89.843750
2713,-89.843750
2714,-89.843750
2715,-89.843750
2716,-89.843750
2717,-89.843750
2718,-89.843750
2719,-89.843750
2720,-89.843750
2721,-89.843750
2722,-89.843750
2723,-89.843750
2724,-89.843750
2725,-89.843750
2726,-93.750000
2727,-93.750000
2728,-93.750000
2729,-93.750000
2730,-93.750000
2731,-93.750000
2732,-93.750000
2733,-93.750000
2734,-93.750000
2735,-93.750000
2736,-93.750000
2737,-93.750000
2738,-93.750000
2739,-93.750000
2740,-93.750000
2741,-93.750000
2742,-93.750000
2743,-93.750000
2744,-97.656250
2745,-93.750000
2746,-97.656250
2747,-97.656250
2748,-93.750000
2749,-93.750000
2750,-97.656250
2751,-97.656250
2752,-97.656250
2753,-97.656250
2754,-97.656250
2755,-97.656250
2756,-97.656250
2757,-97.656250
2758,-97.656250
2759,-97.656250
2760,-97.656250
2761,-97.656250
2762,-97.656250
2763,-97.656250
2764,-97.656250
2765,-97.656250
2766,-97.656250
2767,-101.562500
2768,-101.562500
2769,-101.562500
2770,-101.562500
2771,-97.656250
2772,-101.562500
2773,-101.562500
2774,-97.656250
2775,-101.562500
2776,-101.562500
2777,-101.562500
2778,-101.562500
2779,-101.562500
2780,-97.656250
2781,-101.562500
2782,-101.562500
2783,-101.562500
2784,-101.562500
2785,-101.562500
2786,-101.562500
2787,-101.562500
2788,-101.562500
2789,-101.562500
2790,-101.562500
2791,-101.562500
2792,-101.562500
2793,-101.562500
2794,-101.562500
2795,-101.562500
2796,-101.562500
2797,-101.562500
2798,-101.562500
2799,-101.562500
2800,-101.562500
2801,-101.562500
2802,-101.562500
2803,-101.562500
2804,-101.562500
2805,-101.562500
2806,-101.562500
2807,-101.562500
2808,-101.562500
2809,-101.562500
2810,-101.562500
2811,-101.562500
2812,-101.562500
2813,-97.656250
2814,-101.562500
2815,-101.562500
2816,-101.562500
2817,-101.562500
2818,-101.562500
2819,-101.562500
2820,-101.562500
2821,-101.562500
2822,-101.562500
2823,-101.562500
2824,-101.562500
2825,-101.562500
2826,-101.562500
2827,-101.562500
2828,-101.562500
2829,-97.656250
2830,-97.656250
2831,-97.656250
2832,-97.656250
2833,-101.562500
2834,-101.562500
2835,-97.656250
2836,-97.656250
2837,-97.656250
2838,-97.656250
2839,-97.656250
2840,-97.656250
2841,-97.656250
2842,-97.656250
2843,-97.656250
2844,-97.656250
2845,-97.656250
2846,-97.656250
2847,-97.656250
2848,-93.750000
2849,-101.562500
2850,-93.750000
2851,-97.656250
2852,-93.750000
2853,-93.750000
2854,-93.750000
2855,-93.750000
2856,-93.750000
2857,-93.750000
2858,-93.750000
2859,-93.750000
2860,-93.750000
2861,-93.750000
2862,-93.750000
2863,-93.750000
2864,-93.750000
2865,-93.750000
2866,-93.750000
2867,-93.750000
2868,-89.843750
2869,-89.843750
2870,-89.843750
2871,-93.750000
2872,-89.843750
2873,-89.843750
2874,-89.843750
2875,-89.843750
2876,-89.843750
2877,-89.843750
2878,-89.843750
2879,-89.843750
2880,-89.843750
2881,-85.937500
2882,-85.937500
2883,-85.937500
2884,-85.937500
2885,-85.937500
2886,-85.937500
2887,-85.937500
2888,-85.937500
2889,-85.937500
2890,-85.937500
2891,-85.937500
2892,-82.031250
2893,-85.937500
2894,-82.031250
2895,-82.031250
2896,-82.031250
2897,-82.031250
2898,-82.031250
2899,-82.031250
2900,-82.031250
2901,-82.031250
2902,-82.031250
2903,-82.031250
2904,-78.125000
2905,-78.125000
2906,-78.125000
2907,-78.125000
2908,-78.125000
2909,-78.125000
2910,-78.125000
2911,-78.125000
2912,-74.218750
2913,-78.125000
2914,-74.218750
2915,-74.218750
2916,-74.218750
2917,-74.218750
2918,-74.218750
2919,-74.218750
2920,-74.218750
2921,-74.218750
2922,-74.218750
2923,-74.218750
2924,-70.312500
2925,-70.312500
2926,-70.312500
2927,-70.312500
2928,-70.312500
2929,-70.312500
2930,-70.312500
2931,-70.312500
2932,-70.312500
2933,-66.406250
2934,-66.406250
2935,-66.406250
2936,-66.406250
2937,-66.406250
2938,-66.406250
2939,-66.406250
2940,-66.406250
2941,-66.406250
2942,-66.406250
2943,-62.500000
2944,-62.500000
2945,-62.500000
2946,-62.500000
2947,-62.500000
2948,-62.500000
2949,-62.500000
2950,-58.593750
2951,-58.593750
2952,-58.593750
2953,-58.593750
2954,-58.593750
2955,-58.593750
2956,-58.593750
2957,-58.593750
2958,-54.687500
2959,-54.687500
2960,-54.687500
2961,-54.687500
2962,-54.687500
2963,-54.687500
2964,-54.687500
2965,-54.687500
2966,-50.781250
2967,-50.781250
2968,-50.781250
2969,-50.781250
2970,-50.781250
2971,-50.781250
2972,-50.781250
2973,-50.781250
2974,-50.781250
2975,-46.875000
2976,-46.875000
2977,-46.875000
2978,-46.875000
2979,-46.875000
2980,-46.875000
2981,-46.875000
2982,-42.968750
2983,-42.968750
2984,-42.968750
2985,-42.968750
2986,-42.968750
2987,-42.968750
2988,-42.968750
2989,-42.968750
2990,-39.062500
2991,-39.062500
2992,-39.062500
2993,-39.062500
2994,-39.062500
2995,-39.062500
2996,-35.156250
2997,-35.156250
2998,-35.156250
2999,-35.156250
3000,-35.156250
3001,-35.156250
3002,-35.156250
3003,-35.156250
3004,-31.250000
3005,-31.250000
3006,-31.250000
3007,-31.250000
3008,-31.250000
3009,-31.250000
3010,-27.343750
3011,-27.343750
3012,-27.343750
3013,-27.343750
3014,-27.343750
3015,-27.343750
3016,-27.343750
3017,-23.437500
3018,-23.437500
3019,-23.437500
3020,-23.437500
3021,-23.437500
3022,-23.437500
3023,-23.437500
3024,-19.531250
3025,-19.531250
3026,-19.531250
3027,-19.531250
3028,-19.531250
3029,-19.531250
3030,-19.531250
3031,-19.531250
3032,-15.625000
3033,-15.625000
3034,-15.625000
3035,-15.625000
3036,-15.625000
3037,-15.625000
3038,-11.718750
3039,-11.718750
3040,-11.718750
3041,-11.718750
3042,-11.718750
3043,-11.718750
3044,-11.718750
3045,-11.718750
3046,-7.812500
3047,-7.812500
3048,-7.812500
3049,-7.812500
3050,-7.812500
3051,-3.906250
3052,-7.812500
3053,-3.906250
3054,-3.906250
3055,-3.906250
3056,-3.906250
3057,-3.906250
3058,-3.906250
3059,-3.906250
3060,0.000000
3061,0.000000
3062,0.000000
3063,0.000000
3064,0.000000
3065,0.000000
3066,0.000000
3067,3.906250
3068,3.906250
3069,3.906250
3070,3.906250
3071,3.906250
3072,3.906250
3073,3.906250
3074,7.812500
3075,7.812500
3076,7.812500
3077,7.812500
3078,7.812500
3079,7.812500
3080,7.812500
3081,7.812500
3082,7.812500
3083,11.718750
3084,11.718750
3085,11.718750
3086,11.718750
3087,11.718750
3088,15.625000
3089,15.625000
3090,15.625000
3091,15.625000
3092,15.625000
3093,15.625000
3094,15.625000
3095,15.625000
3096,15.625000
3097,19.531250
3098,19.531250
3099,19.531250
3100,19.531250
3101,19.531250
3102,19.531250
3103,19.531250
3104,19.531250
3105,23.437500
3106,23.437500
3107,23.437500
3108,23.437500
3109,23.437500
3110,23.437500
3111,23.437500
3112,23.437500
3113,27.343750
3114,27.343750
3115,27.343750
3116,27.343750
3117,27.343750
3118,27.343750
3119,27.343750
3120,27.343750
3121,31.250000
3122,31.250000
3123,31.250000
3124,31.250000
3125,31.250000
3126,31.250000
3127,31.250000
3128,35.156250
3129,35.156250
3130,35.156250
3131,35.156250
3132,35.156250
3133,35.156250
3134,35.156250
3135,35.156250
3136,39.062500
3137,39.062500
3138,39.062500
3139,39.062500
3140,39.062500
3141,39.062500
3142,39.062500
3143,39.062500
3144,39.062500
3145,39.062500
3146,42.968750
3147,42.968750
3148,42.968750
3149,42.968750
3150,42.968750
3151,42.968750
3152,42.968750
3153,42.968750
3154,42.968750
3155,42.968750
3156,42.968750
3157,46.875000
3158,46.875000
3159,46.875000
3160,46.875000
3161,46.875000
3162,46.875000
3163,46.875000
3164,46.875000
3165,46.875000
3166,46.875000
3167,46.875000
3168,50.781250
3169,50.781250
3170,50.781250
3171,50.781250
3172,50.781250
3173,50.781250
3174,50.781250
3175,50.781250
3176,50.781250
3177,50.781250
3178,50.781250
3179,54.687500
3180,54.687500
3181,54.687500
3182,54.687500
3183,54.687500
3184,54.687500
3185,54.687500
3186,54.687500
3187,54.687500
3188,54.687500
3189,54.687500
3190,54.687500
3191,58.593750
3192,58.593750
3193,58.593750
3194,58.593750
3195,58.593750
3196,58.593750
3197,58.593750
3198,58.593750
3199,58.593750
3200,58.593750
3201,58.593750
3202,58.593750
3203,58.593750
3204,58.593750
3205,58.593750
3206,58.593750
3207,62.500000
3208,62.500000
3209,58.593750
3210,62.500000
3211,62.500000
3212,62.500000
3213,62.500000
3214,62.500000
3215,62.500000
3216,62.500000
3217,62.500000
3218,62.500000
3219,62.500000
3220,62.500000
3221,62.500000
3222,62.500000
3223,66.406250
3224,66.406250
3225,66.406250
3226,66.406250
3227,66.406250
3228,66.406250
3229,66.406250
3230,66.406250
3231,66.406250
3232,66.406250
3233,66.406250
3234,66.406250
3235,66.406250
3236,66.406250
3237,66.406250
3238,66.406250
3239,66.406250
3240,66.406250
3241,66.406250
3242,66.406250
3243,70.312500
3244,70.312500
3245,66.406250
3246,66.406250
3247,70.312500
3248,70.312500
3249,70.312500
3250,70.312500
3251,70.312500
3252,70.312500
3253,70.312500
3254,70.312500
3255,70.312500
3256,70.312500
3257,70.312500
3258,70.312500
3259,70.312500
3260,70.312500
3261,70.312500
3262,70.312500
3263,70.312500
3264,70.312500
3265,70.312500
3266,70.312500
3267,70.312500
3268,70.312500
3269,70.312500
3270,70.312500
3271,70.312500
3272,70.312500
3273,70.312500
3274,70.312500
3275,70.312500
3276,70.312500
3277,70.312500
3278,70.312500
3279,70.312500
3280,70.312500
3281,70.312500
3282,70.312500
3283,70.312500
3284,70.312500
3285,70.312500
3286,70.312500
3287,70.312500
3288,70.312500
3289,70.312500
3290,70.312500
3291,70.312500
3292,70.312500
3293,70.312500
3294,70.312500
3295,70.312500
3296,70.312500
3297,70.312500
3298,70.312500
3299,70.312500
3300,74.218750
3301,70.312500
3302,70.312500
3303,70.312500
3304,70.312500
3305,70.312500
3306,70.312500
3307,70.312500
3308,70.312500
3309,70.312500
3310,70.312500
3311,70.312500
3312,70.312500
3313,70.312500
3314,70.312500
3315,70.312500
3316,70.312500
3317,70.312500
3318,70.312500
3319,70.312500
3320,70.312500
3321,70.312500
3322,70.312500
3323,70.312500
3324,70.312500
3325,70.312500
3326,70.312500
3327,70.312500
3328,70.312500
3329,70.312500
3330,66.406250
3331,70.312500
3332,70.312500
3333,70.312500
3334,66.406250
3335,66.406250
3336,66.406250
3337,66.406250
3338,66.406250
3339,66.406250
3340,66.406250
3341,66.406250
3342,66.406250
3343,66.406250
3344,66.406250
3345,66.406250
3346,66.406250
3347,66.406250
3348,66.406250
3349,66.406250
3350,66.406250
3351,66.406250
3352,66.406250
3353,66.406250
3354,66.406250
3355,66.406250
3356,62.500000
3357,62.500000
3358,62.500000
3359,62.500000
3360,62.500000
3361,62.500000
3362,62.500000
3363,62.500000
3364,62.500000
3365,62.500000
3366,62.500000
3367,62.500000
3368,62.500000
3369,62.500000
3370,62.500000
3371,58.593750
3372,62.500000
3373,62.500000
3374,62.500000
3375,58.593750
3376,58.593750
3377,58.593750
3378,58.593750
3379,58.593750
3380,58.593750
3381,58.593750
3382,58.593750
3383,58.593750
3384,58.593750
3385,58.593750
3386,58.593750
3387,54.687500
3388,58.593750
3389,58.593750
3390,54.687500
3391,54.687500
3392,54.687500
3393,54.687500
3394,54.687500
3395,54.687500
3396,54.687500
3397,54.687500
3398,54.687500
3399,50.781250
3400,50.781250
3401,50.781250
3402,54.687500
3403,50.781250
3404,50.781250
3405,50.781250
3406,50.781250
3407,50.781250
3408,50.781250
3409,50.781250
3410,50.781250
3411,50.781250
3412,46.875000
3413,46.875000
3414,46.875000
3415,46.875000
3416,46.875000
3417,46.875000
3418,46.875000
3419,46.875000
3420,46.875000
3421,46.875000
3422,46.875000
3423,42.968750
3424,42.968750
3425,42.968750
3426,42.968750
3427,42.968750
3428,42.968750
3429,42.968750
3430,42.968750
3431,42.968750
3432,39.062500
3433,39.062500
3434,39.062500
3435,39.062500
3436,39.062500
3437,39.062500
3438,39.062500
3439,39.062500
3440,39.062500
3441,39.062500
3442,35.156250
3443,35.156250
3444,35.156250
3445,35.156250
3446,35.156250
3447,35.156250
3448,35.156250
3449,35.156250
3450,35.156250
3451,35.156250
3452,35.156250
3453,31.250000
3454,31.250000
3455,31.250000
3456,31.250000
3457,31.250000
3458,31.250000
3459,31.250000
3460,27.343750
3461,27.343750
3462,27.343750
3463,27.343750
3464,27.343750
3465,27.343750
3466,27.343750
3467,27.343750
3468,23.437500
3469,23.437500
3470,23.437500
3471,23.437500
3472,23.437500
3473,23.437500
3474,23.437500
3475,23.437500
3476,23.437500
3477,19.531250
3478,19.531250
3479,19.531250
3480,19.531250
3481,19.531250
3482,19.531250
3483,19.531250
3484,19.531250
3485,15.625000
3486,15.625000
3487,15.625000
3488,15.625000
3489,15.625000
3490,15.625000
3491,15.625000
3492,11.718750
3493,11.718750
3494,11.718750
3495,11.718750
3496,11.718750
3497,11.718750
3498,11.718750
3499,11.718750
3500,11.718750
3501,7.812500
3502,7.812500
3503,7.812500
3504,7.812500
3505,7.812500
3506,7.812500
3507,7.812500
3508,3.906250
3509,3.906250
3510,3.906250
3511,3.906250
3512,3.906250
3513,3.906250
3514,3.906250
3515,0.000000
3516,0.000000
3517,0.000000
3518,0.000000
3519,0.000000
3520,0.000000
3521,0.000000
3522,-3.906250
3523,0.000000
3524,-3.906250
3525,-3.906250
3526,-3.906250
3527,-3.906250
3528,-3.906250
3529,-7.812500
3530,-7.812500
3531,-7.812500
3532,-7.812500
3533,-7.812500
3534,-7.812500
3535,-7.812500
3536,-7.812500
3537,-11.718750
3538,-11.718750
3539,-11.718750
3540,-11.718750
3541,-11.718750
3542,-11.718750
3543,-11.718750
3544,-15.625000
3545,-15.625000
3546,-15.625000
3547,-15.625000
3548,-15.625000
3549,-15.625000
3550,-15.625000
3551,-15.625000
3552,-19.531250
3553,-19.531250
3554,-19.531250
3555,-19.531250
3556,-19.531250
3557,-23.437500
3558,-19.531250
3559,-23.437500
3560,-23.437500
3561,-23.437500
3562,-23.437500
3563,-23.437500
3564,-23.437500
3565,-27.343750
3566,-27.343750
3567,-27.343750
3568,-27.343750
3569,-27.343750
3570,-27.343750
3571,-27.343750
3572,-27.343750
3573,-31.250000
3574,-31.250000
3575,-31.250000
3576,-31.250000
3577,-31.250000
3578,-31.250000
3579,-35.156250
3580,-35.156250
3581,-35.156250
3582,-35.156250
3583,-35.156250
3584,-35.156250
3585,-35.156250
3586,-35.156250
3587,-39.062500
3588,-39.062500
3589,-39.062500
3590,-39.062500
3591,-39.062500
3592,-42.968750
3593,-42.968750
3594,-42.968750
3595,-42.968750
3596,-42.968750
3597,-42.968750
3598,-42.968750
3599,-42.968750
3600,-42.968750
3601,-46.875000
3602,-46.875000
3603,-46.875000
3604,-46.875000
3605,-46.875000
3606,-46.875000
3607,-46.875000
3608,-46.875000
3609,-50.781250
3610,-50.781250
3611,-50.781250
3612,-50.781250
3613,-50.781250
3614,-50.781250
3615,-50.781250
3616,-50.781250
3617,-54.687500
3618,-54.687500
3619,-54.687500
3620,-54.687500
3621,-54.687500
3622,-54.687500
3623,-54.687500
3624,-54.687500
3625,-58.593750
3626,-58.593750
3627,-58.593750
3628,-58.593750
3629,-58.593750
3630,-58.593750
3631,-58.593750
3632,-58.593750
3633,-58.593750
3634,-62.500000
3635,-62.500000
3636,-62.500000
3637,-62.500000
3638,-62.500000
3639,-62.500000
3640,-62.500000
3641,-62.500000
3642,-66.406250
3643,-66.406250
3644,-66.406250
3645,-66.406250
3646,-66.406250
3647,-66.406250
3648,-66.406250
3649,-70.312500
3650,-70.312500
3651,-70.312500
3652,-70.312500
3653,-70.312500
3654,-70.312500
3655,-70.312500
3656,-70.312500
3657,-70.312500
3658,-70.312500
3659,-74.218750
3660,-74.218750
3661,-74.218750
3662,-74.218750
3663,-74.218750
3664,-74.218750
3665,-74.218750
3666,-74.218750
3667,-74.218750
3668,-78.125000
3669,-78.125000
3670,-78.125000
3671,-78.125000
3672,-74.218750
3673,-78.125000
3674,-78.125000
3675,-78.125000
3676,-78.125000
3677,-82.031250
3678,-82.031250
3679,-82.031250
3680,-78.125000
3681,-82.031250
3682,-82.031250
3683,-82.031250
3684,-82.031250
3685,-82.031250
3686,-82.031250
3687,-82.031250
3688,-82.031250
3689,-85.937500
3690,-85.937500
3691,-85.937500
3692,-85.937500
3693,-85.937500
3694,-85.937500
3695,-85.937500
3696,-85.937500
3697,-85.937500
3698,-85.937500
3699,-85.937500
3700,-85.937500
3701,-85.937500
3702,-89.843750
3703,-85.937500
3704,-89.843750
3705,-89.843750
3706,-89.843750
3707,-89.843750
3708,-89.843750
3709,-89.843750
3710,-89.843750
3711,-89.843750
3712,-89.843750
3713,-89.843750
3714,-89.843750
3715,-89.843750
3716,-93.750000
3717,-93.750000
3718,-93.750000
3719,-93.750000
3720,-93.750000
3721,-93.750000
3722,-93.750000
3723,-93.750000
3724,-93.750000
3725,-93.750000
3726,-93.750000
3727,-93.750000
3728,-93.750000
3729,-93.750000
3730,-93.750000
3731,-93.750000
3732,-93.750000
3733,-93.750000
3734,-97.656250
3735,-97.656250
3736,-97.656250
3737,-97.656250
3738,-97.656250
3739,-97.656250
3740,-97.656250
3741,-97.656250
3742,-97.656250
3743,-97.656250
3744,-97.656250
3745,-97.656250
3746,-97.656250
3747,-97.656250
3748,-97.656250
3749,-97.656250
3750,-97.656250
3751,-97.656250
3752,-97.656250
3753,-101.562500
3754,-101.562500
3755,-97.656250
3756,-97.656250
3757,-97.656250
3758,-97.656250
3759,-101.562500
3760,-101.562500
3761,-101.562500
3762,-101.562500
3763,-101.562500
3764,-101.562500
3765,-101.562500
3766,-101.562500
3767,-101.562500
3768,-101.562500
3769,-101.562500
3770,-101.562500
3771,-101.562500
3772,-101.562500
3773,-101.562500
3774,-101.562500
3775,-101.562500
3776,-101.562500
3777,-101.562500
3778,-101.562500
3779,-101.562500
3780,-101.562500
3781,-101.562500
3782,-101.562500
3783,-101.562500
3784,-101.562500
3785,-101.562500
3786,-101.562500
3787,-101.562500
3788,-101.562500
3789,-101.562500
3790,-101.562500
3791,-101.562500
3792,-101.562500
3793,-101.562500
3794,-101.562500
3795,-101.562500
3796,-101.562500
3797,-101.562500
3798,-101.562500
3799,-101.562500
3800,-101.562500
3801,-101.562500
3802,-101.562500
3803,-101.562500
3804,-101.562500
3805,-101.562500
3806,-101.562500
3807,-101.562500
3808,-101.562500
3809,-101.562500
3810,-101.562500
3811,-101.562500
3812,-101.562500
3813,-101.562500
3814,-97.656250
3815,-101.562500
3816,-97.656250
3817,-97.656250
3818,-97.656250
3819,-101.562500
3820,-97.656250
3821,-101.562500
3822,-97.656250
3823,-97.656250
3824,-97.656250
3825,-97.656250
3826,-97.656250
3827,-97.656250
3828,-97.656250
3829,-97.656250
3830,-97.656250
3831,-97.656250
3832,-97.656250
3833,-97.656250
3834,-97.656250
3835,-97.656250
3836,-97.656250
3837,-97.656250
3838,-97.656250
3839,-97.656250
3840,-97.656250
3841,-97.656250
3842,-97.656250
3843,-97.656250
3844,-93.750000
3845,-93.750000
3846,-93.750000
3847,-93.750000
3848,-93.750000
3849,-93.750000
3850,-93.750000
3851,-93.750000
3852,-93.750000
3853,-93.750000
3854,-93.750000
3855,-93.750000
3856,-93.750000
3857,-93.750000
3858,-93.750000
3859,-93.750000
3860,-89.843750
3861,-89.843750
3862,-89.843750
3863,-89.843750
3864,-89.843750
3865,-89.843750
3866,-89.843750
3867,-89.843750
3868,-89.843750
3869,-89.843750
3870,-89.843750
3871,-85.937500
3872,-85.937500
3873,-85.937500
3874,-89.843750
3875,-85.937500
3876,-85.937500
3877,-85.937500
3878,-85.937500
3879,-85.937500
3880,-85.937500
3881,-85.937500
3882,-82.031250
3883,-82.031250
3884,-82.031250
3885,-82.031250
3886,-82.031250
3887,-82.031250
3888,-82.031250
3889,-82.031250
3890,-82.031250
3891,-82.031250
3892,-82.031250
3893,-78.125000
3894,-78.125000
3895,-78.125000
3896,-78.125000
3897,-78.125000
3898,-78.125000
3899,-78.125000
3900,-78.125000
3901,-78.125000
3902,-74.218750
3903,-78.125000
3904,-74.218750
3905,-74.218750
3906,-74.218750
3907,-74.218750
3908,-74.218750
3909,-74.218750
3910,-74.218750
3911,-70.312500
3912,-74.218750
3913,-70.312500
3914,-74.218750
3915,-70.312500
3916,-70.312500
3917,-70.312500
3918,-70.312500
3919,-70.312500
3920,-70.312500
3921,-66.406250
3922,-66.406250
3923,-66.406250
3924,-66.406250
3925,-66.406250
3926,-66.406250
3927,-66.406250
3928,-66.406250
3929,-66.406250
3930,-62.500000
3931,-62.500000
3932,-62.500000
3933,-62.500000
3934,-62.500000
3935,-62.500000
3936,-62.500000
3937,-62.500000
3938,-58.593750
3939,-58.593750
3940,-58.593750
3941,-58.593750
3942,-58.593750
3943,-58.593750
3944,-58.593750
3945,-58.593750
3946,-58.593750
3947,-54.687500
3948,-54.687500
3949,-54.687500
3950,-54.687500
3951,-54.687500
3952,-54.687500
3953,-54.687500
3954,-54.687500
3955,-50.781250
3956,-50.781250
3957,-50.781250
3958,-50.781250
3959,-50.781250
3960,-50.781250
3961,-50.781250
3962,-46.875000
3963,-46.875000
3964,-46.875000
3965,-46.875000
3966,-46.875000
3967,-46.875000
3968,-46.875000
3969,-42.968750
3970,-42.968750
3971,-42.968750
3972,-42.968750
3973,-42.968750
3974,-42.968750
3975,-42.968750
3976,-39.062500
3977,-42.968750
3978,-39.062500
3979,-39.062500
3980,-39.062500
3981,-39.062500
3982,-39.062500
3983,-39.062500
3984,-35.156250
3985,-35.156250
3986,-35.156250
3987,-35.156250
3988,-35.156250
3989,-35.156250
3990,-35.156250
3991,-35.156250
3992,-31.250000
3993,-31.250000
3994,-31.250000
3995,-31.250000
3996,-31.250000
3997,-31.250000
3998,-31.250000
3999,-31.250000
4000,-27.343750
4001,-27.343750
4002,-27.343750
4003,-23.437500
4004,-27.343750
4005,-23.437500
4006,-23.437500
4007,-23.437500
4008,-23.437500
4009,-23.437500
4010,-23.437500
4011,-23.437500
4012,-19.531250
4013,-19.531250
4014,-19.531250
4015,-19.531250
4016,-19.531250
4017,-19.531250
4018,-19.531250
4019,-19.531250
4020,-15.625000
4021,-15.625000
4022,-15.625000
4023,-15.625000
4024,-15.625000
4025,-11.718750
4026,-15.625000
4027,-15.625000
4028,-11.718750
4029,-11.718750
4030,-11.718750
4031,-7.812500
4032,-11.718750
4033,-11.718750
4034,-7.812500
4035,-7.812500
4036,-7.812500
4037,-7.812500
4038,-7.812500
4039,-7.812500
4040,-3.906250
4041,-3.906250
4042,-3.906250
4043,-3.906250
4044,-3.906250
4045,-3.906250
4046,-3.906250
4047,-3.906250
4048,0.000000
4049,0.000000
4050,0.000000
4051,0.000000
4052,0.000000
4053,0.000000
4054,3.906250
4055,0.000000
4056,3.906250
4057,3.906250
4058,3.906250
4059,3.906250
4060,3.906250
4061,3.906250
4062,3.906250
4063,3.906250
4064,7.812500
4065,7.812500
4066,7.812500
4067,7.812500
4068,7.812500
4069,7.812500
4070,11.718750
4071,11.718750
4072,11.718750
4073,11.718750
4074,11.718750
4075,11.718750
4076,15.625000
4077,11.718750
4078,15.625000
4079,15.625000
4080,15.625000
4081,15.625000
4082,15.625000
4083,15.625000
4084,15.625000
4085,15.625000
4086,19.531250
4087,19.531250
4088,19.531250
4089,15.625000
4090,19.531250
4091,19.531250
4092,19.531250
4093,19.531250
4094,23.437500
4095,23.437500
4096,23.437500
4097,23.437500
4098,23.437500
4099,23.437500
4100,23.437500
4101,23.437500
4102,27.343750
4103,27.343750
4104,27.343750
4105,27.343750
4106,27.343750
4107,27.343750
4108,27.343750
4109,27.343750
4110,27.343750
4111,31.250000
4112,31.250000
4113,31.250000
4114,31.250000
4115,31.250000
4116,31.250000
4117,31.250000
4118,31.250000
4119,35.156250
4120,35.156250
4121,35.156250
4122,35.156250
4123,35.156250
4124,35.156250
4125,35.156250
4126,35.156250
4127,39.062500
4128,39.062500
4129,39.062500
4130,39.062500
4131,39.062500
4132,39.062500
4133,39.062500
4134,39.062500
4135,39.062500
4136,39.062500
4137,39.062500
4138,42.968750
4139,42.968750
4140,42.968750
4141,42.968750
4142,42.968750
4143,42.968750
4144,46.875000
4145,42.968750
4146,42.968750
4147,46.875000
4148,46.875000
4149,46.875000
4150,46.875000
4151,46.875000
4152,46.875000
4153,46.875000
4154,46.875000
4155,50.781250
4156,50.781250
4157,46.875000
4158,50.781250
4159,50.781250
4160,50.781250
4161,50.781250
4162,50.781250
4163,50.781250
4164,50.781250
4165,50.781250
4166,50.781250
4167,54.687500
4168,50.781250
4169,54.687500
4170,54.687500
4171,54.687500
4172,54.687500
4173,54.687500
4174,54.687500
4175,54.687500
4176,54.687500
4177,54.687500
4178,54.687500
4179,54.687500
4180,54.687500
4181,58.593750
4182,58.593750
4183,58.593750
4184,58.593750
4185,58.593750
4186,58.593750
4187,58.593750
4188,58.593750
4189,58.593750
4190,58.593750
4191,58.593750
4192,58.593750
4193,58.593750
4194,58.593750
4195,62.500000
4196,62.500000
4197,62.500000
4198,62.500000
4199,62.500000
4200,62.500000
4201,62.500000
4202,62.500000
4203,62.500000
4204,62.500000
4205,62.500000
4206,62.500000
4207,62.500000
4208,62.500000
4209,62.500000
4210,62.500000
4211,62.500000
4212,66.406250
4213,66.406250
4214,66.406250
4215,62.500000
4216,66.406250
4217,66.406250
4218,66.406250
4219,66.406250
4220,66.406250
4221,66.406250
4222,66.406250
4223,66.406250
4224,66.406250
4225,66.406250
4226,66.406250
4227,66.406250
4228,66.406250
4229,66.406250
4230,70.312500
4231,66.406250
4232,70.312500
4233,66.406250
4234,70.312500
4235,66.406250
4236,66.406250
4237,70.312500
4238,70.312500
4239,70.312500
4240,70.312500
4241,70.312500
4242,70.312500
4243,70.312500
4244,70.312500
4245,70.312500
4246,70.312500
4247,70.312500
4248,70.312500
4249,70.312500
4250,70.312500
4251,70.312500
4252,70.312500
4253,70.312500
4254,70.312500
4255,70.312500
4256,70.312500
4257,70.312500
4258,70.312500
4259,70.312500
4260,70.312500
4261,70.312500
4262,70.312500
4263,70.312500
4264,70.312500
4265,70.312500
4266,70.312500
4267,70.312500
4268,70.312500
4269,70.312500
4270,70.312500
4271,70.312500
4272,70.312500
4273,70.312500
4274,70.312500
4275,70.312500
4276,70.312500
4277,70.312500
4278,70.312500
4279,70.312500
4280,70.312500
4281,70.312500
4282,74.218750
4283,70.312500
4284,70.312500
4285,70.312500
4286,70.312500
4287,70.312500
4288,74.218750
4289,70.312500
4290,70.312500
4291,70.312500
4292,70.312500
4293,70.312500
4294,70.312500
4295,70.312500
4296,70.312500
4297,70.312500
4298,70.312500
4299,70.312500
4300,70.312500
4301,70.312500
4302,70.312500
4303,70.312500
4304,70.312500
4305,66.406250
4306,70.312500
4307,70.312500
4308,70.312500
4309,70.312500
4310,70.312500
4311,70.312500
4312,70.312500
4313,70.312500
4314,70.312500
4315,70.312500
4316,70.312500
4317,70.312500
4318,70.312500
4319,70.312500
4320,70.312500
4321,70.312500
4322,70.312500
4323,70.312500
4324,70.312500
4325,66.406250
4326,66.406250
4327,66.406250
4328,70.312500
4329,66.406250
4330,66.406250
4331,66.406250
4332,66.406250
4333,66.406250
4334,66.406250
4335,66.406250
4336,66.406250
4337,66.406250
4338,66.406250
4339,66.406250
4340,66.406250
4341,66.406250
4342,66.406250
4343,66.406250
4344,66.406250
4345,66.406250
4346,62.500000
4347,66.406250
4348,62.500000
4349,62.500000
4350,62.500000
4351,62.500000
4352,62.500000
4353,62.500000
4354,62.500000
4355,62.500000
4356,62.500000
4357,62.500000
4358,62.500000
4359,62.500000
4360,62.500000
4361,58.593750
4362,62.500000
4363,62.500000
4364,58.593750
4365,62.500000
4366,58.593750
4367,58.593750
4368,58.593750
4369,58.593750
4370,58.593750
4371,58.593750
4372,58.593750
4373,54.687500
4374,58.593750
4375,58.593750
4376,58.593750
4377,54.687500
4378,54.687500
4379,54.687500
4380,54.687500
4381,54.687500
4382,54.687500
4383,54.687500
4384,54.687500
4385,54.687500
4386,54.687500
4387,54.687500
4388,54.687500
4389,54.687500
4390,50.781250
4391,50.781250
4392,50.781250
4393,50.781250
4394,50.781250
4395,50.781250
4396,50.781250
4397,46.875000
4398,50.781250
4399,50.781250
4400,50.781250
4401,50.781250
4402,46.875000
4403,46.875000
4404,46.875000
4405,46.875000
4406,46.875000
4407,46.875000
4408,46.875000
4409,46.875000
4410,42.968750
4411,42.968750
4412,42.968750
4413,42.968750
4414,42.968750
4415,42.968750
4416,42.968750
4417,42.968750
4418,42.968750
4419,42.968750
4420,42.968750
4421,39.062500
4422,39.062500
4423,42.968750
4424,39.062500
4425,39.062500
4426,39.062500
4427,39.062500
4428,39.062500
4429,39.062500
4430,39.062500
4431,35.156250
4432,39.062500
4433,35.156250
4434,35.156250
4435,35.156250
4436,35.156250
4437,35.156250
4438,31.250000
4439,35.156250
4440,35.156250
4441,31.250000
4442,31.250000
4443,31.250000
4444,31.250000
4445,31.250000
4446,31.250000
4447,31.250000
4448,31.250000
4449,27.343750
4450,27.343750
4451,27.343750
4452,27.343750
4453,27.343750
4454,27.343750
4455,27.343750
4456,27.343750
4457,27.343750
4458,27.343750
4459,23.437500
4460,23.437500
4461,23.437500
4462,23.437500
4463,23.437500
4464,23.437500
4465,23.437500
4466,23.437500
4467,19.531250
4468,19.531250
4469,19.531250
4470,19.531250
4471,19.531250
4472,19.531250
4473,15.625000
4474,15.625000
4475,15.625000
4476,15.625000
4477,15.625000
4478,15.625000
4479,15.625000
4480,11.718750
4481,11.718750
4482,11.718750
4483,11.718750
4484,11.718750
4485,11.718750
4486,11.718750
4487,7.812500
4488,11.718750
4489,7.812500
4490,7.812500
4491,7.812500
4492,7.812500
4493,7.812500
4494,7.812500
4495,3.906250
4496,3.906250
4497,3.906250
4498,3.906250
4499,3.906250
4500,3.906250
4501,3.906250
4502,3.906250
4503,3.906250
4504,0.000000
4505,0.000000
4506,0.000000
4507,0.000000
4508,0.000000
4509,0.000000
4510,0.000000
4511,0.000000
4512,-3.906250
4513,-3.906250
4514,-3.906250
4515,-3.906250
4516,-3.906250
4517,-3.906250
4518,-7.812500
4519,-7.812500
4520,-7.812500
4521,-7.812500
4522,-7.812500
4523,-7.812500
4524,-7.812500
4525,-11.718750
4526,-11.718750
4527,-11.718750
4528,-11.718750
4529,-11.718750
4530,-11.718750
4531,-11.718750
4532,-11.718750
4533,-15.625000
4534,-15.625000
4535,-15.625000
4536,-15.625000
4537,-15.625000
4538,-15.625000
4539,-19.531250
4540,-19.531250
4541,-19.531250
4542,-19.531250
4543,-19.531250
4544,-19.531250
4545,-19.531250
4546,-23.437500
4547,-23.437500
4548,-23.437500
4549,-23.437500
4550,-23.437500
4551,-23.437500
4552,-23.437500
4553,-23.437500
4554,-23.437500
4555,-27.343750
4556,-27.343750
4557,-27.343750
4558,-27.343750
4559,-27.343750
4560,-27.343750
4561,-31.250000
4562,-31.250000
4563,-31.250000
4564,-31.250000
4565,-31.250000
4566,-31.250000
4567,-35.156250
4568,-35.156250
4569,-35.156250
4570,-35.156250
4571,-35.156250
4572,-35.156250
4573,-35.156250
4574,-35.156250
4575,-35.156250
4576,-39.062500
4577,-39.062500
4578,-39.062500
4579,-39.062500
4580,-39.062500
4581,-39.062500
4582,-39.062500
4583,-42.968750
4584,-42.968750
4585,-42.968750
4586,-42.968750
4587,-42.968750
4588,-42.968750
4589,-46.875000
4590,-46.875000
4591,-46.875000
4592,-46.875000
4593,-46.875000
4594,-46.875000
4595,-46.875000
4596,-46.875000
4597,-46.875000
4598,-50.781250
4599,-50.781250
4600,-50.781250
4601,-50.781250
4602,-50.781250
4603,-50.781250
4604,-50.781250
4605,-54.687500
4606,-50.781250
4607,-54.687500
4608,-54.687500
4609,-54.687500
4610,-54.687500
4611,-54.687500
4612,-54.687500
4613,-58.593750
4614,-58.593750
4615,-58.593750
4616,-58.593750
4617,-58.593750
4618,-58.593750
4619,-58.593750
4620,-62.500000
4621,-62.500000
4622,-62.500000
4623,-62.500000
4624,-62.500000
4625,-62.500000
4626,-62.500000
4627,-66.406250
4628,-62.500000
4629,-66.406250
4630,-66.406250
4631,-66.406250
4632,-66.406250
4633,-66.406250
4634,-66.406250
4635,-66.406250
4636,-66.406250
4637,-70.312500
4638,-66.406250
4639,-70.312500
4640,-70.312500
4641,-70.312500
4642,-70.312500
4643,-70.312500
4644,-70.312500
4645,-70.312500
4646,-74.218750
4647,-74.218750
4648,-74.218750
4649,-74.218750
4650,-74.218750
4651,-74.218750
4652,-74.218750
4653,-74.218750
4654,-74.218750
4655,-74.218750
4656,-74.218750
4657,-78.125000
4658,-78.125000
4659,-78.125000
4660,-78.125000
4661,-78.125000
4662,-78.125000
4663,-78.125000
4664,-78.125000
4665,-78.125000
4666,-82.031250
4667,-82.031250
4668,-82.031250
4669,-82.031250
4670,-82.031250
4671,-82.031250
4672,-82.031250
4673,-82.031250
4674,-82.031250
4675,-82.031250
4676,-82.031250
4677,-85.937500
4678,-85.937500
4679,-85.937500
4680,-85.937500
4681,-85.937500
4682,-85.937500
4683,-85.937500
4684,-85.937500
4685,-85.937500
4686,-85.937500
4687,-85.937500
4688,-85.937500
4689,-85.937500
4690,-89.843750
4691,-89.843750
4692,-85.937500
4693,-85.937500
4694,-89.843750
4695,-89.843750
4696,-89.843750
4697,-89.843750
4698,-89.843750
4699,-89.843750
4700,-89.843750
4701,-89.843750
4702,-89.843750
4703,-89.843750
4704,-89.843750
4705,-93.750000
4706,-89.843750
4707,-93.750000
4708,-93.750000
4709,-93.750000
4710,-93.750000
4711,-93.750000
4712,-93.750000
4713,-93.750000
4714,-93.750000
4715,-93.750000
4716,-93.750000
4717,-93.750000
4718,-93.750000
4719,-93.750000
4720,-93.750000
4721,-97.656250
4722,-97.656250
4723,-97.656250
4724,-97.656250
4725,-97.656250
4726,-97.656250
4727,-97.656250
4728,-97.656250
4729,-97.656250
4730,-97.656250
4731,-97.656250
4732,-97.656250
4733,-97.656250
4734,-97.656250
4735,-97.656250
4736,-97.656250
4737,-97.656250
4738,-97.656250
4739,-97.656250
4740,-97.656250
4741,-97.656250
4742,-97.656250
4743,-101.562500
4744,-101.562500
4745,-101.562500
4746,-101.562500
4747,-97.656250
4748,-101.562500
4749,-101.562500
4750,-101.562500
4751,-101.562500
4752,-101.562500
4753,-101.562500
4754,-101.562500
4755,-101.562500
4756,-101.562500
4757,-101.562500
4758,-101.562500
4759,-101.562500
4760,-101.562500
4761,-101.562500
4762,-101.562500
4763,-101.562500
4764,-101.562500
4765,-101.562500
4766,-101.562500
4767,-101.562500
4768,-101.562500
4769,-101.562500
4770,-101.562500
4771,-101.562500
4772,-101.562500
4773,-101.562500
4774,-101.562500
4775,-101.562500
4776,-101.562500
4777,-101.562500
4778,-101.562500
4779,-101.562500
4780,-105.468750
4781,-101.562500
4782,-101.562500
4783,-101.562500
4784,-101.562500
4785,-101.562500
4786,-101.562500
4787,-101.562500
4788,-101.562500
4789,-101.562500
4790,-101.562500
4791,-101.562500
4792,-101.562500
4793,-101.562500
4794,-101.562500
4795,-101.562500
4796,-101.562500
4797,-101.562500
4798,-97.656250
4799,-97.656250
4800,-97.656250
4801,-97.656250
4802,-97.656250
4803,-101.562500
4804,-101.562500
4805,-97.656250
4806,-97.656250
4807,-97.656250
4808,-97.656250
4809,-97.656250
4810,-97.656250
4811,-97.656250
4812,-97.656250
4813,-97.656250
4814,-97.656250
4815,-97.656250
4816,-97.656250
4817,-97.656250
4818,-97.656250
4819,-97.656250
4820,-97.656250
4821,-97.656250
4822,-97.656250
4823,-97.656250
4824,-97.656250
4825,-93.750000
4826,-93.750000
4827,-93.750000
4828,-93.750000
4829,-93.750000
4830,-93.750000
4831,-93.750000
4832,-93.750000
4833,-93.750000
4834,-93.750000
4835,-93.750000
4836,-93.750000
4837,-93.750000
4838,-93.750000
4839,-93.750000
4840,-93.750000
4841,-93.750000
4842,-89.843750
4843,-89.843750
4844,-89.843750
4845,-89.843750
4846,-93.750000
4847,-89.843750
4848,-89.843750
4849,-89.843750
4850,-89.843750
4851,-89.843750
4852,-89.843750
4853,-89.843750
4854,-89.843750
4855,-89.843750
4856,-89.843750
4857,-89.843750
4858,-89.843750
4859,-89.843750
4860,-85.937500
4861,-85.937500
4862,-85.937500
4863,-85.937500
4864,-85.937500
4865,-85.937500
4866,-85.937500
4867,-85.937500
4868,-85.937500
4869,-85.937500
4870,-82.031250
4871,-85.937500
4872,-82.031250
4873,-85.937500
4874,-85.937500
4875,-82.031250
4876,-82.031250
4877,-82.031250
4878,-82.031250
4879,-82.031250
4880,-82.031250
4881,-82.031250
4882,-82.031250
4883,-82.031250
4884,-78.125000
4885,-78.125000
4886,-78.125000
4887,-78.125000
4888,-78.125000
4889,-78.125000
4890,-78.125000
4891,-78.125000
4892,-78.125000
4893,-78.125000
4894,-74.218750
4895,-74.218750
4896,-74.218750
4897,-74.218750
4898,-74.218750
4899,-74.218750
4900,-74.218750
4901,-74.218750
4902,-74.218750
4903,-74.218750
4904,-70.312500
4905,-70.312500
4906,-70.312500
4907,-70.312500
4908,-70.312500
4909,-70.312500
4910,-70.312500
4911,-70.312500
4912,-66.406250
4913,-66.406250
4914,-66.406250
4915,-66.406250
4916,-66.406250
4917,-66.406250
4918,-66.406250
4919,-66.406250
4920,-62.500000
4921,-62.500000
4922,-62.500000
4923,-62.500000
4924,-62.500000
4925,-62.500000
4926,-62.500000
4927,-62.500000
4928,-62.500000
4929,-58.593750
4930,-58.593750
4931,-58.593750
4932,-58.593750
4933,-58.593750
4934,-58.593750
4935,-58.593750
4936,-58.593750
4937,-54.687500
4938,-54.687500
4939,-54.687500
4940,-54.687500
4941,-54.687500
4942,-54.687500
4943,-54.687500
4944,-50.781250
4945,-50.781250
4946,-50.781250
4947,-50.781250
4948,-50.781250
4949,-50.781250
4950,-50.781250
4951,-46.875000
4952,-46.875000
4953,-46.875000
4954,-46.875000
4955,-46.875000
4956,-46.875000
4957,-46.875000
4958,-46.875000
4959,-42.968750
4960,-42.968750
4961,-42.968750
4962,-42.968750
4963,-42.968750
4964,-42.968750
4965,-42.968750
4966,-39.062500
4967,-39.062500
4968,-39.062500
4969,-39.062500
4970,-39.062500
4971,-39.062500
4972,-35.156250
4973,-39.062500
4974,-35.156250
4975,-35.156250
4976,-35.156250
4977,-35.156250
4978,-35.156250
4979,-35.156250
4980,-35.156250
4981,-31.250000
4982,-31.250000
4983,-31.250000
4984,-31.250000
4985,-31.250000
4986,-31.250000
4987,-27.343750
4988,-27.343750
4989,-27.343750
4990,-27.343750
4991,-27.343750
4992,-27.343750
4993,-27.343750
4994,-27.343750
4995,-23.437500
4996,-23.437500
4997,-23.437500
4998,-23.437500
4999,-23.437500
5000,-23.437500
5001,-23.437500
5002,-19.531250
5003,-19.531250
5004,-19.531250
5005,-19.531250
5006,-19.531250
5007,-19.531250
5008,-15.625000
5009,-15.625000
5010,-15.625000
5011,-15.625000
5012,-15.625000
5013,-15.625000
5014,-15.625000
5015,-15.625000
5016,-11.718750
5017,-11.718750
5018,-11.718750
5019,-11.718750
5020,-11.718750
5021,-11.718750
5022,-11.718750
5023,-11.718750
5024,-7.812500
5025,-7.812500
5026,-7.812500
5027,-7.812500
5028,-7.812500
5029,-3.906250
5030,-7.812500
5031,-3.906250
5032,-3.906250
5033,-3.906250
5034,-3.906250
5035,-3.906250
5036,0.000000
5037,-3.906250
5038,0.000000
5039,0.000000
5040,0.000000
5041,0.000000
5042,0.000000
5043,3.906250
5044,3.906250
5045,3.906250
5046,3.906250
5047,3.906250
5048,3.906250
5049,3.906250
5050,3.906250
5051,7.812500
5052,7.812500
5053,7.812500
5054,7.812500
5055,7.812500
5056,7.812500
5057,7.812500
5058,7.812500
5059,11.718750
5060,11.718750
5061,11.718750
5062,11.718750
5063,11.718750
5064,11.718750
5065,11.718750
5066,15.625000
5067,15.625000
5068,15.625000
5069,15.625000
5070,15.625000
5071,15.625000
5072,15.625000
5073,19.531250
5074,19.531250
5075,19.531250
5076,19.531250
5077,19.531250
5078,19.531250
5079,19.531250
5080,19.531250
5081,19.531250
5082,23.437500
5083,23.437500
5084,23.437500
5085,23.437500
5086,23.437500
5087,23.437500
5088,27.343750
5089,27.343750
5090,27.343750
5091,27.343750
5092,27.343750
5093,27.343750
5094,27.343750
5095,27.343750
5096,27.343750
5097,27.343750
5098,31.250000
5099,31.250000
5100,31.250000
5101,31.250000
5102,31.250000
5103,31.250000
5104,31.250000
5105,31.250000
5106,35.156250
5107,31.250000
5108,35.156250
5109,35.156250
5110,35.156250
5111,35.156250
5112,35.156250
5113,35.156250
5114,35.156250
5115,35.156250
5116,39.062500
5117,39.062500
5118,39.062500
5119,39.062500
5120,39.062500
5121,39.062500
5122,39.062500
5123,42.968750
5124,42.968750
5125,42.968750
5126,42.968750
5127,42.968750
5128,42.968750
5129,42.968750
5130,42.968750
5131,42.968750
5132,42.968750
5133,42.968750
5134,42.968750
5135,42.968750
5136,46.875000
5137,46.875000
5138,46.875000
5139,46.875000
5140,46.875000
5141,46.875000
5142,46.875000
5143,46.875000
5144,46.875000
5145,46.875000
5146,50.781250
5147,50.781250
5148,50.781250
5149,50.781250
5150,50.781250
5151,50.781250
5152,50.781250
5153,54.687500
5154,50.781250
5155,50.781250
5156,50.781250
5157,50.781250
5158,54.687500
5159,54.687500
5160,54.687500
5161,54.687500
5162,54.687500
5163,54.687500
5164,54.687500
5165,54.687500
5166,54.687500
5167,54.687500
5168,58.593750
5169,54.687500
5170,58.593750
5171,58.593750
5172,58.593750
5173,58.593750
5174,58.593750
5175,58.593750
5176,58.593750
5177,58.593750
5178,58.593750
5179,58.593750
5180,58.593750
5181,58.593750
5182,58.593750
5183,58.593750
5184,58.593750
5185,62.500000
5186,62.500000
5187,62.500000
5188,62.500000
5189,62.500000
5190,62.500000
5191,62.500000
5192,62.500000
5193,62.500000
5194,62.500000
5195,62.500000
5196,62.500000
5197,62.500000
5198,62.500000
5199,62.500000
5200,66.406250
5201,66.406250
5202,66.406250
5203,66.406250
5204,66.406250
5205,66.406250
5206,66.406250
5207,66.406250
5208,66.406250
5209,66.406250
5210,66.406250
5211,66.406250
5212,66.406250
5213,66.406250
5214,66.406250
5215,66.406250
5216,66.406250
5217,66.406250
5218,66.406250
5219,66.406250
5220,66.406250
5221,66.406250
5222,66.406250
5223,66.406250
5224,70.312500
5225,70.312500
5226,66.406250
5227,66.406250
5228,70.312500
5229,70.312500
5230,70.312500
5231,70.312500
5232,70.312500
5233,70.312500
5234,70.312500
5235,70.312500
5236,70.312500
5237,70.312500
5238,70.312500
5239,70.312500
5240,70.312500
5241,70.312500
5242,70.312500
5243,70.312500
5244,70.312500
5245,70.312500
5246,70.312500
5247,70.312500
5248,70.312500
5249,70.312500
5250,70.312500
5251,70.312500
5252,74.218750
5253,70.312500
5254,70.312500
5255,70.312500
5256,70.312500
5257,70.312500
5258,70.312500
5259,70.312500
5260,70.312500
5261,70.312500
5262,70.312500
5263,70.312500
5264,70.312500
5265,70.312500
5266,70.312500
5267,70.312500
5268,70.312500
5269,70.312500
5270,70.312500
5271,70.312500
5272,70.312500
5273,70.312500
5274,70.312500
5275,70.312500
5276,70.312500
5277,70.312500
5278,70.312500
5279,70.312500
5280,70.312500
5281,70.312500
5282,70.312500
5283,70.312500
5284,70.312500
5285,70.312500
5286,70.312500
5287,70.312500
5288,70.312500
5289,70.312500
5290,70.312500
5291,70.312500
5292,70.312500
5293,70.312500
5294,70.312500
5295,70.312500
5296,70.312500
5297,70.312500
5298,70.312500
5299,70.312500
5300,70.312500
5301,70.312500
5302,70.312500
5303,70.312500
5304,70.312500
5305,70.312500
5306,70.312500
5307,70.312500
5308,70.312500
5309,66.406250
5310,70.312500
5311,70.312500
5312,70.312500
5313,66.406250
5314,70.312500
5315,66.406250
5316,66.406250
5317,66.406250
5318,66.406250
5319,66.406250
5320,66.406250
5321,66.406250
5322,66.406250
5323,66.406250
5324,66.406250
5325,66.406250
5326,66.406250
5327,66.406250
5328,66.406250
5329,66.406250
5330,66.406250
5331,66.406250
5332,66.406250
5333,62.500000
5334,66.406250
5335,62.500000
5336,62.500000
5337,62.500000
5338,62.500000
5339,62.500000
5340,62.500000
5341,62.500000
5342,62.500000
5343,62.500000
5344,62.500000
5345,62.500000
5346,62.500000
5347,62.500000
5348,62.500000
5349,58.593750
5350,62.500000
5351,62.500000
5352,58.593750
5353,58.593750
5354,58.593750
5355,58.593750
5356,58.593750
5357,58.593750
5358,58.593750
5359,58.593750
5360,58.593750
5361,58.593750
5362,58.593750
5363,58.593750
5364,58.593750
5365,58.593750
5366,54.687500
5367,54.687500
5368,54.687500
5369,54.687500
5370,54.687500
5371,54.687500
5372,54.687500
5373,54.687500
5374,54.687500
5375,54.687500
5376,54.687500
5377,54.687500
5378,54.687500
5379,50.781250
5380,50.781250
5381,50.781250
5382,50.781250
5383,50.781250
5384,50.781250
5385,50.781250
5386,50.781250
5387,50.781250
5388,50.781250
5389,46.875000
5390,46.875000
5391,46.875000
5392,46.875000
5393,46.875000
5394,46.875000
5395,46.875000
5396,46.875000
5397,46.875000
5398,46.875000
5399,46.875000
5400,46.875000
5401,42.968750
5402,42.968750
5403,42.968750
5404,42.968750
5405,42.968750
5406,42.968750
5407,42.968750
5408,42.968750
5409,42.968750
5410,42.968750
5411,39.062500
5412,39.062500
5413,39.062500
5414,39.062500
5415,39.062500
5416,39.062500
5417,39.062500
5418,39.062500
5419,39.062500
5420,39.062500
5421,35.156250
5422,35.156250
5423,35.156250
5424,35.156250
5425,35.156250
5426,35.156250
5427,35.156250
5428,35.156250
5429,35.156250
5430,31.250000
5431,31.250000
5432,31.250000
5433,31.250000
5434,31.250000
5435,31.250000
5436,31.250000
5437,27.343750
5438,27.343750
5439,27.343750
5440,27.343750
5441,27.343750
5442,27.343750
5443,27.343750
5444,27.343750
5445,27.343750
5446,27.343750
5447,27.343750
5448,23.437500
5449,23.437500
5450,23.437500
5451,23.437500
5452,23.437500
5453,19.531250
5454,23.437500
5455,19.531250
5456,23.437500
5457,19.531250
5458,19.531250
5459,19.531250
5460,19.531250
5461,19.531250
5462,19.531250
5463,15.625000
5464,15.625000
5465,15.625000
5466,15.625000
5467,15.625000
5468,15.625000
5469,15.625000
5470,11.718750
5471,11.718750
5472,11.718750
5473,11.718750
5474,11.718750
5475,11.718750
5476,11.718750
5477,11.718750
5478,11.718750
5479,7.812500
5480,7.812500
5481,7.812500
5482,7.812500
5483,7.812500
5484,7.812500
5485,7.812500
5486,3.906250
5487,3.906250
5488,3.906250
5489,3.906250
5490,3.906250
5491,3.906250
5492,3.906250
5493,0.000000
5494,0.000000
5495,0.000000
5496,0.000000
5497,0.000000
5498,0.000000
5499,0.000000
5500,0.000000
5501,-3.906250
5502,-3.906250
5503,-3.906250
5504,-3.906250
5505,-3.906250
5506,-3.906250
5507,-7.812500
5508,-7.812500
5509,-7.812500
5510,-7.812500
5511,-7.812500
5512,-7.812500
5513,-7.812500
5514,-7.812500
5515,-11.718750
5516,-11.718750
5517,-11.718750
5518,-11.718750
5519,-11.718750
5520,-11.718750
5521,-11.718750
5522,-15.625000
5523,-15.625000
5524,-15.625000
5525,-15.625000
5526,-15.625000
5527,-15.625000
5528,-19.531250
5529,-19.531250
5530,-19.531250
5531,-19.531250
5532,-19.531250
5533,-19.531250
5534,-19.531250
5535,-19.531250
5536,-23.437500
5537,-23.437500
5538,-23.437500
5539,-23.437500
5540,-23.437500
5541,-23.437500
5542,-23.437500
5543,-27.343750
5544,-23.437500
5545,-27.343750
5546,-27.343750
5547,-27.343750
5548,-27.343750
5549,-31.250000
5550,-31.250000
5551,-35.156250
5552,-31.250000
5553,-31.250000
5554,-31.250000
5555,-31.250000
5556,-31.250000
5557,-35.156250
5558,-35.156250
5559,-35.156250
5560,-35.156250
5561,-35.156250
5562,-35.156250
5563,-35.156250
5564,-35.156250
5565,-35.156250
5566,-35.156250
5567,-39.062500
5568,-39.062500
5569,-39.062500
5570,-39.062500
5571,-39.062500
5572,-39.062500
5573,-42.968750
5574,-42.968750
5575,-42.968750
5576,-42.968750
5577,-42.968750
5578,-42.968750
5579,-46.875000
5580,-46.875000
5581,-46.875000
5582,-46.875000
5583,-46.875000
5584,-46.875000
5585,-46.875000
5586,-46.875000
5587,-50.781250
5588,-50.781250
5589,-50.781250
5590,-50.781250
5591,-50.781250
5592,-50.781250
5593,-50.781250
5594,-50.781250
5595,-54.687500
5596,-54.687500
5597,-54.687500
5598,-54.687500
5599,-54.687500
5600,-54.687500
5601,-54.687500
5602,-54.687500
5603,-54.687500
5604,-58.593750
5605,-58.593750
5606,-58.593750
5607,-58.593750
5608,-58.593750
5609,-58.593750
5610,-58.593750
5611,-58.593750
5612,-62.500000
5613,-62.500000
5614,-62.500000
5615,-62.500000
5616,-62.500000
5617,-62.500000
5618,-66.406250
5619,-66.406250
5620,-66.406250
5621,-66.406250
5622,-66.406250
5623,-66.406250
5624,-66.406250
5625,-66.406250
5626,-70.312500
5627,-70.312500
5628,-70.312500
5629,-70.312500
5630,-70.312500
5631,-70.312500
5632,-70.312500
5633,-70.312500
5634,-70.312500
5635,-70.312500
5636,-74.218750
5637,-74.218750
5638,-74.218750
5639,-74.218750
5640,-74.218750
5641,-74.218750
5642,-74.218750
5643,-74.218750
5644,-74.218750
5645,-74.218750
5646,-78.125000
5647,-78.125000
5648,-78.125000
5649,-78.125000
5650,-78.125000
5651,-78.125000
5652,-82.031250
5653,-78.125000
5654,-78.125000
5655,-78.125000
5656,-82.031250
5657,-82.031250
5658,-82.031250
5659,-82.031250
5660,-82.031250
5661,-82.031250
5662,-82.031250
5663,-82.031250
5664,-82.031250
5665,-82.031250
5666,-82.031250
5667,-85.937500
5668,-85.937500
5669,-85.937500
5670,-85.937500
5671,-85.937500
5672,-85.937500
5673,-85.937500
5674,-85.937500
5675,-85.937500
5676,-85.937500
5677,-89.843750
5678,-89.843750
5679,-89.843750
5680,-89.843750
5681,-89.843750
5682,-89.843750
5683,-89.843750
5684,-89.843750
5685,-89.843750
5686,-89.843750
5687,-89.843750
5688,-89.843750
5689,-93.750000
5690,-89.843750
5691,-89.843750
5692,-89.843750
5693,-89.843750
5694,-89.843750
5695,-93.750000
5696,-93.750000
5697,-93.750000
5698,-93.750000
5699,-93.750000
5700,-93.750000
5701,-93.750000
5702,-93.750000
5703,-93.750000
5704,-93.750000
5705,-93.750000
5706,-93.750000
5707,-93.750000
5708,-93.750000
5709,-93.750000
5710,-93.750000
5711,-97.656250
5712,-97.656250
5713,-97.656250
5714,-97.656250
5715,-97.656250
5716,-97.656250
5717,-97.656250
5718,-97.656250
5719,-97.656250
5720,-97.656250
5721,-97.656250
5722,-97.656250
5723,-97.656250
5724,-97.656250
5725,-97.656250
5726,-97.656250
5727,-97.656250
5728,-97.656250
5729,-97.656250
5730,-97.656250
5731,-97.656250
5732,-97.656250
5733,-97.656250
5734,-97.656250
5735,-97.656250
5736,-97.656250
5737,-97.656250
5738,-97.656250
5739,-97.656250
5740,-101.562500
5741,-101.562500
5742,-101.562500
5743,-101.562500
5744,-101.562500
5745,-101.562500
5746,-101.562500
5747,-101.562500
5748,-101.562500
5749,-101.562500
5750,-101.562500
5751,-101.562500
5752,-101.562500
5753,-101.562500
5754,-101.562500
5755,-101.562500
5756,-101.562500
5757,-101.562500
5758,-101.562500
5759,-101.562500
5760,-101.562500
5761,-101.562500
5762,-101.562500
5763,-101.562500
5764,-101.562500
5765,-101.562500
5766,-101.562500
5767,-101.562500
5768,-101.562500
5769,-101.562500
5770,-101.562500
5771,-101.562500
5772,-101.562500
5773,-101.562500
5774,-101.562500
5775,-101.562500
5776,-101.562500
5777,-101.562500
5778,-101.562500
5779,-101.562500
5780,-101.562500
5781,-101.562500
5782,-101.562500
5783,-101.562500
5784,-101.562500
5785,-101.562500
5786,-101.562500
5787,-101.562500
5788,-101.562500
5789,-101.562500
5790,-101.562500
5791,-101.562500
5792,-101.562500
5793,-101.562500
5794,-97.656250
5795,-101.562500
5796,-101.562500
5797,-101.562500
5798,-101.562500
5799,-101.562500
5800,-101.562500
5801,-97.656250
5802,-97.656250
5803,-97.656250
5804,-97.656250
5805,-97.656250
5806,-97.656250
5807,-97.656250
5808,-97.656250
5809,-97.656250
5810,-97.656250
5811,-97.656250
5812,-97.656250
5813,-97.656250
5814,-97.656250
5815,-97.656250
5816,-93.750000
5817,-97.656250
5818,-97.656250
5819,-97.656250
5820,-93.750000
5821,-93.750000
5822,-93.750000
5823,-93.750000
5824,-93.750000
5825,-93.750000
5826,-93.750000
5827,-93.750000
5828,-93.750000
5829,-93.750000
5830,-93.750000
5831,-93.750000
5832,-93.750000
5833,-93.750000
5834,-89.843750
5835,-89.843750
5836,-89.843750
5837,-89.843750
5838,-89.843750
5839,-89.843750
5840,-89.843750
5841,-89.843750
5842,-89.843750
5843,-89.843750
5844,-89.843750
5845,-89.843750
5846,-85.937500
5847,-89.843750
5848,-85.937500
5849,-85.937500
5850,-85.937500
5851,-85.937500
5852,-85.937500
5853,-85.937500
5854,-85.937500
5855,-85.937500
5856,-85.937500
5857,-85.937500
5858,-85.937500
5859,-82.031250
5860,-82.031250
5861,-82.031250
5862,-82.031250
5863,-82.031250
5864,-82.031250
5865,-82.031250
5866,-82.031250
5867,-82.031250
5868,-82.031250
5869,-82.031250
5870,-82.031250
5871,-82.031250
5872,-82.031250
5873,-78.125000
5874,-78.125000
5875,-82.031250
5876,-78.125000
5877,-78.125000
5878,-74.218750
5879,-78.125000
5880,-74.218750
5881,-78.125000
5882,-74.218750
5883,-74.218750
5884,-78.125000
5885,-74.218750
5886,-74.218750
5887,-74.218750
5888,-74.218750
5889,-74.218750
5890,-74.218750
5891,-70.312500
5892,-70.312500
5893,-70.312500
5894,-70.312500
5895,-70.312500
5896,-70.312500
5897,-70.312500
5898,-70.312500
5899,-66.406250
5900,-66.406250
5901,-70.312500
5902,-66.406250
5903,-66.406250
5904,-66.406250
5905,-66.406250
5906,-66.406250
5907,-66.406250
5908,-66.406250
5909,-62.500000
5910,-62.500000
5911,-62.500000
5912,-62.500000
5913,-66.406250
5914,-62.500000
5915,-62.500000
5916,-58.593750
5917,-62.500000
5918,-58.593750
5919,-62.500000
5920,-58.593750
5921,-58.593750
5922,-58.593750
5923,-58.593750
5924,-58.593750
5925,-58.593750
5926,-58.593750
5927,-54.687500
5928,-54.687500
5929,-54.687500
5930,-54.687500
5931,-54.687500
5932,-50.781250
5933,-50.781250
5934,-50.781250
5935,-50.781250
5936,-50.781250
5937,-50.781250
5938,-50.781250
5939,-50.781250
5940,-50.781250
5941,-50.781250
5942,-42.968750
5943,-46.875000
5944,-46.875000
5945,-46.875000
5946,-46.875000
5947,-46.875000
5948,-46.875000
5949,-42.968750
5950,-42.968750
5951,-39.062500
5952,-42.968750
5953,-42.968750
5954,-42.968750
5955,-42.968750
5956,-39.062500
5957,-39.062500
5958,-39.062500
5959,-39.062500
5960,-39.062500
5961,-39.062500
5962,-39.062500
5963,-35.156250
5964,-35.156250
5965,-35.156250
5966,-35.156250
5967,-35.156250
5968,-35.156250
5969,-35.156250
5970,-31.250000
5971,-31.250000
5972,-31.250000
5973,-31.250000
5974,-31.250000
5975,-31.250000
5976,-31.250000
5977,-31.250000
5978,-27.343750
5979,-27.343750
5980,-27.343750
5981,-27.343750
5982,-27.343750
5983,-27.343750
5984,-23.437500
5985,-23.437500
5986,-23.437500
5987,-23.437500
5988,-19.531250
5989,-23.437500
5990,-23.437500
5991,-19.531250
5992,-19.531250
5993,-19.531250
5994,-19.531250
5995,-19.531250
5996,-19.531250
5997,-19.531250
5998,-15.625000
5999,-19.531250
6000,-15.625000
6001,-15.625000
6002,-15.625000
6003,-15.625000
6004,-15.625000
6005,-15.625000
6006,-11.718750
6007,-11.718750
6008,-11.718750
6009,-11.718750
6010,-7.812500
6011,-11.718750
6012,-11.718750
6013,-7.812500
6014,-7.812500
6015,-7.812500
6016,-3.906250
6017,-7.812500
6018,-7.812500
6019,-3.906250
6020,-7.812500
6021,-3.906250
6022,-3.906250
6023,-3.906250
6024,0.000000
6025,-3.906250
6026,-3.906250
6027,0.000000
6028,3.906250
6029,0.000000
6030,0.000000
6031,0.000000
6032,0.000000
6033,0.000000
6034,3.906250
6035,3.906250
6036,3.906250
6037,3.906250
6038,3.906250
6039,3.906250
6040,3.906250
6041,3.906250
6042,7.812500
6043,7.812500
6044,7.812500
6045,7.812500
6046,7.812500
6047,7.812500
6048,11.718750
6049,11.718750
6050,11.718750
6051,11.718750
6052,11.718750
6053,11.718750
6054,11.718750
6055,11.718750
6056,15.625000
6057,15.625000
6058,15.625000
6059,15.625000
6060,15.625000
6061,15.625000
6062,15.625000
6063,15.625000
6064,15.625000
6065,19.531250
6066,19.531250
6067,19.531250
6068,19.531250
6069,19.531250
6070,23.437500
6071,19.531250
6072,23.437500
6073,23.437500
6074,23.437500
6075,23.437500
6076,23.437500
6077,23.437500
6078,23.437500
6079,23.437500
6080,27.343750
6081,27.343750
6082,27.343750
6083,27.343750
6084,27.343750
6085,27.343750
6086,27.343750
6087,27.343750
6088,31.250000
6089,31.250000
6090,31.250000
6091,31.250000
6092,31.250000
6093,31.250000
6094,31.250000
6095,31.250000
6096,35.156250
6097,35.156250
6098,35.156250
6099,35.156250
6100,35.156250
6101,35.156250
6102,35.156250
6103,35.156250
6104,35.156250
6105,39.062500
6106,39.062500
6107,39.062500
6108,39.062500
6109,39.062500
6110,39.062500
6111,39.062500
6112,39.062500
6113,39.062500
6114,39.062500
6115,42.968750
6116,42.968750
6117,42.968750
6118,42.968750
6119,42.968750
6120,42.968750
6121,42.968750
6122,42.968750
6123,46.875000
6124,46.875000
6125,46.875000
6126,46.875000
6127,46.875000
6128,46.875000
6129,46.875000
6130,46.875000
6131,46.875000
6132,46.875000
6133,46.875000
6134,50.781250
6135,50.781250
6136,50.781250
6137,50.781250
6138,50.781250
6139,50.781250
6140,50.781250
6141,50.781250
6142,50.781250
6143,50.781250
6144,50.781250
6145,50.781250
6146,54.687500
6147,54.687500
6148,54.687500
6149,54.687500
6150,54.687500
6151,54.687500
6152,54.687500
6153,54.687500
6154,54.687500
6155,54.687500
6156,54.687500
6157,54.687500
6158,58.593750
6159,58.593750
6160,58.593750
6161,58.593750
6162,58.593750
6163,58.593750
6164,58.593750
6165,58.593750
6166,58.593750
6167,58.593750
6168,58.593750
6169,58.593750
6170,62.500000
6171,62.500000
6172,58.593750
6173,58.593750
6174,62.500000
6175,58.593750
6176,62.500000
6177,62.500000
6178,62.500000
6179,62.500000
6180,62.500000
6181,62.500000
6182,62.500000
6183,62.500000
6184,62.500000
6185,62.500000
6186,62.500000
6187,62.500000
6188,62.500000
6189,62.500000
6190,62.500000
6191,62.500000
6192,62.500000
6193,66.406250
6194,66.406250
6195,66.406250
6196,66.406250
6197,66.406250
6198,66.406250
6199,66.406250
6200,66.406250
6201,66.406250
6202,66.406250
6203,66.406250
6204,66.406250
6205,66.406250
6206,66.406250
6207,66.406250
6208,66.406250
6209,66.406250
6210,66.406250
6211,66.406250
6212,70.312500
6213,66.406250
6214,66.406250
6215,70.312500
6216,66.406250
6217,66.406250
6218,70.312500
6219,70.312500
6220,70.312500
6221,70.312500
6222,70.312500
6223,70.312500
6224,70.312500
6225,70.312500
6226,70.312500
6227,70.312500
6228,70.312500
6229,70.312500
6230,70.312500
6231,70.312500
6232,70.312500
6233,70.312500
6234,70.312500
6235,70.312500
6236,70.312500
6237,70.312500
6238,70.312500
6239,70.312500
6240,70.312500
6241,70.312500
6242,70.312500
6243,70.312500
6244,70.312500
6245,70.312500
6246,70.312500
6247,70.312500
6248,70.312500
6249,70.312500
6250,70.312500
6251,70.312500
6252,70.312500
6253,70.312500
6254,70.312500
6255,70.312500
6256,70.312500
6257,70.312500
6258,70.312500
6259,70.312500
6260,70.312500
6261,70.312500
6262,70.312500
6263,70.312500
6264,70.312500
6265,70.312500
6266,70.312500
6267,70.312500
6268,70.312500
6269,70.312500
6270,70.312500
6271,70.312500
6272,70.312500
6273,70.312500
6274,70.312500
6275,70.312500
6276,70.312500
6277,70.312500
6278,70.312500
6279,70.312500
6280,70.312500
6281,70.312500
6282,70.312500
6283,70.312500
6284,70.312500
6285,70.312500
6286,70.312500
6287,70.312500
6288,70.312500
6289,70.312500
6290,70.312500
6291,66.406250
6292,70.312500
6293,70.312500
6294,70.312500
6295,70.312500
6296,70.312500
6297,70.312500
6298,70.312500
6299,70.312500
6300,66.406250
6301,66.406250
6302,66.406250
6303,66.406250
6304,66.406250
6305,66.406250
6306,66.406250
6307,66.406250
6308,66.406250
6309,66.406250
6310,66.406250
6311,66.406250
6312,66.406250
6313,66.406250
6314,66.406250
6315,66.406250
6316,66.406250
6317,66.406250
6318,66.406250
6319,66.406250
6320,62.500000
6321,66.406250
6322,66.406250
6323,62.500000
6324,62.500000
6325,66.406250
6326,62.500000
6327,62.500000
6328,62.500000
6329,62.500000
6330,62.500000
6331,62.500000
6332,62.500000
6333,62.500000
6334,62.500000
6335,62.500000
6336,62.500000
6337,62.500000
6338,62.500000
6339,62.500000
6340,62.500000
6341,58.593750
6342,58.593750
6343,58.593750
6344,58.593750
6345,58.593750
6346,58.593750
6347,58.593750
6348,58.593750
6349,58.593750
6350,58.593750
6351,58.593750
6352,58.593750
6353,58.593750
6354,58.593750
6355,54.687500
6356,54.687500
6357,54.687500
6358,54.687500
6359,54.687500
6360,54.687500
6361,54.687500
6362,54.687500
6363,54.687500
6364,54.687500
6365,54.687500
6366,54.687500
6367,50.781250
6368,50.781250
6369,50.781250
6370,50.781250
6371,50.781250
6372,50.781250
6373,50.781250
6374,50.781250
6375,50.781250
6376,50.781250
6377,50.781250
6378,50.781250
6379,50.781250
6380,50.781250
6381,50.781250
6382,46.875000
6383,46.875000
6384,46.875000
6385,46.875000
6386,46.875000
6387,46.875000
6388,46.875000
6389,46.875000
6390,42.968750
6391,42.968750
6392,42.968750
6393,42.968750
6394,42.968750
6395,42.968750
6396,42.968750
6397,42.968750
6398,42.968750
6399,39.062500
6400,42.968750
6401,39.062500
6402,39.062500
6403,39.062500
6404,39.062500
6405,39.062500
6406,39.062500
6407,39.062500
6408,39.062500
6409,39.062500
6410,35.156250
6411,35.156250
6412,35.156250
6413,35.156250
6414,35.156250
6415,35.156250
6416,35.156250
6417,35.156250
6418,35.156250
6419,31.250000
6420,31.250000
6421,31.250000
6422,31.250000
6423,31.250000
6424,31.250000
6425,31.250000
6426,31.250000
6427,27.343750
6428,27.343750
6429,27.343750
6430,27.343750
6431,27.343750
6432,27.343750
6433,27.343750
6434,27.343750
6435,23.437500
6436,23.437500
6437,23.437500
6438,23.437500
6439,23.437500
6440,23.437500
6441,23.437500
6442,23.437500
6443,19.531250
6444,19.531250
6445,19.531250
6446,19.531250
6447,19.531250
6448,19.531250
6449,19.531250
6450,19.531250
6451,19.531250
6452,15.625000
6453,15.625000
6454,15.625000
6455,15.625000
6456,15.625000
6457,15.625000
6458,15.625000
6459,15.625000
6460,11.718750
6461,11.718750
6462,11.718750
6463,11.718750
6464,11.718750
6465,11.718750
6466,11.718750
6467,7.812500
6468,7.812500
6469,7.812500
6470,7.812500
6471,7.812500
6472,7.812500
6473,7.812500
6474,7.812500
6475,3.906250
6476,3.906250
6477,3.906250
6478,3.906250
6479,3.906250
6480,3.906250
6481,3.906250
6482,3.906250
6483,0.000000
6484,0.000000
6485,0.000000
6486,0.000000
6487,0.000000
6488,0.000000
6489,0.000000
6490,-3.906250
6491,-3.906250
6492,-3.906250
6493,-3.906250
6494,-3.906250
6495,-3.906250
6496,-3.906250
6497,-3.906250
6498,-7.812500
6499,-7.812500
6500,-7.812500
6501,-7.812500
6502,-7.812500
6503,-7.812500
6504,-7.812500
6505,-11.718750
6506,-11.718750
6507,-11.718750
6508,-11.718750
6509,-11.718750
6510,-11.718750
6511,-11.718750
6512,-15.625000
6513,-15.625000
6514,-15.625000
6515,-15.625000
6516,-15.625000
6517,-15.625000
6518,-15.625000
6519,-15.625000
6520,-19.531250
6521,-19.531250
6522,-19.531250
6523,-19.531250
6524,-19.531250
6525,-19.531250
6526,-23.437500
6527,-23.437500
6528,-23.437500
6529,-23.437500
6530,-23.437500
6531,-23.437500
6532,-23.437500
6533,-27.343750
6534,-27.343750
6535,-27.343750
6536,-27.343750
6537,-27.343750
6538,-27.343750
6539,-27.343750
6540,-27.343750
6541,-31.250000
6542,-31.250000
6543,-31.250000
6544,-31.250000
6545,-35.156250
6546,-31.250000
6547,-35.156250
6548,-35.156250
6549,-35.156250
6550,-35.156250
6551,-35.156250
6552,-35.156250
6553,-39.062500
6554,-39.062500
6555,-39.062500
6556,-39.062500
6557,-39.062500
6558,-39.062500
6559,-39.062500
6560,-39.062500
6561,-42.968750
6562,-42.968750
6563,-42.968750
6564,-42.968750
6565,-42.968750
6566,-42.968750
6567,-42.968750
6568,-46.875000
6569,-46.875000
6570,-46.875000
6571,-46.875000
6572,-46.875000
6573,-46.875000
6574,-46.875000
6575,-46.875000
6576,-50.781250
6577,-50.781250
6578,-50.781250
6579,-50.781250
6580,-50.781250
6581,-50.781250
6582,-50.781250
6583,-50.781250
6584,-54.687500
6585,-54.687500
6586,-54.687500
6587,-54.687500
6588,-54.687500
6589,-54.687500
6590,-54.687500
6591,-54.687500
6592,-58.593750
6593,-58.593750
6594,-58.593750
6595,-58.593750
6596,-58.593750
6597,-58.593750
6598,-58.593750
6599,-58.593750
6600,-58.593750
6601,-62.500000
6602,-62.500000
6603,-62.500000
6604,-62.500000
6605,-62.500000
6606,-62.500000
6607,-62.500000
6608,-62.500000
6609,-66.406250
6610,-66.406250
6611,-66.406250
6612,-66.406250
6613,-66.406250
6614,-66.406250
6615,-66.406250
6616,-66.406250
6617,-66.406250
6618,-70.312500
6619,-70.312500
6620,-70.312500
6621,-70.312500
6622,-70.312500
6623,-70.312500
6624,-70.312500
6625,-70.312500
6626,-74.218750
6627,-74.218750
6628,-74.218750
6629,-74.218750
6630,-74.218750
6631,-74.218750
6632,-74.218750
6633,-74.218750
6634,-74.218750
6635,-74.218750
6636,-74.218750
6637,-74.218750
6638,-78.125000
6639,-78.125000
6640,-78.125000
6641,-78.125000
6642,-78.125000
6643,-78.125000
6644,-78.125000
6645,-78.125000
6646,-78.125000
6647,-78.125000
6648,-82.031250
6649,-82.031250
6650,-82.031250
6651,-82.031250
6652,-82.031250
6653,-82.031250
6654,-82.031250
6655,-85.937500
6656,-82.031250
6657,-82.031250
6658,-85.937500
6659,-82.031250
6660,-85.937500
6661,-85.937500
6662,-85.937500
6663,-85.937500
6664,-85.937500
6665,-85.937500
6666,-85.937500
6667,-85.937500
6668,-89.843750
6669,-89.843750
6670,-89.843750
6671,-89.843750
6672,-89.843750
6673,-89.843750
6674,-89.843750
6675,-89.843750
6676,-89.843750
6677,-89.843750
6678,-93.750000
6679,-89.843750
6680,-89.843750
6681,-93.750000
6682,-93.750000
6683,-89.843750
6684,-93.750000
6685,-93.750000
6686,-93.750000
6687,-93.750000
6688,-93.750000
6689,-93.750000
6690,-93.750000
6691,-93.750000
6692,-93.750000
6693,-93.750000
6694,-93.750000
6695,-93.750000
6696,-93.750000
6697,-93.750000
6698,-97.656250
6699,-97.656250
6700,-97.656250
6701,-97.656250
6702,-97.656250
6703,-97.656250
6704,-97.656250
6705,-97.656250
6706,-97.656250
6707,-97.656250
6708,-97.656250
6709,-97.656250
6710,-97.656250
6711,-97.656250
6712,-97.656250
6713,-97.656250
6714,-97.656250
6715,-97.656250
6716,-97.656250
6717,-97.656250
6718,-97.656250
6719,-97.656250
6720,-101.562500
6721,-97.656250
6722,-97.656250
6723,-97.656250
6724,-97.656250
6725,-97.656250
6726,-97.656250
6727,-101.562500
6728,-97.656250
6729,-101.562500
6730,-101.562500
6731,-101.562500
6732,-101.562500
6733,-101.562500
6734,-101.562500
6735,-101.562500
6736,-101.562500
6737,-101.562500
6738,-101.562500
6739,-101.562500
6740,-101.562500
6741,-101.562500
6742,-101.562500
6743,-101.562500
6744,-101.562500
6745,-101.562500
6746,-101.562500
6747,-101.562500
6748,-101.562500
6749,-101.562500
6750,-101.562500
6751,-101.562500
6752,-101.562500
6753,-101.562500
6754,-101.562500
6755,-101.562500
6756,-101.562500
6757,-101.562500
6758,-101.562500
6759,-101.562500
6760,-101.562500
6761,-101.562500
6762,-101.562500
6763,-101.562500
6764,-101.562500
6765,-101.562500
6766,-101.562500
6767,-101.562500
6768,-101.562500
6769,-101.562500
6770,-101.562500
6771,-101.562500
6772,-101.562500
6773,-101.562500
6774,-101.562500
6775,-101.562500
6776,-97.656250
6777,-101.562500
6778,-97.656250
6779,-97.656250
6780,-101.562500
6781,-101.562500
6782,-101.562500
6783,-101.562500
6784,-97.656250
6785,-97.656250
6786,-97.656250
6787,-97.656250
6788,-97.656250
6789,-97.656250
6790,-97.656250
6791,-97.656250
6792,-97.656250
6793,-97.656250
6794,-97.656250
6795,-97.656250
6796,-97.656250
6797,-97.656250
6798,-97.656250
6799,-97.656250
6800,-97.656250
6801,-97.656250
6802,-97.656250
6803,-97.656250
6804,-97.656250
6805,-97.656250
6806,-97.656250
6807,-97.656250
6808,-93.750000
6809,-93.750000
6810,-97.656250
6811,-93.750000
6812,-93.750000
6813,-93.750000
6814,-93.750000
6815,-93.750000
6816,-93.750000
6817,-93.750000
6818,-93.750000
6819,-93.750000
6820,-93.750000
6821,-93.750000
6822,-93.750000
6823,-89.843750
6824,-89.843750
6825,-89.843750
6826,-89.843750
6827,-89.843750
6828,-89.843750
6829,-89.843750
6830,-89.843750
6831,-89.843750
6832,-89.843750
6833,-89.843750
6834,-89.843750
6835,-89.843750
6836,-89.843750
6837,-89.843750
6838,-85.937500
6839,-89.843750
6840,-85.937500
6841,-85.937500
6842,-85.937500
6843,-85.937500
6844,-85.937500
6845,-85.937500
6846,-85.937500
6847,-85.937500
6848,-85.937500
6849,-85.937500
6850,-85.937500
6851,-82.031250
6852,-82.031250
6853,-82.031250
6854,-82.031250
6855,-82.031250
6856,-82.031250
6857,-82.031250
6858,-82.031250
6859,-82.031250
6860,-82.031250
6861,-78.125000
6862,-78.125000
6863,-78.125000
6864,-78.125000
6865,-78.125000
6866,-78.125000
6867,-78.125000
6868,-78.125000
6869,-78.125000
6870,-78.125000
6871,-74.218750
6872,-74.218750
6873,-74.218750
6874,-74.218750
6875,-74.218750
6876,-74.218750
6877,-74.218750
6878,-74.218750
6879,-70.312500
6880,-74.218750
6881,-74.218750
6882,-70.312500
6883,-70.312500
6884,-70.312500
6885,-70.312500
6886,-70.312500
6887,-70.312500
6888,-70.312500
6889,-70.312500
6890,-70.312500
6891,-66.406250
6892,-66.406250
6893,-66.406250
6894,-66.406250
6895,-66.406250
6896,-66.406250
6897,-62.500000
6898,-62.500000
6899,-62.500000
6900,-62.500000
6901,-62.500000
6902,-62.500000
6903,-62.500000
6904,-62.500000
6905,-62.500000
6906,-58.593750
6907,-58.593750
6908,-58.593750
6909,-58.593750
6910,-58.593750
6911,-58.593750
6912,-58.593750
6913,-58.593750
6914,-54.687500
6915,-54.687500
6916,-54.687500
6917,-54.687500
6918,-54.687500
6919,-54.687500
6920,-54.687500
6921,-54.687500
6922,-50.781250
6923,-50.781250
6924,-50.781250
6925,-50.781250
6926,-50.781250
6927,-50.781250
6928,-50.781250
6929,-50.781250
6930,-46.875000
6931,-46.875000
6932,-46.875000
6933,-46.875000
6934,-46.875000
6935,-46.875000
6936,-46.875000
6937,-46.875000
6938,-42.968750
6939,-42.968750
6940,-42.968750
6941,-42.968750
6942,-42.968750
6943,-42.968750
6944,-39.062500
6945,-39.062500
6946,-39.062500
6947,-39.062500
6948,-39.062500
6949,-39.062500
6950,-39.062500
6951,-39.062500
6952,-39.062500
6953,-35.156250
6954,-35.156250
6955,-35.156250
6956,-35.156250
6957,-35.156250
6958,-35.156250
6959,-31.250000
6960,-31.250000
6961,-31.250000
6962,-31.250000
6963,-31.250000
6964,-31.250000
6965,-31.250000
6966,-31.250000
6967,-31.250000
6968,-27.343750
6969,-27.343750
6970,-27.343750
6971,-27.343750
6972,-27.343750
6973,-27.343750
6974,-23.437500
6975,-23.437500
6976,-23.437500
6977,-23.437500
6978,-23.437500
6979,-23.437500
6980,-19.531250
6981,-19.531250
6982,-19.531250
6983,-19.531250
6984,-19.531250
6985,-19.531250
6986,-19.531250
6987,-19.531250
6988,-15.625000
6989,-15.625000
6990,-15.625000
6991,-15.625000
6992,-15.625000
6993,-15.625000
6994,-15.625000
6995,-11.718750
6996,-11.718750
6997,-11.718750
6998,-11.718750
6999,-11.718750
7000,-7.812500
7001,-7.812500
7002,-7.812500
7003,-7.812500
7004,-7.812500
7005,-7.812500
7006,-7.812500
7007,-7.812500
7008,-3.906250
7009,-3.906250
7010,-3.906250
7011,-3.906250
7012,-3.906250
7013,-3.906250
7014,-3.906250
7015,-3.906250
7016,-3.906250
7017,0.000000
7018,0.000000
7019,0.000000
7020,0.000000
7021,0.000000
7022,3.906250
7023,3.906250
7024,3.906250
7025,3.906250
7026,3.906250
7027,3.906250
7028,3.906250
7029,3.906250
7030,7.812500
7031,7.812500
7032,7.812500
7033,7.812500
7034,7.812500
7035,7.812500
7036,7.812500
7037,7.812500
7038,11.718750
7039,11.718750
7040,11.718750
7041,11.718750
7042,11.718750
7043,11.718750
7044,15.625000
7045,15.625000
7046,15.625000
7047,15.625000
7048,15.625000
7049,15.625000
7050,15.625000
7051,15.625000
7052,15.625000
7053,15.625000
7054,19.531250
7055,19.531250
7056,19.531250
7057,19.531250
7058,19.531250
7059,19.531250
7060,19.531250
7061,19.531250
7062,23.437500
7063,23.437500
7064,23.437500
7065,23.437500
7066,23.437500
7067,23.437500
7068,23.437500
7069,23.437500
7070,27.343750
7071,27.343750
7072,27.343750
7073,27.343750
7074,27.343750
7075,27.343750
7076,27.343750
7077,27.343750
7078,31.250000
7079,31.250000
7080,31.250000
7081,31.250000
7082,31.250000
7083,31.250000
7084,31.250000
7085,31.250000
7086,35.156250
7087,35.156250
7088,35.156250
7089,35.156250
7090,35.156250
7091,35.156250
7092,35.156250
7093,35.156250
7094,35.156250
7095,39.062500
7096,39.062500
7097,39.062500
7098,39.062500
7099,39.062500
7100,39.062500
7101,39.062500
7102,39.062500
7103,42.968750
7104,39.062500
7105,42.968750
7106,42.968750
7107,42.968750
7108,42.968750
7109,42.968750
7110,42.968750
7111,42.968750
7112,42.968750
7113,42.968750
7114,42.968750
7115,46.875000
7116,46.875000
7117,46.875000
7118,46.875000
7119,46.875000
7120,46.875000
7121,46.875000
7122,50.781250
7123,46.875000
7124,50.781250
7125,50.781250
7126,50.781250
7127,50.781250
7128,50.781250
7129,50.781250
7130,50.781250
7131,54.687500
7132,50.781250
7133,50.781250
7134,50.781250
7135,50.781250
7136,54.687500
7137,54.687500
7138,54.687500
7139,54.687500
7140,54.687500
7141,54.687500
7142,54.687500
7143,54.687500
7144,54.687500
7145,54.687500
7146,54.687500
7147,54.687500
7148,58.593750
7149,58.593750
7150,58.593750
7151,58.593750
7152,58.593750
7153,58.593750
7154,58.593750
7155,58.593750
7156,58.593750
7157,58.593750
7158,58.593750
7159,62.500000
7160,62.500000
7161,62.500000
7162,58.593750
7163,62.500000
7164,62.500000
7165,62.500000
7166,62.500000
7167,62.500000
7168,62.500000
7169,62.500000
7170,62.500000
7171,62.500000
7172,62.500000
7173,62.500000
7174,62.500000
7175,62.500000
7176,62.500000
7177,62.500000
7178,62.500000
7179,66.406250
7180,62.500000
7181,62.500000
7182,62.500000
7183,66.406250
7184,66.406250
7185,66.406250
7186,66.406250
7187,66.406250
7188,66.406250
7189,66.406250
7190,66.406250
7191,66.406250
7192,66.406250
7193,66.406250
7194,66.406250
7195,66.406250
7196,66.406250
7197,66.406250
7198,66.406250
7199,66.406250
7200,66.406250
7201,66.406250
7202,66.406250
7203,70.312500
7204,66.406250
7205,66.406250
7206,70.312500
7207,66.406250
7208,70.312500
7209,70.312500
7210,70.312500
7211,70.312500
7212,70.312500
7213,70.312500
7214,70.312500
7215,70.312500
7216,70.312500
7217,70.312500
7218,70.312500
7219,70.312500
7220,70.312500
7221,70.312500
7222,70.312500
7223,70.312500
7224,70.312500
7225,70.312500
7226,70.312500
7227,70.312500
7228,70.312500
7229,70.312500
7230,70.312500
7231,70.312500
7232,70.312500
7233,70.312500
7234,70.312500
7235,70.312500
7236,70.312500
7237,70.312500
7238,70.312500
7239,70.312500
7240,70.312500
7241,70.312500
7242,70.312500
7243,70.312500
7244,70.312500
7245,70.312500
7246,70.312500
7247,70.312500
7248,70.312500
7249,70.312500
7250,70.312500
7251,70.312500
7252,70.312500
7253,70.312500
7254,70.312500
7255,70.312500
7256,70.312500
7257,70.312500
7258,70.312500
7259,70.312500
7260,70.312500
7261,70.312500
7262,70.312500
7263,70.312500
7264,70.312500
7265,70.312500
7266,70.312500
7267,70.312500
7268,70.312500
7269,70.312500
7270,70.312500
7271,70.312500
7272,70.312500
7273,70.312500
7274,70.312500
7275,70.312500
7276,70.312500
7277,70.312500
7278,70.312500
7279,70.312500
7280,70.312500
7281,70.312500
7282,70.312500
7283,70.312500
7284,70.312500
7285,70.312500
7286,70.312500
7287,70.312500
7288,70.312500
7289,70.312500
7290,70.312500
7291,70.312500
7292,66.406250
7293,66.406250
7294,66.406250
7295,66.406250
7296,66.406250
7297,66.406250
7298,66.406250
7299,66.406250
7300,66.406250
7301,66.406250
7302,66.406250
7303,66.406250
7304,66.406250
7305,66.406250
7306,66.406250
7307,66.406250
7308,66.406250
7309,66.406250
7310,66.406250
7311,62.500000
7312,62.500000
7313,62.500000
7314,62.500000
7315,62.500000
7316,62.500000
7317,62.500000
7318,62.500000
7319,62.500000
7320,62.500000
7321,62.500000
7322,62.500000
7323,62.500000
7324,62.500000
7325,62.500000
7326,58.593750
7327,62.500000
7328,62.500000
7329,62.500000
7330,58.593750
7331,58.593750
7332,58.593750
7333,58.593750
7334,58.593750
7335,58.593750
7336,58.593750
7337,58.593750
7338,58.593750
7339,58.593750
7340,58.593750
7341,54.687500
7342,54.687500
7343,54.687500
7344,58.593750
7345,54.687500
7346,54.687500
7347,54.687500
7348,54.687500
7349,54.687500
7350,54.687500
7351,54.687500
7352,50.781250
7353,54.687500
7354,54.687500
7355,54.687500
7356,54.687500
7357,54.687500
7358,54.687500
7359,50.781250
7360,50.781250
7361,50.781250
7362,50.781250
7363,50.781250
7364,50.781250
7365,50.781250
7366,50.781250
7367,50.781250
7368,46.875000
7369,46.875000
7370,46.875000
7371,46.875000
7372,46.875000
7373,46.875000
7374,46.875000
7375,46.875000
7376,46.875000
7377,46.875000
7378,46.875000
7379,42.968750
7380,42.968750
7381,42.968750
7382,42.968750
7383,42.968750
7384,42.968750
7385,42.968750
7386,42.968750
7387,42.968750
7388,42.968750
7389,39.062500
7390,39.062500
7391,39.062500
7392,39.062500
7393,39.062500
7394,39.062500
7395,39.062500
7396,39.062500
7397,39.062500
7398,35.156250
7399,35.156250
7400,35.156250
7401,35.156250
7402,35.156250
7403,35.156250
7404,35.156250
7405,35.156250
7406,35.156250
7407,35.156250
7408,35.156250
7409,31.250000
7410,31.250000
7411,31.250000
7412,31.250000
7413,31.250000
7414,31.250000
7415,31.250000
7416,31.250000
7417,31.250000
7418,27.343750
7419,27.343750
7420,27.343750
7421,27.343750
7422,27.343750
7423,27.343750
7424,27.343750
7425,23.437500
7426,23.437500
7427,23.437500
7428,23.437500
7429,23.437500
7430,23.437500
7431,23.437500
7432,23.437500
7433,19.531250
7434,19.531250
7435,19.531250
7436,19.531250
7437,19.531250
7438,19.531250
7439,19.531250
7440,19.531250
7441,19.531250
7442,15.625000
7443,15.625000
7444,15.625000
7445,15.625000
7446,15.625000
7447,15.625000
7448,15.625000
7449,11.718750
7450,11.718750
7451,11.718750
7452,11.718750
7453,11.718750
7454,11.718750
7455,11.718750
7456,11.718750
7457,7.812500
7458,7.812500
7459,7.812500
7460,7.812500
7461,7.812500
7462,7.812500
7463,7.812500
7464,3.906250
7465,3.906250
7466,3.906250
7467,3.906250
7468,3.906250
7469,3.906250
7470,3.906250
7471,3.906250
7472,0.000000
7473,0.000000
7474,0.000000
7475,0.000000
7476,0.000000
7477,0.000000
7478,0.000000
7479,-3.906250
7480,-3.906250
7481,-3.906250
7482,-3.906250
7483,-3.906250
7484,-3.906250
7485,-3.906250
7486,-3.906250
7487,-7.812500
7488,-7.812500
7489,-7.812500
7490,-7.812500
7491,-7.812500
7492,-7.812500
7493,-11.718750
7494,-11.718750
7495,-11.718750
7496,-11.718750
7497,-11.718750
7498,-11.718750
7499,-11.718750
7500,-7.812500
7501,-15.625000
7502,-15.625000
7503,-15.625000
7504,-15.625000
7505,-15.625000
7506,-15.625000
7507,-15.625000
7508,-19.531250
7509,-19.531250
7510,-19.531250
7511,-19.531250
7512,-19.531250
7513,-23.437500
7514,-19.531250
7515,-19.531250
7516,-23.437500
7517,-23.437500
7518,-23.437500
7519,-23.437500
7520,-23.437500
7521,-23.437500
7522,-23.437500
7523,-31.250000
7524,-23.437500
7525,-27.343750
7526,-27.343750
7527,-27.343750
7528,-27.343750
7529,-31.250000
7530,-27.343750
7531,-31.250000
7532,-31.250000
7533,-31.250000
7534,-31.250000
7535,-31.250000
7536,-31.250000
7537,-31.250000
7538,-35.156250
7539,-35.156250
7540,-35.156250
7541,-35.156250
7542,-35.156250
7543,-35.156250
7544,-35.156250
7545,-39.062500
7546,-39.062500
7547,-39.062500
7548,-39.062500
7549,-39.062500
7550,-39.062500
7551,-39.062500
7552,-42.968750
7553,-42.968750
7554,-42.968750
7555,-42.968750
7556,-42.968750
7557,-42.968750
7558,-42.968750
7559,-46.875000
7560,-46.875000
7561,-46.875000
7562,-46.875000
7563,-46.875000
7564,-46.875000
7565,-46.875000
7566,-50.781250
7567,-50.781250
7568,-50.781250
7569,-50.781250
7570,-50.781250
7571,-50.781250
7572,-50.781250
7573,-50.781250
7574,-54.687500
7575,-54.687500
7576,-54.687500
7577,-54.687500
7578,-54.687500
7579,-54.687500
7580,-54.687500
7581,-58.593750
7582,-58.593750
7583,-58.593750
7584,-58.593750
7585,-58.593750
7586,-58.593750
7587,-62.500000
7588,-62.500000
7589,-62.500000
7590,-58.593750
7591,-58.593750
7592,-62.500000
7593,-62.500000
7594,-62.500000
7595,-66.406250
7596,-62.500000
7597,-66.406250
7598,-62.500000
7599,-66.406250
7600,-66.406250
7601,-66.406250
7602,-66.406250
7603,-66.406250
7604,-66.406250
7605,-66.406250
7606,-70.312500
7607,-70.312500
7608,-70.312500
7609,-70.312500
7610,-70.312500
7611,-70.312500
7612,-70.312500
7613,-70.312500
7614,-70.312500
7615,-74.218750
7616,-74.218750
7617,-74.218750
7618,-74.218750
7619,-74.218750
7620,-74.218750
7621,-74.218750
7622,-74.218750
7623,-74.218750
7624,-74.218750
7625,-78.125000
7626,-78.125000
7627,-78.125000
7628,-78.125000
7629,-78.125000
7630,-78.125000
7631,-78.125000
7632,-78.125000
7633,-78.125000
7634,-82.031250
7635,-82.031250
7636,-82.031250
7637,-82.031250
7638,-82.031250
7639,-82.031250
7640,-82.031250
7641,-85.937500
7642,-82.031250
7643,-82.031250
7644,-82.031250
7645,-82.031250
7646,-85.937500
7647,-85.937500
7648,-85.937500
7649,-85.937500
7650,-85.937500
7651,-85.937500
7652,-85.937500
7653,-85.937500
7654,-85.937500
7655,-85.937500
7656,-85.937500
7657,-85.937500
7658,-85.937500
7659,-89.843750
7660,-89.843750
7661,-89.843750
7662,-89.843750
7663,-89.843750
7664,-89.843750
7665,-89.843750
7666,-89.843750
7667,-89.843750
7668,-89.843750
7669,-89.843750
7670,-89.843750
7671,-89.843750
7672,-89.843750
7673,-93.750000
7674,-93.750000
7675,-93.750000
7676,-93.750000
7677,-93.750000
7678,-93.750000
7679,-93.750000
7680,-93.750000
7681,-93.750000
7682,-93.750000
7683,-93.750000
7684,-93.750000
7685,-93.750000
7686,-93.750000
7687,-97.656250
7688,-93.750000
7689,-97.656250
7690,-97.656250
7691,-97.656250
7692,-97.656250
7693,-97.656250
7694,-97.656250
7695,-97.656250
7696,-97.656250
7697,-97.656250
7698,-97.656250
7699,-97.656250
7700,-97.656250
7701,-97.656250
7702,-97.656250
7703,-97.656250
7704,-97.656250
7705,-97.656250
7706,-97.656250
7707,-97.656250
7708,-97.656250
7709,-97.656250
7710,-97.656250
7711,-97.656250
7712,-101.562500
7713,-101.562500
7714,-97.656250
7715,-101.562500
7716,-101.562500
7717,-101.562500
7718,-101.562500
7719,-101.562500
7720,-101.562500
7721,-101.562500
7722,-101.562500
7723,-101.562500
7724,-101.562500
7725,-101.562500
7726,-101.562500
7727,-101.562500
7728,-101.562500
7729,-101.562500
7730,-101.562500
7731,-101.562500
7732,-101.562500
7733,-101.562500
7734,-101.562500
7735,-101.562500
7736,-101.562500
7737,-101.562500
7738,-101.562500
7739,-101.562500
7740,-101.562500
7741,-101.562500
7742,-101.562500
7743,-101.562500
7744,-101.562500
7745,-101.562500
7746,-101.562500
7747,-101.562500
7748,-101.562500
7749,-101.562500
7750,-101.562500
7751,-101.562500
7752,-101.562500
7753,-101.562500
7754,-101.562500
7755,-101.562500
7756,-101.562500
7757,-101.562500
7758,-101.562500
7759,-101.562500
7760,-101.562500
7761,-101.562500
7762,-101.562500
7763,-101.562500
7764,-101.562500
7765,-101.562500
7766,-101.562500
7767,-101.562500
7768,-101.562500
7769,-101.562500
7770,-97.656250
7771,-97.656250
7772,-101.562500
7773,-101.562500
7774,-97.656250
7775,-101.562500
7776,-97.656250
7777,-97.656250
7778,-97.656250
7779,-97.656250
7780,-97.656250
7781,-97.656250
7782,-97.656250
7783,-97.656250
7784,-97.656250
7785,-97.656250
7786,-97.656250
7787,-97.656250
7788,-97.656250
7789,-97.656250
7790,-97.656250
7791,-97.656250
7792,-97.656250
7793,-97.656250
7794,-93.750000
7795,-97.656250
7796,-93.750000
7797,-93.750000
7798,-93.750000
7799,-97.656250
7800,-93.750000
7801,-93.750000
7802,-93.750000
7803,-93.750000
7804,-93.750000
7805,-93.750000
7806,-93.750000
7807,-93.750000
7808,-93.750000
7809,-93.750000
7810,-93.750000
7811,-93.750000
7812,-89.843750
7813,-89.843750
7814,-89.843750
7815,-89.843750
7816,-89.843750
7817,-89.843750
7818,-89.843750
7819,-89.843750
7820,-89.843750
7821,-89.843750
7822,-89.843750
7823,-89.843750
7824,-89.843750
7825,-89.843750
7826,-85.937500
7827,-89.843750
7828,-85.937500
7829,-89.843750
7830,-85.937500
7831,-85.937500
7832,-85.937500
7833,-85.937500
7834,-85.937500
7835,-85.937500
7836,-85.937500
7837,-85.937500
7838,-85.937500
7839,-85.937500
7840,-82.031250
7841,-82.031250
7842,-82.031250
7843,-82.031250
7844,-82.031250
7845,-82.031250
7846,-82.031250
7847,-82.031250
7848,-82.031250
7849,-82.031250
7850,-78.125000
7851,-78.125000
7852,-78.125000
7853,-82.031250
7854,-78.125000
7855,-78.125000
7856,-78.125000
7857,-78.125000
7858,-78.125000
7859,-78.125000
7860,-74.218750
7861,-74.218750
7862,-74.218750
7863,-74.218750
7864,-74.218750
7865,-74.218750
7866,-74.218750
7867,-74.218750
7868,-74.218750
7869,-74.218750
7870,-70.312500
7871,-70.312500
7872,-70.312500
7873,-70.312500
7874,-70.312500
7875,-70.312500
7876,-70.312500
7877,-70.312500
7878,-70.312500
7879,-66.406250
7880,-66.406250
7881,-66.406250
7882,-66.406250
7883,-66.406250
7884,-66.406250
7885,-66.406250
7886,-66.406250
7887,-66.406250
7888,-62.500000
7889,-62.500000
7890,-62.500000
7891,-62.500000
7892,-62.500000
7893,-62.500000
7894,-62.500000
7895,-62.500000
7896,-58.593750
7897,-58.593750
7898,-58.593750
7899,-58.593750
7900,-58.593750
7901,-58.593750
7902,-58.593750
7903,-54.687500
7904,-54.687500
7905,-54.687500
7906,-54.687500
7907,-54.687500
7908,-54.687500
7909,-54.687500
7910,-54.687500
7911,-50.781250
7912,-50.781250
7913,-50.781250
7914,-50.781250
7915,-50.781250
7916,-50.781250
7917,-50.781250
7918,-46.875000
7919,-46.875000
7920,-46.875000
7921,-46.875000
7922,-46.875000
7923,-46.875000
7924,-46.875000
7925,-42.968750
7926,-42.968750
7927,-42.968750
7928,-42.968750
7929,-42.968750
7930,-42.968750
7931,-42.968750
7932,-42.968750
7933,-39.062500
7934,-39.062500
7935,-39.062500
7936,-39.062500
7937,-39.062500
7938,-39.062500
7939,-39.062500
7940,-35.156250
7941,-35.156250
7942,-39.062500
7943,-35.156250
7944,-35.156250
7945,-35.156250
7946,-35.156250
7947,-35.156250
7948,-31.250000
7949,-31.250000
7950,-31.250000
7951,-31.250000
7952,-31.250000
7953,-31.250000
7954,-31.250000
7955,-31.250000
7956,-27.343750
7957,-27.343750
7958,-27.343750
7959,-27.343750
7960,-27.343750
7961,-27.343750
7962,-27.343750
7963,-23.437500
7964,-23.437500
7965,-23.437500
7966,-23.437500
7967,-23.437500
7968,-23.437500
7969,-23.437500
7970,-19.531250
7971,-19.531250
7972,-19.531250
7973,-19.531250
7974,-19.531250
7975,-19.531250
7976,-19.531250
7977,-15.625000
7978,-15.625000
7979,-15.625000
7980,-15.625000
7981,-15.625000
7982,-15.625000
7983,-15.625000
7984,-11.718750
7985,-11.718750
7986,-11.718750
7987,-11.718750
7988,-11.718750
7989,-11.718750
7990,-11.718750
7991,-11.718750
7992,-7.812500
7993,-7.812500
7994,-7.812500
7995,-7.812500
7996,-7.812500
7997,-7.812500
7998,-3.906250
7999,-3.906250
8000,-3.906250
8001,-3.906250
8002,-3.906250
8003,-3.906250
8004,-3.906250
8005,0.000000
8006,0.000000
8007,0.000000
8008,0.000000
8009,0.000000
8010,0.000000
8011,3.906250
8012,3.906250
8013,3.906250
8014,3.906250
8015,3.906250
8016,3.906250
8017,3.906250
8018,3.906250
8019,3.906250
8020,3.906250
8021,7.812500
8022,7.812500
8023,7.812500
8024,7.812500
8025,7.812500
8026,7.812500
8027,11.718750
8028,11.718750
8029,11.718750
8030,11.718750
8031,11.718750
8032,15.625000
8033,11.718750
8034,15.625000
8035,15.625000
8036,15.625000
8037,15.625000
8038,15.625000
8039,15.625000
8040,15.625000
8041,15.625000
8042,15.625000
8043,19.531250
8044,19.531250
8045,19.531250
8046,19.531250
8047,19.531250
8048,19.531250
8049,19.531250
8050,23.437500
8051,23.437500
8052,23.437500
8053,23.437500
8054,23.437500
8055,23.437500
8056,23.437500
8057,23.437500
8058,27.343750
8059,27.343750
8060,27.343750
8061,27.343750
8062,27.343750
8063,27.343750
8064,27.343750
8065,27.343750
8066,27.343750
8067,31.250000
8068,31.250000
8069,31.250000
8070,31.250000
8071,31.250000
8072,31.250000
8073,31.250000
8074,35.156250
8075,35.156250
8076,35.156250
8077,35.156250
8078,35.156250
8079,35.156250
8080,35.156250
8081,35.156250
8082,35.156250
8083,35.156250
8084,39.062500
8085,39.062500
8086,39.062500
8087,39.062500
8088,39.062500
8089,39.062500
8090,39.062500
8091,39.062500
8092,42.968750
8093,42.968750
8094,42.968750
8095,39.062500
8096,42.968750
8097,42.968750
8098,42.968750
8099,42.968750
8100,42.968750
8101,42.968750
8102,42.968750
8103,42.968750
8104,46.875000
8105,46.875000
8106,46.875000
8107,46.875000
8108,46.875000
8109,46.875000
8110,46.875000
8111,46.875000
8112,46.875000
8113,46.875000
8114,50.781250
8115,50.781250
8116,50.781250
8117,50.781250
8118,50.781250
8119,50.781250
8120,50.781250
8121,50.781250
8122,50.781250
8123,50.781250
8124,50.781250
8125,50.781250
8126,54.687500
8127,50.781250
8128,54.687500
8129,54.687500
8130,54.687500
8131,54.687500
8132,54.687500
8133,54.687500
8134,54.687500
8135,54.687500
8136,54.687500
8137,54.687500
8138,58.593750
8139,58.593750
8140,58.593750
8141,58.593750
8142,58.593750
8143,58.593750
8144,58.593750
8145,58.593750
8146,58.593750
8147,58.593750
8148,58.593750
8149,58.593750
8150,58.593750
8151,58.593750
8152,62.500000
8153,62.500000
8154,62.500000
8155,62.500000
8156,62.500000
8157,62.500000
8158,62.500000
8159,62.500000
8160,62.500000
8161,62.500000
8162,62.500000
8163,62.500000
8164,62.500000
8165,62.500000
8166,62.500000
8167,62.500000
8168,66.406250
8169,66.406250
8170,66.406250
8171,66.406250
8172,66.406250
8173,66.406250
8174,66.406250
8175,66.406250
8176,66.406250
8177,66.406250
8178,66.406250
8179,66.406250
8180,66.406250
8181,66.406250
8182,66.406250
8183,66.406250
8184,66.406250
8185,66.406250
8186,66.406250
8187,66.406250
8188,66.406250
8189,66.406250
8190,66.406250
8191,66.406250
8192,70.312500
8193,70.312500
8194,70.312500
8195,66.406250
8196,70.312500
8197,70.312500
8198,70.312500
8199,70.312500
8200,70.312500
8201,70.312500
8202,66.406250
8203,70.312500
8204,70.312500
8205,70.312500
8206,70.312500
8207,70.312500
8208,70.312500
8209,70.312500
8210,70.312500
8211,70.312500
8212,70.312500
8213,70.312500
8214,70.312500
8215,70.312500
8216,70.312500
8217,70.312500
8218,70.312500
8219,70.312500
8220,70.312500
8221,70.312500
8222,70.312500
8223,70.312500
8224,70.312500
8225,70.312500
8226,70.312500
8227,70.312500
8228,70.312500
8229,70.312500
8230,70.312500
8231,70.312500
8232,70.312500
8233,70.312500
8234,70.312500
8235,70.312500
8236,70.312500
8237,70.312500
8238,70.312500
8239,70.312500
8240,70.312500
8241,70.312500
8242,70.312500
8243,70.312500
8244,70.312500
8245,70.312500
8246,70.312500
8247,70.312500
8248,70.312500
8249,70.312500
8250,70.312500
8251,70.312500
8252,70.312500
8253,70.312500
8254,70.312500
8255,70.312500
8256,70.312500
8257,70.312500
8258,70.312500
8259,70.312500
8260,70.312500
8261,70.312500
8262,70.312500
8263,70.312500
8264,70.312500
8265,70.312500
8266,70.312500
8267,70.312500
8268,70.312500
8269,70.312500
8270,70.312500
8271,70.312500
8272,70.312500
8273,70.312500
8274,70.312500
8275,70.312500
8276,70.312500
8277,66.406250
8278,70.312500
8279,66.406250
8280,66.406250
8281,66.406250
8282,66.406250
8283,66.406250
8284,66.406250
8285,66.406250
8286,66.406250
8287,66.406250
8288,66.406250
8289,66.406250
8290,66.406250
8291,66.406250
8292,66.406250
8293,66.406250
8294,66.406250
8295,66.406250
8296,66.406250
8297,66.406250
8298,66.406250
8299,66.406250
8300,66.406250
8301,62.500000
8302,62.500000
8303,62.500000
8304,62.500000
8305,62.500000
8306,62.500000
8307,62.500000
8308,62.500000
8309,62.500000
8310,62.500000
8311,62.500000
8312,62.500000
8313,62.500000
8314,62.500000
8315,62.500000
8316,62.500000
8317,58.593750
8318,58.593750
8319,58.593750
8320,62.500000
8321,62.500000
8322,58.593750
8323,58.593750
8324,58.593750
8325,58.593750
8326,58.593750
8327,58.593750
8328,58.593750
8329,58.593750
8330,58.593750
8331,58.593750
8332,58.593750
8333,58.593750
8334,54.687500
8335,54.687500
8336,54.687500
8337,54.687500
8338,54.687500
8339,54.687500
8340,54.687500
8341,54.687500
8342,54.687500
8343,54.687500
8344,54.687500
8345,54.687500
8346,54.687500
8347,50.781250
8348,50.781250
8349,50.781250
8350,50.781250
8351,50.781250
8352,50.781250
8353,50.781250
8354,50.781250
8355,50.781250
8356,46.875000
8357,46.875000
8358,46.875000
8359,46.875000
8360,46.875000
8361,46.875000
8362,46.875000
8363,46.875000
8364,46.875000
8365,46.875000
8366,46.875000
8367,46.875000
8368,46.875000
8369,42.968750
8370,42.968750
8371,42.968750
8372,42.968750
8373,42.968750
8374,42.968750
8375,42.968750
8376,42.968750
8377,39.062500
8378,39.062500
8379,39.062500
8380,39.062500
8381,39.062500
8382,39.062500
8383,39.062500
8384,39.062500
8385,35.156250
8386,35.156250
8387,35.156250
8388,35.156250
8389,35.156250
8390,35.156250
8391,35.156250
8392,35.156250
8393,35.156250
8394,31.250000
8395,31.250000
8396,31.250000
8397,31.250000
8398,31.250000
8399,31.250000
8400,31.250000
8401,31.250000
8402,31.250000
8403,31.250000
8404,31.250000
8405,27.343750
8406,27.343750
8407,27.343750
8408,27.343750
8409,27.343750
8410,27.343750
8411,27.343750
8412,27.343750
8413,23.437500
8414,23.437500
8415,23.437500
8416,23.437500
8417,23.437500
8418,23.437500
8419,23.437500
8420,23.437500
8421,23.437500
8422,19.531250
8423,19.531250
8424,19.531250
8425,19.531250
8426,19.531250
8427,19.531250
8428,19.531250
8429,19.531250
8430,15.625000
8431,15.625000
8432,15.625000
8433,15.625000
8434,15.625000
8435,15.625000
8436,15.625000
8437,11.718750
8438,11.718750
8439,11.718750
8440,11.718750
8441,11.718750
8442,11.718750
8443,11.718750
8444,11.718750
8445,11.718750
8446,7.812500
8447,7.812500
8448,7.812500
8449,7.812500
8450,7.812500
8451,7.812500
8452,3.906250
8453,3.906250
8454,3.906250
8455,3.906250
8456,3.906250
8457,3.906250
8458,3.906250
8459,3.906250
8460,0.000000
8461,0.000000
8462,0.000000
8463,0.000000
8464,0.000000
8465,0.000000
8466,0.000000
8467,-3.906250
8468,-3.906250
8469,-3.906250
8470,-3.906250
8471,-3.906250
8472,-3.906250
8473,-3.906250
8474,-3.906250
8475,-7.812500
8476,-7.812500
8477,-7.812500
8478,-7.812500
8479,-7.812500
8480,-7.812500
8481,-11.718750
8482,-7.812500
8483,-11.718750
8484,-11.718750
8485,-11.718750
8486,-11.718750
8487,-11.718750
8488,-11.718750
8489,-15.625000
8490,-15.625000
8491,-15.625000
8492,-15.625000
8493,-15.625000
8494,-15.625000
8495,-15.625000
8496,-19.531250
8497,-19.531250
8498,-19.531250
8499,-19.531250
8500,-19.531250
8501,-19.531250
8502,-19.531250
8503,-19.531250
8504,-23.437500
8505,-23.437500
8506,-23.437500
8507,-23.437500
8508,-23.437500
8509,-23.437500
8510,-23.437500
8511,-27.343750
8512,-27.343750
8513,-27.343750
8514,-27.343750
8515,-27.343750
8516,-27.343750
8517,-31.250000
8518,-31.250000
8519,-31.250000
8520,-31.250000
8521,-31.250000
8522,-31.250000
8523,-31.250000
8524,-31.250000
8525,-31.250000
8526,-35.156250
8527,-35.156250
8528,-35.156250
8529,-35.156250
8530,-35.156250
8531,-35.156250
8532,-35.156250
8533,-35.156250
8534,-39.062500
8535,-39.062500
8536,-39.062500
8537,-39.062500
8538,-39.062500
8539,-39.062500
8540,-39.062500
8541,-42.968750
8542,-42.968750
8543,-42.968750
8544,-42.968750
8545,-42.968750
8546,-46.875000
8547,-46.875000
8548,-46.875000
8549,-46.875000
8550,-46.875000
8551,-46.875000
8552,-46.875000
8553,-50.781250
8554,-50.781250
8555,-50.781250
8556,-50.781250
8557,-50.781250
8558,-50.781250
8559,-50.781250
8560,-50.781250
8561,-50.781250
8562,-50.781250
8563,-50.781250
8564,-54.687500
8565,-54.687500
8566,-54.687500
8567,-54.687500
8568,-54.687500
8569,-54.687500
8570,-54.687500
8571,-54.687500
8572,-58.593750
8573,-58.593750
8574,-58.593750
8575,-58.593750
8576,-58.593750
8577,-58.593750
8578,-58.593750
8579,-62.500000
8580,-62.500000
8581,-62.500000
8582,-62.500000
8583,-62.500000
8584,-62.500000
8585,-62.500000
8586,-66.406250
8587,-66.406250
8588,-66.406250
8589,-66.406250
8590,-66.406250
8591,-66.406250
8592,-66.406250
8593,-66.406250
8594,-66.406250
8595,-70.312500
8596,-70.312500
8597,-70.312500
8598,-70.312500
8599,-70.312500
8600,-70.312500
8601,-70.312500
8602,-70.312500
8603,-70.312500
8604,-70.312500
8605,-74.218750
8606,-74.218750
8607,-74.218750
8608,-74.218750
8609,-74.218750
8610,-74.218750
8611,-74.218750
8612,-74.218750
8613,-74.218750
8614,-78.125000
8615,-78.125000
8616,-78.125000
8617,-78.125000
8618,-78.125000
8619,-78.125000
8620,-78.125000
8621,-82.031250
8622,-78.125000
8623,-78.125000
8624,-78.125000
8625,-82.031250
8626,-82.031250
8627,-82.031250
8628,-82.031250
8629,-82.031250
8630,-82.031250
8631,-82.031250
8632,-82.031250
8633,-85.937500
8634,-85.937500
8635,-85.937500
8636,-85.937500
8637,-85.937500
8638,-85.937500
8639,-85.937500
8640,-85.937500
8641,-85.937500
8642,-85.937500
8643,-85.937500
8644,-85.937500
8645,-89.843750
8646,-89.843750
8647,-89.843750
8648,-89.843750
8649,-89.843750
8650,-89.843750
8651,-89.843750
8652,-89.843750
8653,-89.843750
8654,-89.843750
8655,-89.843750
8656,-89.843750
8657,-89.843750
8658,-89.843750
8659,-93.750000
8660,-93.750000
8661,-93.750000
8662,-93.750000
8663,-93.750000
8664,-93.750000
8665,-93.750000
8666,-93.750000
8667,-93.750000
8668,-93.750000
8669,-93.750000
8670,-93.750000
8671,-93.750000
8672,-93.750000
8673,-93.750000
8674,-93.750000
8675,-93.750000
8676,-93.750000
8677,-97.656250
8678,-97.656250
8679,-97.656250
8680,-97.656250
8681,-97.656250
8682,-97.656250
8683,-97.656250
8684,-97.656250
8685,-97.656250
8686,-97.656250
8687,-97.656250
8688,-97.656250
8689,-97.656250
8690,-97.656250
8691,-97.656250
8692,-97.656250
8693,-97.656250
8694,-97.656250
8695,-97.656250
8696,-97.656250
8697,-97.656250
8698,-97.656250
8699,-97.656250
8700,-97.656250
8701,-97.656250
8702,-97.656250
8703,-97.656250
8704,-101.562500
8705,-101.562500
8706,-101.562500
8707,-101.562500
8708,-101.562500
8709,-101.562500
8710,-101.562500
8711,-101.562500
8712,-97.656250
8713,-101.562500
8714,-101.562500
8715,-101.562500
8716,-101.562500
8717,-101.562500
8718,-101.562500
8719,-101.562500
8720,-101.562500
8721,-101.562500
8722,-101.562500
8723,-101.562500
8724,-101.562500
8725,-101.562500
8726,-101.562500
8727,-101.562500
8728,-101.562500
8729,-101.562500
8730,-101.562500
8731,-101.562500
8732,-101.562500
8733,-101.562500
8734,-101.562500
8735,-101.562500
8736,-101.562500
8737,-101.562500
8738,-101.562500
8739,-101.562500
8740,-101.562500
8741,-101.562500
8742,-101.562500
8743,-101.562500
8744,-101.562500
8745,-101.562500
8746,-101.562500
8747,-101.562500
8748,-101.562500
8749,-101.562500
8750,-101.562500
8751,-101.562500
8752,-101.562500
8753,-101.562500
8754,-101.562500
8755,-101.562500
8756,-101.562500
8757,-101.562500
8758,-101.562500
8759,-101.562500
8760,-101.562500
8761,-97.656250
8762,-101.562500
8763,-97.656250
8764,-97.656250
8765,-97.656250
8766,-97.656250
8767,-97.656250
8768,-97.656250
8769,-101.562500
8770,-97.656250
8771,-97.656250
8772,-97.656250
8773,-97.656250
8774,-97.656250
8775,-97.656250
8776,-97.656250
8777,-97.656250
8778,-97.656250
8779,-97.656250
8780,-97.656250
8781,-97.656250
8782,-97.656250
8783,-93.750000
8784,-97.656250
8785,-97.656250
8786,-97.656250
8787,-93.750000
8788,-93.750000
8789,-93.750000
8790,-93.750000
8791,-93.750000
8792,-93.750000
8793,-93.750000
8794,-93.750000
8795,-93.750000
8796,-93.750000
8797,-93.750000
8798,-93.750000
8799,-93.750000
8800,-93.750000
8801,-89.843750
8802,-89.843750
8803,-89.843750
8804,-89.843750
8805,-89.843750
8806,-89.843750
8807,-89.843750
8808,-89.843750
8809,-89.843750
8810,-89.843750
8811,-89.843750
8812,-89.843750
8813,-89.843750
8814,-89.843750
8815,-89.843750
8816,-85.937500
8817,-85.937500
8818,-85.937500
8819,-85.937500
8820,-85.937500
8821,-85.937500
8822,-85.937500
8823,-85.937500
8824,-85.937500
8825,-85.937500
8826,-85.937500
8827,-82.031250
8828,-82.031250
8829,-85.937500
8830,-82.031250
8831,-82.031250
8832,-82.031250
8833,-82.031250
8834,-82.031250
8835,-82.031250
8836,-82.031250
8837,-82.031250
8838,-82.031250
8839,-82.031250
8840,-78.125000
8841,-78.125000
8842,-78.125000
8843,-78.125000
8844,-78.125000
8845,-78.125000
8846,-78.125000
8847,-78.125000
8848,-78.125000
8849,-74.218750
8850,-78.125000
8851,-74.218750
8852,-74.218750
8853,-74.218750
8854,-74.218750
8855,-74.218750
8856,-74.218750
8857,-74.218750
8858,-74.218750
8859,-70.312500
8860,-70.312500
8861,-70.312500
8862,-70.312500
8863,-70.312500
8864,-70.312500
8865,-70.312500
8866,-70.312500
8867,-70.312500
8868,-70.312500
8869,-66.406250
8870,-66.406250
8871,-66.406250
8872,-66.406250
8873,-66.406250
8874,-66.406250
8875,-66.406250
8876,-62.500000
8877,-62.500000
8878,-62.500000
8879,-62.500000
8880,-62.500000
8881,-62.500000
8882,-62.500000
8883,-62.500000
8884,-62.500000
8885,-62.500000
8886,-58.593750
8887,-58.593750
8888,-58.593750
8889,-58.593750
8890,-58.593750
8891,-58.593750
8892,-58.593750
8893,-58.593750
8894,-54.687500
8895,-54.687500
8896,-54.687500
8897,-54.687500
8898,-54.687500
8899,-54.687500
8900,-50.781250
8901,-50.781250
8902,-50.781250
8903,-50.781250
8904,-50.781250
8905,-50.781250
8906,-50.781250
8907,-50.781250
8908,-50.781250
8909,-46.875000
8910,-46.875000
8911,-46.875000
8912,-46.875000
8913,-46.875000
8914,-46.875000
8915,-46.875000
8916,-42.968750
8917,-42.968750
8918,-42.968750
8919,-42.968750
8920,-42.968750
8921,-42.968750
8922,-42.968750
8923,-39.062500
8924,-39.062500
8925,-39.062500
8926,-39.062500
8927,-39.062500
8928,-39.062500
8929,-39.062500
8930,-35.156250
8931,-35.156250
8932,-35.156250
8933,-35.156250
8934,-35.156250
8935,-35.156250
8936,-35.156250
8937,-31.250000
8938,-31.250000
8939,-31.250000
8940,-31.250000
8941,-31.250000
8942,-31.250000
8943,-31.250000
8944,-27.343750
8945,-27.343750
8946,-27.343750
8947,-27.343750
8948,-27.343750
8949,-27.343750
8950,-23.437500
8951,-27.343750
8952,-23.437500
8953,-23.437500
8954,-23.437500
8955,-23.437500
8956,-23.437500
8957,-23.437500
8958,-19.531250
8959,-19.531250
8960,-19.531250
8961,-19.531250
8962,-19.531250
8963,-19.531250
8964,-19.531250
8965,-19.531250
8966,-15.625000
8967,-15.625000
8968,-15.625000
8969,-15.625000
8970,-15.625000
8971,-15.625000
8972,-15.625000
8973,-11.718750
8974,-11.718750
8975,-11.718750
8976,-11.718750
8977,-11.718750
8978,-11.718750
8979,-7.812500
8980,-7.812500
8981,-7.812500
8982,-7.812500
8983,-7.812500
8984,-7.812500
8985,-7.812500
8986,-3.906250
8987,-3.906250
8988,-3.906250
8989,-3.906250
8990,-3.906250
8991,-3.906250
8992,-3.906250
8993,-3.906250
8994,0.000000
8995,0.000000
8996,0.000000
8997,0.000000
8998,0.000000
8999,0.000000
9000,0.000000
9001,3.906250
9002,3.906250
9003,3.906250
9004,3.906250
9005,3.906250
9006,3.906250
9007,3.906250
9008,7.812500
9009,7.812500
9010,7.812500
9011,7.812500
9012,7.812500
9013,7.812500
9014,7.812500
9015,7.812500
9016,11.718750
9017,11.718750
9018,11.718750
9019,11.718750
9020,11.718750
9021,11.718750
9022,11.718750
9023,11.718750
9024,15.625000
9025,15.625000
9026,15.625000
9027,15.625000
9028,15.625000
9029,15.625000
9030,15.625000
9031,15.625000
9032,15.625000
9033,19.531250
9034,19.531250
9035,19.531250
9036,19.531250
9037,23.437500
9038,23.437500
9039,19.531250
9040,27.343750
9041,23.437500
9042,19.531250
9043,27.343750
9044,23.437500
9045,23.437500
9046,27.343750
9047,27.343750
9048,27.343750
9049,27.343750
9050,27.343750
9051,27.343750
9052,27.343750
9053,27.343750
9054,31.250000
9055,31.250000
9056,31.250000
9057,31.250000
9058,31.250000
9059,31.250000
9060,31.250000
9061,31.250000
9062,31.250000
9063,35.156250
9064,35.156250
9065,35.156250
9066,39.062500
9067,35.156250
9068,35.156250
9069,35.156250
9070,35.156250
9071,35.156250
9072,35.156250
9073,39.062500
9074,39.062500
9075,39.062500
9076,39.062500
9077,39.062500
9078,39.062500
9079,39.062500
9080,39.062500
9081,39.062500
9082,42.968750
9083,42.968750
9084,42.968750
9085,42.968750
9086,42.968750
9087,42.968750
9088,42.968750
9089,42.968750
9090,46.875000
9091,42.968750
9092,46.875000
9093,46.875000
9094,46.875000
9095,46.875000
9096,46.875000
9097,46.875000
9098,46.875000
9099,46.875000
9100,46.875000
9101,46.875000
9102,50.781250
9103,46.875000
9104,50.781250
9105,50.781250
9106,50.781250
9107,50.781250
9108,50.781250
9109,50.781250
9110,50.781250
9111,50.781250
9112,50.781250
9113,50.781250
9114,50.781250
9115,54.687500
9116,54.687500
9117,54.687500
9118,54.687500
9119,54.687500
9120,54.687500
9121,54.687500
9122,54.687500
9123,54.687500
9124,54.687500
9125,54.687500
9126,58.593750
9127,58.593750
9128,58.593750
9129,58.593750
9130,58.593750
9131,58.593750
9132,58.593750
9133,58.593750
9134,58.593750
9135,58.593750
9136,58.593750
9137,58.593750
9138,58.593750
9139,58.593750
9140,58.593750
9141,58.593750
9142,58.593750
9143,58.593750
9144,62.500000
9145,62.500000
9146,62.500000
9147,62.500000
9148,62.500000
9149,62.500000
9150,62.500000
9151,62.500000
9152,62.500000
9153,62.500000
9154,66.406250
9155,62.500000
9156,62.500000
9157,62.500000
9158,66.406250
9159,62.500000
9160,66.406250
9161,66.406250
9162,66.406250
9163,66.406250
9164,66.406250
9165,66.406250
9166,66.406250
9167,66.406250
9168,66.406250
9169,66.406250
9170,66.406250
9171,66.406250
9172,66.406250
9173,66.406250
9174,66.406250
9175,66.406250
9176,66.406250
9177,66.406250
9178,66.406250
9179,70.312500
9180,66.406250
9181,70.312500
9182,70.312500
9183,70.312500
9184,70.312500
9185,66.406250
9186,70.312500
9187,70.312500
9188,70.312500
9189,70.312500
9190,70.312500
9191,70.312500
9192,70.312500
9193,70.312500
9194,70.312500
9195,70.312500
9196,70.312500
9197,70.312500
9198,70.312500
9199,70.312500
9200,70.312500
9201,70.312500
9202,70.312500
9203,70.312500
9204,70.312500
9205,70.312500
9206,70.312500
9207,70.312500
9208,70.312500
9209,70.312500
9210,70.312500
9211,70.312500
9212,70.312500
9213,70.312500
9214,70.312500
9215,70.312500
9216,70.312500
9217,70.312500
9218,70.312500
9219,70.312500
9220,70.312500
9221,70.312500
9222,70.312500
9223,70.312500
9224,70.312500
9225,70.312500
9226,70.312500
9227,70.312500
9228,70.312500
9229,70.312500
9230,70.312500
9231,70.312500
9232,70.312500
9233,70.312500
9234,70.312500
9235,70.312500
9236,70.312500
9237,70.312500
9238,70.312500
9239,70.312500
9240,70.312500
9241,70.312500
9242,70.312500
9243,70.312500
9244,70.312500
9245,70.312500
9246,70.312500
9247,70.312500
9248,70.312500
9249,70.312500
9250,70.312500
9251,70.312500
9252,70.312500
9253,70.312500
9254,70.312500
9255,70.312500
9256,70.312500
9257,70.312500
9258,70.312500
9259,66.406250
9260,70.312500
9261,66.406250
9262,66.406250
9263,66.406250
9264,70.312500
9265,70.312500
9266,70.312500
9267,66.406250
9268,66.406250
9269,66.406250
9270,66.406250
9271,66.406250
9272,66.406250
9273,66.406250
9274,66.406250
9275,66.406250
9276,66.406250
9277,66.406250
9278,66.406250
9279,66.406250
9280,66.406250
9281,66.406250
9282,66.406250
9283,66.406250
9284,66.406250
9285,66.406250
9286,66.406250
9287,66.406250
9288,66.406250
9289,66.406250
9290,66.406250
9291,62.500000
9292,62.500000
9293,62.500000
9294,62.500000
9295,62.500000
9296,62.500000
9297,62.500000
9298,62.500000
9299,62.500000
9300,62.500000
9301,62.500000
9302,62.500000
9303,62.500000
9304,62.500000
9305,58.593750
9306,62.500000
9307,58.593750
9308,58.593750
9309,58.593750
9310,58.593750
9311,58.593750
9312,58.593750
9313,58.593750
9314,58.593750
9315,58.593750
9316,58.593750
9317,58.593750
9318,58.593750
9319,58.593750
9320,58.593750
9321,58.593750
9322,54.687500
9323,54.687500
9324,54.687500
9325,54.687500
9326,54.687500
9327,54.687500
9328,54.687500
9329,54.687500
9330,54.687500
9331,54.687500
9332,54.687500
9333,54.687500
9334,54.687500
9335,54.687500
9336,50.781250
9337,50.781250
9338,50.781250
9339,50.781250
9340,50.781250
9341,50.781250
9342,50.781250
9343,50.781250
9344,50.781250
9345,46.875000
9346,50.781250
9347,46.875000
9348,50.781250
9349,46.875000
9350,46.875000
9351,46.875000
9352,46.875000
9353,46.875000
9354,46.875000
9355,46.875000
9356,46.875000
9357,46.875000
9358,46.875000
9359,42.968750
9360,42.968750
9361,42.968750
9362,42.968750
9363,42.968750
9364,42.968750
9365,42.968750
9366,42.968750
9367,42.968750
9368,42.968750
9369,39.062500
9370,39.062500
9371,39.062500
9372,39.062500
9373,39.062500
9374,39.062500
9375,39.062500
9376,35.156250
9377,35.156250
9378,35.156250
9379,35.156250
9380,35.156250
9381,35.156250
9382,35.156250
9383,35.156250
9384,35.156250
9385,35.156250
9386,31.250000
9387,31.250000
9388,31.250000
9389,31.250000
9390,31.250000
9391,31.250000
9392,31.250000
9393,27.343750
9394,27.343750
9395,27.343750
9396,27.343750
9397,27.343750
9398,27.343750
9399,27.343750
9400,27.343750
9401,23.437500
9402,23.437500
9403,23.437500
9404,23.437500
9405,23.437500
9406,23.437500
9407,23.437500
9408,23.437500
9409,19.531250
9410,19.531250
9411,19.531250
9412,19.531250
9413,19.531250
9414,19.531250
9415,19.531250
9416,19.531250
9417,19.531250
9418,19.531250
9419,15.625000
9420,15.625000
9421,15.625000
9422,15.625000
9423,15.625000
9424,15.625000
9425,15.625000
9426,15.625000
9427,11.718750
9428,11.718750
9429,11.718750
9430,11.718750
9431,11.718750
9432,11.718750
9433,7.812500
9434,7.812500
9435,7.812500
9436,7.812500
9437,7.812500
9438,7.812500
9439,7.812500
9440,7.812500
9441,3.906250
9442,3.906250
9443,3.906250
9444,3.906250
9445,3.906250
9446,3.906250
9447,0.000000
9448,3.906250
9449,0.000000
9450,0.000000
9451,0.000000
9452,0.000000
9453,0.000000
9454,0.000000
9455,0.000000
9456,0.000000
9457,-3.906250
9458,-3.906250
9459,-3.906250
9460,-3.906250
9461,-3.906250
9462,-3.906250
9463,-3.906250
9464,-7.812500
9465,-7.812500
9466,-7.812500
9467,-7.812500
9468,-7.812500
9469,-7.812500
9470,-11.718750
9471,-11.718750
9472,-11.718750
9473,-11.718750
9474,-11.718750
9475,-11.718750
9476,-11.718750
9477,-11.718750
9478,-15.625000
9479,-15.625000
9480,-15.625000
9481,-15.625000
9482,-15.625000
9483,-15.625000
9484,-15.625000
9485,-15.625000
9486,-19.531250
9487,-19.531250
9488,-19.531250
9489,-19.531250
9490,-19.531250
9491,-19.531250
9492,-19.531250
9493,-23.437500
9494,-23.437500
9495,-23.437500
9496,-23.437500
9497,-23.437500
9498,-23.437500
9499,-27.343750
9500,-27.343750
9501,-23.437500
9502,-27.343750
9503,-27.343750
9504,-27.343750
9505,-27.343750
9506,-31.250000
9507,-31.250000
9508,-31.250000
9509,-31.250000
9510,-31.250000
9511,-31.250000
9512,-31.250000
9513,-31.250000
9514,-35.156250
9515,-35.156250
9516,-35.156250
9517,-35.156250
9518,-35.156250
9519,-35.156250
9520,-35.156250
9521,-35.156250
9522,-39.062500
9523,-39.062500
9524,-39.062500
9525,-39.062500
9526,-39.062500
9527,-39.062500
9528,-42.968750
9529,-42.968750
9530,-42.968750
9531,-42.968750
9532,-42.968750
9533,-42.968750
9534,-42.968750
9535,-42.968750
9536,-46.875000
9537,-46.875000
9538,-46.875000
9539,-46.875000
9540,-46.875000
9541,-46.875000
9542,-50.781250
9543,-50.781250
9544,-50.781250
9545,-50.781250
9546,-50.781250
9547,-50.781250
9548,-50.781250
9549,-50.781250
9550,-54.687500
9551,-54.687500
9552,-54.687500
9553,-54.687500
9554,-54.687500
9555,-54.687500
9556,-54.687500
9557,-54.687500
9558,-54.687500
9559,-58.593750
9560,-58.593750
9561,-58.593750
9562,-58.593750
9563,-58.593750
9564,-58.593750
9565,-62.500000
9566,-58.593750
9567,-62.500000
9568,-62.500000
9569,-62.500000
9570,-62.500000
9571,-62.500000
9572,-62.500000
9573,-62.500000
9574,-62.500000
9575,-66.406250
9576,-66.406250
9577,-66.406250
9578,-66.406250
9579,-66.406250
9580,-66.406250
9581,-66.406250
9582,-66.406250
9583,-66.406250
9584,-66.406250
9585,-70.312500
9586,-70.312500
9587,-70.312500
9588,-70.312500
9589,-70.312500
9590,-70.312500
9591,-70.312500
9592,-70.312500
9593,-70.312500
9594,-70.312500
9595,-74.218750
9596,-74.218750
9597,-74.218750
9598,-74.218750
9599,-74.218750
9600,-74.218750
9601,-78.125000
9602,-74.218750
9603,-74.218750
9604,-78.125000
9605,-78.125000
9606,-78.125000
9607,-78.125000
9608,-78.125000
9609,-78.125000
9610,-78.125000
9611,-82.031250
9612,-82.031250
9613,-78.125000
9614,-82.031250
9615,-82.031250
9616,-82.031250
9617,-82.031250
9618,-82.031250
9619,-82.031250
9620,-82.031250
9621,-82.031250
9622,-82.031250
9623,-82.031250
9624,-85.937500
9625,-85.937500
9626,-85.937500
9627,-85.937500
9628,-85.937500
9629,-85.937500
9630,-85.937500
9631,-85.937500
9632,-85.937500
9633,-85.937500
9634,-85.937500
9635,-85.937500
9636,-89.843750
9637,-89.843750
9638,-89.843750
9639,-89.843750
9640,-89.843750
9641,-89.843750
9642,-89.843750
9643,-89.843750
9644,-89.843750
9645,-89.843750
9646,-89.843750
9647,-89.843750
9648,-89.843750
9649,-89.843750
9650,-93.750000
9651,-93.750000
9652,-93.750000
9653,-93.750000
9654,-93.750000
9655,-93.750000
9656,-93.750000
9657,-93.750000
9658,-93.750000
9659,-93.750000
9660,-93.750000
9661,-93.750000
9662,-93.750000
9663,-93.750000
9664,-93.750000
9665,-93.750000
9666,-93.750000
9667,-93.750000
9668,-93.750000
9669,-97.656250
9670,-97.656250
9671,-97.656250
9672,-97.656250
9673,-97.656250
9674,-97.656250
9675,-97.656250
9676,-97.656250
9677,-97.656250
9678,-97.656250
9679,-97.656250
9680,-97.656250
9681,-97.656250
9682,-97.656250
9683,-97.656250
9684,-97.656250
9685,-97.656250
9686,-97.656250
9687,-97.656250
9688,-97.656250
9689,-97.656250
9690,-97.656250
9691,-101.562500
9692,-101.562500
9693,-101.562500
9694,-101.562500
9695,-101.562500
9696,-97.656250
9697,-101.562500
9698,-101.562500
9699,-101.562500
9700,-101.562500
9701,-101.562500
9702,-101.562500
9703,-101.562500
9704,-101.562500
9705,-101.562500
9706,-101.562500
9707,-101.562500
9708,-101.562500
9709,-101.562500
9710,-101.562500
9711,-101.562500
9712,-101.562500
9713,-101.562500
9714,-101.562500
9715,-101.562500
9716,-101.562500
9717,-101.562500
9718,-101.562500
9719,-101.562500
9720,-101.562500
9721,-101.562500
9722,-101.562500
9723,-101.562500
9724,-101.562500
9725,-101.562500
9726,-101.562500
9727,-101.562500
9728,-101.562500
9729,-101.562500
9730,-101.562500
9731,-101.562500
9732,-101.562500
9733,-101.562500
9734,-101.562500
9735,-101.562500
9736,-101.562500
9737,-101.562500
9738,-101.562500
9739,-101.562500
9740,-101.562500
9741,-97.656250
9742,-97.656250
9743,-97.656250
9744,-101.562500
9745,-97.656250
9746,-101.562500
9747,-101.562500
9748,-97.656250
9749,-97.656250
9750,-97.656250
9751,-97.656250
9752,-97.656250
9753,-97.656250
9754,-97.656250
9755,-97.656250
9756,-97.656250
9757,-97.656250
9758,-97.656250
9759,-97.656250
9760,-97.656250
9761,-97.656250
9762,-97.656250
9763,-97.656250
9764,-97.656250
9765,-97.656250
9766,-97.656250
9767,-97.656250
9768,-97.656250
9769,-97.656250
9770,-97.656250
9771,-97.656250
9772,-97.656250
9773,-97.656250
9774,-97.656250
9775,-93.750000
9776,-93.750000
9777,-93.750000
9778,-93.750000
9779,-93.750000
9780,-93.750000
9781,-93.750000
9782,-93.750000
9783,-93.750000
9784,-93.750000
9785,-93.750000
9786,-93.750000
9787,-93.750000
9788,-93.750000
9789,-93.750000
9790,-93.750000
9791,-89.843750
9792,-93.750000
9793,-89.843750
9794,-89.843750
9795,-89.843750
9796,-89.843750
9797,-89.843750
9798,-89.843750
9799,-89.843750
9800,-89.843750
9801,-89.843750
9802,-89.843750
9803,-89.843750
9804,-85.937500
9805,-85.937500
9806,-85.937500
9807,-85.937500
9808,-85.937500
9809,-85.937500
9810,-85.937500
9811,-85.937500
9812,-85.937500
9813,-85.937500
9814,-85.937500
9815,-85.937500
9816,-82.031250
9817,-82.031250
9818,-82.031250
9819,-82.031250
9820,-82.031250
9821,-82.031250
9822,-82.031250
9823,-82.031250
9824,-82.031250
9825,-82.031250
9826,-82.031250
9827,-82.031250
9828,-78.125000
9829,-82.031250
9830,-78.125000
9831,-78.125000
9832,-78.125000
9833,-78.125000
9834,-78.125000
9835,-78.125000
9836,-78.125000
9837,-78.125000
9838,-74.218750
9839,-74.218750
9840,-74.218750
9841,-74.218750
9842,-74.218750
9843,-74.218750
9844,-74.218750
9845,-74.218750
9846,-74.218750
9847,-74.218750
9848,-74.218750
9849,-70.312500
9850,-70.312500
9851,-70.312500
9852,-70.312500
9853,-70.312500
9854,-70.312500
9855,-70.312500
9856,-70.312500
9857,-70.312500
9858,-66.406250
9859,-66.406250
9860,-66.406250
9861,-66.406250
9862,-66.406250
9863,-66.406250
9864,-66.406250
9865,-66.406250
9866,-62.500000
9867,-62.500000
9868,-62.500000
9869,-62.500000
9870,-62.500000
9871,-62.500000
9872,-62.500000
9873,-62.500000
9874,-58.593750
9875,-58.593750
9876,-58.593750
9877,-58.593750
9878,-58.593750
9879,-58.593750
9880,-54.687500
9881,-54.687500
9882,-54.687500
9883,-54.687500
9884,-54.687500
9885,-54.687500
9886,-54.687500
9887,-54.687500
9888,-50.781250
9889,-50.781250
9890,-50.781250
9891,-50.781250
9892,-50.781250
9893,-50.781250
9894,-50.781250
9895,-50.781250
9896,-50.781250
9897,-50.781250
9898,-46.875000
9899,-46.875000
9900,-46.875000
9901,-46.875000
9902,-46.875000
9903,-46.875000
9904,-42.968750
9905,-42.968750
9906,-42.968750
9907,-42.968750
9908,-42.968750
9909,-42.968750
9910,-42.968750
9911,-42.968750
9912,-42.968750
9913,-39.062500
9914,-39.062500
9915,-39.062500
9916,-39.062500
9917,-39.062500
9918,-39.062500
9919,-39.062500
9920,-35.156250
9921,-35.156250
9922,-35.156250
9923,-35.156250
9924,-35.156250
9925,-35.156250
9926,-31.250000
9927,-35.156250
9928,-31.250000
9929,-31.250000
9930,-31.250000
9931,-31.250000
9932,-27.343750
9933,-31.250000
9934,-27.343750
9935,-27.343750
9936,-27.343750
9937,-27.343750
9938,-27.343750
9939,-27.343750
9940,-27.343750
9941,-23.437500
9942,-23.437500
9943,-23.437500
9944,-23.437500
9945,-23.437500
9946,-23.437500
9947,-23.437500
9948,-19.531250
9949,-19.531250
9950,-19.531250
9951,-19.531250
9952,-19.531250
9953,-19.531250
9954,-19.531250
9955,-15.625000
9956,-15.625000
9957,-15.625000
9958,-15.625000
9959,-15.625000
9960,-15.625000
9961,-15.625000
9962,-15.625000
9963,-15.625000
9964,-11.718750
9965,-11.718750
9966,-11.718750
9967,-11.718750
9968,-7.812500
9969,-7.812500
9970,-7.812500
9971,-7.812500
9972,-7.812500
9973,-7.812500
9974,-7.812500
9975,-7.812500
9976,-3.906250
9977,-3.906250
9978,-3.906250
9979,-3.906250
9980,-3.906250
9981,-3.906250
9982,0.000000
9983,0.000000
9984,0.000000
9985,0.000000
9986,0.000000
9987,0.000000
9988,0.000000
9989,3.906250
9990,3.906250
9991,3.906250
9992,3.906250
9993,3.906250
9994,3.906250
9995,3.906250
9996,3.906250
9997,3.906250
9998,7.812500
9999,7.812500
10000,7.812500
