Channel              :,CH1
Frequency            :,1.012kHz
Period               :,0.989ms
PK-PK                :,234.4mV
Probe attenuation    :,1X
Voltage per ADC value:,0.244141mV
Time interval        :,1.00000us

index,CH1_Voltage(mV)
1,-66.406250
2,-66.406250
3,-62.500000
4,-62.500000
5,-62.500000
6,-62.500000
7,-62.500000
8,-62.500000
9,-58.593750
10,-58.593750
11,-58.593750
12,-58.593750
13,-58.593750
14,-58.593750
15,-54.687500
16,-54.687500
17,-54.687500
18,-54.687500
19,-54.687500
20,-50.781250
21,-50.781250
22,-50.781250
23,-50.781250
24,-50.781250
25,-50.781250
26,-46.875000
27,-46.875000
28,-46.875000
29,-46.875000
30,-42.968750
31,-42.968750
32,-42.968750
33,-42.968750
34,-42.968750
35,-42.968750
36,-39.062500
37,-39.062500
38,-39.062500
39,-39.062500
40,-39.062500
41,-39.062500
42,-35.156250
43,-35.156250
44,-35.156250
45,-35.156250
46,-31.250000
47,-31.250000
48,-31.250000
49,-31.250000
50,-31.250000
51,-27.343750
52,-31.250000
53,-27.343750
54,-27.343750
55,-27.343750
56,-27.343750
57,-23.437500
58,-23.437500
59,-23.437500
60,-23.437500
61,-23.437500
62,-23.437500
63,-19.531250
64,-19.531250
65,-19.531250
66,-19.531250
67,-15.625000
68,-15.625000
69,-15.625000
70,-15.625000
71,-15.625000
72,-11.718750
73,-11.718750
74,-11.718750
75,-11.718750
76,-11.718750
77,-11.718750
78,-11.718750
79,-7.812500
80,-7.812500
81,-7.812500
82,-7.812500
83,-3.906250
84,-3.906250
85,-3.906250
86,-3.906250
87,-3.906250
88,-3.906250
89,0.000000
90,0.000000
91,0.000000
92,0.000000
93,0.000000
94,3.906250
95,3.906250
96,3.906250
97,3.906250
98,3.906250
99,7.812500
100,7.812500
101,7.812500
102,7.812500
103,7.812500
104,7.812500
105,11.718750
106,11.718750
107,11.718750
108,11.718750
109,11.718750
110,15.625000
111,15.625000
112,15.625000
113,15.625000
114,15.625000
115,19.531250
116,19.531250
117,19.531250
118,19.531250
119,19.531250
120,23.437500
121,23.437500
122,23.437500
123,23.437500
124,23.437500
125,23.437500
126,27.343750
127,27.343750
128,27.343750
129,27.343750
130,27.343750
131,27.343750
132,27.343750
133,27.343750
134,31.250000
135,31.250000
136,31.250000
137,31.250000
138,31.250000
139,35.156250
140,35.156250
141,35.156250
142,35.156250
143,35.156250
144,35.156250
145,39.062500
146,39.062500
147,39.062500
148,39.062500
149,39.062500
150,39.062500
151,42.968750
152,42.968750
153,42.968750
154,42.968750
155,42.968750
156,42.968750
157,46.875000
158,42.968750
159,46.875000
160,46.875000
161,46.875000
162,46.875000
163,46.875000
164,46.875000
165,50.781250
166,50.781250
167,50.781250
168,50.781250
169,50.781250
170,50.781250
171,54.687500
172,54.687500
173,54.687500
174,54.687500
175,54.687500
176,54.687500
177,54.687500
178,54.687500
179,58.593750
180,58.593750
181,58.593750
182,58.593750
183,58.593750
184,58.593750
185,58.593750
186,62.500000
187,62.500000
188,62.500000
189,62.500000
190,62.500000
191,62.500000
192,62.500000
193,62.500000
194,62.500000
195,66.406250
196,66.406250
197,66.406250
198,66.406250
199,66.406250
200,66.406250
201,70.312500
202,70.312500
203,70.312500
204,70.312500
205,70.312500
206,70.312500
207,70.312500
208,70.312500
209,70.312500
210,74.218750
211,74.218750
212,74.218750
213,74.218750
214,74.218750
215,74.218750
216,74.218750
217,74.218750
218,74.218750
219,74.218750
220,78.125000
221,74.218750
222,78.125000
223,78.125000
224,78.125000
225,78.125000
226,78.125000
227,78.125000
228,78.125000
229,78.125000
230,82.031250
231,82.031250
232,82.031250
233,82.031250
234,82.031250
235,82.031250
236,82.031250
237,82.031250
238,82.031250
239,82.031250
240,82.031250
241,85.937500
242,85.937500
243,85.937500
244,85.937500
245,85.937500
246,85.937500
247,85.937500
248,85.937500
249,85.937500
250,85.937500
251,85.937500
252,85.937500
253,85.937500
254,89.843750
255,85.937500
256,89.843750
257,89.843750
258,89.843750
259,89.843750
260,89.843750
261,89.843750
262,89.843750
263,89.843750
264,89.843750
265,89.843750
266,89.843750
267,89.843750
268,89.843750
269,89.843750
270,93.750000
271,93.750000
272,93.750000
273,93.750000
274,93.750000
275,93.750000
276,93.750000
277,93.750000
278,93.750000
279,93.750000
280,93.750000
281,93.750000
282,93.750000
283,93.750000
284,93.750000
285,93.750000
286,93.750000
287,93.750000
288,93.750000
289,93.750000
290,93.750000
291,93.750000
292,93.750000
293,97.656250
294,93.750000
295,93.750000
296,97.656250
297,97.656250
298,93.750000
299,97.656250
300,97.656250
301,97.656250
302,97.656250
303,97.656250
304,97.656250
305,97.656250
306,97.656250
307,97.656250
308,97.656250
309,97.656250
310,97.656250
311,97.656250
312,97.656250
313,97.656250
314,97.656250
315,97.656250
316,97.656250
317,97.656250
318,97.656250
319,97.656250
320,97.656250
321,101.562500
322,97.656250
323,97.656250
324,97.656250
325,97.656250
326,97.656250
327,97.656250
328,97.656250
329,97.656250
330,97.656250
331,97.656250
332,97.656250
333,97.656250
334,97.656250
335,97.656250
336,97.656250
337,97.656250
338,97.656250
339,97.656250
340,97.656250
341,97.656250
342,97.656250
343,97.656250
344,97.656250
345,97.656250
346,97.656250
347,97.656250
348,97.656250
349,97.656250
350,97.656250
351,97.656250
352,97.656250
353,97.656250
354,97.656250
355,97.656250
356,97.656250
357,97.656250
358,97.656250
359,97.656250
360,97.656250
361,97.656250
362,97.656250
363,93.750000
364,93.750000
365,97.656250
366,93.750000
367,93.750000
368,93.750000
369,93.750000
370,93.750000
371,93.750000
372,93.750000
373,93.750000
374,93.750000
375,93.750000
376,93.750000
377,93.750000
378,93.750000
379,93.750000
380,93.750000
381,93.750000
382,89.843750
383,93.750000
384,89.843750
385,89.843750
386,89.843750
387,89.843750
388,89.843750
389,89.843750
390,89.843750
391,89.843750
392,89.843750
393,89.843750
394,89.843750
395,89.843750
396,89.843750
397,89.843750
398,89.843750
399,89.843750
400,89.843750
401,85.937500
402,85.937500
403,85.937500
404,85.937500
405,85.937500
406,85.937500
407,85.937500
408,85.937500
409,85.937500
410,85.937500
411,85.937500
412,85.937500
413,82.031250
414,82.031250
415,82.031250
416,82.031250
417,82.031250
418,82.031250
419,82.031250
420,82.031250
421,78.125000
422,78.125000
423,78.125000
424,78.125000
425,78.125000
426,78.125000
427,78.125000
428,78.125000
429,78.125000
430,78.125000
431,78.125000
432,74.218750
433,78.125000
434,74.218750
435,74.218750
436,74.218750
437,74.218750
438,74.218750
439,74.218750
440,74.218750
441,74.218750
442,70.312500
443,70.312500
444,70.312500
445,70.312500
446,70.312500
447,70.312500
448,70.312500
449,70.312500
450,66.406250
451,66.406250
452,66.406250
453,66.406250
454,66.406250
455,66.406250
456,66.406250
457,66.406250
458,66.406250
459,62.500000
460,62.500000
461,62.500000
462,62.500000
463,62.500000
464,62.500000
465,62.500000
466,62.500000
467,62.500000
468,58.593750
469,58.593750
470,58.593750
471,58.593750
472,58.593750
473,58.593750
474,54.687500
475,54.687500
476,54.687500
477,54.687500
478,54.687500
479,54.687500
480,50.781250
481,50.781250
482,50.781250
483,50.781250
484,50.781250
485,50.781250
486,50.781250
487,50.781250
488,46.875000
489,46.875000
490,46.875000
491,46.875000
492,46.875000
493,46.875000
494,42.968750
495,46.875000
496,42.968750
497,42.968750
498,42.968750
499,42.968750
500,42.968750
501,42.968750
502,39.062500
503,39.062500
504,39.062500
505,39.062500
506,39.062500
507,35.156250
508,35.156250
509,35.156250
510,35.156250
511,35.156250
512,35.156250
513,31.250000
514,31.250000
515,31.250000
516,31.250000
517,31.250000
518,27.343750
519,31.250000
520,27.343750
521,27.343750
522,27.343750
523,27.343750
524,27.343750
525,23.437500
526,23.437500
527,23.437500
528,23.437500
529,23.437500
530,23.437500
531,19.531250
532,19.531250
533,19.531250
534,19.531250
535,19.531250
536,15.625000
537,15.625000
538,15.625000
539,15.625000
540,15.625000
541,11.718750
542,11.718750
543,11.718750
544,11.718750
545,11.718750
546,11.718750
547,7.812500
548,7.812500
549,7.812500
550,7.812500
551,7.812500
552,3.906250
553,3.906250
554,3.906250
555,3.906250
556,3.906250
557,3.906250
558,0.000000
559,0.000000
560,0.000000
561,0.000000
562,-3.906250
563,-3.906250
564,-3.906250
565,-3.906250
566,-3.906250
567,-7.812500
568,-7.812500
569,-7.812500
570,-7.812500
571,-7.812500
572,-11.718750
573,-11.718750
574,-11.718750
575,-11.718750
576,-11.718750
577,-15.625000
578,-15.625000
579,-15.625000
580,-15.625000
581,-15.625000
582,-15.625000
583,-19.531250
584,-19.531250
585,-19.531250
586,-19.531250
587,-19.531250
588,-23.437500
589,-23.437500
590,-23.437500
591,-23.437500
592,-23.437500
593,-23.437500
594,-27.343750
595,-27.343750
596,-27.343750
597,-27.343750
598,-27.343750
599,-27.343750
600,-31.250000
601,-31.250000
602,-31.250000
603,-35.156250
604,-35.156250
605,-35.156250
606,-35.156250
607,-35.156250
608,-35.156250
609,-39.062500
610,-39.062500
611,-39.062500
612,-39.062500
613,-39.062500
614,-39.062500
615,-42.968750
616,-42.968750
617,-42.968750
618,-42.968750
619,-42.968750
620,-46.875000
621,-46.875000
622,-46.875000
623,-46.875000
624,-46.875000
625,-50.781250
626,-50.781250
627,-50.781250
628,-50.781250
629,-50.781250
630,-54.687500
631,-54.687500
632,-54.687500
633,-54.687500
634,-54.687500
635,-58.593750
636,-58.593750
637,-58.593750
638,-58.593750
639,-58.593750
640,-58.593750
641,-62.500000
642,-62.500000
643,-62.500000
644,-62.500000
645,-62.500000
646,-66.406250
647,-66.406250
648,-66.406250
649,-66.406250
650,-66.406250
651,-66.406250
652,-70.312500
653,-70.312500
654,-70.312500
655,-70.312500
656,-70.312500
657,-70.312500
658,-74.218750
659,-74.218750
660,-74.218750
661,-74.218750
662,-78.125000
663,-78.125000
664,-78.125000
665,-78.125000
666,-78.125000
667,-78.125000
668,-78.125000
669,-82.031250
670,-82.031250
671,-82.031250
672,-82.031250
673,-82.031250
674,-85.937500
675,-85.937500
676,-85.937500
677,-85.937500
678,-85.937500
679,-85.937500
680,-89.843750
681,-89.843750
682,-89.843750
683,-89.843750
684,-89.843750
685,-89.843750
686,-93.750000
687,-93.750000
688,-93.750000
689,-93.750000
690,-93.750000
691,-93.750000
692,-93.750000
693,-97.656250
694,-97.656250
695,-97.656250
696,-97.656250
697,-97.656250
698,-101.562500
699,-101.562500
700,-101.562500
701,-101.562500
702,-101.562500
703,-101.562500
704,-101.562500
705,-101.562500
706,-105.468750
707,-105.468750
708,-105.468750
709,-105.468750
710,-105.468750
711,-105.468750
712,-109.375000
713,-105.468750
714,-109.375000
715,-109.375000
716,-109.375000
717,-109.375000
718,-109.375000
719,-109.375000
720,-109.375000
721,-109.375000
722,-113.281250
723,-113.281250
724,-113.281250
725,-113.281250
726,-113.281250
727,-113.281250
728,-113.281250
729,-113.281250
730,-117.187500
731,-117.187500
732,-117.187500
733,-117.187500
734,-117.187500
735,-117.187500
736,-117.187500
737,-117.187500
738,-117.187500
739,-121.093750
740,-121.093750
741,-121.093750
742,-121.093750
743,-121.093750
744,-121.093750
745,-121.093750
746,-121.093750
747,-121.093750
748,-125.000000
749,-121.093750
750,-125.000000
751,-125.000000
752,-125.000000
753,-125.000000
754,-125.000000
755,-125.000000
756,-125.000000
757,-125.000000
758,-125.000000
759,-125.000000
760,-125.000000
761,-125.000000
762,-128.906250
763,-128.906250
764,-128.906250
765,-128.906250
766,-128.906250
767,-128.906250
768,-128.906250
769,-128.906250
770,-128.906250
771,-128.906250
772,-128.906250
773,-128.906250
774,-128.906250
775,-128.906250
776,-132.812500
777,-132.812500
778,-132.812500
779,-132.812500
780,-132.812500
781,-132.812500
782,-132.812500
783,-132.812500
784,-132.812500
785,-132.812500
786,-132.812500
787,-132.812500
788,-132.812500
789,-132.812500
790,-132.812500
791,-132.812500
792,-132.812500
793,-132.812500
794,-132.812500
795,-132.812500
796,-132.812500
797,-136.718750
798,-136.718750
799,-136.718750
800,-132.812500
801,-136.718750
802,-136.718750
803,-136.718750
804,-136.718750
805,-136.718750
806,-136.718750
807,-136.718750
808,-136.718750
809,-136.718750
810,-136.718750
811,-136.718750
812,-136.718750
813,-136.718750
814,-136.718750
815,-136.718750
816,-132.812500
817,-136.718750
818,-136.718750
819,-136.718750
820,-136.718750
821,-136.718750
822,-136.718750
823,-136.718750
824,-136.718750
825,-136.718750
826,-136.718750
827,-136.718750
828,-136.718750
829,-136.718750
830,-136.718750
831,-136.718750
832,-136.718750
833,-136.718750
834,-136.718750
835,-132.812500
836,-132.812500
837,-132.812500
838,-136.718750
839,-136.718750
840,-132.812500
841,-132.812500
842,-136.718750
843,-132.812500
844,-132.812500
845,-132.812500
846,-132.812500
847,-132.812500
848,-132.812500
849,-132.812500
850,-132.812500
851,-132.812500
852,-132.812500
853,-132.812500
854,-132.812500
855,-132.812500
856,-132.812500
857,-132.812500
858,-132.812500
859,-132.812500
860,-132.812500
861,-128.906250
862,-128.906250
863,-128.906250
864,-128.906250
865,-128.906250
866,-128.906250
867,-128.906250
868,-128.906250
869,-128.906250
870,-128.906250
871,-128.906250
872,-128.906250
873,-128.906250
874,-128.906250
875,-125.000000
876,-125.000000
877,-125.000000
878,-125.000000
879,-125.000000
880,-125.000000
881,-125.000000
882,-125.000000
883,-125.000000
884,-125.000000
885,-125.000000
886,-121.093750
887,-121.093750
888,-121.093750
889,-121.093750
890,-121.093750
891,-121.093750
892,-121.093750
893,-121.093750
894,-121.093750
895,-121.093750
896,-121.093750
897,-121.093750
898,-117.187500
899,-117.187500
900,-117.187500
901,-117.187500
902,-117.187500
903,-117.187500
904,-117.187500
905,-117.187500
906,-117.187500
907,-113.281250
908,-113.281250
909,-113.281250
910,-113.281250
911,-113.281250
912,-113.281250
913,-113.281250
914,-113.281250
915,-113.281250
916,-109.375000
917,-109.375000
918,-109.375000
919,-109.375000
920,-109.375000
921,-109.375000
922,-105.468750
923,-105.468750
924,-105.468750
925,-105.468750
926,-105.468750
927,-105.468750
928,-105.468750
929,-105.468750
930,-105.468750
931,-101.562500
932,-101.562500
933,-101.562500
934,-101.562500
935,-101.562500
936,-101.562500
937,-97.656250
938,-97.656250
939,-97.656250
940,-97.656250
941,-97.656250
942,-97.656250
943,-97.656250
944,-93.750000
945,-97.656250
946,-93.750000
947,-93.750000
948,-93.750000
949,-93.750000
950,-93.750000
951,-93.750000
952,-89.843750
953,-89.843750
954,-89.843750
955,-89.843750
956,-89.843750
957,-85.937500
958,-85.937500
959,-85.937500
960,-85.937500
961,-85.937500
962,-85.937500
963,-85.937500
964,-82.031250
965,-82.031250
966,-82.031250
967,-82.031250
968,-82.031250
969,-82.031250
970,-78.125000
971,-78.125000
972,-78.125000
973,-78.125000
974,-78.125000
975,-74.218750
976,-74.218750
977,-74.218750
978,-74.218750
979,-74.218750
980,-74.218750
981,-74.218750
982,-70.312500
983,-70.312500
984,-70.312500
985,-70.312500
986,-70.312500
987,-70.312500
988,-66.406250
989,-66.406250
990,-66.406250
991,-66.406250
992,-62.500000
993,-62.500000
994,-62.500000
995,-62.500000
996,-62.500000
997,-62.500000
998,-58.593750
999,-58.593750
1000,-58.593750
1001,-58.593750
1002,-58.593750
1003,-54.687500
1004,-54.687500
1005,-54.687500
1006,-54.687500
1007,-54.687500
1008,-54.687500
1009,-50.781250
1010,-50.781250
1011,-50.781250
1012,-50.781250
1013,-50.781250
1014,-46.875000
1015,-46.875000
1016,-46.875000
1017,-46.875000
1018,-46.875000
1019,-42.968750
1020,-42.968750
1021,-42.968750
1022,-42.968750
1023,-42.968750
1024,-39.062500
1025,-39.062500
1026,-39.062500
1027,-39.062500
1028,-39.062500
1029,-35.156250
1030,-35.156250
1031,-35.156250
1032,-35.156250
1033,-35.156250
1034,-35.156250
1035,-31.250000
1036,-31.250000
1037,-31.250000
1038,-31.250000
1039,-27.343750
1040,-27.343750
1041,-27.343750
1042,-27.343750
1043,-27.343750
1044,-27.343750
1045,-27.343750
1046,-23.437500
1047,-23.437500
1048,-23.437500
1049,-23.437500
1050,-19.531250
1051,-19.531250
1052,-19.531250
1053,-19.531250
1054,-19.531250
1055,-19.531250
1056,-19.531250
1057,-15.625000
1058,-15.625000
1059,-15.625000
1060,-15.625000
1061,-11.718750
1062,-11.718750
1063,-11.718750
1064,-11.718750
1065,-11.718750
1066,-7.812500
1067,-7.812500
1068,-7.812500
1069,-7.812500
1070,-7.812500
1071,-7.812500
1072,-3.906250
1073,-3.906250
1074,-3.906250
1075,-3.906250
1076,-3.906250
1077,0.000000
1078,0.000000
1079,0.000000
1080,0.000000
1081,0.000000
1082,3.906250
1083,3.906250
1084,3.906250
1085,3.906250
1086,3.906250
1087,3.906250
1088,7.812500
1089,7.812500
1090,7.812500
1091,7.812500
1092,7.812500
1093,11.718750
1094,11.718750
1095,11.718750
1096,11.718750
1097,11.718750
1098,11.718750
1099,15.625000
1100,15.625000
1101,15.625000
1102,15.625000
1103,15.625000
1104,19.531250
1105,19.531250
1106,19.531250
1107,19.531250
1108,19.531250
1109,19.531250
1110,23.437500
1111,23.437500
1112,23.437500
1113,23.437500
1114,23.437500
1115,27.343750
1116,27.343750
1117,27.343750
1118,27.343750
1119,27.343750
1120,27.343750
1121,31.250000
1122,31.250000
1123,31.250000
1124,31.250000
1125,31.250000
1126,31.250000
1127,35.156250
1128,35.156250
1129,35.156250
1130,35.156250
1131,35.156250
1132,39.062500
1133,39.062500
1134,39.062500
1135,39.062500
1136,39.062500
1137,39.062500
1138,39.062500
1139,39.062500
1140,42.968750
1141,42.968750
1142,42.968750
1143,42.968750
1144,42.968750
1145,42.968750
1146,46.875000
1147,46.875000
1148,46.875000
1149,46.875000
1150,46.875000
1151,46.875000
1152,50.781250
1153,50.781250
1154,50.781250
1155,50.781250
1156,50.781250
1157,50.781250
1158,50.781250
1159,54.687500
1160,50.781250
1161,54.687500
1162,54.687500
1163,54.687500
1164,54.687500
1165,54.687500
1166,54.687500
1167,58.593750
1168,58.593750
1169,58.593750
1170,58.593750
1171,58.593750
1172,58.593750
1173,62.500000
1174,58.593750
1175,62.500000
1176,62.500000
1177,62.500000
1178,62.500000
1179,62.500000
1180,62.500000
1181,62.500000
1182,66.406250
1183,66.406250
1184,66.406250
1185,66.406250
1186,66.406250
1187,66.406250
1188,66.406250
1189,66.406250
1190,70.312500
1191,66.406250
1192,70.312500
1193,70.312500
1194,70.312500
1195,70.312500
1196,70.312500
1197,70.312500
1198,70.312500
1199,70.312500
1200,74.218750
1201,74.218750
1202,74.218750
1203,74.218750
1204,74.218750
1205,78.125000
1206,74.218750
1207,74.218750
1208,74.218750
1209,78.125000
1210,78.125000
1211,78.125000
1212,78.125000
1213,78.125000
1214,78.125000
1215,78.125000
1216,78.125000
1217,78.125000
1218,78.125000
1219,78.125000
1220,82.031250
1221,82.031250
1222,82.031250
1223,82.031250
1224,82.031250
1225,82.031250
1226,82.031250
1227,82.031250
1228,82.031250
1229,82.031250
1230,82.031250
1231,85.937500
1232,85.937500
1233,85.937500
1234,85.937500
1235,85.937500
1236,85.937500
1237,85.937500
1238,85.937500
1239,85.937500
1240,85.937500
1241,85.937500
1242,85.937500
1243,89.843750
1244,89.843750
1245,89.843750
1246,89.843750
1247,89.843750
1248,89.843750
1249,89.843750
1250,89.843750
1251,89.843750
1252,89.843750
1253,89.843750
1254,89.843750
1255,89.843750
1256,89.843750
1257,89.843750
1258,93.750000
1259,89.843750
1260,89.843750
1261,93.750000
1262,93.750000
1263,93.750000
1264,93.750000
1265,93.750000
1266,93.750000
1267,93.750000
1268,93.750000
1269,93.750000
1270,93.750000
1271,93.750000
1272,93.750000
1273,93.750000
1274,93.750000
1275,93.750000
1276,93.750000
1277,97.656250
1278,97.656250
1279,93.750000
1280,93.750000
1281,93.750000
1282,97.656250
1283,97.656250
1284,97.656250
1285,97.656250
1286,97.656250
1287,97.656250
1288,97.656250
1289,97.656250
1290,97.656250
1291,97.656250
1292,97.656250
1293,97.656250
1294,97.656250
1295,97.656250
1296,97.656250
1297,97.656250
1298,97.656250
1299,97.656250
1300,97.656250
1301,97.656250
1302,97.656250
1303,97.656250
1304,97.656250
1305,97.656250
1306,97.656250
1307,97.656250
1308,97.656250
1309,97.656250
1310,97.656250
1311,97.656250
1312,97.656250
1313,97.656250
1314,97.656250
1315,97.656250
1316,97.656250
1317,97.656250
1318,97.656250
1319,97.656250
1320,97.656250
1321,97.656250
1322,97.656250
1323,97.656250
1324,97.656250
1325,97.656250
1326,97.656250
1327,97.656250
1328,97.656250
1329,97.656250
1330,97.656250
1331,97.656250
1332,97.656250
1333,97.656250
1334,97.656250
1335,97.656250
1336,97.656250
1337,97.656250
1338,97.656250
1339,97.656250
1340,97.656250
1341,97.656250
1342,97.656250
1343,97.656250
1344,97.656250
1345,97.656250
1346,93.750000
1347,97.656250
1348,93.750000
1349,97.656250
1350,93.750000
1351,93.750000
1352,93.750000
1353,93.750000
1354,93.750000
1355,93.750000
1356,93.750000
1357,93.750000
1358,93.750000
1359,93.750000
1360,93.750000
1361,93.750000
1362,93.750000
1363,93.750000
1364,93.750000
1365,93.750000
1366,93.750000
1367,93.750000
1368,93.750000
1369,93.750000
1370,93.750000
1371,89.843750
1372,89.843750
1373,89.843750
1374,89.843750
1375,89.843750
1376,89.843750
1377,89.843750
1378,89.843750
1379,89.843750
1380,89.843750
1381,89.843750
1382,89.843750
1383,89.843750
1384,89.843750
1385,89.843750
1386,89.843750
1387,85.937500
1388,89.843750
1389,85.937500
1390,85.937500
1391,85.937500
1392,85.937500
1393,85.937500
1394,85.937500
1395,85.937500
1396,85.937500
1397,85.937500
1398,85.937500
1399,85.937500
1400,85.937500
1401,82.031250
1402,82.031250
1403,82.031250
1404,82.031250
1405,82.031250
1406,82.031250
1407,82.031250
1408,82.031250
1409,82.031250
1410,82.031250
1411,78.125000
1412,78.125000
1413,78.125000
1414,78.125000
1415,78.125000
1416,78.125000
1417,78.125000
1418,78.125000
1419,78.125000
1420,78.125000
1421,78.125000
1422,74.218750
1423,74.218750
1424,74.218750
1425,74.218750
1426,74.218750
1427,74.218750
1428,74.218750
1429,74.218750
1430,74.218750
1431,70.312500
1432,70.312500
1433,70.312500
1434,70.312500
1435,70.312500
1436,70.312500
1437,70.312500
1438,70.312500
1439,70.312500
1440,66.406250
1441,66.406250
1442,66.406250
1443,66.406250
1444,66.406250
1445,66.406250
1446,66.406250
1447,66.406250
1448,66.406250
1449,62.500000
1450,62.500000
1451,62.500000
1452,62.500000
1453,62.500000
1454,62.500000
1455,58.593750
1456,58.593750
1457,58.593750
1458,58.593750
1459,58.593750
1460,58.593750
1461,58.593750
1462,54.687500
1463,54.687500
1464,54.687500
1465,54.687500
1466,54.687500
1467,54.687500
1468,54.687500
1469,54.687500
1470,50.781250
1471,50.781250
1472,50.781250
1473,50.781250
1474,50.781250
1475,46.875000
1476,46.875000
1477,46.875000
1478,46.875000
1479,46.875000
1480,46.875000
1481,46.875000
1482,42.968750
1483,42.968750
1484,42.968750
1485,42.968750
1486,42.968750
1487,42.968750
1488,42.968750
1489,42.968750
1490,39.062500
1491,39.062500
1492,39.062500
1493,39.062500
1494,39.062500
1495,35.156250
1496,35.156250
1497,35.156250
1498,35.156250
1499,35.156250
1500,35.156250
1501,31.250000
1502,31.250000
1503,31.250000
1504,31.250000
1505,31.250000
1506,27.343750
1507,27.343750
1508,27.343750
1509,27.343750
1510,27.343750
1511,27.343750
1512,27.343750
1513,27.343750
1514,23.437500
1515,23.437500
1516,23.437500
1517,23.437500
1518,19.531250
1519,19.531250
1520,19.531250
1521,19.531250
1522,19.531250
1523,19.531250
1524,15.625000
1525,15.625000
1526,15.625000
1527,15.625000
1528,15.625000
1529,15.625000
1530,11.718750
1531,11.718750
1532,11.718750
1533,11.718750
1534,11.718750
1535,7.812500
1536,7.812500
1537,7.812500
1538,7.812500
1539,7.812500
1540,3.906250
1541,3.906250
1542,3.906250
1543,3.906250
1544,3.906250
1545,3.906250
1546,0.000000
1547,0.000000
1548,0.000000
1549,0.000000
1550,0.000000
1551,0.000000
1552,-3.906250
1553,-3.906250
1554,-3.906250
1555,-3.906250
1556,-7.812500
1557,-7.812500
1558,-7.812500
1559,-7.812500
1560,-7.812500
1561,-11.718750
1562,-11.718750
1563,-11.718750
1564,-11.718750
1565,-11.718750
1566,-11.718750
1567,-15.625000
1568,-15.625000
1569,-15.625000
1570,-15.625000
1571,-19.531250
1572,-19.531250
1573,-19.531250
1574,-19.531250
1575,-19.531250
1576,-23.437500
1577,-23.437500
1578,-23.437500
1579,-23.437500
1580,-23.437500
1581,-23.437500
1582,-27.343750
1583,-27.343750
1584,-27.343750
1585,-27.343750
1586,-31.250000
1587,-31.250000
1588,-31.250000
1589,-31.250000
1590,-31.250000
1591,-35.156250
1592,-35.156250
1593,-35.156250
1594,-35.156250
1595,-35.156250
1596,-39.062500
1597,-39.062500
1598,-39.062500
1599,-39.062500
1600,-39.062500
1601,-39.062500
1602,-42.968750
1603,-42.968750
1604,-42.968750
1605,-42.968750
1606,-42.968750
1607,-46.875000
1608,-46.875000
1609,-46.875000
1610,-46.875000
1611,-50.781250
1612,-50.781250
1613,-50.781250
1614,-50.781250
1615,-50.781250
1616,-50.781250
1617,-54.687500
1618,-54.687500
1619,-54.687500
1620,-54.687500
1621,-54.687500
1622,-54.687500
1623,-58.593750
1624,-58.593750
1625,-58.593750
1626,-58.593750
1627,-58.593750
1628,-62.500000
1629,-62.500000
1630,-62.500000
1631,-62.500000
1632,-62.500000
1633,-62.500000
1634,-66.406250
1635,-66.406250
1636,-66.406250
1637,-66.406250
1638,-66.406250
1639,-70.312500
1640,-70.312500
1641,-70.312500
1642,-70.312500
1643,-70.312500
1644,-70.312500
1645,-74.218750
1646,-74.218750
1647,-74.218750
1648,-74.218750
1649,-74.218750
1650,-78.125000
1651,-78.125000
1652,-78.125000
1653,-78.125000
1654,-78.125000
1655,-78.125000
1656,-82.031250
1657,-82.031250
1658,-82.031250
1659,-82.031250
1660,-82.031250
1661,-85.937500
1662,-85.937500
1663,-85.937500
1664,-85.937500
1665,-85.937500
1666,-85.937500
1667,-85.937500
1668,-89.843750
1669,-89.843750
1670,-89.843750
1671,-89.843750
1672,-89.843750
1673,-89.843750
1674,-89.843750
1675,-93.750000
1676,-93.750000
1677,-93.750000
1678,-93.750000
1679,-93.750000
1680,-93.750000
1681,-97.656250
1682,-97.656250
1683,-97.656250
1684,-97.656250
1685,-97.656250
1686,-97.656250
1687,-101.562500
1688,-101.562500
1689,-101.562500
1690,-101.562500
1691,-101.562500
1692,-101.562500
1693,-101.562500
1694,-105.468750
1695,-101.562500
1696,-105.468750
1697,-105.468750
1698,-105.468750
1699,-105.468750
1700,-105.468750
1701,-105.468750
1702,-109.375000
1703,-109.375000
1704,-109.375000
1705,-109.375000
1706,-109.375000
1707,-109.375000
1708,-109.375000
1709,-109.375000
1710,-109.375000
1711,-113.281250
1712,-113.281250
1713,-113.281250
1714,-113.281250
1715,-113.281250
1716,-113.281250
1717,-117.187500
1718,-117.187500
1719,-117.187500
1720,-117.187500
1721,-117.187500
1722,-117.187500
1723,-117.187500
1724,-117.187500
1725,-117.187500
1726,-117.187500
1727,-121.093750
1728,-121.093750
1729,-121.093750
1730,-121.093750
1731,-121.093750
1732,-121.093750
1733,-121.093750
1734,-121.093750
1735,-121.093750
1736,-121.093750
1737,-125.000000
1738,-125.000000
1739,-125.000000
1740,-125.000000
1741,-125.000000
1742,-125.000000
1743,-125.000000
1744,-125.000000
1745,-125.000000
1746,-125.000000
1747,-125.000000
1748,-125.000000
1749,-128.906250
1750,-128.906250
1751,-128.906250
1752,-128.906250
1753,-128.906250
1754,-128.906250
1755,-128.906250
1756,-128.906250
1757,-128.906250
1758,-128.906250
1759,-128.906250
1760,-128.906250
1761,-128.906250
1762,-132.812500
1763,-132.812500
1764,-132.812500
1765,-132.812500
1766,-132.812500
1767,-132.812500
1768,-132.812500
1769,-132.812500
1770,-132.812500
1771,-132.812500
1772,-132.812500
1773,-132.812500
1774,-132.812500
1775,-132.812500
1776,-132.812500
1777,-132.812500
1778,-132.812500
1779,-132.812500
1780,-132.812500
1781,-132.812500
1782,-132.812500
1783,-132.812500
1784,-132.812500
1785,-132.812500
1786,-132.812500
1787,-136.718750
1788,-136.718750
1789,-136.718750
1790,-136.718750
1791,-136.718750
1792,-136.718750
1793,-136.718750
1794,-136.718750
1795,-136.718750
1796,-136.718750
1797,-136.718750
1798,-136.718750
1799,-136.718750
1800,-136.718750
1801,-136.718750
1802,-136.718750
1803,-136.718750
1804,-136.718750
1805,-136.718750
1806,-136.718750
1807,-136.718750
1808,-136.718750
1809,-136.718750
1810,-132.812500
1811,-132.812500
1812,-136.718750
1813,-136.718750
1814,-136.718750
1815,-136.718750
1816,-136.718750
1817,-136.718750
1818,-136.718750
1819,-136.718750
1820,-132.812500
1821,-132.812500
1822,-132.812500
1823,-136.718750
1824,-136.718750
1825,-132.812500
1826,-132.812500
1827,-132.812500
1828,-132.812500
1829,-132.812500
1830,-132.812500
1831,-132.812500
1832,-132.812500
1833,-132.812500
1834,-132.812500
1835,-132.812500
1836,-132.812500
1837,-132.812500
1838,-132.812500
1839,-132.812500
1840,-132.812500
1841,-132.812500
1842,-132.812500
1843,-132.812500
1844,-132.812500
1845,-132.812500
1846,-132.812500
1847,-132.812500
1848,-132.812500
1849,-132.812500
1850,-128.906250
1851,-128.906250
1852,-128.906250
1853,-128.906250
1854,-128.906250
1855,-128.906250
1856,-128.906250
1857,-128.906250
1858,-128.906250
1859,-128.906250
1860,-128.906250
1861,-128.906250
1862,-128.906250
1863,-128.906250
1864,-128.906250
1865,-125.000000
1866,-125.000000
1867,-125.000000
1868,-125.000000
1869,-125.000000
1870,-125.000000
1871,-125.000000
1872,-125.000000
1873,-125.000000
1874,-125.000000
1875,-125.000000
1876,-121.093750
1877,-121.093750
1878,-121.093750
1879,-121.093750
1880,-121.093750
1881,-121.093750
1882,-121.093750
1883,-121.093750
1884,-121.093750
1885,-121.093750
1886,-121.093750
1887,-117.187500
1888,-117.187500
1889,-117.187500
1890,-117.187500
1891,-117.187500
1892,-117.187500
1893,-117.187500
1894,-113.281250
1895,-113.281250
1896,-113.281250
1897,-113.281250
1898,-113.281250
1899,-113.281250
1900,-113.281250
1901,-113.281250
1902,-113.281250
1903,-109.375000
1904,-109.375000
1905,-109.375000
1906,-109.375000
1907,-109.375000
1908,-109.375000
1909,-109.375000
1910,-105.468750
1911,-109.375000
1912,-105.468750
1913,-105.468750
1914,-105.468750
1915,-105.468750
1916,-105.468750
1917,-105.468750
1918,-105.468750
1919,-101.562500
1920,-101.562500
1921,-101.562500
1922,-101.562500
1923,-101.562500
1924,-101.562500
1925,-97.656250
1926,-97.656250
1927,-97.656250
1928,-97.656250
1929,-97.656250
1930,-97.656250
1931,-97.656250
1932,-93.750000
1933,-93.750000
1934,-93.750000
1935,-93.750000
1936,-93.750000
1937,-93.750000
1938,-89.843750
1939,-93.750000
1940,-89.843750
1941,-89.843750
1942,-89.843750
1943,-89.843750
1944,-89.843750
1945,-85.937500
1946,-85.937500
1947,-85.937500
1948,-85.937500
1949,-85.937500
1950,-85.937500
1951,-82.031250
1952,-82.031250
1953,-82.031250
1954,-82.031250
1955,-82.031250
1956,-82.031250
1957,-82.031250
1958,-78.125000
1959,-78.125000
1960,-78.125000
1961,-78.125000
1962,-78.125000
1963,-74.218750
1964,-74.218750
1965,-74.218750
1966,-74.218750
1967,-74.218750
1968,-74.218750
1969,-70.312500
1970,-70.312500
1971,-70.312500
1972,-70.312500
1973,-70.312500
1974,-70.312500
1975,-66.406250
1976,-66.406250
1977,-66.406250
1978,-66.406250
1979,-66.406250
1980,-66.406250
1981,-62.500000
1982,-62.500000
1983,-62.500000
1984,-62.500000
1985,-58.593750
1986,-58.593750
1987,-58.593750
1988,-58.593750
1989,-58.593750
1990,-58.593750
1991,-58.593750
1992,-54.687500
1993,-54.687500
1994,-54.687500
1995,-54.687500
1996,-54.687500
1997,-50.781250
1998,-50.781250
1999,-50.781250
2000,-50.781250
2001,-50.781250
2002,-46.875000
2003,-46.875000
2004,-46.875000
2005,-46.875000
2006,-46.875000
2007,-46.875000
2008,-42.968750
2009,-42.968750
2010,-42.968750
2011,-42.968750
2012,-39.062500
2013,-39.062500
2014,-39.062500
2015,-39.062500
2016,-39.062500
2017,-39.062500
2018,-35.156250
2019,-35.156250
2020,-35.156250
2021,-35.156250
2022,-35.156250
2023,-31.250000
2024,-31.250000
2025,-31.250000
2026,-31.250000
2027,-31.250000
2028,-27.343750
2029,-27.343750
2030,-27.343750
2031,-27.343750
2032,-27.343750
2033,-23.437500
2034,-23.437500
2035,-23.437500
2036,-23.437500
2037,-23.437500
2038,-23.437500
2039,-19.531250
2040,-19.531250
2041,-19.531250
2042,-19.531250
2043,-15.625000
2044,-15.625000
2045,-15.625000
2046,-15.625000
2047,-15.625000
2048,-15.625000
2049,-11.718750
2050,-11.718750
2051,-11.718750
2052,-11.718750
2053,-11.718750
2054,-7.812500
2055,-7.812500
2056,-7.812500
2057,-7.812500
2058,-7.812500
2059,-3.906250
2060,-3.906250
2061,-3.906250
2062,-3.906250
2063,-3.906250
2064,-3.906250
2065,0.000000
2066,0.000000
2067,0.000000
2068,0.000000
2069,0.000000
2070,3.906250
2071,3.906250
2072,3.906250
2073,3.906250
2074,3.906250
2075,7.812500
2076,7.812500
2077,7.812500
2078,7.812500
2079,7.812500
2080,7.812500
2081,11.718750
2082,11.718750
2083,11.718750
2084,11.718750
2085,15.625000
2086,15.625000
2087,15.625000
2088,15.625000
2089,15.625000
2090,15.625000
2091,15.625000
2092,19.531250
2093,19.531250
2094,19.531250
2095,19.531250
2096,19.531250
2097,23.437500
2098,23.437500
2099,23.437500
2100,23.437500
2101,23.437500
2102,23.437500
2103,23.437500
2104,27.343750
2105,27.343750
2106,27.343750
2107,27.343750
2108,27.343750
2109,31.250000
2110,27.343750
2111,31.250000
2112,31.250000
2113,31.250000
2114,31.250000
2115,35.156250
2116,35.156250
2117,35.156250
2118,35.156250
2119,35.156250
2120,35.156250
2121,39.062500
2122,39.062500
2123,39.062500
2124,39.062500
2125,39.062500
2126,39.062500
2127,39.062500
2128,42.968750
2129,42.968750
2130,42.968750
2131,42.968750
2132,42.968750
2133,46.875000
2134,46.875000
2135,46.875000
2136,46.875000
2137,46.875000
2138,46.875000
2139,46.875000
2140,46.875000
2141,50.781250
2142,50.781250
2143,50.781250
2144,50.781250
2145,50.781250
2146,54.687500
2147,54.687500
2148,54.687500
2149,54.687500
2150,54.687500
2151,54.687500
2152,54.687500
2153,54.687500
2154,58.593750
2155,58.593750
2156,58.593750
2157,58.593750
2158,58.593750
2159,58.593750
2160,58.593750
2161,58.593750
2162,62.500000
2163,62.500000
2164,62.500000
2165,62.500000
2166,62.500000
2167,62.500000
2168,62.500000
2169,66.406250
2170,66.406250
2171,66.406250
2172,66.406250
2173,66.406250
2174,66.406250
2175,66.406250
2176,66.406250
2177,70.312500
2178,66.406250
2179,70.312500
2180,70.312500
2181,70.312500
2182,70.312500
2183,70.312500
2184,70.312500
2185,74.218750
2186,70.312500
2187,74.218750
2188,74.218750
2189,74.218750
2190,74.218750
2191,74.218750
2192,74.218750
2193,74.218750
2194,74.218750
2195,74.218750
2196,78.125000
2197,78.125000
2198,78.125000
2199,78.125000
2200,78.125000
2201,78.125000
2202,78.125000
2203,78.125000
2204,78.125000
2205,82.031250
2206,82.031250
2207,82.031250
2208,82.031250
2209,82.031250
2210,82.031250
2211,82.031250
2212,82.031250
2213,82.031250
2214,82.031250
2215,82.031250
2216,82.031250
2217,85.937500
2218,85.937500
2219,82.031250
2220,85.937500
2221,85.937500
2222,85.937500
2223,85.937500
2224,85.937500
2225,85.937500
2226,85.937500
2227,85.937500
2228,85.937500
2229,89.843750
2230,85.937500
2231,89.843750
2232,89.843750
2233,89.843750
2234,89.843750
2235,89.843750
2236,89.843750
2237,89.843750
2238,89.843750
2239,89.843750
2240,89.843750
2241,89.843750
2242,89.843750
2243,89.843750
2244,89.843750
2245,89.843750
2246,89.843750
2247,93.750000
2248,89.843750
2249,93.750000
2250,93.750000
2251,93.750000
2252,93.750000
2253,93.750000
2254,93.750000
2255,93.750000
2256,93.750000
2257,93.750000
2258,93.750000
2259,93.750000
2260,93.750000
2261,93.750000
2262,93.750000
2263,93.750000
2264,93.750000
2265,93.750000
2266,93.750000
2267,93.750000
2268,93.750000
2269,93.750000
2270,93.750000
2271,93.750000
2272,93.750000
2273,97.656250
2274,97.656250
2275,97.656250
2276,97.656250
2277,97.656250
2278,97.656250
2279,97.656250
2280,97.656250
2281,97.656250
2282,97.656250
2283,97.656250
2284,97.656250
2285,97.656250
2286,97.656250
2287,97.656250
2288,97.656250
2289,97.656250
2290,97.656250
2291,97.656250
2292,97.656250
2293,97.656250
2294,97.656250
2295,97.656250
2296,97.656250
2297,97.656250
2298,97.656250
2299,97.656250
2300,97.656250
2301,97.656250
2302,97.656250
2303,97.656250
2304,97.656250
2305,97.656250
2306,97.656250
2307,97.656250
2308,97.656250
2309,97.656250
2310,97.656250
2311,97.656250
2312,97.656250
2313,97.656250
2314,97.656250
2315,97.656250
2316,97.656250
2317,97.656250
2318,97.656250
2319,97.656250
2320,97.656250
2321,97.656250
2322,97.656250
2323,97.656250
2324,97.656250
2325,97.656250
2326,97.656250
2327,97.656250
2328,97.656250
2329,97.656250
2330,97.656250
2331,97.656250
2332,97.656250
2333,97.656250
2334,93.750000
2335,97.656250
2336,97.656250
2337,97.656250
2338,93.750000
2339,93.750000
2340,93.750000
2341,97.656250
2342,93.750000
2343,93.750000
2344,93.750000
2345,93.750000
2346,93.750000
2347,93.750000
2348,93.750000
2349,93.750000
2350,93.750000
2351,93.750000
2352,93.750000
2353,93.750000
2354,93.750000
2355,93.750000
2356,93.750000
2357,93.750000
2358,89.843750
2359,89.843750
2360,89.843750
2361,89.843750
2362,89.843750
2363,89.843750
2364,89.843750
2365,89.843750
2366,89.843750
2367,89.843750
2368,89.843750
2369,89.843750
2370,89.843750
2371,89.843750
2372,89.843750
2373,89.843750
2374,85.937500
2375,85.937500
2376,85.937500
2377,85.937500
2378,85.937500
2379,85.937500
2380,85.937500
2381,85.937500
2382,85.937500
2383,85.937500
2384,82.031250
2385,82.031250
2386,82.031250
2387,85.937500
2388,82.031250
2389,82.031250
2390,82.031250
2391,82.031250
2392,82.031250
2393,82.031250
2394,82.031250
2395,82.031250
2396,82.031250
2397,82.031250
2398,78.125000
2399,78.125000
2400,78.125000
2401,78.125000
2402,78.125000
2403,78.125000
2404,78.125000
2405,78.125000
2406,78.125000
2407,78.125000
2408,78.125000
2409,74.218750
2410,74.218750
2411,74.218750
2412,74.218750
2413,74.218750
2414,74.218750
2415,74.218750
2416,74.218750
2417,74.218750
2418,74.218750
2419,70.312500
2420,70.312500
2421,70.312500
2422,70.312500
2423,70.312500
2424,70.312500
2425,70.312500
2426,66.406250
2427,70.312500
2428,66.406250
2429,66.406250
2430,66.406250
2431,66.406250
2432,66.406250
2433,66.406250
2434,66.406250
2435,66.406250
2436,62.500000
2437,62.500000
2438,62.500000
2439,62.500000
2440,62.500000
2441,62.500000
2442,62.500000
2443,58.593750
2444,58.593750
2445,58.593750
2446,58.593750
2447,58.593750
2448,58.593750
2449,58.593750
2450,58.593750
2451,54.687500
2452,54.687500
2453,54.687500
2454,54.687500
2455,54.687500
2456,54.687500
2457,50.781250
2458,50.781250
2459,50.781250
2460,50.781250
2461,50.781250
2462,50.781250
2463,50.781250
2464,46.875000
2465,46.875000
2466,46.875000
2467,46.875000
2468,46.875000
2469,46.875000
2470,46.875000
2471,42.968750
2472,42.968750
2473,42.968750
2474,42.968750
2475,42.968750
2476,42.968750
2477,39.062500
2478,39.062500
2479,39.062500
2480,39.062500
2481,39.062500
2482,39.062500
2483,35.156250
2484,35.156250
2485,35.156250
2486,35.156250
2487,35.156250
2488,31.250000
2489,31.250000
2490,31.250000
2491,31.250000
2492,31.250000
2493,31.250000
2494,31.250000
2495,31.250000
2496,27.343750
2497,27.343750
2498,27.343750
2499,27.343750
2500,27.343750
2501,23.437500
2502,23.437500
2503,23.437500
2504,23.437500
2505,23.437500
2506,23.437500
2507,19.531250
2508,19.531250
2509,19.531250
2510,19.531250
2511,19.531250
2512,15.625000
2513,15.625000
2514,15.625000
2515,15.625000
2516,15.625000
2517,11.718750
2518,11.718750
2519,11.718750
2520,11.718750
2521,11.718750
2522,11.718750
2523,7.812500
2524,7.812500
2525,7.812500
2526,7.812500
2527,7.812500
2528,7.812500
2529,3.906250
2530,3.906250
2531,3.906250
2532,3.906250
2533,0.000000
2534,0.000000
2535,0.000000
2536,0.000000
2537,0.000000
2538,0.000000
2539,-3.906250
2540,-3.906250
2541,-3.906250
2542,-3.906250
2543,-3.906250
2544,-7.812500
2545,-7.812500
2546,-7.812500
2547,-7.812500
2548,-7.812500
2549,-7.812500
2550,-11.718750
2551,-11.718750
2552,-11.718750
2553,-11.718750
2554,-11.718750
2555,-15.625000
2556,-15.625000
2557,-15.625000
2558,-15.625000
2559,-15.625000
2560,-19.531250
2561,-19.531250
2562,-19.531250
2563,-19.531250
2564,-19.531250
2565,-23.437500
2566,-23.437500
2567,-23.437500
2568,-23.437500
2569,-23.437500
2570,-27.343750
2571,-27.343750
2572,-27.343750
2573,-27.343750
2574,-27.343750
2575,-27.343750
2576,-31.250000
2577,-31.250000
2578,-31.250000
2579,-31.250000
2580,-31.250000
2581,-35.156250
2582,-35.156250
2583,-35.156250
2584,-35.156250
2585,-35.156250
2586,-39.062500
2587,-39.062500
2588,-39.062500
2589,-39.062500
2590,-39.062500
2591,-42.968750
2592,-42.968750
2593,-42.968750
2594,-42.968750
2595,-42.968750
2596,-46.875000
2597,-46.875000
2598,-46.875000
2599,-46.875000
2600,-46.875000
2601,-50.781250
2602,-50.781250
2603,-50.781250
2604,-50.781250
2605,-50.781250
2606,-50.781250
2607,-54.687500
2608,-54.687500
2609,-54.687500
2610,-54.687500
2611,-58.593750
2612,-58.593750
2613,-58.593750
2614,-58.593750
2615,-58.593750
2616,-58.593750
2617,-62.500000
2618,-62.500000
2619,-62.500000
2620,-62.500000
2621,-62.500000
2622,-62.500000
2623,-66.406250
2624,-66.406250
2625,-66.406250
2626,-66.406250
2627,-70.312500
2628,-70.312500
2629,-70.312500
2630,-70.312500
2631,-70.312500
2632,-70.312500
2633,-74.218750
2634,-74.218750
2635,-74.218750
2636,-74.218750
2637,-74.218750
2638,-74.218750
2639,-78.125000
2640,-78.125000
2641,-78.125000
2642,-78.125000
2643,-78.125000
2644,-82.031250
2645,-82.031250
2646,-82.031250
2647,-82.031250
2648,-82.031250
2649,-85.937500
2650,-85.937500
2651,-85.937500
2652,-85.937500
2653,-85.937500
2654,-85.937500
2655,-85.937500
2656,-89.843750
2657,-89.843750
2658,-89.843750
2659,-89.843750
2660,-89.843750
2661,-93.750000
2662,-93.750000
2663,-89.843750
2664,-93.750000
2665,-93.750000
2666,-93.750000
2667,-93.750000
2668,-93.750000
2669,-97.656250
2670,-97.656250
2671,-97.656250
2672,-97.656250
2673,-97.656250
2674,-97.656250
2675,-101.562500
2676,-101.562500
2677,-101.562500
2678,-101.562500
2679,-101.562500
2680,-101.562500
2681,-101.562500
2682,-105.468750
2683,-105.468750
2684,-105.468750
2685,-105.468750
2686,-105.468750
2687,-105.468750
2688,-105.468750
2689,-105.468750
2690,-109.375000
2691,-109.375000
2692,-109.375000
2693,-109.375000
2694,-109.375000
2695,-109.375000
2696,-109.375000
2697,-109.375000
2698,-113.281250
2699,-113.281250
2700,-113.281250
2701,-113.281250
2702,-113.281250
2703,-113.281250
2704,-113.281250
2705,-113.281250
2706,-113.281250
2707,-117.187500
2708,-117.187500
2709,-117.187500
2710,-117.187500
2711,-117.187500
2712,-117.187500
2713,-117.187500
2714,-117.187500
2715,-121.093750
2716,-121.093750
2717,-121.093750
2718,-121.093750
2719,-121.093750
2720,-121.093750
2721,-121.093750
2722,-121.093750
2723,-121.093750
2724,-121.093750
2725,-125.000000
2726,-125.000000
2727,-125.000000
2728,-121.093750
2729,-125.000000
2730,-125.000000
2731,-125.000000
2732,-125.000000
2733,-125.000000
2734,-125.000000
2735,-125.000000
2736,-125.000000
2737,-128.906250
2738,-125.000000
2739,-125.000000
2740,-128.906250
2741,-128.906250
2742,-128.906250
2743,-128.906250
2744,-128.906250
2745,-128.906250
2746,-128.906250
2747,-128.906250
2748,-128.906250
2749,-128.906250
2750,-128.906250
2751,-128.906250
2752,-128.906250
2753,-132.812500
2754,-132.812500
2755,-132.812500
2756,-132.812500
2757,-132.812500
2758,-132.812500
2759,-132.812500
2760,-132.812500
2761,-132.812500
2762,-132.812500
2763,-132.812500
2764,-132.812500
2765,-132.812500
2766,-132.812500
2767,-132.812500
2768,-132.812500
2769,-132.812500
2770,-136.718750
2771,-132.812500
2772,-132.812500
2773,-132.812500
2774,-136.718750
2775,-136.718750
2776,-136.718750
2777,-136.718750
2778,-136.718750
2779,-136.718750
2780,-136.718750
2781,-136.718750
2782,-136.718750
2783,-136.718750
2784,-136.718750
2785,-136.718750
2786,-136.718750
2787,-136.718750
2788,-136.718750
2789,-136.718750
2790,-136.718750
2791,-136.718750
2792,-136.718750
2793,-136.718750
2794,-136.718750
2795,-136.718750
2796,-136.718750
2797,-136.718750
2798,-136.718750
2799,-136.718750
2800,-136.718750
2801,-136.718750
2802,-136.718750
2803,-136.718750
2804,-136.718750
2805,-136.718750
2806,-136.718750
2807,-136.718750
2808,-136.718750
2809,-132.812500
2810,-136.718750
2811,-136.718750
2812,-136.718750
2813,-136.718750
2814,-132.812500
2815,-132.812500
2816,-132.812500
2817,-132.812500
2818,-132.812500
2819,-132.812500
2820,-132.812500
2821,-132.812500
2822,-132.812500
2823,-132.812500
2824,-132.812500
2825,-132.812500
2826,-132.812500
2827,-132.812500
2828,-132.812500
2829,-132.812500
2830,-132.812500
2831,-132.812500
2832,-132.812500
2833,-132.812500
2834,-132.812500
2835,-132.812500
2836,-128.906250
2837,-132.812500
2838,-128.906250
2839,-128.906250
2840,-128.906250
2841,-128.906250
2842,-128.906250
2843,-128.906250
2844,-128.906250
2845,-128.906250
2846,-128.906250
2847,-128.906250
2848,-128.906250
2849,-125.000000
2850,-125.000000
2851,-125.000000
2852,-125.000000
2853,-125.000000
2854,-125.000000
2855,-125.000000
2856,-125.000000
2857,-125.000000
2858,-125.000000
2859,-125.000000
2860,-125.000000
2861,-125.000000
2862,-125.000000
2863,-125.000000
2864,-121.093750
2865,-121.093750
2866,-121.093750
2867,-121.093750
2868,-121.093750
2869,-121.093750
2870,-121.093750
2871,-121.093750
2872,-121.093750
2873,-121.093750
2874,-121.093750
2875,-117.187500
2876,-117.187500
2877,-117.187500
2878,-117.187500
2879,-117.187500
2880,-117.187500
2881,-117.187500
2882,-117.187500
2883,-113.281250
2884,-117.187500
2885,-113.281250
2886,-113.281250
2887,-113.281250
2888,-113.281250
2889,-113.281250
2890,-113.281250
2891,-109.375000
2892,-109.375000
2893,-113.281250
2894,-109.375000
2895,-109.375000
2896,-109.375000
2897,-109.375000
2898,-109.375000
2899,-109.375000
2900,-105.468750
2901,-105.468750
2902,-105.468750
2903,-105.468750
2904,-105.468750
2905,-105.468750
2906,-101.562500
2907,-105.468750
2908,-101.562500
2909,-105.468750
2910,-101.562500
2911,-101.562500
2912,-101.562500
2913,-101.562500
2914,-101.562500
2915,-97.656250
2916,-97.656250
2917,-97.656250
2918,-97.656250
2919,-97.656250
2920,-97.656250
2921,-97.656250
2922,-93.750000
2923,-93.750000
2924,-93.750000
2925,-93.750000
2926,-93.750000
2927,-89.843750
2928,-93.750000
2929,-89.843750
2930,-89.843750
2931,-89.843750
2932,-89.843750
2933,-89.843750
2934,-89.843750
2935,-85.937500
2936,-85.937500
2937,-85.937500
2938,-85.937500
2939,-82.031250
2940,-82.031250
2941,-82.031250
2942,-82.031250
2943,-82.031250
2944,-82.031250
2945,-82.031250
2946,-78.125000
2947,-78.125000
2948,-78.125000
2949,-78.125000
2950,-78.125000
2951,-74.218750
2952,-74.218750
2953,-74.218750
2954,-74.218750
2955,-74.218750
2956,-74.218750
2957,-70.312500
2958,-70.312500
2959,-70.312500
2960,-70.312500
2961,-70.312500
2962,-70.312500
2963,-66.406250
2964,-66.406250
2965,-66.406250
2966,-66.406250
2967,-66.406250
2968,-62.500000
2969,-62.500000
2970,-62.500000
2971,-62.500000
2972,-62.500000
2973,-62.500000
2974,-58.593750
2975,-58.593750
2976,-58.593750
2977,-58.593750
2978,-58.593750
2979,-54.687500
2980,-54.687500
2981,-54.687500
2982,-54.687500
2983,-54.687500
2984,-54.687500
2985,-50.781250
2986,-50.781250
2987,-50.781250
2988,-50.781250
2989,-50.781250
2990,-46.875000
2991,-46.875000
2992,-46.875000
2993,-46.875000
2994,-46.875000
2995,-46.875000
2996,-42.968750
2997,-42.968750
2998,-42.968750
2999,-42.968750
3000,-42.968750
3001,-39.062500
3002,-39.062500
3003,-39.062500
3004,-39.062500
3005,-39.062500
3006,-35.156250
3007,-35.156250
3008,-35.156250
3009,-35.156250
3010,-35.156250
3011,-31.250000
3012,-31.250000
3013,-31.250000
3014,-31.250000
3015,-31.250000
3016,-27.343750
3017,-27.343750
3018,-27.343750
3019,-27.343750
3020,-27.343750
3021,-23.437500
3022,-23.437500
3023,-23.437500
3024,-23.437500
3025,-23.437500
3026,-23.437500
3027,-23.437500
3028,-19.531250
3029,-19.531250
3030,-19.531250
3031,-19.531250
3032,-15.625000
3033,-15.625000
3034,-15.625000
3035,-15.625000
3036,-15.625000
3037,-15.625000
3038,-11.718750
3039,-11.718750
3040,-11.718750
3041,-11.718750
3042,-11.718750
3043,-7.812500
3044,-7.812500
3045,-7.812500
3046,-7.812500
3047,-7.812500
3048,-3.906250
3049,-3.906250
3050,-3.906250
3051,-3.906250
3052,-3.906250
3053,0.000000
3054,0.000000
3055,0.000000
3056,0.000000
3057,0.000000
3058,3.906250
3059,3.906250
3060,3.906250
3061,0.000000
3062,3.906250
3063,3.906250
3064,7.812500
3065,7.812500
3066,7.812500
3067,7.812500
3068,7.812500
3069,7.812500
3070,11.718750
3071,11.718750
3072,11.718750
3073,11.718750
3074,11.718750
3075,15.625000
3076,15.625000
3077,15.625000
3078,15.625000
3079,15.625000
3080,15.625000
3081,19.531250
3082,19.531250
3083,19.531250
3084,19.531250
3085,19.531250
3086,19.531250
3087,23.437500
3088,23.437500
3089,23.437500
3090,23.437500
3091,23.437500
3092,23.437500
3093,27.343750
3094,31.250000
3095,27.343750
3096,27.343750
3097,31.250000
3098,31.250000
3099,31.250000
3100,31.250000
3101,31.250000
3102,31.250000
3103,31.250000
3104,35.156250
3105,35.156250
3106,35.156250
3107,35.156250
3108,35.156250
3109,35.156250
3110,39.062500
3111,39.062500
3112,39.062500
3113,39.062500
3114,39.062500
3115,39.062500
3116,42.968750
3117,42.968750
3118,42.968750
3119,42.968750
3120,42.968750
3121,42.968750
3122,46.875000
3123,46.875000
3124,46.875000
3125,46.875000
3126,46.875000
3127,46.875000
3128,46.875000
3129,50.781250
3130,46.875000
3131,46.875000
3132,50.781250
3133,50.781250
3134,50.781250
3135,50.781250
3136,50.781250
3137,50.781250
3138,54.687500
3139,54.687500
3140,54.687500
3141,54.687500
3142,54.687500
3143,54.687500
3144,58.593750
3145,58.593750
3146,58.593750
3147,58.593750
3148,58.593750
3149,58.593750
3150,58.593750
3151,62.500000
3152,62.500000
3153,62.500000
3154,62.500000
3155,62.500000
3156,62.500000
3157,62.500000
3158,62.500000
3159,66.406250
3160,66.406250
3161,66.406250
3162,66.406250
3163,66.406250
3164,66.406250
3165,66.406250
3166,66.406250
3167,66.406250
3168,70.312500
3169,66.406250
3170,70.312500
3171,70.312500
3172,70.312500
3173,70.312500
3174,70.312500
3175,70.312500
3176,70.312500
3177,74.218750
3178,74.218750
3179,74.218750
3180,74.218750
3181,74.218750
3182,74.218750
3183,74.218750
3184,78.125000
3185,74.218750
3186,78.125000
3187,78.125000
3188,78.125000
3189,78.125000
3190,78.125000
3191,78.125000
3192,78.125000
3193,78.125000
3194,78.125000
3195,82.031250
3196,82.031250
3197,82.031250
3198,82.031250
3199,82.031250
3200,82.031250
3201,82.031250
3202,82.031250
3203,82.031250
3204,82.031250
3205,82.031250
3206,82.031250
3207,82.031250
3208,85.937500
3209,82.031250
3210,85.937500
3211,85.937500
3212,85.937500
3213,85.937500
3214,85.937500
3215,85.937500
3216,85.937500
3217,85.937500
3218,85.937500
3219,85.937500
3220,89.843750
3221,89.843750
3222,89.843750
3223,89.843750
3224,89.843750
3225,89.843750
3226,89.843750
3227,89.843750
3228,89.843750
3229,89.843750
3230,89.843750
3231,89.843750
3232,89.843750
3233,89.843750
3234,89.843750
3235,89.843750
3236,93.750000
3237,93.750000
3238,93.750000
3239,93.750000
3240,93.750000
3241,93.750000
3242,93.750000
3243,93.750000
3244,93.750000
3245,93.750000
3246,93.750000
3247,93.750000
3248,93.750000
3249,93.750000
3250,93.750000
3251,93.750000
3252,93.750000
3253,93.750000
3254,93.750000
3255,93.750000
3256,93.750000
3257,93.750000
3258,93.750000
3259,93.750000
3260,97.656250
3261,97.656250
3262,97.656250
3263,97.656250
3264,97.656250
3265,97.656250
3266,97.656250
3267,97.656250
3268,93.750000
3269,97.656250
3270,97.656250
3271,97.656250
3272,97.656250
3273,97.656250
3274,97.656250
3275,97.656250
3276,97.656250
3277,97.656250
3278,97.656250
3279,97.656250
3280,97.656250
3281,97.656250
3282,97.656250
3283,97.656250
3284,97.656250
3285,97.656250
3286,97.656250
3287,97.656250
3288,97.656250
3289,97.656250
3290,97.656250
3291,97.656250
3292,97.656250
3293,97.656250
3294,97.656250
3295,97.656250
3296,97.656250
3297,97.656250
3298,97.656250
3299,97.656250
3300,97.656250
3301,97.656250
3302,97.656250
3303,97.656250
3304,97.656250
3305,97.656250
3306,97.656250
3307,97.656250
3308,97.656250
3309,97.656250
3310,97.656250
3311,97.656250
3312,97.656250
3313,97.656250
3314,97.656250
3315,97.656250
3316,97.656250
3317,97.656250
3318,97.656250
3319,97.656250
3320,97.656250
3321,93.750000
3322,97.656250
3323,93.750000
3324,97.656250
3325,97.656250
3326,97.656250
3327,93.750000
3328,97.656250
3329,97.656250
3330,93.750000
3331,93.750000
3332,93.750000
3333,93.750000
3334,93.750000
3335,93.750000
3336,93.750000
3337,93.750000
3338,93.750000
3339,93.750000
3340,93.750000
3341,93.750000
3342,93.750000
3343,93.750000
3344,93.750000
3345,93.750000
3346,93.750000
3347,89.843750
3348,89.843750
3349,89.843750
3350,93.750000
3351,89.843750
3352,89.843750
3353,89.843750
3354,89.843750
3355,89.843750
3356,89.843750
3357,89.843750
3358,89.843750
3359,89.843750
3360,89.843750
3361,89.843750
3362,89.843750
3363,89.843750
3364,85.937500
3365,85.937500
3366,85.937500
3367,85.937500
3368,85.937500
3369,85.937500
3370,85.937500
3371,85.937500
3372,85.937500
3373,85.937500
3374,85.937500
3375,85.937500
3376,85.937500
3377,82.031250
3378,82.031250
3379,82.031250
3380,82.031250
3381,82.031250
3382,82.031250
3383,82.031250
3384,82.031250
3385,82.031250
3386,82.031250
3387,82.031250
3388,82.031250
3389,78.125000
3390,78.125000
3391,78.125000
3392,78.125000
3393,78.125000
3394,78.125000
3395,78.125000
3396,78.125000
3397,78.125000
3398,74.218750
3399,74.218750
3400,74.218750
3401,74.218750
3402,74.218750
3403,74.218750
3404,74.218750
3405,74.218750
3406,70.312500
3407,70.312500
3408,70.312500
3409,70.312500
3410,70.312500
3411,70.312500
3412,70.312500
3413,70.312500
3414,70.312500
3415,70.312500
3416,66.406250
3417,66.406250
3418,66.406250
3419,66.406250
3420,66.406250
3421,66.406250
3422,66.406250
3423,62.500000
3424,62.500000
3425,62.500000
3426,62.500000
3427,62.500000
3428,62.500000
3429,62.500000
3430,62.500000
3431,58.593750
3432,58.593750
3433,58.593750
3434,58.593750
3435,58.593750
3436,58.593750
3437,58.593750
3438,58.593750
3439,54.687500
3440,54.687500
3441,54.687500
3442,54.687500
3443,54.687500
3444,54.687500
3445,50.781250
3446,50.781250
3447,50.781250
3448,50.781250
3449,50.781250
3450,50.781250
3451,50.781250
3452,46.875000
3453,46.875000
3454,46.875000
3455,46.875000
3456,46.875000
3457,46.875000
3458,46.875000
3459,42.968750
3460,42.968750
3461,42.968750
3462,42.968750
3463,42.968750
3464,42.968750
3465,42.968750
3466,39.062500
3467,39.062500
3468,39.062500
3469,39.062500
3470,39.062500
3471,39.062500
3472,35.156250
3473,35.156250
3474,35.156250
3475,35.156250
3476,35.156250
3477,35.156250
3478,31.250000
3479,31.250000
3480,31.250000
3481,27.343750
3482,31.250000
3483,31.250000
3484,27.343750
3485,27.343750
3486,27.343750
3487,27.343750
3488,27.343750
3489,27.343750
3490,23.437500
3491,23.437500
3492,23.437500
3493,23.437500
3494,23.437500
3495,23.437500
3496,19.531250
3497,19.531250
3498,19.531250
3499,19.531250
3500,19.531250
3501,15.625000
3502,15.625000
3503,15.625000
3504,15.625000
3505,15.625000
3506,11.718750
3507,11.718750
3508,11.718750
3509,11.718750
3510,11.718750
3511,11.718750
3512,7.812500
3513,7.812500
3514,7.812500
3515,7.812500
3516,7.812500
3517,7.812500
3518,3.906250
3519,3.906250
3520,3.906250
3521,3.906250
3522,0.000000
3523,0.000000
3524,0.000000
3525,0.000000
3526,0.000000
3527,0.000000
3528,-3.906250
3529,-3.906250
3530,-3.906250
3531,-3.906250
3532,-3.906250
3533,-7.812500
3534,-7.812500
3535,-7.812500
3536,-7.812500
3537,-7.812500
3538,-11.718750
3539,-11.718750
3540,-11.718750
3541,-11.718750
3542,-11.718750
3543,-15.625000
3544,-15.625000
3545,-15.625000
3546,-15.625000
3547,-15.625000
3548,-15.625000
3549,-19.531250
3550,-19.531250
3551,-19.531250
3552,-19.531250
3553,-19.531250
3554,-23.437500
3555,-23.437500
3556,-23.437500
3557,-23.437500
3558,-27.343750
3559,-27.343750
3560,-27.343750
3561,-27.343750
3562,-31.250000
3563,-27.343750
3564,-31.250000
3565,-31.250000
3566,-31.250000
3567,-31.250000
3568,-35.156250
3569,-35.156250
3570,-35.156250
3571,-35.156250
3572,-39.062500
3573,-39.062500
3574,-39.062500
3575,-39.062500
3576,-39.062500
3577,-39.062500
3578,-42.968750
3579,-42.968750
3580,-42.968750
3581,-42.968750
3582,-42.968750
3583,-42.968750
3584,-46.875000
3585,-46.875000
3586,-46.875000
3587,-46.875000
3588,-46.875000
3589,-50.781250
3590,-50.781250
3591,-50.781250
3592,-50.781250
3593,-50.781250
3594,-50.781250
3595,-50.781250
3596,-54.687500
3597,-54.687500
3598,-54.687500
3599,-54.687500
3600,-58.593750
3601,-58.593750
3602,-58.593750
3603,-58.593750
3604,-58.593750
3605,-58.593750
3606,-62.500000
3607,-62.500000
3608,-62.500000
3609,-62.500000
3610,-66.406250
3611,-62.500000
3612,-66.406250
3613,-66.406250
3614,-66.406250
3615,-66.406250
3616,-66.406250
3617,-66.406250
3618,-70.312500
3619,-70.312500
3620,-70.312500
3621,-70.312500
3622,-70.312500
3623,-74.218750
3624,-74.218750
3625,-74.218750
3626,-74.218750
3627,-74.218750
3628,-78.125000
3629,-78.125000
3630,-78.125000
3631,-78.125000
3632,-78.125000
3633,-78.125000
3634,-82.031250
3635,-82.031250
3636,-82.031250
3637,-82.031250
3638,-82.031250
3639,-82.031250
3640,-85.937500
3641,-85.937500
3642,-85.937500
3643,-85.937500
3644,-85.937500
3645,-85.937500
3646,-89.843750
3647,-89.843750
3648,-89.843750
3649,-89.843750
3650,-89.843750
3651,-89.843750
3652,-93.750000
3653,-93.750000
3654,-93.750000
3655,-93.750000
3656,-93.750000
3657,-93.750000
3658,-97.656250
3659,-97.656250
3660,-97.656250
3661,-97.656250
3662,-97.656250
3663,-101.562500
3664,-101.562500
3665,-97.656250
3666,-101.562500
3667,-101.562500
3668,-101.562500
3669,-101.562500
3670,-101.562500
3671,-105.468750
3672,-105.468750
3673,-105.468750
3674,-105.468750
3675,-105.468750
3676,-105.468750
3677,-105.468750
3678,-105.468750
3679,-109.375000
3680,-109.375000
3681,-109.375000
3682,-109.375000
3683,-109.375000
3684,-109.375000
3685,-109.375000
3686,-113.281250
3687,-113.281250
3688,-113.281250
3689,-113.281250
3690,-113.281250
3691,-113.281250
3692,-113.281250
3693,-113.281250
3694,-117.187500
3695,-113.281250
3696,-117.187500
3697,-117.187500
3698,-117.187500
3699,-117.187500
3700,-117.187500
3701,-117.187500
3702,-117.187500
3703,-117.187500
3704,-117.187500
3705,-121.093750
3706,-121.093750
3707,-121.093750
3708,-121.093750
3709,-121.093750
3710,-121.093750
3711,-121.093750
3712,-125.000000
3713,-121.093750
3714,-125.000000
3715,-121.093750
3716,-125.000000
3717,-125.000000
3718,-125.000000
3719,-125.000000
3720,-125.000000
3721,-125.000000
3722,-125.000000
3723,-125.000000
3724,-128.906250
3725,-125.000000
3726,-128.906250
3727,-128.906250
3728,-128.906250
3729,-128.906250
3730,-128.906250
3731,-128.906250
3732,-128.906250
3733,-128.906250
3734,-128.906250
3735,-128.906250
3736,-128.906250
3737,-128.906250
3738,-128.906250
3739,-128.906250
3740,-128.906250
3741,-128.906250
3742,-128.906250
3743,-132.812500
3744,-132.812500
3745,-132.812500
3746,-132.812500
3747,-132.812500
3748,-132.812500
3749,-132.812500
3750,-132.812500
3751,-132.812500
3752,-132.812500
3753,-132.812500
3754,-132.812500
3755,-132.812500
3756,-132.812500
3757,-132.812500
3758,-132.812500
3759,-132.812500
3760,-132.812500
3761,-132.812500
3762,-132.812500
3763,-132.812500
3764,-132.812500
3765,-132.812500
3766,-132.812500
3767,-132.812500
3768,-132.812500
3769,-132.812500
3770,-136.718750
3771,-136.718750
3772,-136.718750
3773,-136.718750
3774,-136.718750
3775,-136.718750
3776,-136.718750
3777,-136.718750
3778,-136.718750
3779,-136.718750
3780,-136.718750
3781,-136.718750
3782,-136.718750
3783,-136.718750
3784,-136.718750
3785,-136.718750
3786,-136.718750
3787,-136.718750
3788,-136.718750
3789,-136.718750
3790,-136.718750
3791,-136.718750
3792,-136.718750
3793,-136.718750
3794,-136.718750
3795,-136.718750
3796,-136.718750
3797,-136.718750
3798,-136.718750
3799,-136.718750
3800,-132.812500
3801,-132.812500
3802,-132.812500
3803,-132.812500
3804,-132.812500
3805,-132.812500
3806,-132.812500
3807,-132.812500
3808,-132.812500
3809,-132.812500
3810,-132.812500
3811,-132.812500
3812,-132.812500
3813,-132.812500
3814,-132.812500
3815,-132.812500
3816,-132.812500
3817,-132.812500
3818,-132.812500
3819,-132.812500
3820,-132.812500
3821,-132.812500
3822,-132.812500
3823,-132.812500
3824,-132.812500
3825,-132.812500
3826,-128.906250
3827,-128.906250
3828,-128.906250
3829,-128.906250
3830,-128.906250
3831,-128.906250
3832,-128.906250
3833,-128.906250
3834,-128.906250
3835,-128.906250
3836,-128.906250
3837,-128.906250
3838,-128.906250
3839,-128.906250
3840,-128.906250
3841,-125.000000
3842,-125.000000
3843,-125.000000
3844,-125.000000
3845,-125.000000
3846,-125.000000
3847,-125.000000
3848,-125.000000
3849,-125.000000
3850,-125.000000
3851,-125.000000
3852,-121.093750
3853,-121.093750
3854,-121.093750
3855,-121.093750
3856,-121.093750
3857,-121.093750
3858,-121.093750
3859,-121.093750
3860,-121.093750
3861,-117.187500
3862,-117.187500
3863,-117.187500
3864,-117.187500
3865,-117.187500
3866,-117.187500
3867,-117.187500
3868,-117.187500
3869,-117.187500
3870,-117.187500
3871,-117.187500
3872,-113.281250
3873,-113.281250
3874,-113.281250
3875,-113.281250
3876,-113.281250
3877,-113.281250
3878,-113.281250
3879,-109.375000
3880,-109.375000
3881,-109.375000
3882,-109.375000
3883,-109.375000
3884,-109.375000
3885,-105.468750
3886,-109.375000
3887,-105.468750
3888,-105.468750
3889,-105.468750
3890,-105.468750
3891,-105.468750
3892,-105.468750
3893,-105.468750
3894,-105.468750
3895,-101.562500
3896,-101.562500
3897,-101.562500
3898,-101.562500
3899,-101.562500
3900,-101.562500
3901,-101.562500
3902,-97.656250
3903,-97.656250
3904,-97.656250
3905,-97.656250
3906,-97.656250
3907,-97.656250
3908,-93.750000
3909,-93.750000
3910,-93.750000
3911,-93.750000
3912,-93.750000
3913,-93.750000
3914,-93.750000
3915,-93.750000
3916,-89.843750
3917,-89.843750
3918,-89.843750
3919,-89.843750
3920,-89.843750
3921,-89.843750
3922,-85.937500
3923,-85.937500
3924,-85.937500
3925,-85.937500
3926,-85.937500
3927,-85.937500
3928,-85.937500
3929,-82.031250
3930,-82.031250
3931,-82.031250
3932,-82.031250
3933,-82.031250
3934,-78.125000
3935,-78.125000
3936,-78.125000
3937,-78.125000
3938,-78.125000
3939,-78.125000
3940,-78.125000
3941,-74.218750
3942,-74.218750
3943,-74.218750
3944,-74.218750
3945,-74.218750
3946,-70.312500
3947,-70.312500
3948,-70.312500
3949,-70.312500
3950,-70.312500
3951,-70.312500
3952,-66.406250
3953,-66.406250
3954,-66.406250
3955,-66.406250
3956,-66.406250
3957,-62.500000
3958,-62.500000
3959,-62.500000
3960,-62.500000
3961,-62.500000
3962,-62.500000
3963,-58.593750
3964,-58.593750
3965,-58.593750
3966,-58.593750
3967,-58.593750
3968,-54.687500
3969,-54.687500
3970,-54.687500
3971,-54.687500
3972,-54.687500
3973,-54.687500
3974,-50.781250
3975,-50.781250
3976,-50.781250
3977,-50.781250
3978,-50.781250
3979,-46.875000
3980,-46.875000
3981,-46.875000
3982,-46.875000
3983,-46.875000
3984,-46.875000
3985,-42.968750
3986,-42.968750
3987,-42.968750
3988,-42.968750
3989,-42.968750
3990,-39.062500
3991,-39.062500
3992,-39.062500
3993,-39.062500
3994,-35.156250
3995,-35.156250
3996,-35.156250
3997,-35.156250
3998,-35.156250
3999,-35.156250
4000,-31.250000
4001,-31.250000
4002,-31.250000
4003,-31.250000
4004,-31.250000
4005,-31.250000
4006,-27.343750
4007,-27.343750
4008,-27.343750
4009,-27.343750
4010,-23.437500
4011,-23.437500
4012,-23.437500
4013,-23.437500
4014,-23.437500
4015,-19.531250
4016,-19.531250
4017,-19.531250
4018,-19.531250
4019,-19.531250
4020,-15.625000
4021,-15.625000
4022,-15.625000
4023,-15.625000
4024,-15.625000
4025,-11.718750
4026,-11.718750
4027,-11.718750
4028,-11.718750
4029,-11.718750
4030,-11.718750
4031,-7.812500
4032,-7.812500
4033,-7.812500
4034,-7.812500
4035,-7.812500
4036,-3.906250
4037,-3.906250
4038,-3.906250
4039,-3.906250
4040,-3.906250
4041,-3.906250
4042,0.000000
4043,0.000000
4044,0.000000
4045,0.000000
4046,0.000000
4047,3.906250
4048,3.906250
4049,3.906250
4050,3.906250
4051,3.906250
4052,7.812500
4053,7.812500
4054,7.812500
4055,7.812500
4056,7.812500
4057,7.812500
4058,11.718750
4059,11.718750
4060,11.718750
4061,11.718750
4062,11.718750
4063,15.625000
4064,15.625000
4065,15.625000
4066,15.625000
4067,15.625000
4068,15.625000
4069,19.531250
4070,19.531250
4071,19.531250
4072,19.531250
4073,19.531250
4074,19.531250
4075,19.531250
4076,23.437500
4077,23.437500
4078,23.437500
4079,23.437500
4080,27.343750
4081,27.343750
4082,27.343750
4083,27.343750
4084,27.343750
4085,27.343750
4086,31.250000
4087,31.250000
4088,31.250000
4089,31.250000
4090,31.250000
4091,31.250000
4092,31.250000
4093,35.156250
4094,35.156250
4095,35.156250
4096,35.156250
4097,35.156250
4098,35.156250
4099,35.156250
4100,39.062500
4101,39.062500
4102,39.062500
4103,39.062500
4104,39.062500
4105,39.062500
4106,42.968750
4107,42.968750
4108,42.968750
4109,42.968750
4110,42.968750
4111,42.968750
4112,46.875000
4113,46.875000
4114,46.875000
4115,46.875000
4116,46.875000
4117,46.875000
4118,50.781250
4119,50.781250
4120,50.781250
4121,50.781250
4122,50.781250
4123,50.781250
4124,50.781250
4125,50.781250
4126,50.781250
4127,54.687500
4128,54.687500
4129,54.687500
4130,54.687500
4131,54.687500
4132,58.593750
4133,58.593750
4134,58.593750
4135,58.593750
4136,58.593750
4137,58.593750
4138,62.500000
4139,62.500000
4140,62.500000
4141,62.500000
4142,62.500000
4143,62.500000
4144,62.500000
4145,62.500000
4146,62.500000
4147,62.500000
4148,66.406250
4149,66.406250
4150,66.406250
4151,66.406250
4152,66.406250
4153,66.406250
4154,70.312500
4155,70.312500
4156,66.406250
4157,70.312500
4158,70.312500
4159,70.312500
4160,70.312500
4161,70.312500
4162,70.312500
4163,70.312500
4164,74.218750
4165,74.218750
4166,74.218750
4167,74.218750
4168,74.218750
4169,74.218750
4170,74.218750
4171,74.218750
4172,74.218750
4173,74.218750
4174,78.125000
4175,78.125000
4176,78.125000
4177,78.125000
4178,78.125000
4179,78.125000
4180,78.125000
4181,78.125000
4182,78.125000
4183,82.031250
4184,82.031250
4185,82.031250
4186,82.031250
4187,82.031250
4188,82.031250
4189,82.031250
4190,82.031250
4191,82.031250
4192,82.031250
4193,82.031250
4194,82.031250
4195,82.031250
4196,82.031250
4197,85.937500
4198,85.937500
4199,85.937500
4200,85.937500
4201,85.937500
4202,85.937500
4203,85.937500
4204,85.937500
4205,85.937500
4206,85.937500
4207,85.937500
4208,85.937500
4209,85.937500
4210,89.843750
4211,89.843750
4212,89.843750
4213,89.843750
4214,89.843750
4215,89.843750
4216,89.843750
4217,89.843750
4218,89.843750
4219,89.843750
4220,89.843750
4221,89.843750
4222,89.843750
4223,89.843750
4224,93.750000
4225,93.750000
4226,93.750000
4227,93.750000
4228,93.750000
4229,93.750000
4230,93.750000
4231,93.750000
4232,93.750000
4233,93.750000
4234,93.750000
4235,93.750000
4236,93.750000
4237,93.750000
4238,93.750000
4239,93.750000
4240,93.750000
4241,93.750000
4242,93.750000
4243,93.750000
4244,93.750000
4245,93.750000
4246,93.750000
4247,97.656250
4248,93.750000
4249,93.750000
4250,93.750000
4251,97.656250
4252,97.656250
4253,97.656250
4254,97.656250
4255,97.656250
4256,97.656250
4257,97.656250
4258,97.656250
4259,97.656250
4260,97.656250
4261,97.656250
4262,97.656250
4263,97.656250
4264,97.656250
4265,97.656250
4266,97.656250
4267,97.656250
4268,97.656250
4269,97.656250
4270,97.656250
4271,97.656250
4272,97.656250
4273,97.656250
4274,97.656250
4275,97.656250
4276,97.656250
4277,97.656250
4278,97.656250
4279,97.656250
4280,97.656250
4281,97.656250
4282,97.656250
4283,97.656250
4284,97.656250
4285,97.656250
4286,97.656250
4287,97.656250
4288,97.656250
4289,97.656250
4290,97.656250
4291,97.656250
4292,97.656250
4293,97.656250
4294,97.656250
4295,97.656250
4296,97.656250
4297,97.656250
4298,97.656250
4299,97.656250
4300,97.656250
4301,97.656250
4302,97.656250
4303,97.656250
4304,97.656250
4305,97.656250
4306,97.656250
4307,97.656250
4308,97.656250
4309,97.656250
4310,97.656250
4311,97.656250
4312,97.656250
4313,97.656250
4314,97.656250
4315,93.750000
4316,93.750000
4317,93.750000
4318,93.750000
4319,93.750000
4320,93.750000
4321,93.750000
4322,93.750000
4323,93.750000
4324,93.750000
4325,93.750000
4326,93.750000
4327,93.750000
4328,93.750000
4329,93.750000
4330,93.750000
4331,93.750000
4332,93.750000
4333,93.750000
4334,93.750000
4335,93.750000
4336,93.750000
4337,89.843750
4338,93.750000
4339,89.843750
4340,89.843750
4341,89.843750
4342,89.843750
4343,89.843750
4344,89.843750
4345,89.843750
4346,89.843750
4347,89.843750
4348,89.843750
4349,89.843750
4350,89.843750
4351,89.843750
4352,85.937500
4353,85.937500
4354,89.843750
4355,85.937500
4356,85.937500
4357,85.937500
4358,85.937500
4359,85.937500
4360,85.937500
4361,85.937500
4362,85.937500
4363,82.031250
4364,85.937500
4365,85.937500
4366,85.937500
4367,82.031250
4368,82.031250
4369,82.031250
4370,82.031250
4371,82.031250
4372,82.031250
4373,82.031250
4374,82.031250
4375,78.125000
4376,82.031250
4377,78.125000
4378,78.125000
4379,78.125000
4380,78.125000
4381,78.125000
4382,78.125000
4383,78.125000
4384,78.125000
4385,78.125000
4386,78.125000
4387,74.218750
4388,74.218750
4389,74.218750
4390,74.218750
4391,74.218750
4392,74.218750
4393,74.218750
4394,74.218750
4395,74.218750
4396,74.218750
4397,70.312500
4398,70.312500
4399,70.312500
4400,70.312500
4401,70.312500
4402,70.312500
4403,70.312500
4404,66.406250
4405,66.406250
4406,66.406250
4407,66.406250
4408,66.406250
4409,66.406250
4410,66.406250
4411,66.406250
4412,66.406250
4413,66.406250
4414,62.500000
4415,62.500000
4416,62.500000
4417,62.500000
4418,62.500000
4419,62.500000
4420,58.593750
4421,62.500000
4422,58.593750
4423,58.593750
4424,58.593750
4425,58.593750
4426,58.593750
4427,58.593750
4428,54.687500
4429,54.687500
4430,54.687500
4431,54.687500
4432,54.687500
4433,54.687500
4434,54.687500
4435,50.781250
4436,50.781250
4437,50.781250
4438,50.781250
4439,50.781250
4440,50.781250
4441,50.781250
4442,46.875000
4443,46.875000
4444,46.875000
4445,46.875000
4446,46.875000
4447,46.875000
4448,46.875000
4449,42.968750
4450,42.968750
4451,42.968750
4452,42.968750
4453,42.968750
4454,39.062500
4455,39.062500
4456,39.062500
4457,39.062500
4458,39.062500
4459,39.062500
4460,35.156250
4461,35.156250
4462,35.156250
4463,35.156250
4464,35.156250
4465,35.156250
4466,31.250000
4467,31.250000
4468,31.250000
4469,31.250000
4470,31.250000
4471,31.250000
4472,31.250000
4473,27.343750
4474,27.343750
4475,27.343750
4476,27.343750
4477,27.343750
4478,27.343750
4479,23.437500
4480,23.437500
4481,23.437500
4482,23.437500
4483,23.437500
4484,19.531250
4485,19.531250
4486,19.531250
4487,19.531250
4488,19.531250
4489,15.625000
4490,15.625000
4491,15.625000
4492,15.625000
4493,15.625000
4494,11.718750
4495,11.718750
4496,11.718750
4497,11.718750
4498,11.718750
4499,11.718750
4500,7.812500
4501,7.812500
4502,7.812500
4503,7.812500
4504,7.812500
4505,7.812500
4506,3.906250
4507,3.906250
4508,3.906250
4509,3.906250
4510,3.906250
4511,0.000000
4512,0.000000
4513,0.000000
4514,0.000000
4515,0.000000
4516,0.000000
4517,-3.906250
4518,-3.906250
4519,-3.906250
4520,-3.906250
4521,-3.906250
4522,-7.812500
4523,-7.812500
4524,-7.812500
4525,-7.812500
4526,-7.812500
4527,-11.718750
4528,-11.718750
4529,-11.718750
4530,-11.718750
4531,-11.718750
4532,-15.625000
4533,-15.625000
4534,-15.625000
4535,-15.625000
4536,-15.625000
4537,-19.531250
4538,-19.531250
4539,-19.531250
4540,-19.531250
4541,-19.531250
4542,-23.437500
4543,-23.437500
4544,-23.437500
4545,-23.437500
4546,-23.437500
4547,-23.437500
4548,-27.343750
4549,-27.343750
4550,-27.343750
4551,-27.343750
4552,-31.250000
4553,-31.250000
4554,-31.250000
4555,-31.250000
4556,-31.250000
4557,-31.250000
4558,-35.156250
4559,-35.156250
4560,-35.156250
4561,-35.156250
4562,-35.156250
4563,-39.062500
4564,-39.062500
4565,-39.062500
4566,-39.062500
4567,-39.062500
4568,-42.968750
4569,-42.968750
4570,-42.968750
4571,-42.968750
4572,-42.968750
4573,-42.968750
4574,-46.875000
4575,-42.968750
4576,-46.875000
4577,-46.875000
4578,-50.781250
4579,-50.781250
4580,-50.781250
4581,-50.781250
4582,-50.781250
4583,-50.781250
4584,-50.781250
4585,-54.687500
4586,-54.687500
4587,-54.687500
4588,-54.687500
4589,-58.593750
4590,-58.593750
4591,-58.593750
4592,-58.593750
4593,-58.593750
4594,-62.500000
4595,-62.500000
4596,-62.500000
4597,-62.500000
4598,-62.500000
4599,-62.500000
4600,-66.406250
4601,-66.406250
4602,-66.406250
4603,-66.406250
4604,-66.406250
4605,-70.312500
4606,-70.312500
4607,-70.312500
4608,-70.312500
4609,-70.312500
4610,-70.312500
4611,-74.218750
4612,-74.218750
4613,-74.218750
4614,-74.218750
4615,-78.125000
4616,-78.125000
4617,-78.125000
4618,-78.125000
4619,-78.125000
4620,-78.125000
4621,-78.125000
4622,-78.125000
4623,-82.031250
4624,-82.031250
4625,-82.031250
4626,-82.031250
4627,-82.031250
4628,-85.937500
4629,-85.937500
4630,-85.937500
4631,-85.937500
4632,-85.937500
4633,-85.937500
4634,-89.843750
4635,-89.843750
4636,-89.843750
4637,-89.843750
4638,-89.843750
4639,-89.843750
4640,-89.843750
4641,-93.750000
4642,-93.750000
4643,-93.750000
4644,-93.750000
4645,-93.750000
4646,-93.750000
4647,-97.656250
4648,-97.656250
4649,-97.656250
4650,-97.656250
4651,-97.656250
4652,-97.656250
4653,-101.562500
4654,-101.562500
4655,-97.656250
4656,-101.562500
4657,-101.562500
4658,-101.562500
4659,-101.562500
4660,-105.468750
4661,-105.468750
4662,-105.468750
4663,-105.468750
4664,-105.468750
4665,-105.468750
4666,-105.468750
4667,-105.468750
4668,-109.375000
4669,-109.375000
4670,-109.375000
4671,-109.375000
4672,-109.375000
4673,-109.375000
4674,-109.375000
4675,-109.375000
4676,-113.281250
4677,-113.281250
4678,-113.281250
4679,-113.281250
4680,-113.281250
4681,-113.281250
4682,-113.281250
4683,-113.281250
4684,-117.187500
4685,-117.187500
4686,-117.187500
4687,-117.187500
4688,-117.187500
4689,-117.187500
4690,-117.187500
4691,-117.187500
4692,-117.187500
4693,-117.187500
4694,-117.187500
4695,-121.093750
4696,-121.093750
4697,-121.093750
4698,-121.093750
4699,-121.093750
4700,-121.093750
4701,-121.093750
4702,-121.093750
4703,-121.093750
4704,-121.093750
4705,-125.000000
4706,-125.000000
4707,-125.000000
4708,-125.000000
4709,-125.000000
4710,-125.000000
4711,-125.000000
4712,-125.000000
4713,-125.000000
4714,-125.000000
4715,-125.000000
4716,-128.906250
4717,-128.906250
4718,-128.906250
4719,-128.906250
4720,-128.906250
4721,-128.906250
4722,-128.906250
4723,-128.906250
4724,-128.906250
4725,-128.906250
4726,-128.906250
4727,-128.906250
4728,-128.906250
4729,-128.906250
4730,-132.812500
4731,-132.812500
4732,-132.812500
4733,-132.812500
4734,-132.812500
4735,-132.812500
4736,-132.812500
4737,-132.812500
4738,-132.812500
4739,-132.812500
4740,-132.812500
4741,-132.812500
4742,-132.812500
4743,-132.812500
4744,-132.812500
4745,-132.812500
4746,-132.812500
4747,-132.812500
4748,-136.718750
4749,-136.718750
4750,-132.812500
4751,-132.812500
4752,-136.718750
4753,-132.812500
4754,-132.812500
4755,-136.718750
4756,-132.812500
4757,-136.718750
4758,-136.718750
4759,-136.718750
4760,-136.718750
4761,-136.718750
4762,-132.812500
4763,-132.812500
4764,-136.718750
4765,-136.718750
4766,-136.718750
4767,-136.718750
4768,-136.718750
4769,-136.718750
4770,-136.718750
4771,-136.718750
4772,-136.718750
4773,-136.718750
4774,-136.718750
4775,-136.718750
4776,-136.718750
4777,-136.718750
4778,-136.718750
4779,-136.718750
4780,-136.718750
4781,-136.718750
4782,-136.718750
4783,-132.812500
4784,-136.718750
4785,-136.718750
4786,-136.718750
4787,-136.718750
4788,-132.812500
4789,-132.812500
4790,-132.812500
4791,-132.812500
4792,-132.812500
4793,-132.812500
4794,-132.812500
4795,-132.812500
4796,-132.812500
4797,-132.812500
4798,-132.812500
4799,-132.812500
4800,-132.812500
4801,-132.812500
4802,-132.812500
4803,-132.812500
4804,-132.812500
4805,-132.812500
4806,-132.812500
4807,-132.812500
4808,-132.812500
4809,-132.812500
4810,-132.812500
4811,-132.812500
4812,-132.812500
4813,-132.812500
4814,-128.906250
4815,-128.906250
4816,-128.906250
4817,-128.906250
4818,-128.906250
4819,-128.906250
4820,-128.906250
4821,-128.906250
4822,-128.906250
4823,-128.906250
4824,-128.906250
4825,-128.906250
4826,-128.906250
4827,-125.000000
4828,-125.000000
4829,-128.906250
4830,-128.906250
4831,-125.000000
4832,-125.000000
4833,-125.000000
4834,-125.000000
4835,-125.000000
4836,-125.000000
4837,-125.000000
4838,-125.000000
4839,-125.000000
4840,-125.000000
4841,-125.000000
4842,-121.093750
4843,-121.093750
4844,-121.093750
4845,-121.093750
4846,-121.093750
4847,-121.093750
4848,-121.093750
4849,-121.093750
4850,-121.093750
4851,-121.093750
4852,-117.187500
4853,-121.093750
4854,-117.187500
4855,-117.187500
4856,-117.187500
4857,-117.187500
4858,-117.187500
4859,-117.187500
4860,-117.187500
4861,-117.187500
4862,-113.281250
4863,-113.281250
4864,-113.281250
4865,-113.281250
4866,-113.281250
4867,-113.281250
4868,-113.281250
4869,-109.375000
4870,-109.375000
4871,-109.375000
4872,-109.375000
4873,-109.375000
4874,-109.375000
4875,-109.375000
4876,-109.375000
4877,-105.468750
4878,-105.468750
4879,-105.468750
4880,-105.468750
4881,-105.468750
4882,-105.468750
4883,-105.468750
4884,-101.562500
4885,-105.468750
4886,-101.562500
4887,-101.562500
4888,-101.562500
4889,-101.562500
4890,-101.562500
4891,-101.562500
4892,-97.656250
4893,-97.656250
4894,-97.656250
4895,-97.656250
4896,-97.656250
4897,-97.656250
4898,-93.750000
4899,-93.750000
4900,-93.750000
4901,-93.750000
4902,-93.750000
4903,-89.843750
4904,-93.750000
4905,-89.843750
4906,-89.843750
4907,-89.843750
4908,-89.843750
4909,-89.843750
4910,-89.843750
4911,-85.937500
4912,-85.937500
4913,-85.937500
4914,-85.937500
4915,-85.937500
4916,-85.937500
4917,-85.937500
4918,-82.031250
4919,-82.031250
4920,-82.031250
4921,-82.031250
4922,-82.031250
4923,-78.125000
4924,-78.125000
4925,-78.125000
4926,-78.125000
4927,-78.125000
4928,-78.125000
4929,-74.218750
4930,-74.218750
4931,-74.218750
4932,-74.218750
4933,-74.218750
4934,-70.312500
4935,-70.312500
4936,-70.312500
4937,-70.312500
4938,-70.312500
4939,-70.312500
4940,-66.406250
4941,-66.406250
4942,-66.406250
4943,-66.406250
4944,-66.406250
4945,-66.406250
4946,-62.500000
4947,-62.500000
4948,-62.500000
4949,-62.500000
4950,-62.500000
4951,-58.593750
4952,-58.593750
4953,-58.593750
4954,-58.593750
4955,-58.593750
4956,-54.687500
4957,-54.687500
4958,-54.687500
4959,-54.687500
4960,-54.687500
4961,-54.687500
4962,-50.781250
4963,-50.781250
4964,-50.781250
4965,-50.781250
4966,-50.781250
4967,-46.875000
4968,-46.875000
4969,-46.875000
4970,-46.875000
4971,-46.875000
4972,-46.875000
4973,-42.968750
4974,-42.968750
4975,-42.968750
4976,-42.968750
4977,-42.968750
4978,-42.968750
4979,-39.062500
4980,-39.062500
4981,-39.062500
4982,-39.062500
4983,-35.156250
4984,-35.156250
4985,-35.156250
4986,-35.156250
4987,-35.156250
4988,-35.156250
4989,-31.250000
4990,-31.250000
4991,-31.250000
4992,-31.250000
4993,-31.250000
4994,-27.343750
4995,-27.343750
4996,-23.437500
4997,-27.343750
4998,-27.343750
4999,-23.437500
5000,-23.437500
5001,-23.437500
5002,-23.437500
5003,-23.437500
5004,-23.437500
5005,-19.531250
5006,-19.531250
5007,-19.531250
5008,-19.531250
5009,-19.531250
5010,-15.625000
5011,-15.625000
5012,-15.625000
5013,-15.625000
5014,-15.625000
5015,-11.718750
5016,-11.718750
5017,-11.718750
5018,-11.718750
5019,-11.718750
5020,-7.812500
5021,-7.812500
5022,-7.812500
5023,-7.812500
5024,-7.812500
5025,-3.906250
5026,-3.906250
5027,-3.906250
5028,-3.906250
5029,-3.906250
5030,-3.906250
5031,0.000000
5032,0.000000
5033,0.000000
5034,0.000000
5035,0.000000
5036,3.906250
5037,3.906250
5038,3.906250
5039,3.906250
5040,3.906250
5041,3.906250
5042,3.906250
5043,7.812500
5044,7.812500
5045,7.812500
5046,7.812500
5047,11.718750
5048,11.718750
5049,11.718750
5050,11.718750
5051,11.718750
5052,15.625000
5053,15.625000
5054,15.625000
5055,15.625000
5056,15.625000
5057,15.625000
5058,19.531250
5059,19.531250
5060,19.531250
5061,19.531250
5062,19.531250
5063,19.531250
5064,23.437500
5065,23.437500
5066,23.437500
5067,23.437500
5068,23.437500
5069,23.437500
5070,27.343750
5071,27.343750
5072,27.343750
5073,27.343750
5074,27.343750
5075,31.250000
5076,31.250000
5077,31.250000
5078,31.250000
5079,31.250000
5080,31.250000
5081,31.250000
5082,35.156250
5083,35.156250
5084,35.156250
5085,35.156250
5086,35.156250
5087,35.156250
5088,35.156250
5089,39.062500
5090,39.062500
5091,39.062500
5092,39.062500
5093,39.062500
5094,39.062500
5095,42.968750
5096,42.968750
5097,42.968750
5098,42.968750
5099,42.968750
5100,42.968750
5101,46.875000
5102,46.875000
5103,46.875000
5104,46.875000
5105,46.875000
5106,46.875000
5107,46.875000
5108,46.875000
5109,50.781250
5110,50.781250
5111,50.781250
5112,50.781250
5113,50.781250
5114,54.687500
5115,54.687500
5116,54.687500
5117,54.687500
5118,54.687500
5119,54.687500
5120,54.687500
5121,58.593750
5122,58.593750
5123,58.593750
5124,58.593750
5125,58.593750
5126,58.593750
5127,58.593750
5128,58.593750
5129,62.500000
5130,62.500000
5131,62.500000
5132,62.500000
5133,62.500000
5134,62.500000
5135,62.500000
5136,62.500000
5137,62.500000
5138,66.406250
5139,66.406250
5140,66.406250
5141,66.406250
5142,66.406250
5143,66.406250
5144,66.406250
5145,66.406250
5146,70.312500
5147,70.312500
5148,70.312500
5149,70.312500
5150,70.312500
5151,70.312500
5152,70.312500
5153,70.312500
5154,74.218750
5155,74.218750
5156,74.218750
5157,74.218750
5158,74.218750
5159,74.218750
5160,74.218750
5161,74.218750
5162,78.125000
5163,74.218750
5164,78.125000
5165,78.125000
5166,78.125000
5167,78.125000
5168,78.125000
5169,78.125000
5170,78.125000
5171,78.125000
5172,78.125000
5173,78.125000
5174,82.031250
5175,82.031250
5176,82.031250
5177,82.031250
5178,82.031250
5179,82.031250
5180,82.031250
5181,85.937500
5182,85.937500
5183,82.031250
5184,82.031250
5185,85.937500
5186,85.937500
5187,85.937500
5188,85.937500
5189,85.937500
5190,85.937500
5191,85.937500
5192,85.937500
5193,85.937500
5194,85.937500
5195,85.937500
5196,85.937500
5197,85.937500
5198,89.843750
5199,89.843750
5200,89.843750
5201,89.843750
5202,89.843750
5203,89.843750
5204,89.843750
5205,89.843750
5206,89.843750
5207,89.843750
5208,89.843750
5209,89.843750
5210,89.843750
5211,89.843750
5212,89.843750
5213,89.843750
5214,89.843750
5215,89.843750
5216,93.750000
5217,93.750000
5218,93.750000
5219,93.750000
5220,93.750000
5221,93.750000
5222,93.750000
5223,93.750000
5224,93.750000
5225,93.750000
5226,93.750000
5227,93.750000
5228,93.750000
5229,93.750000
5230,93.750000
5231,93.750000
5232,93.750000
5233,93.750000
5234,93.750000
5235,93.750000
5236,93.750000
5237,93.750000
5238,93.750000
5239,93.750000
5240,93.750000
5241,97.656250
5242,97.656250
5243,97.656250
5244,97.656250
5245,97.656250
5246,97.656250
5247,97.656250
5248,97.656250
5249,97.656250
5250,97.656250
5251,97.656250
5252,97.656250
5253,97.656250
5254,97.656250
5255,97.656250
5256,97.656250
5257,97.656250
5258,97.656250
5259,97.656250
5260,97.656250
5261,97.656250
5262,97.656250
5263,97.656250
5264,97.656250
5265,97.656250
5266,97.656250
5267,97.656250
5268,97.656250
5269,97.656250
5270,97.656250
5271,97.656250
5272,97.656250
5273,97.656250
5274,97.656250
5275,97.656250
5276,97.656250
5277,97.656250
5278,97.656250
5279,97.656250
5280,97.656250
5281,97.656250
5282,97.656250
5283,97.656250
5284,97.656250
5285,97.656250
5286,97.656250
5287,97.656250
5288,97.656250
5289,97.656250
5290,97.656250
5291,97.656250
5292,97.656250
5293,97.656250
5294,97.656250
5295,97.656250
5296,97.656250
5297,97.656250
5298,97.656250
5299,97.656250
5300,93.750000
5301,97.656250
5302,97.656250
5303,97.656250
5304,97.656250
5305,93.750000
5306,93.750000
5307,93.750000
5308,93.750000
5309,93.750000
5310,93.750000
5311,93.750000
5312,93.750000
5313,93.750000
5314,93.750000
5315,93.750000
5316,93.750000
5317,93.750000
5318,93.750000
5319,93.750000
5320,93.750000
5321,93.750000
5322,93.750000
5323,89.843750
5324,89.843750
5325,89.843750
5326,89.843750
5327,93.750000
5328,89.843750
5329,89.843750
5330,89.843750
5331,89.843750
5332,89.843750
5333,89.843750
5334,89.843750
5335,89.843750
5336,89.843750
5337,89.843750
5338,89.843750
5339,89.843750
5340,85.937500
5341,85.937500
5342,85.937500
5343,85.937500
5344,85.937500
5345,85.937500
5346,85.937500
5347,85.937500
5348,85.937500
5349,85.937500
5350,85.937500
5351,85.937500
5352,85.937500
5353,85.937500
5354,85.937500
5355,85.937500
5356,82.031250
5357,82.031250
5358,82.031250
5359,82.031250
5360,82.031250
5361,82.031250
5362,82.031250
5363,82.031250
5364,82.031250
5365,78.125000
5366,78.125000
5367,78.125000
5368,78.125000
5369,78.125000
5370,78.125000
5371,78.125000
5372,78.125000
5373,78.125000
5374,78.125000
5375,74.218750
5376,74.218750
5377,74.218750
5378,74.218750
5379,74.218750
5380,74.218750
5381,74.218750
5382,74.218750
5383,74.218750
5384,70.312500
5385,70.312500
5386,70.312500
5387,70.312500
5388,70.312500
5389,70.312500
5390,70.312500
5391,70.312500
5392,70.312500
5393,70.312500
5394,66.406250
5395,66.406250
5396,66.406250
5397,66.406250
5398,66.406250
5399,66.406250
5400,66.406250
5401,62.500000
5402,62.500000
5403,62.500000
5404,62.500000
5405,62.500000
5406,62.500000
5407,62.500000
5408,62.500000
5409,62.500000
5410,58.593750
5411,58.593750
5412,58.593750
5413,58.593750
5414,58.593750
5415,58.593750
5416,58.593750
5417,54.687500
5418,54.687500
5419,54.687500
5420,54.687500
5421,54.687500
5422,54.687500
5423,54.687500
5424,54.687500
5425,50.781250
5426,50.781250
5427,50.781250
5428,50.781250
5429,50.781250
5430,50.781250
5431,46.875000
5432,46.875000
5433,46.875000
5434,46.875000
5435,46.875000
5436,46.875000
5437,42.968750
5438,42.968750
5439,42.968750
5440,42.968750
5441,42.968750
5442,42.968750
5443,42.968750
5444,42.968750
5445,39.062500
5446,39.062500
5447,39.062500
5448,35.156250
5449,39.062500
5450,39.062500
5451,35.156250
5452,35.156250
5453,35.156250
5454,35.156250
5455,35.156250
5456,31.250000
5457,31.250000
5458,31.250000
5459,31.250000
5460,31.250000
5461,31.250000
5462,27.343750
5463,27.343750
5464,27.343750
5465,27.343750
5466,27.343750
5467,27.343750
5468,23.437500
5469,23.437500
5470,23.437500
5471,23.437500
5472,19.531250
5473,19.531250
5474,19.531250
5475,19.531250
5476,19.531250
5477,19.531250
5478,15.625000
5479,15.625000
5480,15.625000
5481,15.625000
5482,15.625000
5483,11.718750
5484,11.718750
5485,11.718750
5486,11.718750
5487,11.718750
5488,11.718750
5489,7.812500
5490,7.812500
5491,7.812500
5492,7.812500
5493,7.812500
5494,3.906250
5495,3.906250
5496,3.906250
5497,3.906250
5498,3.906250
5499,3.906250
5500,0.000000
5501,0.000000
5502,-3.906250
5503,0.000000
5504,0.000000
5505,-3.906250
5506,-3.906250
5507,-3.906250
5508,-3.906250
5509,-7.812500
5510,-3.906250
5511,-7.812500
5512,-7.812500
5513,-7.812500
5514,-7.812500
5515,-11.718750
5516,-11.718750
5517,-11.718750
5518,-11.718750
5519,-11.718750
5520,-15.625000
5521,-15.625000
5522,-15.625000
5523,-15.625000
5524,-15.625000
5525,-15.625000
5526,-19.531250
5527,-19.531250
5528,-19.531250
5529,-19.531250
5530,-23.437500
5531,-19.531250
5532,-23.437500
5533,-23.437500
5534,-23.437500
5535,-23.437500
5536,-27.343750
5537,-27.343750
5538,-27.343750
5539,-27.343750
5540,-27.343750
5541,-31.250000
5542,-31.250000
5543,-31.250000
5544,-31.250000
5545,-31.250000
5546,-35.156250
5547,-35.156250
5548,-35.156250
5549,-35.156250
5550,-35.156250
5551,-35.156250
5552,-39.062500
5553,-39.062500
5554,-39.062500
5555,-42.968750
5556,-42.968750
5557,-42.968750
5558,-42.968750
5559,-42.968750
5560,-42.968750
5561,-42.968750
5562,-46.875000
5563,-46.875000
5564,-46.875000
5565,-46.875000
5566,-46.875000
5567,-46.875000
5568,-50.781250
5569,-50.781250
5570,-50.781250
5571,-50.781250
5572,-50.781250
5573,-54.687500
5574,-54.687500
5575,-54.687500
5576,-54.687500
5577,-54.687500
5578,-58.593750
5579,-58.593750
5580,-58.593750
5581,-58.593750
5582,-58.593750
5583,-58.593750
5584,-62.500000
5585,-62.500000
5586,-62.500000
5587,-62.500000
5588,-62.500000
5589,-66.406250
5590,-66.406250
5591,-66.406250
5592,-66.406250
5593,-66.406250
5594,-70.312500
5595,-70.312500
5596,-70.312500
5597,-70.312500
5598,-70.312500
5599,-74.218750
5600,-74.218750
5601,-74.218750
5602,-74.218750
5603,-74.218750
5604,-74.218750
5605,-78.125000
5606,-78.125000
5607,-78.125000
5608,-78.125000
5609,-78.125000
5610,-82.031250
5611,-82.031250
5612,-82.031250
5613,-82.031250
5614,-82.031250
5615,-85.937500
5616,-85.937500
5617,-85.937500
5618,-85.937500
5619,-85.937500
5620,-85.937500
5621,-85.937500
5622,-85.937500
5623,-89.843750
5624,-89.843750
5625,-89.843750
5626,-89.843750
5627,-89.843750
5628,-89.843750
5629,-93.750000
5630,-93.750000
5631,-93.750000
5632,-93.750000
5633,-93.750000
5634,-93.750000
5635,-97.656250
5636,-97.656250
5637,-97.656250
5638,-97.656250
5639,-97.656250
5640,-97.656250
5641,-101.562500
5642,-101.562500
5643,-101.562500
5644,-101.562500
5645,-101.562500
5646,-101.562500
5647,-101.562500
5648,-101.562500
5649,-101.562500
5650,-105.468750
5651,-105.468750
5652,-105.468750
5653,-105.468750
5654,-105.468750
5655,-105.468750
5656,-109.375000
5657,-109.375000
5658,-109.375000
5659,-109.375000
5660,-109.375000
5661,-109.375000
5662,-113.281250
5663,-109.375000
5664,-113.281250
5665,-113.281250
5666,-113.281250
5667,-113.281250
5668,-113.281250
5669,-113.281250
5670,-113.281250
5671,-113.281250
5672,-117.187500
5673,-117.187500
5674,-117.187500
5675,-117.187500
5676,-117.187500
5677,-117.187500
5678,-117.187500
5679,-117.187500
5680,-117.187500
5681,-121.093750
5682,-121.093750
5683,-121.093750
5684,-121.093750
5685,-121.093750
5686,-121.093750
5687,-121.093750
5688,-121.093750
5689,-121.093750
5690,-121.093750
5691,-121.093750
5692,-125.000000
5693,-125.000000
5694,-125.000000
5695,-125.000000
5696,-125.000000
5697,-125.000000
5698,-125.000000
5699,-125.000000
5700,-125.000000
5701,-125.000000
5702,-125.000000
5703,-125.000000
5704,-125.000000
5705,-125.000000
5706,-128.906250
5707,-128.906250
5708,-128.906250
5709,-128.906250
5710,-128.906250
5711,-128.906250
5712,-128.906250
5713,-128.906250
5714,-128.906250
5715,-128.906250
5716,-128.906250
5717,-128.906250
5718,-128.906250
5719,-128.906250
5720,-132.812500
5721,-132.812500
5722,-132.812500
5723,-132.812500
5724,-132.812500
5725,-132.812500
5726,-132.812500
5727,-132.812500
5728,-132.812500
5729,-132.812500
5730,-132.812500
5731,-132.812500
5732,-132.812500
5733,-132.812500
5734,-132.812500
5735,-132.812500
5736,-132.812500
5737,-132.812500
5738,-132.812500
5739,-132.812500
5740,-132.812500
5741,-132.812500
5742,-132.812500
5743,-136.718750
5744,-136.718750
5745,-136.718750
5746,-136.718750
5747,-136.718750
5748,-136.718750
5749,-136.718750
5750,-136.718750
5751,-136.718750
5752,-136.718750
5753,-136.718750
5754,-136.718750
5755,-136.718750
5756,-136.718750
5757,-136.718750
5758,-136.718750
5759,-136.718750
5760,-136.718750
5761,-136.718750
5762,-136.718750
5763,-136.718750
5764,-136.718750
5765,-136.718750
5766,-136.718750
5767,-136.718750
5768,-136.718750
5769,-136.718750
5770,-136.718750
5771,-136.718750
5772,-136.718750
5773,-136.718750
5774,-136.718750
5775,-136.718750
5776,-136.718750
5777,-136.718750
5778,-132.812500
5779,-132.812500
5780,-132.812500
5781,-132.812500
5782,-136.718750
5783,-136.718750
5784,-132.812500
5785,-132.812500
5786,-132.812500
5787,-132.812500
5788,-132.812500
5789,-132.812500
5790,-132.812500
5791,-132.812500
5792,-132.812500
5793,-132.812500
5794,-132.812500
5795,-132.812500
5796,-132.812500
5797,-132.812500
5798,-132.812500
5799,-132.812500
5800,-132.812500
5801,-132.812500
5802,-132.812500
5803,-128.906250
5804,-128.906250
5805,-128.906250
5806,-128.906250
5807,-132.812500
5808,-128.906250
5809,-128.906250
5810,-128.906250
5811,-128.906250
5812,-128.906250
5813,-128.906250
5814,-128.906250
5815,-128.906250
5816,-125.000000
5817,-128.906250
5818,-125.000000
5819,-128.906250
5820,-125.000000
5821,-125.000000
5822,-125.000000
5823,-125.000000
5824,-125.000000
5825,-125.000000
5826,-125.000000
5827,-125.000000
5828,-125.000000
5829,-125.000000
5830,-121.093750
5831,-121.093750
5832,-121.093750
5833,-121.093750
5834,-121.093750
5835,-121.093750
5836,-121.093750
5837,-121.093750
5838,-121.093750
5839,-117.187500
5840,-117.187500
5841,-117.187500
5842,-117.187500
5843,-117.187500
5844,-117.187500
5845,-117.187500
5846,-117.187500
5847,-117.187500
5848,-117.187500
5849,-113.281250
5850,-113.281250
5851,-113.281250
5852,-113.281250
5853,-113.281250
5854,-113.281250
5855,-113.281250
5856,-113.281250
5857,-113.281250
5858,-109.375000
5859,-109.375000
5860,-109.375000
5861,-109.375000
5862,-109.375000
5863,-109.375000
5864,-109.375000
5865,-109.375000
5866,-105.468750
5867,-105.468750
5868,-105.468750
5869,-105.468750
5870,-105.468750
5871,-105.468750
5872,-105.468750
5873,-105.468750
5874,-101.562500
5875,-101.562500
5876,-101.562500
5877,-101.562500
5878,-101.562500
5879,-101.562500
5880,-101.562500
5881,-101.562500
5882,-97.656250
5883,-97.656250
5884,-97.656250
5885,-97.656250
5886,-97.656250
5887,-97.656250
5888,-97.656250
5889,-93.750000
5890,-93.750000
5891,-93.750000
5892,-93.750000
5893,-93.750000
5894,-89.843750
5895,-89.843750
5896,-89.843750
5897,-89.843750
5898,-89.843750
5899,-89.843750
5900,-89.843750
5901,-85.937500
5902,-85.937500
5903,-85.937500
5904,-85.937500
5905,-85.937500
5906,-82.031250
5907,-82.031250
5908,-82.031250
5909,-82.031250
5910,-82.031250
5911,-82.031250
5912,-82.031250
5913,-78.125000
5914,-78.125000
5915,-78.125000
5916,-78.125000
5917,-78.125000
5918,-74.218750
5919,-74.218750
5920,-74.218750
5921,-74.218750
5922,-74.218750
5923,-74.218750
5924,-74.218750
5925,-70.312500
5926,-70.312500
5927,-70.312500
5928,-70.312500
5929,-66.406250
5930,-66.406250
5931,-66.406250
5932,-66.406250
5933,-66.406250
5934,-66.406250
5935,-62.500000
5936,-62.500000
5937,-62.500000
5938,-62.500000
5939,-62.500000
5940,-58.593750
5941,-62.500000
5942,-58.593750
5943,-58.593750
5944,-58.593750
5945,-58.593750
5946,-54.687500
5947,-54.687500
5948,-54.687500
5949,-54.687500
5950,-54.687500
5951,-50.781250
5952,-50.781250
5953,-50.781250
5954,-50.781250
5955,-50.781250
5956,-46.875000
5957,-46.875000
5958,-46.875000
5959,-46.875000
5960,-46.875000
5961,-46.875000
5962,-46.875000
5963,-42.968750
5964,-42.968750
5965,-42.968750
5966,-42.968750
5967,-42.968750
5968,-39.062500
5969,-39.062500
5970,-39.062500
5971,-39.062500
5972,-39.062500
5973,-35.156250
5974,-35.156250
5975,-35.156250
5976,-35.156250
5977,-31.250000
5978,-31.250000
5979,-31.250000
5980,-31.250000
5981,-31.250000
5982,-27.343750
5983,-27.343750
5984,-27.343750
5985,-27.343750
5986,-27.343750
5987,-27.343750
5988,-23.437500
5989,-23.437500
5990,-23.437500
5991,-23.437500
5992,-19.531250
5993,-19.531250
5994,-19.531250
5995,-19.531250
5996,-19.531250
5997,-19.531250
5998,-19.531250
5999,-15.625000
6000,-15.625000
6001,-15.625000
6002,-15.625000
6003,-15.625000
6004,-11.718750
6005,-11.718750
6006,-11.718750
6007,-11.718750
6008,-11.718750
6009,-11.718750
6010,-7.812500
6011,-7.812500
6012,-7.812500
6013,-7.812500
6014,-7.812500
6015,-3.906250
6016,-3.906250
6017,-3.906250
6018,-3.906250
6019,-3.906250
6020,0.000000
6021,0.000000
6022,0.000000
6023,0.000000
6024,0.000000
6025,3.906250
6026,3.906250
6027,3.906250
6028,3.906250
6029,3.906250
6030,3.906250
6031,3.906250
6032,7.812500
6033,7.812500
6034,7.812500
6035,7.812500
6036,11.718750
6037,11.718750
6038,11.718750
6039,11.718750
6040,11.718750
6041,11.718750
6042,15.625000
6043,15.625000
6044,15.625000
6045,15.625000
6046,15.625000
6047,19.531250
6048,19.531250
6049,19.531250
6050,19.531250
6051,19.531250
6052,19.531250
6053,23.437500
6054,23.437500
6055,23.437500
6056,23.437500
6057,23.437500
6058,23.437500
6059,27.343750
6060,27.343750
6061,27.343750
6062,27.343750
6063,27.343750
6064,31.250000
6065,31.250000
6066,31.250000
6067,31.250000
6068,31.250000
6069,31.250000
6070,35.156250
6071,35.156250
6072,35.156250
6073,35.156250
6074,35.156250
6075,35.156250
6076,39.062500
6077,39.062500
6078,39.062500
6079,39.062500
6080,39.062500
6081,39.062500
6082,42.968750
6083,42.968750
6084,42.968750
6085,42.968750
6086,42.968750
6087,42.968750
6088,42.968750
6089,46.875000
6090,46.875000
6091,46.875000
6092,46.875000
6093,46.875000
6094,46.875000
6095,46.875000
6096,50.781250
6097,50.781250
6098,50.781250
6099,50.781250
6100,50.781250
6101,50.781250
6102,54.687500
6103,54.687500
6104,54.687500
6105,54.687500
6106,54.687500
6107,54.687500
6108,54.687500
6109,54.687500
6110,54.687500
6111,58.593750
6112,58.593750
6113,58.593750
6114,58.593750
6115,58.593750
6116,58.593750
6117,62.500000
6118,62.500000
6119,62.500000
6120,62.500000
6121,62.500000
6122,62.500000
6123,62.500000
6124,66.406250
6125,66.406250
6126,66.406250
6127,66.406250
6128,66.406250
6129,66.406250
6130,66.406250
6131,66.406250
6132,66.406250
6133,70.312500
6134,70.312500
6135,70.312500
6136,70.312500
6137,70.312500
6138,70.312500
6139,70.312500
6140,70.312500
6141,70.312500
6142,74.218750
6143,74.218750
6144,74.218750
6145,74.218750
6146,74.218750
6147,74.218750
6148,74.218750
6149,74.218750
6150,74.218750
6151,74.218750
6152,78.125000
6153,78.125000
6154,78.125000
6155,78.125000
6156,78.125000
6157,78.125000
6158,78.125000
6159,78.125000
6160,78.125000
6161,78.125000
6162,78.125000
6163,82.031250
6164,82.031250
6165,82.031250
6166,82.031250
6167,82.031250
6168,82.031250
6169,82.031250
6170,82.031250
6171,82.031250
6172,82.031250
6173,82.031250
6174,85.937500
6175,85.937500
6176,85.937500
6177,85.937500
6178,85.937500
6179,85.937500
6180,85.937500
6181,85.937500
6182,85.937500
6183,85.937500
6184,85.937500
6185,89.843750
6186,85.937500
6187,89.843750
6188,89.843750
6189,89.843750
6190,89.843750
6191,89.843750
6192,89.843750
6193,89.843750
6194,89.843750
6195,89.843750
6196,89.843750
6197,89.843750
6198,89.843750
6199,89.843750
6200,89.843750
6201,89.843750
6202,89.843750
6203,93.750000
6204,93.750000
6205,93.750000
6206,93.750000
6207,89.843750
6208,93.750000
6209,93.750000
6210,93.750000
6211,93.750000
6212,93.750000
6213,93.750000
6214,93.750000
6215,93.750000
6216,93.750000
6217,93.750000
6218,93.750000
6219,93.750000
6220,97.656250
6221,93.750000
6222,93.750000
6223,93.750000
6224,97.656250
6225,97.656250
6226,97.656250
6227,97.656250
6228,97.656250
6229,97.656250
6230,97.656250
6231,97.656250
6232,97.656250
6233,93.750000
6234,97.656250
6235,97.656250
6236,97.656250
6237,97.656250
6238,97.656250
6239,97.656250
6240,97.656250
6241,97.656250
6242,97.656250
6243,97.656250
6244,97.656250
6245,97.656250
6246,97.656250
6247,97.656250
6248,97.656250
6249,97.656250
6250,97.656250
6251,97.656250
6252,97.656250
6253,97.656250
6254,97.656250
6255,97.656250
6256,101.562500
6257,97.656250
6258,97.656250
6259,97.656250
6260,97.656250
6261,97.656250
6262,97.656250
6263,97.656250
6264,97.656250
6265,101.562500
6266,97.656250
6267,97.656250
6268,93.750000
6269,97.656250
6270,97.656250
6271,97.656250
6272,97.656250
6273,97.656250
6274,97.656250
6275,97.656250
6276,97.656250
6277,97.656250
6278,97.656250
6279,97.656250
6280,97.656250
6281,97.656250
6282,97.656250
6283,97.656250
6284,97.656250
6285,97.656250
6286,93.750000
6287,93.750000
6288,93.750000
6289,93.750000
6290,93.750000
6291,97.656250
6292,93.750000
6293,93.750000
6294,93.750000
6295,93.750000
6296,93.750000
6297,93.750000
6298,93.750000
6299,93.750000
6300,97.656250
6301,93.750000
6302,93.750000
6303,93.750000
6304,93.750000
6305,93.750000
6306,93.750000
6307,93.750000
6308,89.843750
6309,93.750000
6310,93.750000
6311,93.750000
6312,89.843750
6313,89.843750
6314,89.843750
6315,89.843750
6316,89.843750
6317,89.843750
6318,89.843750
6319,89.843750
6320,89.843750
6321,89.843750
6322,89.843750
6323,89.843750
6324,89.843750
6325,89.843750
6326,89.843750
6327,85.937500
6328,89.843750
6329,89.843750
6330,89.843750
6331,85.937500
6332,85.937500
6333,85.937500
6334,85.937500
6335,85.937500
6336,85.937500
6337,85.937500
6338,85.937500
6339,85.937500
6340,85.937500
6341,85.937500
6342,82.031250
6343,82.031250
6344,82.031250
6345,82.031250
6346,82.031250
6347,82.031250
6348,82.031250
6349,82.031250
6350,82.031250
6351,82.031250
6352,82.031250
6353,82.031250
6354,78.125000
6355,78.125000
6356,78.125000
6357,78.125000
6358,78.125000
6359,78.125000
6360,78.125000
6361,78.125000
6362,78.125000
6363,74.218750
6364,74.218750
6365,74.218750
6366,74.218750
6367,74.218750
6368,74.218750
6369,74.218750
6370,74.218750
6371,74.218750
6372,70.312500
6373,74.218750
6374,70.312500
6375,70.312500
6376,70.312500
6377,70.312500
6378,70.312500
6379,70.312500
6380,70.312500
6381,70.312500
6382,66.406250
6383,66.406250
6384,66.406250
6385,66.406250
6386,66.406250
6387,66.406250
6388,66.406250
6389,66.406250
6390,62.500000
6391,62.500000
6392,62.500000
6393,62.500000
6394,62.500000
6395,62.500000
6396,58.593750
6397,58.593750
6398,58.593750
6399,58.593750
6400,58.593750
6401,58.593750
6402,58.593750
6403,58.593750
6404,58.593750
6405,54.687500
6406,54.687500
6407,54.687500
6408,54.687500
6409,54.687500
6410,54.687500
6411,50.781250
6412,50.781250
6413,50.781250
6414,50.781250
6415,50.781250
6416,50.781250
6417,50.781250
6418,50.781250
6419,46.875000
6420,46.875000
6421,46.875000
6422,46.875000
6423,46.875000
6424,46.875000
6425,46.875000
6426,42.968750
6427,42.968750
6428,42.968750
6429,42.968750
6430,42.968750
6431,39.062500
6432,39.062500
6433,39.062500
6434,39.062500
6435,39.062500
6436,35.156250
6437,39.062500
6438,35.156250
6439,35.156250
6440,35.156250
6441,35.156250
6442,35.156250
6443,35.156250
6444,31.250000
6445,31.250000
6446,31.250000
6447,31.250000
6448,31.250000
6449,31.250000
6450,27.343750
6451,27.343750
6452,27.343750
6453,27.343750
6454,27.343750
6455,23.437500
6456,23.437500
6457,23.437500
6458,23.437500
6459,23.437500
6460,23.437500
6461,19.531250
6462,19.531250
6463,19.531250
6464,19.531250
6465,19.531250
6466,15.625000
6467,15.625000
6468,15.625000
6469,15.625000
6470,15.625000
6471,15.625000
6472,11.718750
6473,11.718750
6474,11.718750
6475,11.718750
6476,11.718750
6477,11.718750
6478,11.718750
6479,7.812500
6480,7.812500
6481,7.812500
6482,7.812500
6483,3.906250
6484,3.906250
6485,3.906250
6486,3.906250
6487,3.906250
6488,3.906250
6489,0.000000
6490,0.000000
6491,0.000000
6492,0.000000
6493,-3.906250
6494,-3.906250
6495,-3.906250
6496,-3.906250
6497,-3.906250
6498,-3.906250
6499,-7.812500
6500,-7.812500
6501,-7.812500
6502,-7.812500
6503,-7.812500
6504,-11.718750
6505,-11.718750
6506,-11.718750
6507,-11.718750
6508,-11.718750
6509,-15.625000
6510,-15.625000
6511,-15.625000
6512,-15.625000
6513,-15.625000
6514,-19.531250
6515,-19.531250
6516,-19.531250
6517,-19.531250
6518,-19.531250
6519,-23.437500
6520,-23.437500
6521,-23.437500
6522,-23.437500
6523,-23.437500
6524,-23.437500
6525,-27.343750
6526,-27.343750
6527,-27.343750
6528,-27.343750
6529,-31.250000
6530,-31.250000
6531,-31.250000
6532,-31.250000
6533,-31.250000
6534,-31.250000
6535,-35.156250
6536,-35.156250
6537,-35.156250
6538,-35.156250
6539,-35.156250
6540,-39.062500
6541,-39.062500
6542,-39.062500
6543,-39.062500
6544,-42.968750
6545,-42.968750
6546,-42.968750
6547,-42.968750
6548,-42.968750
6549,-42.968750
6550,-42.968750
6551,-42.968750
6552,-46.875000
6553,-46.875000
6554,-46.875000
6555,-46.875000
6556,-50.781250
6557,-50.781250
6558,-50.781250
6559,-50.781250
6560,-54.687500
6561,-50.781250
6562,-54.687500
6563,-54.687500
6564,-54.687500
6565,-54.687500
6566,-58.593750
6567,-54.687500
6568,-58.593750
6569,-58.593750
6570,-58.593750
6571,-62.500000
6572,-62.500000
6573,-62.500000
6574,-62.500000
6575,-62.500000
6576,-62.500000
6577,-66.406250
6578,-66.406250
6579,-66.406250
6580,-66.406250
6581,-66.406250
6582,-70.312500
6583,-70.312500
6584,-70.312500
6585,-70.312500
6586,-74.218750
6587,-70.312500
6588,-74.218750
6589,-74.218750
6590,-74.218750
6591,-74.218750
6592,-74.218750
6593,-78.125000
6594,-78.125000
6595,-78.125000
6596,-78.125000
6597,-78.125000
6598,-78.125000
6599,-82.031250
6600,-82.031250
6601,-82.031250
6602,-82.031250
6603,-82.031250
6604,-85.937500
6605,-85.937500
6606,-82.031250
6607,-85.937500
6608,-85.937500
6609,-85.937500
6610,-89.843750
6611,-89.843750
6612,-89.843750
6613,-89.843750
6614,-89.843750
6615,-89.843750
6616,-89.843750
6617,-89.843750
6618,-93.750000
6619,-93.750000
6620,-93.750000
6621,-93.750000
6622,-93.750000
6623,-93.750000
6624,-93.750000
6625,-97.656250
6626,-97.656250
6627,-97.656250
6628,-97.656250
6629,-97.656250
6630,-101.562500
6631,-101.562500
6632,-101.562500
6633,-101.562500
6634,-101.562500
6635,-101.562500
6636,-101.562500
6637,-101.562500
6638,-105.468750
6639,-105.468750
6640,-105.468750
6641,-101.562500
6642,-109.375000
6643,-105.468750
6644,-109.375000
6645,-109.375000
6646,-109.375000
6647,-109.375000
6648,-109.375000
6649,-109.375000
6650,-109.375000
6651,-109.375000
6652,-113.281250
6653,-113.281250
6654,-113.281250
6655,-113.281250
6656,-113.281250
6657,-113.281250
6658,-113.281250
6659,-113.281250
6660,-117.187500
6661,-117.187500
6662,-117.187500
6663,-117.187500
6664,-117.187500
6665,-117.187500
6666,-117.187500
6667,-117.187500
6668,-121.093750
6669,-121.093750
6670,-121.093750
6671,-121.093750
6672,-121.093750
6673,-121.093750
6674,-121.093750
6675,-121.093750
6676,-125.000000
6677,-125.000000
6678,-125.000000
6679,-125.000000
6680,-125.000000
6681,-125.000000
6682,-125.000000
6683,-125.000000
6684,-125.000000
6685,-125.000000
6686,-125.000000
6687,-125.000000
6688,-128.906250
6689,-125.000000
6690,-125.000000
6691,-128.906250
6692,-128.906250
6693,-128.906250
6694,-128.906250
6695,-128.906250
6696,-128.906250
6697,-128.906250
6698,-128.906250
6699,-128.906250
6700,-128.906250
6701,-128.906250
6702,-132.812500
6703,-132.812500
6704,-132.812500
6705,-132.812500
6706,-132.812500
6707,-132.812500
6708,-132.812500
6709,-132.812500
6710,-132.812500
6711,-132.812500
6712,-132.812500
6713,-132.812500
6714,-132.812500
6715,-132.812500
6716,-132.812500
6717,-132.812500
6718,-132.812500
6719,-132.812500
6720,-132.812500
6721,-132.812500
6722,-132.812500
6723,-132.812500
6724,-132.812500
6725,-132.812500
6726,-136.718750
6727,-132.812500
6728,-132.812500
6729,-136.718750
6730,-136.718750
6731,-132.812500
6732,-136.718750
6733,-136.718750
6734,-136.718750
6735,-136.718750
6736,-136.718750
6737,-136.718750
6738,-136.718750
6739,-136.718750
6740,-136.718750
6741,-136.718750
6742,-136.718750
6743,-136.718750
6744,-136.718750
6745,-136.718750
6746,-136.718750
6747,-132.812500
6748,-136.718750
6749,-136.718750
6750,-136.718750
6751,-136.718750
6752,-136.718750
6753,-136.718750
6754,-136.718750
6755,-136.718750
6756,-136.718750
6757,-136.718750
6758,-136.718750
6759,-136.718750
6760,-136.718750
6761,-136.718750
6762,-136.718750
6763,-136.718750
6764,-136.718750
6765,-136.718750
6766,-136.718750
6767,-136.718750
6768,-132.812500
6769,-136.718750
6770,-136.718750
6771,-132.812500
6772,-132.812500
6773,-132.812500
6774,-132.812500
6775,-132.812500
6776,-132.812500
6777,-132.812500
6778,-132.812500
6779,-132.812500
6780,-132.812500
6781,-132.812500
6782,-132.812500
6783,-132.812500
6784,-132.812500
6785,-132.812500
6786,-132.812500
6787,-132.812500
6788,-132.812500
6789,-132.812500
6790,-132.812500
6791,-128.906250
6792,-132.812500
6793,-128.906250
6794,-128.906250
6795,-128.906250
6796,-128.906250
6797,-128.906250
6798,-128.906250
6799,-128.906250
6800,-128.906250
6801,-128.906250
6802,-128.906250
6803,-128.906250
6804,-128.906250
6805,-128.906250
6806,-128.906250
6807,-125.000000
6808,-125.000000
6809,-125.000000
6810,-125.000000
6811,-125.000000
6812,-125.000000
6813,-125.000000
6814,-125.000000
6815,-125.000000
6816,-125.000000
6817,-125.000000
6818,-125.000000
6819,-125.000000
6820,-121.093750
6821,-121.093750
6822,-121.093750
6823,-121.093750
6824,-121.093750
6825,-121.093750
6826,-121.093750
6827,-121.093750
6828,-121.093750
6829,-117.187500
6830,-117.187500
6831,-117.187500
6832,-117.187500
6833,-117.187500
6834,-117.187500
6835,-117.187500
6836,-117.187500
6837,-117.187500
6838,-117.187500
6839,-113.281250
6840,-113.281250
6841,-113.281250
6842,-113.281250
6843,-113.281250
6844,-113.281250
6845,-113.281250
6846,-109.375000
6847,-109.375000
6848,-109.375000
6849,-109.375000
6850,-109.375000
6851,-109.375000
6852,-109.375000
6853,-109.375000
6854,-109.375000
6855,-105.468750
6856,-105.468750
6857,-105.468750
6858,-105.468750
6859,-105.468750
6860,-105.468750
6861,-101.562500
6862,-101.562500
6863,-101.562500
6864,-101.562500
6865,-101.562500
6866,-101.562500
6867,-97.656250
6868,-101.562500
6869,-97.656250
6870,-97.656250
6871,-97.656250
6872,-97.656250
6873,-97.656250
6874,-97.656250
6875,-97.656250
6876,-93.750000
6877,-93.750000
6878,-93.750000
6879,-93.750000
6880,-93.750000
6881,-93.750000
6882,-89.843750
6883,-89.843750
6884,-89.843750
6885,-89.843750
6886,-89.843750
6887,-89.843750
6888,-85.937500
6889,-85.937500
6890,-85.937500
6891,-85.937500
6892,-85.937500
6893,-82.031250
6894,-82.031250
6895,-82.031250
6896,-82.031250
6897,-82.031250
6898,-82.031250
6899,-82.031250
6900,-78.125000
6901,-78.125000
6902,-78.125000
6903,-78.125000
6904,-78.125000
6905,-78.125000
6906,-78.125000
6907,-74.218750
6908,-74.218750
6909,-74.218750
6910,-74.218750
6911,-74.218750
6912,-70.312500
6913,-70.312500
6914,-70.312500
6915,-70.312500
6916,-70.312500
6917,-70.312500
6918,-66.406250
6919,-66.406250
6920,-66.406250
6921,-66.406250
6922,-66.406250
6923,-66.406250
6924,-62.500000
6925,-62.500000
6926,-62.500000
6927,-62.500000
6928,-62.500000
6929,-58.593750
6930,-58.593750
6931,-58.593750
6932,-58.593750
6933,-58.593750
6934,-54.687500
6935,-54.687500
6936,-54.687500
6937,-54.687500
6938,-54.687500
6939,-54.687500
6940,-50.781250
6941,-50.781250
6942,-50.781250
6943,-50.781250
6944,-50.781250
6945,-46.875000
6946,-46.875000
6947,-46.875000
6948,-46.875000
6949,-46.875000
6950,-42.968750
6951,-42.968750
6952,-42.968750
6953,-42.968750
6954,-42.968750
6955,-42.968750
6956,-39.062500
6957,-39.062500
6958,-39.062500
6959,-39.062500
6960,-39.062500
6961,-35.156250
6962,-35.156250
6963,-35.156250
6964,-35.156250
6965,-35.156250
6966,-35.156250
6967,-31.250000
6968,-31.250000
6969,-31.250000
6970,-31.250000
6971,-27.343750
6972,-31.250000
6973,-27.343750
6974,-27.343750
6975,-27.343750
6976,-27.343750
6977,-23.437500
6978,-23.437500
6979,-23.437500
6980,-23.437500
6981,-19.531250
6982,-19.531250
6983,-19.531250
6984,-19.531250
6985,-19.531250
6986,-15.625000
6987,-15.625000
6988,-15.625000
6989,-15.625000
6990,-15.625000
6991,-15.625000
6992,-11.718750
6993,-11.718750
6994,-11.718750
6995,-11.718750
6996,-11.718750
6997,-7.812500
6998,-7.812500
6999,-7.812500
7000,-7.812500
7001,-7.812500
7002,-7.812500
7003,-3.906250
7004,-3.906250
7005,-3.906250
7006,-3.906250
7007,0.000000
7008,-3.906250
7009,0.000000
7010,0.000000
7011,0.000000
7012,0.000000
7013,3.906250
7014,3.906250
7015,3.906250
7016,3.906250
7017,3.906250
7018,3.906250
7019,7.812500
7020,7.812500
7021,7.812500
7022,7.812500
7023,7.812500
7024,11.718750
7025,11.718750
7026,11.718750
7027,11.718750
7028,11.718750
7029,11.718750
7030,15.625000
7031,15.625000
7032,15.625000
7033,15.625000
7034,15.625000
7035,15.625000
7036,19.531250
7037,19.531250
7038,19.531250
7039,19.531250
7040,19.531250
7041,23.437500
7042,23.437500
7043,23.437500
7044,23.437500
7045,23.437500
7046,23.437500
7047,27.343750
7048,27.343750
7049,27.343750
7050,27.343750
7051,27.343750
7052,31.250000
7053,31.250000
7054,31.250000
7055,31.250000
7056,31.250000
7057,31.250000
7058,31.250000
7059,35.156250
7060,35.156250
7061,35.156250
7062,35.156250
7063,35.156250
7064,35.156250
7065,39.062500
7066,39.062500
7067,39.062500
7068,39.062500
7069,39.062500
7070,39.062500
7071,39.062500
7072,42.968750
7073,42.968750
7074,42.968750
7075,42.968750
7076,46.875000
7077,42.968750
7078,42.968750
7079,46.875000
7080,46.875000
7081,46.875000
7082,46.875000
7083,46.875000
7084,46.875000
7085,50.781250
7086,50.781250
7087,50.781250
7088,50.781250
7089,50.781250
7090,50.781250
7091,54.687500
7092,54.687500
7093,54.687500
7094,54.687500
7095,54.687500
7096,54.687500
7097,54.687500
7098,54.687500
7099,58.593750
7100,58.593750
7101,58.593750
7102,58.593750
7103,58.593750
7104,58.593750
7105,62.500000
7106,62.500000
7107,62.500000
7108,62.500000
7109,62.500000
7110,62.500000
7111,62.500000
7112,62.500000
7113,62.500000
7114,62.500000
7115,66.406250
7116,66.406250
7117,66.406250
7118,66.406250
7119,66.406250
7120,66.406250
7121,70.312500
7122,70.312500
7123,70.312500
7124,70.312500
7125,70.312500
7126,70.312500
7127,70.312500
7128,70.312500
7129,70.312500
7130,74.218750
7131,74.218750
7132,74.218750
7133,74.218750
7134,74.218750
7135,74.218750
7136,74.218750
7137,74.218750
7138,74.218750
7139,74.218750
7140,74.218750
7141,78.125000
7142,78.125000
7143,78.125000
7144,78.125000
7145,78.125000
7146,78.125000
7147,78.125000
7148,78.125000
7149,82.031250
7150,78.125000
7151,82.031250
7152,82.031250
7153,82.031250
7154,82.031250
7155,82.031250
7156,82.031250
7157,82.031250
7158,82.031250
7159,82.031250
7160,85.937500
7161,85.937500
7162,85.937500
7163,85.937500
7164,85.937500
7165,85.937500
7166,85.937500
7167,85.937500
7168,85.937500
7169,85.937500
7170,85.937500
7171,85.937500
7172,85.937500
7173,85.937500
7174,85.937500
7175,89.843750
7176,89.843750
7177,89.843750
7178,89.843750
7179,89.843750
7180,89.843750
7181,89.843750
7182,89.843750
7183,89.843750
7184,89.843750
7185,89.843750
7186,89.843750
7187,89.843750
7188,89.843750
7189,89.843750
7190,89.843750
7191,89.843750
7192,93.750000
7193,89.843750
7194,93.750000
7195,93.750000
7196,93.750000
7197,93.750000
7198,93.750000
7199,93.750000
7200,93.750000
7201,93.750000
7202,93.750000
7203,93.750000
7204,93.750000
7205,93.750000
7206,93.750000
7207,93.750000
7208,93.750000
7209,93.750000
7210,93.750000
7211,97.656250
7212,93.750000
7213,93.750000
7214,93.750000
7215,93.750000
7216,93.750000
7217,93.750000
7218,97.656250
7219,97.656250
7220,97.656250
7221,97.656250
7222,97.656250
7223,97.656250
7224,97.656250
7225,97.656250
7226,97.656250
7227,97.656250
7228,97.656250
7229,97.656250
7230,97.656250
7231,97.656250
7232,97.656250
7233,97.656250
7234,97.656250
7235,97.656250
7236,97.656250
7237,97.656250
7238,97.656250
7239,97.656250
7240,97.656250
7241,97.656250
7242,97.656250
7243,97.656250
7244,97.656250
7245,97.656250
7246,97.656250
7247,97.656250
7248,97.656250
7249,97.656250
7250,97.656250
7251,97.656250
7252,97.656250
7253,97.656250
7254,97.656250
7255,97.656250
7256,97.656250
7257,97.656250
7258,97.656250
7259,97.656250
7260,97.656250
7261,97.656250
7262,97.656250
7263,97.656250
7264,97.656250
7265,97.656250
7266,97.656250
7267,97.656250
7268,97.656250
7269,97.656250
7270,97.656250
7271,97.656250
7272,97.656250
7273,97.656250
7274,97.656250
7275,97.656250
7276,93.750000
7277,97.656250
7278,97.656250
7279,97.656250
7280,97.656250
7281,97.656250
7282,93.750000
7283,97.656250
7284,93.750000
7285,97.656250
7286,93.750000
7287,93.750000
7288,93.750000
7289,93.750000
7290,93.750000
7291,93.750000
7292,93.750000
7293,93.750000
7294,93.750000
7295,93.750000
7296,93.750000
7297,93.750000
7298,93.750000
7299,93.750000
7300,93.750000
7301,93.750000
7302,89.843750
7303,89.843750
7304,89.843750
7305,89.843750
7306,89.843750
7307,89.843750
7308,89.843750
7309,89.843750
7310,89.843750
7311,89.843750
7312,89.843750
7313,89.843750
7314,89.843750
7315,89.843750
7316,89.843750
7317,89.843750
7318,89.843750
7319,89.843750
7320,85.937500
7321,85.937500
7322,85.937500
7323,85.937500
7324,85.937500
7325,85.937500
7326,85.937500
7327,85.937500
7328,85.937500
7329,85.937500
7330,82.031250
7331,82.031250
7332,82.031250
7333,82.031250
7334,82.031250
7335,82.031250
7336,82.031250
7337,82.031250
7338,82.031250
7339,82.031250
7340,82.031250
7341,82.031250
7342,78.125000
7343,78.125000
7344,78.125000
7345,78.125000
7346,78.125000
7347,78.125000
7348,78.125000
7349,78.125000
7350,78.125000
7351,78.125000
7352,78.125000
7353,74.218750
7354,74.218750
7355,74.218750
7356,74.218750
7357,74.218750
7358,74.218750
7359,74.218750
7360,74.218750
7361,74.218750
7362,70.312500
7363,70.312500
7364,70.312500
7365,70.312500
7366,70.312500
7367,70.312500
7368,70.312500
7369,70.312500
7370,66.406250
7371,66.406250
7372,66.406250
7373,66.406250
7374,66.406250
7375,66.406250
7376,66.406250
7377,66.406250
7378,66.406250
7379,62.500000
7380,62.500000
7381,62.500000
7382,62.500000
7383,62.500000
7384,62.500000
7385,62.500000
7386,62.500000
7387,62.500000
7388,58.593750
7389,58.593750
7390,58.593750
7391,58.593750
7392,58.593750
7393,58.593750
7394,54.687500
7395,54.687500
7396,54.687500
7397,54.687500
7398,54.687500
7399,54.687500
7400,54.687500
7401,54.687500
7402,50.781250
7403,50.781250
7404,50.781250
7405,50.781250
7406,50.781250
7407,50.781250
7408,46.875000
7409,46.875000
7410,46.875000
7411,46.875000
7412,46.875000
7413,46.875000
7414,42.968750
7415,42.968750
7416,42.968750
7417,42.968750
7418,42.968750
7419,42.968750
7420,39.062500
7421,39.062500
7422,39.062500
7423,39.062500
7424,39.062500
7425,39.062500
7426,35.156250
7427,35.156250
7428,35.156250
7429,35.156250
7430,35.156250
7431,35.156250
7432,31.250000
7433,31.250000
7434,31.250000
7435,31.250000
7436,31.250000
7437,31.250000
7438,27.343750
7439,27.343750
7440,27.343750
7441,27.343750
7442,27.343750
7443,23.437500
7444,23.437500
7445,23.437500
7446,23.437500
7447,23.437500
7448,23.437500
7449,23.437500
7450,19.531250
7451,19.531250
7452,19.531250
7453,15.625000
7454,19.531250
7455,15.625000
7456,15.625000
7457,15.625000
7458,15.625000
7459,15.625000
7460,11.718750
7461,11.718750
7462,11.718750
7463,11.718750
7464,11.718750
7465,11.718750
7466,7.812500
7467,7.812500
7468,7.812500
7469,7.812500
7470,3.906250
7471,3.906250
7472,3.906250
7473,3.906250
7474,3.906250
7475,3.906250
7476,3.906250
7477,0.000000
7478,0.000000
7479,0.000000
7480,0.000000
7481,0.000000
7482,-3.906250
7483,-3.906250
7484,-3.906250
7485,-3.906250
7486,-3.906250
7487,-7.812500
7488,-7.812500
7489,-7.812500
7490,-7.812500
7491,-7.812500
7492,-11.718750
7493,-11.718750
7494,-11.718750
7495,-11.718750
7496,-11.718750
7497,-15.625000
7498,-15.625000
7499,-15.625000
7500,-15.625000
7501,-15.625000
7502,-19.531250
7503,-19.531250
7504,-19.531250
7505,-19.531250
7506,-19.531250
7507,-19.531250
7508,-23.437500
7509,-23.437500
7510,-23.437500
7511,-23.437500
7512,-23.437500
7513,-27.343750
7514,-27.343750
7515,-27.343750
7516,-27.343750
7517,-27.343750
7518,-31.250000
7519,-31.250000
7520,-31.250000
7521,-31.250000
7522,-31.250000
7523,-35.156250
7524,-35.156250
7525,-35.156250
7526,-35.156250
7527,-35.156250
7528,-39.062500
7529,-39.062500
7530,-39.062500
7531,-39.062500
7532,-39.062500
7533,-42.968750
7534,-42.968750
7535,-42.968750
7536,-42.968750
7537,-42.968750
7538,-46.875000
7539,-46.875000
7540,-46.875000
7541,-46.875000
7542,-46.875000
7543,-46.875000
7544,-50.781250
7545,-50.781250
7546,-50.781250
7547,-50.781250
7548,-54.687500
7549,-54.687500
7550,-54.687500
7551,-54.687500
7552,-54.687500
7553,-54.687500
7554,-58.593750
7555,-58.593750
7556,-58.593750
7557,-58.593750
7558,-62.500000
7559,-62.500000
7560,-62.500000
7561,-62.500000
7562,-62.500000
7563,-62.500000
7564,-62.500000
7565,-62.500000
7566,-66.406250
7567,-66.406250
7568,-66.406250
7569,-66.406250
7570,-66.406250
7571,-70.312500
7572,-70.312500
7573,-70.312500
7574,-70.312500
7575,-70.312500
7576,-74.218750
7577,-74.218750
7578,-74.218750
7579,-74.218750
7580,-74.218750
7581,-74.218750
7582,-78.125000
7583,-78.125000
7584,-78.125000
7585,-78.125000
7586,-78.125000
7587,-78.125000
7588,-82.031250
7589,-82.031250
7590,-82.031250
7591,-82.031250
7592,-82.031250
7593,-85.937500
7594,-85.937500
7595,-85.937500
7596,-85.937500
7597,-85.937500
7598,-85.937500
7599,-85.937500
7600,-89.843750
7601,-89.843750
7602,-89.843750
7603,-89.843750
7604,-89.843750
7605,-89.843750
7606,-89.843750
7607,-93.750000
7608,-93.750000
7609,-93.750000
7610,-93.750000
7611,-93.750000
7612,-97.656250
7613,-97.656250
7614,-97.656250
7615,-97.656250
7616,-97.656250
7617,-97.656250
7618,-101.562500
7619,-101.562500
7620,-101.562500
7621,-101.562500
7622,-101.562500
7623,-101.562500
7624,-101.562500
7625,-101.562500
7626,-105.468750
7627,-105.468750
7628,-105.468750
7629,-105.468750
7630,-105.468750
7631,-105.468750
7632,-105.468750
7633,-109.375000
7634,-109.375000
7635,-109.375000
7636,-109.375000
7637,-109.375000
7638,-109.375000
7639,-109.375000
7640,-109.375000
7641,-109.375000
7642,-113.281250
7643,-113.281250
7644,-113.281250
7645,-113.281250
7646,-113.281250
7647,-113.281250
7648,-113.281250
7649,-113.281250
7650,-117.187500
7651,-117.187500
7652,-117.187500
7653,-117.187500
7654,-117.187500
7655,-117.187500
7656,-117.187500
7657,-117.187500
7658,-117.187500
7659,-121.093750
7660,-121.093750
7661,-121.093750
7662,-121.093750
7663,-121.093750
7664,-121.093750
7665,-121.093750
7666,-121.093750
7667,-121.093750
7668,-121.093750
7669,-125.000000
7670,-121.093750
7671,-125.000000
7672,-125.000000
7673,-125.000000
7674,-125.000000
7675,-125.000000
7676,-125.000000
7677,-125.000000
7678,-125.000000
7679,-125.000000
7680,-125.000000
7681,-128.906250
7682,-128.906250
7683,-128.906250
7684,-128.906250
7685,-128.906250
7686,-128.906250
7687,-128.906250
7688,-128.906250
7689,-128.906250
7690,-128.906250
7691,-128.906250
7692,-128.906250
7693,-132.812500
7694,-128.906250
7695,-132.812500
7696,-132.812500
7697,-132.812500
7698,-132.812500
7699,-132.812500
7700,-132.812500
7701,-132.812500
7702,-132.812500
7703,-132.812500
7704,-132.812500
7705,-132.812500
7706,-132.812500
7707,-132.812500
7708,-136.718750
7709,-132.812500
7710,-132.812500
7711,-132.812500
7712,-136.718750
7713,-136.718750
7714,-132.812500
7715,-136.718750
7716,-132.812500
7717,-136.718750
7718,-136.718750
7719,-136.718750
7720,-136.718750
7721,-136.718750
7722,-136.718750
7723,-136.718750
7724,-136.718750
7725,-136.718750
7726,-136.718750
7727,-136.718750
7728,-136.718750
7729,-136.718750
7730,-136.718750
7731,-136.718750
7732,-136.718750
7733,-136.718750
7734,-136.718750
7735,-136.718750
7736,-136.718750
7737,-136.718750
7738,-136.718750
7739,-136.718750
7740,-136.718750
7741,-136.718750
7742,-136.718750
7743,-136.718750
7744,-136.718750
7745,-136.718750
7746,-136.718750
7747,-136.718750
7748,-136.718750
7749,-136.718750
7750,-136.718750
7751,-136.718750
7752,-136.718750
7753,-136.718750
7754,-136.718750
7755,-136.718750
7756,-136.718750
7757,-132.812500
7758,-132.812500
7759,-132.812500
7760,-136.718750
7761,-136.718750
7762,-132.812500
7763,-132.812500
7764,-132.812500
7765,-132.812500
7766,-132.812500
7767,-132.812500
7768,-132.812500
7769,-132.812500
7770,-132.812500
7771,-132.812500
7772,-132.812500
7773,-132.812500
7774,-132.812500
7775,-132.812500
7776,-132.812500
7777,-132.812500
7778,-132.812500
7779,-128.906250
7780,-132.812500
7781,-132.812500
7782,-132.812500
7783,-128.906250
7784,-128.906250
7785,-128.906250
7786,-128.906250
7787,-128.906250
7788,-128.906250
7789,-128.906250
7790,-128.906250
7791,-128.906250
7792,-128.906250
7793,-125.000000
7794,-125.000000
7795,-125.000000
7796,-128.906250
7797,-125.000000
7798,-125.000000
7799,-125.000000
7800,-125.000000
7801,-125.000000
7802,-125.000000
7803,-125.000000
7804,-125.000000
7805,-125.000000
7806,-125.000000
7807,-125.000000
7808,-121.093750
7809,-125.000000
7810,-121.093750
7811,-121.093750
7812,-121.093750
7813,-121.093750
7814,-121.093750
7815,-121.093750
7816,-121.093750
7817,-117.187500
7818,-121.093750
7819,-117.187500
7820,-117.187500
7821,-117.187500
7822,-117.187500
7823,-117.187500
7824,-117.187500
7825,-117.187500
7826,-117.187500
7827,-113.281250
7828,-113.281250
7829,-113.281250
7830,-113.281250
7831,-113.281250
7832,-113.281250
7833,-113.281250
7834,-113.281250
7835,-113.281250
7836,-109.375000
7837,-109.375000
7838,-109.375000
7839,-109.375000
7840,-109.375000
7841,-109.375000
7842,-109.375000
7843,-109.375000
7844,-105.468750
7845,-105.468750
7846,-101.562500
7847,-105.468750
7848,-105.468750
7849,-101.562500
7850,-105.468750
7851,-101.562500
7852,-101.562500
7853,-101.562500
7854,-101.562500
7855,-101.562500
7856,-101.562500
7857,-101.562500
7858,-101.562500
7859,-97.656250
7860,-97.656250
7861,-97.656250
7862,-97.656250
7863,-97.656250
7864,-97.656250
7865,-93.750000
7866,-93.750000
7867,-93.750000
7868,-93.750000
7869,-93.750000
7870,-93.750000
7871,-89.843750
7872,-89.843750
7873,-89.843750
7874,-89.843750
7875,-89.843750
7876,-89.843750
7877,-85.937500
7878,-85.937500
7879,-85.937500
7880,-85.937500
7881,-85.937500
7882,-85.937500
7883,-85.937500
7884,-82.031250
7885,-82.031250
7886,-82.031250
7887,-82.031250
7888,-82.031250
7889,-82.031250
7890,-78.125000
7891,-78.125000
7892,-78.125000
7893,-78.125000
7894,-74.218750
7895,-78.125000
7896,-74.218750
7897,-74.218750
7898,-74.218750
7899,-74.218750
7900,-70.312500
7901,-70.312500
7902,-70.312500
7903,-70.312500
7904,-70.312500
7905,-70.312500
7906,-66.406250
7907,-66.406250
7908,-66.406250
7909,-66.406250
7910,-66.406250
7911,-66.406250
7912,-62.500000
7913,-62.500000
7914,-62.500000
7915,-62.500000
7916,-62.500000
7917,-62.500000
7918,-58.593750
7919,-58.593750
7920,-58.593750
7921,-58.593750
7922,-58.593750
7923,-54.687500
7924,-54.687500
7925,-54.687500
7926,-54.687500
7927,-54.687500
7928,-54.687500
7929,-50.781250
7930,-50.781250
7931,-50.781250
7932,-50.781250
7933,-46.875000
7934,-46.875000
7935,-46.875000
7936,-46.875000
7937,-46.875000
7938,-42.968750
7939,-42.968750
7940,-42.968750
7941,-42.968750
7942,-42.968750
7943,-42.968750
7944,-39.062500
7945,-42.968750
7946,-39.062500
7947,-39.062500
7948,-39.062500
7949,-35.156250
7950,-35.156250
7951,-35.156250
7952,-35.156250
7953,-35.156250
7954,-35.156250
7955,-31.250000
7956,-31.250000
7957,-31.250000
7958,-31.250000
7959,-31.250000
7960,-31.250000
7961,-27.343750
7962,-27.343750
7963,-27.343750
7964,-27.343750
7965,-23.437500
7966,-23.437500
7967,-23.437500
7968,-23.437500
7969,-23.437500
7970,-19.531250
7971,-19.531250
7972,-19.531250
7973,-19.531250
7974,-19.531250
7975,-15.625000
7976,-15.625000
7977,-15.625000
7978,-15.625000
7979,-15.625000
7980,-15.625000
7981,-11.718750
7982,-11.718750
7983,-11.718750
7984,-11.718750
7985,-11.718750
7986,-7.812500
7987,-7.812500
7988,-7.812500
7989,-7.812500
7990,-7.812500
7991,-3.906250
7992,-3.906250
7993,-3.906250
7994,-3.906250
7995,-3.906250
7996,0.000000
7997,0.000000
7998,0.000000
7999,0.000000
8000,0.000000
8001,3.906250
8002,3.906250
8003,3.906250
8004,3.906250
8005,3.906250
8006,3.906250
8007,7.812500
8008,7.812500
8009,7.812500
8010,7.812500
8011,7.812500
8012,7.812500
8013,11.718750
8014,11.718750
8015,11.718750
8016,11.718750
8017,11.718750
8018,15.625000
8019,15.625000
8020,15.625000
8021,15.625000
8022,15.625000
8023,19.531250
8024,19.531250
8025,19.531250
8026,19.531250
8027,19.531250
8028,19.531250
8029,23.437500
8030,23.437500
8031,23.437500
8032,23.437500
8033,23.437500
8034,23.437500
8035,27.343750
8036,27.343750
8037,27.343750
8038,27.343750
8039,27.343750
8040,27.343750
8041,27.343750
8042,31.250000
8043,31.250000
8044,31.250000
8045,31.250000
8046,31.250000
8047,35.156250
8048,35.156250
8049,35.156250
8050,35.156250
8051,35.156250
8052,39.062500
8053,39.062500
8054,39.062500
8055,39.062500
8056,39.062500
8057,39.062500
8058,39.062500
8059,42.968750
8060,42.968750
8061,42.968750
8062,42.968750
8063,42.968750
8064,42.968750
8065,46.875000
8066,46.875000
8067,46.875000
8068,46.875000
8069,46.875000
8070,46.875000
8071,46.875000
8072,50.781250
8073,50.781250
8074,46.875000
8075,50.781250
8076,50.781250
8077,50.781250
8078,50.781250
8079,50.781250
8080,54.687500
8081,54.687500
8082,54.687500
8083,54.687500
8084,54.687500
8085,54.687500
8086,58.593750
8087,58.593750
8088,58.593750
8089,58.593750
8090,58.593750
8091,58.593750
8092,58.593750
8093,58.593750
8094,58.593750
8095,62.500000
8096,62.500000
8097,62.500000
8098,62.500000
8099,62.500000
8100,62.500000
8101,62.500000
8102,66.406250
8103,66.406250
8104,66.406250
8105,66.406250
8106,66.406250
8107,66.406250
8108,66.406250
8109,70.312500
8110,70.312500
8111,70.312500
8112,66.406250
8113,70.312500
8114,70.312500
8115,70.312500
8116,70.312500
8117,70.312500
8118,70.312500
8119,70.312500
8120,74.218750
8121,74.218750
8122,74.218750
8123,74.218750
8124,74.218750
8125,74.218750
8126,74.218750
8127,74.218750
8128,74.218750
8129,78.125000
8130,78.125000
8131,78.125000
8132,78.125000
8133,78.125000
8134,78.125000
8135,78.125000
8136,78.125000
8137,78.125000
8138,82.031250
8139,82.031250
8140,82.031250
8141,78.125000
8142,82.031250
8143,82.031250
8144,78.125000
8145,85.937500
8146,82.031250
8147,82.031250
8148,85.937500
8149,82.031250
8150,82.031250
8151,85.937500
8152,85.937500
8153,85.937500
8154,85.937500
8155,85.937500
8156,85.937500
8157,85.937500
8158,85.937500
8159,85.937500
8160,85.937500
8161,85.937500
8162,89.843750
8163,89.843750
8164,89.843750
8165,89.843750
8166,89.843750
8167,89.843750
8168,89.843750
8169,89.843750
8170,89.843750
8171,89.843750
8172,89.843750
8173,89.843750
8174,89.843750
8175,89.843750
8176,89.843750
8177,89.843750
8178,89.843750
8179,93.750000
8180,93.750000
8181,93.750000
8182,93.750000
8183,93.750000
8184,93.750000
8185,93.750000
8186,93.750000
8187,93.750000
8188,93.750000
8189,93.750000
8190,93.750000
8191,93.750000
8192,93.750000
8193,93.750000
8194,93.750000
8195,93.750000
8196,93.750000
8197,93.750000
8198,93.750000
8199,93.750000
8200,93.750000
8201,97.656250
8202,93.750000
8203,97.656250
8204,97.656250
8205,97.656250
8206,97.656250
8207,97.656250
8208,97.656250
8209,97.656250
8210,97.656250
8211,97.656250
8212,97.656250
8213,93.750000
8214,97.656250
8215,97.656250
8216,97.656250
8217,97.656250
8218,97.656250
8219,97.656250
8220,97.656250
8221,97.656250
8222,97.656250
8223,97.656250
8224,97.656250
8225,97.656250
8226,97.656250
8227,97.656250
8228,97.656250
8229,97.656250
8230,97.656250
8231,97.656250
8232,97.656250
8233,97.656250
8234,97.656250
8235,97.656250
8236,97.656250
8237,97.656250
8238,97.656250
8239,97.656250
8240,97.656250
8241,97.656250
8242,97.656250
8243,97.656250
8244,97.656250
8245,97.656250
8246,97.656250
8247,97.656250
8248,97.656250
8249,97.656250
8250,97.656250
8251,97.656250
8252,97.656250
8253,97.656250
8254,97.656250
8255,97.656250
8256,97.656250
8257,97.656250
8258,97.656250
8259,97.656250
8260,97.656250
8261,97.656250
8262,97.656250
8263,97.656250
8264,97.656250
8265,97.656250
8266,97.656250
8267,97.656250
8268,97.656250
8269,93.750000
8270,93.750000
8271,97.656250
8272,93.750000
8273,93.750000
8274,93.750000
8275,93.750000
8276,93.750000
8277,93.750000
8278,93.750000
8279,93.750000
8280,93.750000
8281,93.750000
8282,93.750000
8283,93.750000
8284,93.750000
8285,93.750000
8286,93.750000
8287,93.750000
8288,93.750000
8289,93.750000
8290,93.750000
8291,89.843750
8292,89.843750
8293,89.843750
8294,89.843750
8295,89.843750
8296,89.843750
8297,89.843750
8298,89.843750
8299,89.843750
8300,89.843750
8301,89.843750
8302,89.843750
8303,89.843750
8304,89.843750
8305,89.843750
8306,89.843750
8307,85.937500
8308,85.937500
8309,85.937500
8310,85.937500
8311,85.937500
8312,85.937500
8313,85.937500
8314,85.937500
8315,85.937500
8316,85.937500
8317,85.937500
8318,85.937500
8319,85.937500
8320,85.937500
8321,82.031250
8322,82.031250
8323,82.031250
8324,82.031250
8325,82.031250
8326,82.031250
8327,82.031250
8328,82.031250
8329,82.031250
8330,82.031250
8331,82.031250
8332,78.125000
8333,78.125000
8334,78.125000
8335,78.125000
8336,78.125000
8337,78.125000
8338,78.125000
8339,78.125000
8340,74.218750
8341,78.125000
8342,74.218750
8343,74.218750
8344,74.218750
8345,74.218750
8346,74.218750
8347,74.218750
8348,74.218750
8349,70.312500
8350,70.312500
8351,70.312500
8352,70.312500
8353,70.312500
8354,70.312500
8355,70.312500
8356,70.312500
8357,70.312500
8358,66.406250
8359,66.406250
8360,66.406250
8361,66.406250
8362,66.406250
8363,66.406250
8364,66.406250
8365,66.406250
8366,66.406250
8367,62.500000
8368,62.500000
8369,62.500000
8370,62.500000
8371,62.500000
8372,62.500000
8373,62.500000
8374,58.593750
8375,58.593750
8376,58.593750
8377,58.593750
8378,58.593750
8379,58.593750
8380,58.593750
8381,58.593750
8382,54.687500
8383,54.687500
8384,54.687500
8385,54.687500
8386,54.687500
8387,54.687500
8388,54.687500
8389,50.781250
8390,50.781250
8391,50.781250
8392,50.781250
8393,50.781250
8394,50.781250
8395,50.781250
8396,46.875000
8397,46.875000
8398,46.875000
8399,46.875000
8400,46.875000
8401,46.875000
8402,46.875000
8403,42.968750
8404,42.968750
8405,42.968750
8406,42.968750
8407,42.968750
8408,42.968750
8409,39.062500
8410,39.062500
8411,39.062500
8412,39.062500
8413,39.062500
8414,39.062500
8415,35.156250
8416,35.156250
8417,35.156250
8418,35.156250
8419,35.156250
8420,35.156250
8421,35.156250
8422,31.250000
8423,31.250000
8424,31.250000
8425,31.250000
8426,31.250000
8427,27.343750
8428,27.343750
8429,27.343750
8430,27.343750
8431,27.343750
8432,27.343750
8433,23.437500
8434,23.437500
8435,23.437500
8436,23.437500
8437,23.437500
8438,23.437500
8439,19.531250
8440,19.531250
8441,19.531250
8442,19.531250
8443,15.625000
8444,15.625000
8445,15.625000
8446,15.625000
8447,15.625000
8448,15.625000
8449,11.718750
8450,11.718750
8451,11.718750
8452,11.718750
8453,11.718750
8454,7.812500
8455,11.718750
8456,7.812500
8457,7.812500
8458,7.812500
8459,3.906250
8460,3.906250
8461,3.906250
8462,3.906250
8463,3.906250
8464,3.906250
8465,0.000000
8466,0.000000
8467,0.000000
8468,0.000000
8469,0.000000
8470,-3.906250
8471,-3.906250
8472,-3.906250
8473,-3.906250
8474,-3.906250
8475,-3.906250
8476,-3.906250
8477,-7.812500
8478,-7.812500
8479,-7.812500
8480,-7.812500
8481,-11.718750
8482,-11.718750
8483,-11.718750
8484,-11.718750
8485,-11.718750
8486,-15.625000
8487,-15.625000
8488,-15.625000
8489,-15.625000
8490,-15.625000
8491,-19.531250
8492,-19.531250
8493,-19.531250
8494,-19.531250
8495,-19.531250
8496,-23.437500
8497,-23.437500
8498,-23.437500
8499,-23.437500
8500,-23.437500
8501,-27.343750
8502,-27.343750
8503,-27.343750
8504,-27.343750
8505,-27.343750
8506,-31.250000
8507,-31.250000
8508,-31.250000
8509,-31.250000
8510,-31.250000
8511,-35.156250
8512,-35.156250
8513,-35.156250
8514,-35.156250
8515,-35.156250
8516,-39.062500
8517,-39.062500
8518,-39.062500
8519,-39.062500
8520,-39.062500
8521,-39.062500
8522,-42.968750
8523,-42.968750
8524,-42.968750
8525,-42.968750
8526,-46.875000
8527,-46.875000
8528,-46.875000
8529,-46.875000
8530,-46.875000
8531,-46.875000
8532,-46.875000
8533,-50.781250
8534,-50.781250
8535,-50.781250
8536,-50.781250
8537,-54.687500
8538,-54.687500
8539,-54.687500
8540,-54.687500
8541,-54.687500
8542,-54.687500
8543,-58.593750
8544,-54.687500
8545,-58.593750
8546,-58.593750
8547,-58.593750
8548,-62.500000
8549,-62.500000
8550,-58.593750
8551,-62.500000
8552,-62.500000
8553,-62.500000
8554,-66.406250
8555,-66.406250
8556,-66.406250
8557,-66.406250
8558,-70.312500
8559,-66.406250
8560,-70.312500
8561,-70.312500
8562,-70.312500
8563,-70.312500
8564,-70.312500
8565,-74.218750
8566,-74.218750
8567,-74.218750
8568,-74.218750
8569,-74.218750
8570,-78.125000
8571,-78.125000
8572,-78.125000
8573,-78.125000
8574,-78.125000
8575,-78.125000
8576,-82.031250
8577,-82.031250
8578,-82.031250
8579,-82.031250
8580,-82.031250
8581,-82.031250
8582,-85.937500
8583,-85.937500
8584,-85.937500
8585,-85.937500
8586,-85.937500
8587,-85.937500
8588,-89.843750
8589,-89.843750
8590,-89.843750
8591,-89.843750
8592,-89.843750
8593,-89.843750
8594,-89.843750
8595,-89.843750
8596,-93.750000
8597,-93.750000
8598,-93.750000
8599,-93.750000
8600,-97.656250
8601,-97.656250
8602,-97.656250
8603,-97.656250
8604,-97.656250
8605,-97.656250
8606,-101.562500
8607,-97.656250
8608,-101.562500
8609,-101.562500
8610,-101.562500
8611,-101.562500
8612,-101.562500
8613,-105.468750
8614,-105.468750
8615,-105.468750
8616,-105.468750
8617,-105.468750
8618,-105.468750
8619,-105.468750
8620,-105.468750
8621,-109.375000
8622,-109.375000
8623,-109.375000
8624,-109.375000
8625,-109.375000
8626,-109.375000
8627,-109.375000
8628,-109.375000
8629,-113.281250
8630,-113.281250
8631,-113.281250
8632,-113.281250
8633,-113.281250
8634,-113.281250
8635,-113.281250
8636,-113.281250
8637,-113.281250
8638,-117.187500
8639,-117.187500
8640,-117.187500
8641,-117.187500
8642,-117.187500
8643,-117.187500
8644,-121.093750
8645,-121.093750
8646,-121.093750
8647,-121.093750
8648,-121.093750
8649,-121.093750
8650,-121.093750
8651,-121.093750
8652,-121.093750
8653,-121.093750
8654,-125.000000
8655,-121.093750
8656,-125.000000
8657,-125.000000
8658,-125.000000
8659,-125.000000
8660,-125.000000
8661,-125.000000
8662,-125.000000
8663,-125.000000
8664,-125.000000
8665,-125.000000
8666,-125.000000
8667,-128.906250
8668,-128.906250
8669,-128.906250
8670,-128.906250
8671,-128.906250
8672,-128.906250
8673,-128.906250
8674,-128.906250
8675,-128.906250
8676,-128.906250
8677,-128.906250
8678,-128.906250
8679,-128.906250
8680,-128.906250
8681,-128.906250
8682,-132.812500
8683,-132.812500
8684,-132.812500
8685,-132.812500
8686,-132.812500
8687,-132.812500
8688,-132.812500
8689,-132.812500
8690,-132.812500
8691,-132.812500
8692,-132.812500
8693,-132.812500
8694,-132.812500
8695,-132.812500
8696,-132.812500
8697,-132.812500
8698,-132.812500
8699,-132.812500
8700,-132.812500
8701,-132.812500
8702,-136.718750
8703,-136.718750
8704,-132.812500
8705,-136.718750
8706,-136.718750
8707,-136.718750
8708,-136.718750
8709,-132.812500
8710,-136.718750
8711,-136.718750
8712,-136.718750
8713,-136.718750
8714,-136.718750
8715,-136.718750
8716,-136.718750
8717,-136.718750
8718,-136.718750
8719,-136.718750
8720,-136.718750
8721,-136.718750
8722,-136.718750
8723,-136.718750
8724,-136.718750
8725,-136.718750
8726,-136.718750
8727,-136.718750
8728,-136.718750
8729,-136.718750
8730,-136.718750
8731,-136.718750
8732,-136.718750
8733,-136.718750
8734,-136.718750
8735,-136.718750
8736,-136.718750
8737,-136.718750
8738,-136.718750
8739,-136.718750
8740,-136.718750
8741,-136.718750
8742,-136.718750
8743,-136.718750
8744,-136.718750
8745,-136.718750
8746,-136.718750
8747,-136.718750
8748,-136.718750
8749,-136.718750
8750,-136.718750
8751,-136.718750
8752,-136.718750
8753,-132.812500
8754,-132.812500
8755,-132.812500
8756,-132.812500
8757,-132.812500
8758,-132.812500
8759,-132.812500
8760,-132.812500
8761,-132.812500
8762,-132.812500
8763,-132.812500
8764,-132.812500
8765,-132.812500
8766,-132.812500
8767,-132.812500
8768,-132.812500
8769,-132.812500
8770,-132.812500
8771,-132.812500
8772,-132.812500
8773,-128.906250
8774,-128.906250
8775,-128.906250
8776,-128.906250
8777,-128.906250
8778,-128.906250
8779,-128.906250
8780,-128.906250
8781,-128.906250
8782,-128.906250
8783,-128.906250
8784,-128.906250
8785,-128.906250
8786,-125.000000
8787,-125.000000
8788,-125.000000
8789,-125.000000
8790,-125.000000
8791,-125.000000
8792,-125.000000
8793,-125.000000
8794,-125.000000
8795,-125.000000
8796,-125.000000
8797,-121.093750
8798,-121.093750
8799,-121.093750
8800,-121.093750
8801,-121.093750
8802,-121.093750
8803,-121.093750
8804,-121.093750
8805,-121.093750
8806,-121.093750
8807,-117.187500
8808,-117.187500
8809,-117.187500
8810,-117.187500
8811,-117.187500
8812,-117.187500
8813,-117.187500
8814,-117.187500
8815,-113.281250
8816,-113.281250
8817,-113.281250
8818,-113.281250
8819,-113.281250
8820,-113.281250
8821,-113.281250
8822,-113.281250
8823,-113.281250
8824,-109.375000
8825,-109.375000
8826,-109.375000
8827,-109.375000
8828,-109.375000
8829,-109.375000
8830,-109.375000
8831,-105.468750
8832,-109.375000
8833,-105.468750
8834,-105.468750
8835,-105.468750
8836,-105.468750
8837,-105.468750
8838,-105.468750
8839,-101.562500
8840,-101.562500
8841,-101.562500
8842,-101.562500
8843,-101.562500
8844,-101.562500
8845,-101.562500
8846,-101.562500
8847,-97.656250
8848,-97.656250
8849,-97.656250
8850,-97.656250
8851,-97.656250
8852,-97.656250
8853,-97.656250
8854,-93.750000
8855,-93.750000
8856,-93.750000
8857,-93.750000
8858,-93.750000
8859,-93.750000
8860,-89.843750
8861,-89.843750
8862,-89.843750
8863,-89.843750
8864,-89.843750
8865,-89.843750
8866,-85.937500
8867,-85.937500
8868,-85.937500
8869,-85.937500
8870,-85.937500
8871,-85.937500
8872,-82.031250
8873,-82.031250
8874,-82.031250
8875,-82.031250
8876,-82.031250
8877,-82.031250
8878,-78.125000
8879,-78.125000
8880,-78.125000
8881,-78.125000
8882,-78.125000
8883,-78.125000
8884,-78.125000
8885,-74.218750
8886,-74.218750
8887,-74.218750
8888,-74.218750
8889,-74.218750
8890,-70.312500
8891,-70.312500
8892,-70.312500
8893,-70.312500
8894,-70.312500
8895,-70.312500
8896,-66.406250
8897,-66.406250
8898,-66.406250
8899,-66.406250
8900,-66.406250
8901,-62.500000
8902,-62.500000
8903,-62.500000
8904,-62.500000
8905,-62.500000
8906,-58.593750
8907,-58.593750
8908,-58.593750
8909,-58.593750
8910,-58.593750
8911,-58.593750
8912,-54.687500
8913,-54.687500
8914,-54.687500
8915,-54.687500
8916,-54.687500
8917,-54.687500
8918,-50.781250
8919,-50.781250
8920,-50.781250
8921,-50.781250
8922,-50.781250
8923,-46.875000
8924,-46.875000
8925,-46.875000
8926,-46.875000
8927,-46.875000
8928,-42.968750
8929,-42.968750
8930,-42.968750
8931,-42.968750
8932,-42.968750
8933,-42.968750
8934,-39.062500
8935,-39.062500
8936,-39.062500
8937,-39.062500
8938,-39.062500
8939,-35.156250
8940,-35.156250
8941,-35.156250
8942,-35.156250
8943,-31.250000
8944,-31.250000
8945,-31.250000
8946,-31.250000
8947,-31.250000
8948,-31.250000
8949,-27.343750
8950,-27.343750
8951,-27.343750
8952,-27.343750
8953,-23.437500
8954,-23.437500
8955,-23.437500
8956,-23.437500
8957,-23.437500
8958,-19.531250
8959,-19.531250
8960,-19.531250
8961,-19.531250
8962,-19.531250
8963,-15.625000
8964,-15.625000
8965,-15.625000
8966,-15.625000
8967,-11.718750
8968,-11.718750
8969,-11.718750
8970,-11.718750
8971,-11.718750
8972,-11.718750
8973,-11.718750
8974,-11.718750
8975,-7.812500
8976,-7.812500
8977,-7.812500
8978,-7.812500
8979,-7.812500
8980,-3.906250
8981,-3.906250
8982,-3.906250
8983,-3.906250
8984,-3.906250
8985,-3.906250
8986,0.000000
8987,0.000000
8988,0.000000
8989,0.000000
8990,0.000000
8991,3.906250
8992,3.906250
8993,3.906250
8994,3.906250
8995,3.906250
8996,7.812500
8997,7.812500
8998,7.812500
8999,7.812500
9000,7.812500
9001,11.718750
9002,11.718750
9003,11.718750
9004,11.718750
9005,11.718750
9006,15.625000
9007,11.718750
9008,15.625000
9009,15.625000
9010,15.625000
9011,15.625000
9012,15.625000
9013,19.531250
9014,19.531250
9015,19.531250
9016,19.531250
9017,19.531250
9018,19.531250
9019,23.437500
9020,23.437500
9021,23.437500
9022,23.437500
9023,23.437500
9024,27.343750
9025,27.343750
9026,27.343750
9027,27.343750
9028,27.343750
9029,31.250000
9030,27.343750
9031,31.250000
9032,31.250000
9033,31.250000
9034,31.250000
9035,31.250000
9036,31.250000
9037,35.156250
9038,35.156250
9039,35.156250
9040,35.156250
9041,35.156250
9042,39.062500
9043,39.062500
9044,39.062500
9045,39.062500
9046,39.062500
9047,39.062500
9048,42.968750
9049,42.968750
9050,42.968750
9051,42.968750
9052,42.968750
9053,42.968750
9054,42.968750
9055,42.968750
9056,46.875000
9057,46.875000
9058,46.875000
9059,46.875000
9060,46.875000
9061,50.781250
9062,50.781250
9063,50.781250
9064,50.781250
9065,50.781250
9066,50.781250
9067,50.781250
9068,50.781250
9069,54.687500
9070,54.687500
9071,54.687500
9072,54.687500
9073,54.687500
9074,58.593750
9075,58.593750
9076,58.593750
9077,58.593750
9078,58.593750
9079,58.593750
9080,58.593750
9081,58.593750
9082,58.593750
9083,58.593750
9084,62.500000
9085,62.500000
9086,62.500000
9087,62.500000
9088,62.500000
9089,66.406250
9090,66.406250
9091,66.406250
9092,66.406250
9093,66.406250
9094,66.406250
9095,66.406250
9096,66.406250
9097,66.406250
9098,70.312500
9099,70.312500
9100,70.312500
9101,70.312500
9102,70.312500
9103,70.312500
9104,70.312500
9105,70.312500
9106,70.312500
9107,74.218750
9108,74.218750
9109,74.218750
9110,74.218750
9111,74.218750
9112,74.218750
9113,74.218750
9114,74.218750
9115,78.125000
9116,78.125000
9117,78.125000
9118,78.125000
9119,78.125000
9120,78.125000
9121,78.125000
9122,78.125000
9123,78.125000
9124,78.125000
9125,78.125000
9126,82.031250
9127,78.125000
9128,82.031250
9129,82.031250
9130,82.031250
9131,82.031250
9132,82.031250
9133,82.031250
9134,82.031250
9135,82.031250
9136,82.031250
9137,82.031250
9138,82.031250
9139,82.031250
9140,85.937500
9141,85.937500
9142,85.937500
9143,85.937500
9144,85.937500
9145,85.937500
9146,85.937500
9147,85.937500
9148,85.937500
9149,85.937500
9150,85.937500
9151,85.937500
9152,89.843750
9153,89.843750
9154,89.843750
9155,89.843750
9156,89.843750
9157,89.843750
9158,89.843750
9159,89.843750
9160,89.843750
9161,89.843750
9162,89.843750
9163,89.843750
9164,89.843750
9165,93.750000
9166,93.750000
9167,93.750000
9168,93.750000
9169,93.750000
9170,93.750000
9171,93.750000
9172,93.750000
9173,93.750000
9174,93.750000
9175,93.750000
9176,93.750000
9177,93.750000
9178,93.750000
9179,93.750000
9180,93.750000
9181,93.750000
9182,93.750000
9183,93.750000
9184,93.750000
9185,93.750000
9186,93.750000
9187,93.750000
9188,97.656250
9189,97.656250
9190,97.656250
9191,97.656250
9192,97.656250
9193,97.656250
9194,97.656250
9195,97.656250
9196,97.656250
9197,97.656250
9198,97.656250
9199,97.656250
9200,97.656250
9201,97.656250
9202,97.656250
9203,97.656250
9204,97.656250
9205,97.656250
9206,97.656250
9207,97.656250
9208,97.656250
9209,97.656250
9210,97.656250
9211,97.656250
9212,97.656250
9213,97.656250
9214,97.656250
9215,97.656250
9216,97.656250
9217,97.656250
9218,97.656250
9219,97.656250
9220,97.656250
9221,97.656250
9222,97.656250
9223,97.656250
9224,97.656250
9225,97.656250
9226,97.656250
9227,97.656250
9228,97.656250
9229,101.562500
9230,97.656250
9231,97.656250
9232,97.656250
9233,97.656250
9234,97.656250
9235,97.656250
9236,97.656250
9237,97.656250
9238,97.656250
9239,97.656250
9240,97.656250
9241,97.656250
9242,97.656250
9243,97.656250
9244,97.656250
9245,97.656250
9246,97.656250
9247,97.656250
9248,97.656250
9249,97.656250
9250,97.656250
9251,97.656250
9252,97.656250
9253,97.656250
9254,97.656250
9255,97.656250
9256,97.656250
9257,97.656250
9258,97.656250
9259,93.750000
9260,93.750000
9261,93.750000
9262,93.750000
9263,93.750000
9264,93.750000
9265,93.750000
9266,93.750000
9267,93.750000
9268,93.750000
9269,93.750000
9270,93.750000
9271,93.750000
9272,93.750000
9273,93.750000
9274,93.750000
9275,93.750000
9276,93.750000
9277,89.843750
9278,93.750000
9279,93.750000
9280,93.750000
9281,93.750000
9282,93.750000
9283,89.843750
9284,89.843750
9285,89.843750
9286,89.843750
9287,89.843750
9288,89.843750
9289,89.843750
9290,89.843750
9291,89.843750
9292,89.843750
9293,89.843750
9294,85.937500
9295,89.843750
9296,89.843750
9297,85.937500
9298,85.937500
9299,85.937500
9300,85.937500
9301,85.937500
9302,85.937500
9303,85.937500
9304,85.937500
9305,85.937500
9306,85.937500
9307,85.937500
9308,85.937500
9309,82.031250
9310,85.937500
9311,82.031250
9312,82.031250
9313,82.031250
9314,82.031250
9315,82.031250
9316,82.031250
9317,82.031250
9318,82.031250
9319,82.031250
9320,82.031250
9321,78.125000
9322,78.125000
9323,78.125000
9324,78.125000
9325,78.125000
9326,78.125000
9327,78.125000
9328,78.125000
9329,78.125000
9330,78.125000
9331,78.125000
9332,74.218750
9333,74.218750
9334,74.218750
9335,74.218750
9336,74.218750
9337,74.218750
9338,74.218750
9339,74.218750
9340,70.312500
9341,70.312500
9342,70.312500
9343,70.312500
9344,70.312500
9345,70.312500
9346,70.312500
9347,70.312500
9348,66.406250
9349,66.406250
9350,66.406250
9351,66.406250
9352,66.406250
9353,66.406250
9354,66.406250
9355,66.406250
9356,62.500000
9357,62.500000
9358,62.500000
9359,62.500000
9360,62.500000
9361,62.500000
9362,62.500000
9363,62.500000
9364,62.500000
9365,58.593750
9366,58.593750
9367,58.593750
9368,58.593750
9369,58.593750
9370,58.593750
9371,54.687500
9372,54.687500
9373,54.687500
9374,54.687500
9375,54.687500
9376,54.687500
9377,50.781250
9378,50.781250
9379,50.781250
9380,50.781250
9381,50.781250
9382,50.781250
9383,50.781250
9384,50.781250
9385,46.875000
9386,46.875000
9387,46.875000
9388,46.875000
9389,46.875000
9390,46.875000
9391,46.875000
9392,42.968750
9393,42.968750
9394,42.968750
9395,42.968750
9396,42.968750
9397,39.062500
9398,39.062500
9399,39.062500
9400,39.062500
9401,39.062500
9402,39.062500
9403,35.156250
9404,35.156250
9405,35.156250
9406,35.156250
9407,35.156250
9408,35.156250
9409,35.156250
9410,31.250000
9411,31.250000
9412,31.250000
9413,31.250000
9414,31.250000
9415,31.250000
9416,27.343750
9417,27.343750
9418,27.343750
9419,27.343750
9420,23.437500
9421,23.437500
9422,23.437500
9423,23.437500
9424,23.437500
9425,19.531250
9426,19.531250
9427,19.531250
9428,19.531250
9429,19.531250
9430,19.531250
9431,19.531250
9432,15.625000
9433,15.625000
9434,15.625000
9435,15.625000
9436,15.625000
9437,15.625000
9438,11.718750
9439,11.718750
9440,11.718750
9441,11.718750
9442,7.812500
9443,7.812500
9444,7.812500
9445,7.812500
9446,7.812500
9447,7.812500
9448,3.906250
9449,3.906250
9450,3.906250
9451,3.906250
9452,3.906250
9453,3.906250
9454,0.000000
9455,0.000000
9456,0.000000
9457,0.000000
9458,0.000000
9459,-3.906250
9460,-3.906250
9461,-3.906250
9462,-3.906250
9463,-3.906250
9464,-3.906250
9465,-7.812500
9466,-7.812500
9467,-7.812500
9468,-7.812500
9469,-11.718750
9470,-11.718750
9471,-11.718750
9472,-11.718750
9473,-11.718750
9474,-15.625000
9475,-15.625000
9476,-15.625000
9477,-15.625000
9478,-15.625000
9479,-15.625000
9480,-15.625000
9481,-19.531250
9482,-19.531250
9483,-19.531250
9484,-19.531250
9485,-19.531250
9486,-23.437500
9487,-23.437500
9488,-23.437500
9489,-23.437500
9490,-23.437500
9491,-27.343750
9492,-27.343750
9493,-27.343750
9494,-27.343750
9495,-31.250000
9496,-31.250000
9497,-31.250000
9498,-31.250000
9499,-31.250000
9500,-35.156250
9501,-35.156250
9502,-35.156250
9503,-35.156250
9504,-35.156250
9505,-35.156250
9506,-39.062500
9507,-39.062500
9508,-39.062500
9509,-39.062500
9510,-39.062500
9511,-42.968750
9512,-42.968750
9513,-42.968750
9514,-42.968750
9515,-46.875000
9516,-46.875000
9517,-46.875000
9518,-46.875000
9519,-46.875000
9520,-50.781250
9521,-50.781250
9522,-50.781250
9523,-50.781250
9524,-50.781250
9525,-54.687500
9526,-54.687500
9527,-54.687500
9528,-54.687500
9529,-54.687500
9530,-58.593750
9531,-54.687500
9532,-58.593750
9533,-58.593750
9534,-58.593750
9535,-58.593750
9536,-62.500000
9537,-62.500000
9538,-62.500000
9539,-62.500000
9540,-62.500000
9541,-62.500000
9542,-66.406250
9543,-66.406250
9544,-66.406250
9545,-66.406250
9546,-66.406250
9547,-70.312500
9548,-70.312500
9549,-70.312500
9550,-70.312500
9551,-70.312500
9552,-74.218750
9553,-74.218750
9554,-74.218750
9555,-74.218750
9556,-74.218750
9557,-74.218750
9558,-74.218750
9559,-78.125000
9560,-78.125000
9561,-78.125000
9562,-78.125000
9563,-78.125000
9564,-82.031250
9565,-82.031250
9566,-82.031250
9567,-82.031250
9568,-85.937500
9569,-82.031250
9570,-85.937500
9571,-85.937500
9572,-85.937500
9573,-85.937500
9574,-85.937500
9575,-85.937500
9576,-89.843750
9577,-89.843750
9578,-89.843750
9579,-89.843750
9580,-89.843750
9581,-93.750000
9582,-93.750000
9583,-93.750000
9584,-93.750000
9585,-93.750000
9586,-93.750000
9587,-93.750000
9588,-93.750000
9589,-97.656250
9590,-97.656250
9591,-97.656250
9592,-97.656250
9593,-97.656250
9594,-101.562500
9595,-101.562500
9596,-101.562500
9597,-101.562500
9598,-101.562500
9599,-101.562500
9600,-101.562500
9601,-101.562500
9602,-101.562500
9603,-105.468750
9604,-105.468750
9605,-105.468750
9606,-105.468750
9607,-105.468750
9608,-105.468750
9609,-109.375000
9610,-109.375000
9611,-109.375000
9612,-109.375000
9613,-109.375000
9614,-109.375000
9615,-109.375000
9616,-109.375000
9617,-109.375000
9618,-113.281250
9619,-113.281250
9620,-113.281250
9621,-113.281250
9622,-113.281250
9623,-113.281250
9624,-113.281250
9625,-113.281250
9626,-113.281250
9627,-117.187500
9628,-117.187500
9629,-117.187500
9630,-117.187500
9631,-117.187500
9632,-117.187500
9633,-117.187500
9634,-117.187500
9635,-121.093750
9636,-121.093750
9637,-121.093750
9638,-121.093750
9639,-121.093750
9640,-121.093750
9641,-121.093750
9642,-121.093750
9643,-121.093750
9644,-125.000000
9645,-125.000000
9646,-125.000000
9647,-125.000000
9648,-125.000000
9649,-125.000000
9650,-125.000000
9651,-125.000000
9652,-125.000000
9653,-125.000000
9654,-125.000000
9655,-128.906250
9656,-128.906250
9657,-125.000000
9658,-128.906250
9659,-128.906250
9660,-128.906250
9661,-128.906250
9662,-128.906250
9663,-128.906250
9664,-128.906250
9665,-128.906250
9666,-128.906250
9667,-128.906250
9668,-128.906250
9669,-132.812500
9670,-132.812500
9671,-132.812500
9672,-132.812500
9673,-132.812500
9674,-132.812500
9675,-132.812500
9676,-132.812500
9677,-132.812500
9678,-132.812500
9679,-132.812500
9680,-132.812500
9681,-132.812500
9682,-132.812500
9683,-132.812500
9684,-132.812500
9685,-132.812500
9686,-132.812500
9687,-132.812500
9688,-132.812500
9689,-132.812500
9690,-132.812500
9691,-132.812500
9692,-136.718750
9693,-136.718750
9694,-136.718750
9695,-136.718750
9696,-136.718750
9697,-136.718750
9698,-136.718750
9699,-136.718750
9700,-136.718750
9701,-136.718750
9702,-136.718750
9703,-136.718750
9704,-136.718750
9705,-136.718750
9706,-136.718750
9707,-136.718750
9708,-136.718750
9709,-136.718750
9710,-136.718750
9711,-136.718750
9712,-136.718750
9713,-136.718750
9714,-136.718750
9715,-136.718750
9716,-136.718750
9717,-136.718750
9718,-136.718750
9719,-136.718750
9720,-132.812500
9721,-136.718750
9722,-140.625000
9723,-132.812500
9724,-136.718750
9725,-136.718750
9726,-136.718750
9727,-136.718750
9728,-136.718750
9729,-132.812500
9730,-136.718750
9731,-136.718750
9732,-136.718750
9733,-136.718750
9734,-136.718750
9735,-136.718750
9736,-136.718750
9737,-136.718750
9738,-132.812500
9739,-136.718750
9740,-136.718750
9741,-132.812500
9742,-132.812500
9743,-132.812500
9744,-132.812500
9745,-132.812500
9746,-132.812500
9747,-132.812500
9748,-132.812500
9749,-132.812500
9750,-132.812500
9751,-132.812500
9752,-132.812500
9753,-132.812500
9754,-132.812500
9755,-132.812500
9756,-132.812500
9757,-132.812500
9758,-128.906250
9759,-128.906250
9760,-128.906250
9761,-128.906250
9762,-128.906250
9763,-128.906250
9764,-128.906250
9765,-128.906250
9766,-128.906250
9767,-128.906250
9768,-128.906250
9769,-128.906250
9770,-128.906250
9771,-128.906250
9772,-128.906250
9773,-125.000000
9774,-125.000000
9775,-125.000000
9776,-125.000000
9777,-125.000000
9778,-125.000000
9779,-125.000000
9780,-125.000000
9781,-125.000000
9782,-125.000000
9783,-125.000000
9784,-125.000000
9785,-125.000000
9786,-121.093750
9787,-121.093750
9788,-121.093750
9789,-121.093750
9790,-121.093750
9791,-121.093750
9792,-121.093750
9793,-121.093750
9794,-121.093750
9795,-121.093750
9796,-117.187500
9797,-117.187500
9798,-117.187500
9799,-117.187500
9800,-117.187500
9801,-117.187500
9802,-117.187500
9803,-117.187500
9804,-117.187500
9805,-117.187500
9806,-113.281250
9807,-113.281250
9808,-113.281250
9809,-113.281250
9810,-113.281250
9811,-113.281250
9812,-113.281250
9813,-113.281250
9814,-113.281250
9815,-109.375000
9816,-109.375000
9817,-109.375000
9818,-109.375000
9819,-109.375000
9820,-109.375000
9821,-105.468750
9822,-109.375000
9823,-105.468750
9824,-105.468750
9825,-105.468750
9826,-105.468750
9827,-105.468750
9828,-105.468750
9829,-101.562500
9830,-101.562500
9831,-101.562500
9832,-101.562500
9833,-101.562500
9834,-97.656250
9835,-101.562500
9836,-101.562500
9837,-97.656250
9838,-97.656250
9839,-97.656250
9840,-97.656250
9841,-97.656250
9842,-93.750000
9843,-93.750000
9844,-93.750000
9845,-93.750000
9846,-93.750000
9847,-89.843750
9848,-89.843750
9849,-89.843750
9850,-89.843750
9851,-89.843750
9852,-89.843750
9853,-89.843750
9854,-89.843750
9855,-89.843750
9856,-85.937500
9857,-85.937500
9858,-85.937500
9859,-85.937500
9860,-85.937500
9861,-82.031250
9862,-82.031250
9863,-82.031250
9864,-82.031250
9865,-82.031250
9866,-82.031250
9867,-82.031250
9868,-78.125000
9869,-78.125000
9870,-78.125000
9871,-78.125000
9872,-78.125000
9873,-74.218750
9874,-74.218750
9875,-74.218750
9876,-74.218750
9877,-74.218750
9878,-74.218750
9879,-70.312500
9880,-70.312500
9881,-70.312500
9882,-70.312500
9883,-70.312500
9884,-66.406250
9885,-66.406250
9886,-66.406250
9887,-66.406250
9888,-62.500000
9889,-62.500000
9890,-62.500000
9891,-62.500000
9892,-62.500000
9893,-62.500000
9894,-62.500000
9895,-58.593750
9896,-58.593750
9897,-58.593750
9898,-58.593750
9899,-58.593750
9900,-54.687500
9901,-54.687500
9902,-54.687500
9903,-54.687500
9904,-54.687500
9905,-50.781250
9906,-50.781250
9907,-50.781250
9908,-50.781250
9909,-50.781250
9910,-50.781250
9911,-46.875000
9912,-46.875000
9913,-46.875000
9914,-46.875000
9915,-46.875000
9916,-46.875000
9917,-46.875000
9918,-42.968750
9919,-42.968750
9920,-42.968750
9921,-42.968750
9922,-39.062500
9923,-39.062500
9924,-39.062500
9925,-39.062500
9926,-39.062500
9927,-35.156250
9928,-35.156250
9929,-35.156250
9930,-35.156250
9931,-35.156250
9932,-31.250000
9933,-31.250000
9934,-31.250000
9935,-31.250000
9936,-31.250000
9937,-27.343750
9938,-27.343750
9939,-27.343750
9940,-27.343750
9941,-27.343750
9942,-27.343750
9943,-23.437500
9944,-23.437500
9945,-23.437500
9946,-23.437500
9947,-23.437500
9948,-19.531250
9949,-19.531250
9950,-19.531250
9951,-19.531250
9952,-15.625000
9953,-15.625000
9954,-15.625000
9955,-15.625000
9956,-15.625000
9957,-15.625000
9958,-11.718750
9959,-11.718750
9960,-11.718750
9961,-11.718750
9962,-7.812500
9963,-7.812500
9964,-7.812500
9965,-7.812500
9966,-7.812500
9967,-7.812500
9968,-7.812500
9969,-3.906250
9970,-3.906250
9971,-3.906250
9972,0.000000
9973,0.000000
9974,0.000000
9975,0.000000
9976,0.000000
9977,0.000000
9978,0.000000
9979,3.906250
9980,3.906250
9981,3.906250
9982,3.906250
9983,3.906250
9984,7.812500
9985,7.812500
9986,7.812500
9987,7.812500
9988,7.812500
9989,11.718750
9990,11.718750
9991,11.718750
9992,11.718750
9993,11.718750
9994,15.625000
9995,15.625000
9996,15.625000
9997,15.625000
9998,15.625000
9999,15.625000
10000,19.531250
