Channel              :,CH1
Frequency            :,1.012kHz
Period               :,0.989ms
PK-PK                :,281.3mV
Probe attenuation    :,1X
Voltage per ADC value:,0.244141mV
Time interval        :,1.00000us

index,CH1_Voltage(mV)
1,-74.218750
2,-74.218750
3,-74.218750
4,-74.218750
5,-70.312500
6,-70.312500
7,-70.312500
8,-70.312500
9,-66.406250
10,-66.406250
11,-66.406250
12,-66.406250
13,-66.406250
14,-62.500000
15,-62.500000
16,-62.500000
17,-62.500000
18,-58.593750
19,-58.593750
20,-58.593750
21,-58.593750
22,-58.593750
23,-54.687500
24,-54.687500
25,-54.687500
26,-54.687500
27,-50.781250
28,-50.781250
29,-50.781250
30,-50.781250
31,-50.781250
32,-46.875000
33,-46.875000
34,-46.875000
35,-46.875000
36,-42.968750
37,-42.968750
38,-42.968750
39,-42.968750
40,-39.062500
41,-39.062500
42,-39.062500
43,-39.062500
44,-39.062500
45,-35.156250
46,-35.156250
47,-35.156250
48,-35.156250
49,-35.156250
50,-31.250000
51,-31.250000
52,-31.250000
53,-31.250000
54,-27.343750
55,-27.343750
56,-27.343750
57,-27.343750
58,-23.437500
59,-23.437500
60,-23.437500
61,-23.437500
62,-23.437500
63,-19.531250
64,-19.531250
65,-19.531250
66,-19.531250
67,-15.625000
68,-15.625000
69,-15.625000
70,-15.625000
71,-11.718750
72,-11.718750
73,-11.718750
74,-11.718750
75,-11.718750
76,-11.718750
77,-7.812500
78,-7.812500
79,-7.812500
80,-7.812500
81,-3.906250
82,-3.906250
83,-3.906250
84,-3.906250
85,-3.906250
86,0.000000
87,0.000000
88,0.000000
89,0.000000
90,3.906250
91,3.906250
92,3.906250
93,3.906250
94,7.812500
95,7.812500
96,7.812500
97,7.812500
98,7.812500
99,7.812500
100,11.718750
101,11.718750
102,11.718750
103,15.625000
104,15.625000
105,15.625000
106,15.625000
107,15.625000
108,15.625000
109,19.531250
110,19.531250
111,19.531250
112,19.531250
113,23.437500
114,23.437500
115,23.437500
116,23.437500
117,23.437500
118,23.437500
119,27.343750
120,27.343750
121,27.343750
122,27.343750
123,27.343750
124,31.250000
125,31.250000
126,31.250000
127,31.250000
128,35.156250
129,35.156250
130,35.156250
131,35.156250
132,35.156250
133,35.156250
134,39.062500
135,39.062500
136,39.062500
137,39.062500
138,39.062500
139,39.062500
140,42.968750
141,42.968750
142,42.968750
143,42.968750
144,42.968750
145,42.968750
146,46.875000
147,46.875000
148,46.875000
149,46.875000
150,50.781250
151,50.781250
152,50.781250
153,50.781250
154,50.781250
155,50.781250
156,54.687500
157,54.687500
158,54.687500
159,54.687500
160,54.687500
161,58.593750
162,58.593750
163,58.593750
164,58.593750
165,58.593750
166,58.593750
167,58.593750
168,58.593750
169,62.500000
170,62.500000
171,62.500000
172,62.500000
173,62.500000
174,66.406250
175,66.406250
176,66.406250
177,66.406250
178,66.406250
179,66.406250
180,70.312500
181,70.312500
182,70.312500
183,70.312500
184,70.312500
185,70.312500
186,70.312500
187,74.218750
188,74.218750
189,74.218750
190,74.218750
191,74.218750
192,74.218750
193,74.218750
194,78.125000
195,78.125000
196,78.125000
197,78.125000
198,78.125000
199,78.125000
200,82.031250
201,82.031250
202,82.031250
203,82.031250
204,82.031250
205,82.031250
206,82.031250
207,82.031250
208,85.937500
209,85.937500
210,85.937500
211,85.937500
212,85.937500
213,85.937500
214,85.937500
215,85.937500
216,89.843750
217,89.843750
218,89.843750
219,89.843750
220,89.843750
221,89.843750
222,89.843750
223,89.843750
224,89.843750
225,89.843750
226,93.750000
227,93.750000
228,93.750000
229,93.750000
230,93.750000
231,93.750000
232,97.656250
233,97.656250
234,97.656250
235,97.656250
236,97.656250
237,97.656250
238,97.656250
239,97.656250
240,97.656250
241,97.656250
242,97.656250
243,101.562500
244,101.562500
245,101.562500
246,101.562500
247,101.562500
248,101.562500
249,101.562500
250,101.562500
251,101.562500
252,101.562500
253,101.562500
254,101.562500
255,105.468750
256,105.468750
257,105.468750
258,105.468750
259,105.468750
260,105.468750
261,105.468750
262,105.468750
263,105.468750
264,105.468750
265,105.468750
266,105.468750
267,105.468750
268,105.468750
269,105.468750
270,109.375000
271,109.375000
272,109.375000
273,109.375000
274,109.375000
275,109.375000
276,109.375000
277,109.375000
278,109.375000
279,109.375000
280,109.375000
281,109.375000
282,109.375000
283,109.375000
284,109.375000
285,109.375000
286,109.375000
287,109.375000
288,109.375000
289,109.375000
290,113.281250
291,113.281250
292,113.281250
293,113.281250
294,109.375000
295,113.281250
296,113.281250
297,113.281250
298,113.281250
299,113.281250
300,113.281250
301,113.281250
302,113.281250
303,113.281250
304,113.281250
305,113.281250
306,113.281250
307,113.281250
308,113.281250
309,113.281250
310,113.281250
311,113.281250
312,113.281250
313,113.281250
314,113.281250
315,113.281250
316,113.281250
317,113.281250
318,113.281250
319,113.281250
320,113.281250
321,113.281250
322,117.187500
323,113.281250
324,113.281250
325,113.281250
326,113.281250
327,113.281250
328,117.187500
329,113.281250
330,113.281250
331,117.187500
332,113.281250
333,117.187500
334,113.281250
335,117.187500
336,113.281250
337,113.281250
338,113.281250
339,113.281250
340,113.281250
341,117.187500
342,113.281250
343,113.281250
344,113.281250
345,113.281250
346,113.281250
347,113.281250
348,113.281250
349,113.281250
350,113.281250
351,113.281250
352,113.281250
353,113.281250
354,113.281250
355,113.281250
356,113.281250
357,113.281250
358,113.281250
359,113.281250
360,113.281250
361,113.281250
362,113.281250
363,113.281250
364,113.281250
365,113.281250
366,113.281250
367,113.281250
368,113.281250
369,109.375000
370,113.281250
371,109.375000
372,109.375000
373,109.375000
374,109.375000
375,109.375000
376,109.375000
377,109.375000
378,109.375000
379,109.375000
380,109.375000
381,109.375000
382,109.375000
383,109.375000
384,109.375000
385,109.375000
386,109.375000
387,109.375000
388,109.375000
389,105.468750
390,109.375000
391,105.468750
392,105.468750
393,105.468750
394,105.468750
395,105.468750
396,105.468750
397,105.468750
398,105.468750
399,105.468750
400,105.468750
401,105.468750
402,101.562500
403,101.562500
404,101.562500
405,101.562500
406,101.562500
407,101.562500
408,101.562500
409,101.562500
410,101.562500
411,101.562500
412,97.656250
413,97.656250
414,97.656250
415,97.656250
416,97.656250
417,97.656250
418,97.656250
419,97.656250
420,97.656250
421,97.656250
422,93.750000
423,93.750000
424,93.750000
425,93.750000
426,93.750000
427,93.750000
428,93.750000
429,93.750000
430,93.750000
431,93.750000
432,89.843750
433,89.843750
434,89.843750
435,89.843750
436,89.843750
437,89.843750
438,89.843750
439,89.843750
440,89.843750
441,85.937500
442,85.937500
443,85.937500
444,85.937500
445,85.937500
446,85.937500
447,85.937500
448,85.937500
449,82.031250
450,82.031250
451,82.031250
452,82.031250
453,82.031250
454,82.031250
455,78.125000
456,78.125000
457,78.125000
458,78.125000
459,78.125000
460,78.125000
461,78.125000
462,78.125000
463,74.218750
464,74.218750
465,74.218750
466,74.218750
467,74.218750
468,74.218750
469,74.218750
470,70.312500
471,70.312500
472,70.312500
473,70.312500
474,70.312500
475,66.406250
476,66.406250
477,66.406250
478,66.406250
479,66.406250
480,66.406250
481,66.406250
482,66.406250
483,62.500000
484,62.500000
485,62.500000
486,62.500000
487,62.500000
488,58.593750
489,58.593750
490,58.593750
491,58.593750
492,58.593750
493,58.593750
494,54.687500
495,54.687500
496,54.687500
497,54.687500
498,54.687500
499,50.781250
500,50.781250
501,50.781250
502,50.781250
503,50.781250
504,50.781250
505,46.875000
506,46.875000
507,46.875000
508,46.875000
509,42.968750
510,42.968750
511,42.968750
512,42.968750
513,42.968750
514,42.968750
515,39.062500
516,39.062500
517,39.062500
518,39.062500
519,39.062500
520,39.062500
521,35.156250
522,35.156250
523,35.156250
524,31.250000
525,31.250000
526,31.250000
527,31.250000
528,31.250000
529,27.343750
530,27.343750
531,27.343750
532,27.343750
533,27.343750
534,23.437500
535,23.437500
536,23.437500
537,23.437500
538,23.437500
539,23.437500
540,19.531250
541,19.531250
542,19.531250
543,19.531250
544,15.625000
545,15.625000
546,15.625000
547,15.625000
548,11.718750
549,11.718750
550,11.718750
551,11.718750
552,11.718750
553,7.812500
554,7.812500
555,7.812500
556,7.812500
557,3.906250
558,3.906250
559,3.906250
560,3.906250
561,3.906250
562,0.000000
563,0.000000
564,0.000000
565,0.000000
566,0.000000
567,-3.906250
568,-3.906250
569,-3.906250
570,-7.812500
571,-7.812500
572,-7.812500
573,-7.812500
574,-7.812500
575,-7.812500
576,-11.718750
577,-11.718750
578,-11.718750
579,-15.625000
580,-15.625000
581,-15.625000
582,-15.625000
583,-19.531250
584,-19.531250
585,-19.531250
586,-19.531250
587,-19.531250
588,-19.531250
589,-23.437500
590,-23.437500
591,-23.437500
592,-23.437500
593,-27.343750
594,-27.343750
595,-27.343750
596,-27.343750
597,-31.250000
598,-31.250000
599,-31.250000
600,-31.250000
601,-35.156250
602,-35.156250
603,-35.156250
604,-35.156250
605,-35.156250
606,-39.062500
607,-39.062500
608,-39.062500
609,-39.062500
610,-42.968750
611,-42.968750
612,-42.968750
613,-42.968750
614,-42.968750
615,-46.875000
616,-46.875000
617,-46.875000
618,-46.875000
619,-50.781250
620,-50.781250
621,-50.781250
622,-50.781250
623,-54.687500
624,-54.687500
625,-54.687500
626,-54.687500
627,-54.687500
628,-58.593750
629,-58.593750
630,-58.593750
631,-62.500000
632,-62.500000
633,-62.500000
634,-62.500000
635,-62.500000
636,-66.406250
637,-66.406250
638,-66.406250
639,-66.406250
640,-70.312500
641,-70.312500
642,-70.312500
643,-70.312500
644,-70.312500
645,-70.312500
646,-74.218750
647,-74.218750
648,-74.218750
649,-74.218750
650,-78.125000
651,-78.125000
652,-78.125000
653,-78.125000
654,-78.125000
655,-82.031250
656,-82.031250
657,-82.031250
658,-82.031250
659,-85.937500
660,-85.937500
661,-85.937500
662,-85.937500
663,-85.937500
664,-89.843750
665,-89.843750
666,-89.843750
667,-89.843750
668,-89.843750
669,-93.750000
670,-93.750000
671,-93.750000
672,-93.750000
673,-93.750000
674,-97.656250
675,-97.656250
676,-97.656250
677,-97.656250
678,-97.656250
679,-101.562500
680,-101.562500
681,-101.562500
682,-101.562500
683,-101.562500
684,-105.468750
685,-105.468750
686,-105.468750
687,-105.468750
688,-105.468750
689,-105.468750
690,-109.375000
691,-109.375000
692,-109.375000
693,-109.375000
694,-109.375000
695,-113.281250
696,-113.281250
697,-113.281250
698,-113.281250
699,-113.281250
700,-113.281250
701,-117.187500
702,-117.187500
703,-117.187500
704,-117.187500
705,-117.187500
706,-117.187500
707,-121.093750
708,-121.093750
709,-121.093750
710,-121.093750
711,-121.093750
712,-121.093750
713,-121.093750
714,-125.000000
715,-125.000000
716,-125.000000
717,-125.000000
718,-125.000000
719,-128.906250
720,-128.906250
721,-128.906250
722,-128.906250
723,-128.906250
724,-128.906250
725,-128.906250
726,-128.906250
727,-128.906250
728,-132.812500
729,-132.812500
730,-132.812500
731,-132.812500
732,-132.812500
733,-136.718750
734,-136.718750
735,-136.718750
736,-136.718750
737,-136.718750
738,-136.718750
739,-136.718750
740,-136.718750
741,-136.718750
742,-136.718750
743,-140.625000
744,-140.625000
745,-140.625000
746,-140.625000
747,-140.625000
748,-140.625000
749,-140.625000
750,-140.625000
751,-144.531250
752,-144.531250
753,-144.531250
754,-144.531250
755,-144.531250
756,-144.531250
757,-144.531250
758,-144.531250
759,-144.531250
760,-144.531250
761,-148.437500
762,-148.437500
763,-148.437500
764,-148.437500
765,-148.437500
766,-148.437500
767,-148.437500
768,-148.437500
769,-148.437500
770,-148.437500
771,-148.437500
772,-148.437500
773,-152.343750
774,-152.343750
775,-152.343750
776,-152.343750
777,-152.343750
778,-152.343750
779,-152.343750
780,-152.343750
781,-152.343750
782,-152.343750
783,-156.250000
784,-152.343750
785,-156.250000
786,-152.343750
787,-156.250000
788,-152.343750
789,-152.343750
790,-156.250000
791,-156.250000
792,-156.250000
793,-156.250000
794,-156.250000
795,-156.250000
796,-156.250000
797,-156.250000
798,-156.250000
799,-156.250000
800,-156.250000
801,-156.250000
802,-156.250000
803,-156.250000
804,-156.250000
805,-156.250000
806,-156.250000
807,-156.250000
808,-156.250000
809,-156.250000
810,-156.250000
811,-156.250000
812,-156.250000
813,-156.250000
814,-156.250000
815,-156.250000
816,-156.250000
817,-156.250000
818,-156.250000
819,-156.250000
820,-156.250000
821,-156.250000
822,-156.250000
823,-156.250000
824,-156.250000
825,-156.250000
826,-156.250000
827,-156.250000
828,-156.250000
829,-156.250000
830,-156.250000
831,-156.250000
832,-156.250000
833,-156.250000
834,-156.250000
835,-156.250000
836,-156.250000
837,-156.250000
838,-156.250000
839,-156.250000
840,-156.250000
841,-156.250000
842,-156.250000
843,-156.250000
844,-156.250000
845,-156.250000
846,-156.250000
847,-152.343750
848,-152.343750
849,-152.343750
850,-152.343750
851,-152.343750
852,-152.343750
853,-152.343750
854,-152.343750
855,-152.343750
856,-152.343750
857,-152.343750
858,-152.343750
859,-152.343750
860,-152.343750
861,-148.437500
862,-148.437500
863,-152.343750
864,-148.437500
865,-148.437500
866,-148.437500
867,-148.437500
868,-148.437500
869,-148.437500
870,-148.437500
871,-148.437500
872,-148.437500
873,-148.437500
874,-144.531250
875,-144.531250
876,-148.437500
877,-144.531250
878,-144.531250
879,-144.531250
880,-144.531250
881,-144.531250
882,-144.531250
883,-144.531250
884,-144.531250
885,-144.531250
886,-144.531250
887,-140.625000
888,-140.625000
889,-140.625000
890,-140.625000
891,-140.625000
892,-140.625000
893,-140.625000
894,-140.625000
895,-140.625000
896,-136.718750
897,-136.718750
898,-136.718750
899,-136.718750
900,-136.718750
901,-136.718750
902,-136.718750
903,-136.718750
904,-136.718750
905,-132.812500
906,-132.812500
907,-132.812500
908,-132.812500
909,-132.812500
910,-132.812500
911,-128.906250
912,-128.906250
913,-128.906250
914,-128.906250
915,-128.906250
916,-128.906250
917,-125.000000
918,-125.000000
919,-125.000000
920,-125.000000
921,-125.000000
922,-125.000000
923,-125.000000
924,-121.093750
925,-121.093750
926,-121.093750
927,-121.093750
928,-121.093750
929,-121.093750
930,-121.093750
931,-117.187500
932,-117.187500
933,-117.187500
934,-117.187500
935,-117.187500
936,-117.187500
937,-113.281250
938,-113.281250
939,-113.281250
940,-113.281250
941,-113.281250
942,-109.375000
943,-109.375000
944,-109.375000
945,-109.375000
946,-109.375000
947,-109.375000
948,-105.468750
949,-105.468750
950,-105.468750
951,-105.468750
952,-105.468750
953,-101.562500
954,-101.562500
955,-101.562500
956,-101.562500
957,-101.562500
958,-101.562500
959,-97.656250
960,-97.656250
961,-97.656250
962,-97.656250
963,-97.656250
964,-93.750000
965,-93.750000
966,-93.750000
967,-93.750000
968,-93.750000
969,-93.750000
970,-89.843750
971,-89.843750
972,-89.843750
973,-89.843750
974,-85.937500
975,-85.937500
976,-85.937500
977,-85.937500
978,-82.031250
979,-82.031250
980,-82.031250
981,-82.031250
982,-82.031250
983,-82.031250
984,-78.125000
985,-78.125000
986,-78.125000
987,-78.125000
988,-74.218750
989,-74.218750
990,-74.218750
991,-74.218750
992,-74.218750
993,-70.312500
994,-70.312500
995,-70.312500
996,-70.312500
997,-70.312500
998,-66.406250
999,-66.406250
1000,-66.406250
1001,-66.406250
1002,-62.500000
1003,-62.500000
1004,-62.500000
1005,-62.500000
1006,-62.500000
1007,-62.500000
1008,-58.593750
1009,-58.593750
1010,-58.593750
1011,-58.593750
1012,-54.687500
1013,-54.687500
1014,-54.687500
1015,-54.687500
1016,-50.781250
1017,-50.781250
1018,-50.781250
1019,-50.781250
1020,-46.875000
1021,-46.875000
1022,-46.875000
1023,-46.875000
1024,-46.875000
1025,-46.875000
1026,-42.968750
1027,-42.968750
1028,-42.968750
1029,-42.968750
1030,-39.062500
1031,-39.062500
1032,-39.062500
1033,-39.062500
1034,-39.062500
1035,-35.156250
1036,-35.156250
1037,-35.156250
1038,-31.250000
1039,-31.250000
1040,-31.250000
1041,-31.250000
1042,-31.250000
1043,-31.250000
1044,-27.343750
1045,-27.343750
1046,-27.343750
1047,-27.343750
1048,-23.437500
1049,-23.437500
1050,-23.437500
1051,-23.437500
1052,-23.437500
1053,-19.531250
1054,-19.531250
1055,-19.531250
1056,-15.625000
1057,-15.625000
1058,-15.625000
1059,-15.625000
1060,-15.625000
1061,-11.718750
1062,-11.718750
1063,-11.718750
1064,-11.718750
1065,-11.718750
1066,-7.812500
1067,-7.812500
1068,-7.812500
1069,-7.812500
1070,-3.906250
1071,-3.906250
1072,-3.906250
1073,-3.906250
1074,-3.906250
1075,0.000000
1076,0.000000
1077,0.000000
1078,0.000000
1079,3.906250
1080,3.906250
1081,3.906250
1082,3.906250
1083,3.906250
1084,7.812500
1085,7.812500
1086,7.812500
1087,7.812500
1088,11.718750
1089,11.718750
1090,11.718750
1091,11.718750
1092,11.718750
1093,15.625000
1094,15.625000
1095,15.625000
1096,15.625000
1097,15.625000
1098,19.531250
1099,19.531250
1100,19.531250
1101,19.531250
1102,19.531250
1103,23.437500
1104,23.437500
1105,23.437500
1106,23.437500
1107,23.437500
1108,27.343750
1109,27.343750
1110,27.343750
1111,27.343750
1112,31.250000
1113,31.250000
1114,31.250000
1115,31.250000
1116,31.250000
1117,31.250000
1118,35.156250
1119,35.156250
1120,35.156250
1121,35.156250
1122,35.156250
1123,39.062500
1124,39.062500
1125,39.062500
1126,39.062500
1127,39.062500
1128,42.968750
1129,42.968750
1130,42.968750
1131,42.968750
1132,42.968750
1133,46.875000
1134,46.875000
1135,46.875000
1136,46.875000
1137,46.875000
1138,46.875000
1139,46.875000
1140,50.781250
1141,50.781250
1142,50.781250
1143,50.781250
1144,50.781250
1145,54.687500
1146,54.687500
1147,54.687500
1148,54.687500
1149,54.687500
1150,58.593750
1151,58.593750
1152,58.593750
1153,58.593750
1154,58.593750
1155,58.593750
1156,62.500000
1157,62.500000
1158,62.500000
1159,62.500000
1160,62.500000
1161,62.500000
1162,62.500000
1163,66.406250
1164,66.406250
1165,66.406250
1166,66.406250
1167,66.406250
1168,70.312500
1169,70.312500
1170,70.312500
1171,70.312500
1172,70.312500
1173,70.312500
1174,70.312500
1175,70.312500
1176,74.218750
1177,74.218750
1178,74.218750
1179,74.218750
1180,74.218750
1181,74.218750
1182,74.218750
1183,78.125000
1184,78.125000
1185,78.125000
1186,78.125000
1187,78.125000
1188,78.125000
1189,78.125000
1190,82.031250
1191,82.031250
1192,82.031250
1193,78.125000
1194,82.031250
1195,82.031250
1196,82.031250
1197,82.031250
1198,85.937500
1199,85.937500
1200,85.937500
1201,85.937500
1202,85.937500
1203,85.937500
1204,85.937500
1205,85.937500
1206,89.843750
1207,89.843750
1208,89.843750
1209,89.843750
1210,89.843750
1211,89.843750
1212,89.843750
1213,89.843750
1214,93.750000
1215,93.750000
1216,93.750000
1217,93.750000
1218,93.750000
1219,93.750000
1220,93.750000
1221,93.750000
1222,97.656250
1223,97.656250
1224,97.656250
1225,97.656250
1226,97.656250
1227,97.656250
1228,97.656250
1229,97.656250
1230,97.656250
1231,97.656250
1232,97.656250
1233,97.656250
1234,101.562500
1235,101.562500
1236,101.562500
1237,101.562500
1238,101.562500
1239,101.562500
1240,101.562500
1241,101.562500
1242,101.562500
1243,101.562500
1244,105.468750
1245,105.468750
1246,105.468750
1247,105.468750
1248,105.468750
1249,105.468750
1250,105.468750
1251,105.468750
1252,105.468750
1253,105.468750
1254,105.468750
1255,105.468750
1256,105.468750
1257,105.468750
1258,109.375000
1259,109.375000
1260,109.375000
1261,109.375000
1262,109.375000
1263,109.375000
1264,109.375000
1265,109.375000
1266,109.375000
1267,109.375000
1268,109.375000
1269,109.375000
1270,109.375000
1271,109.375000
1272,109.375000
1273,109.375000
1274,109.375000
1275,109.375000
1276,109.375000
1277,109.375000
1278,113.281250
1279,113.281250
1280,113.281250
1281,113.281250
1282,113.281250
1283,113.281250
1284,109.375000
1285,113.281250
1286,113.281250
1287,113.281250
1288,113.281250
1289,113.281250
1290,113.281250
1291,113.281250
1292,113.281250
1293,113.281250
1294,113.281250
1295,113.281250
1296,113.281250
1297,113.281250
1298,113.281250
1299,113.281250
1300,113.281250
1301,113.281250
1302,113.281250
1303,113.281250
1304,113.281250
1305,113.281250
1306,113.281250
1307,113.281250
1308,113.281250
1309,113.281250
1310,113.281250
1311,113.281250
1312,113.281250
1313,113.281250
1314,113.281250
1315,113.281250
1316,113.281250
1317,113.281250
1318,113.281250
1319,113.281250
1320,113.281250
1321,113.281250
1322,113.281250
1323,113.281250
1324,113.281250
1325,113.281250
1326,113.281250
1327,113.281250
1328,113.281250
1329,113.281250
1330,113.281250
1331,113.281250
1332,113.281250
1333,113.281250
1334,113.281250
1335,113.281250
1336,113.281250
1337,113.281250
1338,113.281250
1339,113.281250
1340,113.281250
1341,113.281250
1342,113.281250
1343,113.281250
1344,113.281250
1345,113.281250
1346,113.281250
1347,113.281250
1348,113.281250
1349,113.281250
1350,113.281250
1351,113.281250
1352,113.281250
1353,113.281250
1354,113.281250
1355,109.375000
1356,113.281250
1357,113.281250
1358,113.281250
1359,109.375000
1360,109.375000
1361,109.375000
1362,109.375000
1363,109.375000
1364,109.375000
1365,109.375000
1366,109.375000
1367,109.375000
1368,109.375000
1369,109.375000
1370,109.375000
1371,109.375000
1372,109.375000
1373,109.375000
1374,109.375000
1375,105.468750
1376,105.468750
1377,105.468750
1378,105.468750
1379,105.468750
1380,105.468750
1381,105.468750
1382,105.468750
1383,105.468750
1384,105.468750
1385,105.468750
1386,105.468750
1387,105.468750
1388,105.468750
1389,105.468750
1390,105.468750
1391,101.562500
1392,101.562500
1393,101.562500
1394,101.562500
1395,101.562500
1396,101.562500
1397,101.562500
1398,101.562500
1399,101.562500
1400,101.562500
1401,101.562500
1402,101.562500
1403,97.656250
1404,101.562500
1405,97.656250
1406,97.656250
1407,97.656250
1408,97.656250
1409,97.656250
1410,97.656250
1411,93.750000
1412,93.750000
1413,93.750000
1414,93.750000
1415,93.750000
1416,93.750000
1417,93.750000
1418,93.750000
1419,93.750000
1420,93.750000
1421,89.843750
1422,89.843750
1423,89.843750
1424,89.843750
1425,89.843750
1426,89.843750
1427,89.843750
1428,89.843750
1429,89.843750
1430,85.937500
1431,85.937500
1432,85.937500
1433,85.937500
1434,85.937500
1435,85.937500
1436,85.937500
1437,82.031250
1438,82.031250
1439,82.031250
1440,82.031250
1441,82.031250
1442,82.031250
1443,82.031250
1444,82.031250
1445,78.125000
1446,78.125000
1447,78.125000
1448,78.125000
1449,78.125000
1450,78.125000
1451,74.218750
1452,74.218750
1453,74.218750
1454,74.218750
1455,74.218750
1456,74.218750
1457,74.218750
1458,74.218750
1459,70.312500
1460,70.312500
1461,70.312500
1462,70.312500
1463,70.312500
1464,66.406250
1465,66.406250
1466,66.406250
1467,66.406250
1468,66.406250
1469,66.406250
1470,66.406250
1471,62.500000
1472,62.500000
1473,62.500000
1474,62.500000
1475,62.500000
1476,62.500000
1477,58.593750
1478,58.593750
1479,58.593750
1480,58.593750
1481,58.593750
1482,54.687500
1483,54.687500
1484,54.687500
1485,54.687500
1486,54.687500
1487,54.687500
1488,50.781250
1489,50.781250
1490,50.781250
1491,50.781250
1492,50.781250
1493,46.875000
1494,46.875000
1495,46.875000
1496,46.875000
1497,46.875000
1498,46.875000
1499,42.968750
1500,42.968750
1501,42.968750
1502,42.968750
1503,42.968750
1504,39.062500
1505,39.062500
1506,39.062500
1507,39.062500
1508,39.062500
1509,39.062500
1510,35.156250
1511,35.156250
1512,35.156250
1513,35.156250
1514,35.156250
1515,31.250000
1516,31.250000
1517,31.250000
1518,31.250000
1519,27.343750
1520,27.343750
1521,27.343750
1522,27.343750
1523,23.437500
1524,23.437500
1525,23.437500
1526,23.437500
1527,19.531250
1528,19.531250
1529,19.531250
1530,19.531250
1531,19.531250
1532,19.531250
1533,15.625000
1534,15.625000
1535,15.625000
1536,15.625000
1537,15.625000
1538,11.718750
1539,11.718750
1540,11.718750
1541,11.718750
1542,7.812500
1543,7.812500
1544,7.812500
1545,7.812500
1546,7.812500
1547,3.906250
1548,3.906250
1549,3.906250
1550,0.000000
1551,0.000000
1552,0.000000
1553,0.000000
1554,0.000000
1555,-3.906250
1556,-3.906250
1557,-3.906250
1558,-3.906250
1559,-7.812500
1560,-7.812500
1561,-7.812500
1562,-7.812500
1563,-11.718750
1564,-11.718750
1565,-11.718750
1566,-11.718750
1567,-11.718750
1568,-15.625000
1569,-15.625000
1570,-15.625000
1571,-15.625000
1572,-19.531250
1573,-19.531250
1574,-19.531250
1575,-19.531250
1576,-19.531250
1577,-23.437500
1578,-23.437500
1579,-23.437500
1580,-23.437500
1581,-27.343750
1582,-27.343750
1583,-27.343750
1584,-27.343750
1585,-27.343750
1586,-31.250000
1587,-31.250000
1588,-31.250000
1589,-31.250000
1590,-35.156250
1591,-35.156250
1592,-35.156250
1593,-35.156250
1594,-39.062500
1595,-39.062500
1596,-39.062500
1597,-39.062500
1598,-42.968750
1599,-42.968750
1600,-42.968750
1601,-42.968750
1602,-42.968750
1603,-46.875000
1604,-46.875000
1605,-46.875000
1606,-46.875000
1607,-50.781250
1608,-50.781250
1609,-50.781250
1610,-50.781250
1611,-50.781250
1612,-54.687500
1613,-54.687500
1614,-54.687500
1615,-54.687500
1616,-58.593750
1617,-58.593750
1618,-58.593750
1619,-58.593750
1620,-62.500000
1621,-62.500000
1622,-62.500000
1623,-62.500000
1624,-62.500000
1625,-66.406250
1626,-66.406250
1627,-66.406250
1628,-66.406250
1629,-70.312500
1630,-70.312500
1631,-70.312500
1632,-70.312500
1633,-70.312500
1634,-74.218750
1635,-74.218750
1636,-74.218750
1637,-74.218750
1638,-78.125000
1639,-78.125000
1640,-78.125000
1641,-78.125000
1642,-78.125000
1643,-78.125000
1644,-82.031250
1645,-82.031250
1646,-82.031250
1647,-82.031250
1648,-85.937500
1649,-85.937500
1650,-85.937500
1651,-85.937500
1652,-85.937500
1653,-89.843750
1654,-89.843750
1655,-89.843750
1656,-89.843750
1657,-93.750000
1658,-93.750000
1659,-93.750000
1660,-93.750000
1661,-93.750000
1662,-93.750000
1663,-93.750000
1664,-97.656250
1665,-97.656250
1666,-97.656250
1667,-101.562500
1668,-101.562500
1669,-101.562500
1670,-101.562500
1671,-101.562500
1672,-105.468750
1673,-105.468750
1674,-105.468750
1675,-105.468750
1676,-105.468750
1677,-105.468750
1678,-105.468750
1679,-109.375000
1680,-109.375000
1681,-109.375000
1682,-109.375000
1683,-113.281250
1684,-113.281250
1685,-109.375000
1686,-113.281250
1687,-113.281250
1688,-113.281250
1689,-113.281250
1690,-117.187500
1691,-117.187500
1692,-117.187500
1693,-117.187500
1694,-117.187500
1695,-121.093750
1696,-121.093750
1697,-121.093750
1698,-121.093750
1699,-121.093750
1700,-121.093750
1701,-121.093750
1702,-125.000000
1703,-125.000000
1704,-125.000000
1705,-125.000000
1706,-125.000000
1707,-128.906250
1708,-128.906250
1709,-128.906250
1710,-128.906250
1711,-128.906250
1712,-128.906250
1713,-132.812500
1714,-132.812500
1715,-132.812500
1716,-132.812500
1717,-132.812500
1718,-132.812500
1719,-132.812500
1720,-136.718750
1721,-132.812500
1722,-136.718750
1723,-136.718750
1724,-136.718750
1725,-136.718750
1726,-136.718750
1727,-136.718750
1728,-136.718750
1729,-136.718750
1730,-136.718750
1731,-140.625000
1732,-140.625000
1733,-140.625000
1734,-140.625000
1735,-140.625000
1736,-140.625000
1737,-144.531250
1738,-140.625000
1739,-144.531250
1740,-144.531250
1741,-144.531250
1742,-144.531250
1743,-144.531250
1744,-144.531250
1745,-144.531250
1746,-148.437500
1747,-144.531250
1748,-144.531250
1749,-148.437500
1750,-148.437500
1751,-148.437500
1752,-148.437500
1753,-148.437500
1754,-148.437500
1755,-148.437500
1756,-148.437500
1757,-148.437500
1758,-148.437500
1759,-152.343750
1760,-148.437500
1761,-152.343750
1762,-152.343750
1763,-152.343750
1764,-152.343750
1765,-152.343750
1766,-152.343750
1767,-152.343750
1768,-152.343750
1769,-152.343750
1770,-152.343750
1771,-152.343750
1772,-152.343750
1773,-152.343750
1774,-152.343750
1775,-152.343750
1776,-156.250000
1777,-152.343750
1778,-152.343750
1779,-156.250000
1780,-156.250000
1781,-156.250000
1782,-156.250000
1783,-156.250000
1784,-156.250000
1785,-156.250000
1786,-156.250000
1787,-156.250000
1788,-156.250000
1789,-156.250000
1790,-156.250000
1791,-156.250000
1792,-156.250000
1793,-156.250000
1794,-156.250000
1795,-156.250000
1796,-156.250000
1797,-156.250000
1798,-156.250000
1799,-156.250000
1800,-156.250000
1801,-156.250000
1802,-156.250000
1803,-156.250000
1804,-156.250000
1805,-156.250000
1806,-156.250000
1807,-156.250000
1808,-156.250000
1809,-156.250000
1810,-156.250000
1811,-156.250000
1812,-156.250000
1813,-156.250000
1814,-156.250000
1815,-156.250000
1816,-156.250000
1817,-156.250000
1818,-156.250000
1819,-156.250000
1820,-156.250000
1821,-156.250000
1822,-156.250000
1823,-156.250000
1824,-156.250000
1825,-156.250000
1826,-156.250000
1827,-156.250000
1828,-156.250000
1829,-156.250000
1830,-156.250000
1831,-156.250000
1832,-156.250000
1833,-156.250000
1834,-156.250000
1835,-156.250000
1836,-156.250000
1837,-156.250000
1838,-156.250000
1839,-156.250000
1840,-156.250000
1841,-156.250000
1842,-152.343750
1843,-152.343750
1844,-152.343750
1845,-152.343750
1846,-152.343750
1847,-152.343750
1848,-152.343750
1849,-152.343750
1850,-152.343750
1851,-152.343750
1852,-152.343750
1853,-152.343750
1854,-148.437500
1855,-148.437500
1856,-148.437500
1857,-148.437500
1858,-148.437500
1859,-148.437500
1860,-148.437500
1861,-148.437500
1862,-148.437500
1863,-148.437500
1864,-148.437500
1865,-144.531250
1866,-144.531250
1867,-144.531250
1868,-144.531250
1869,-144.531250
1870,-144.531250
1871,-144.531250
1872,-144.531250
1873,-144.531250
1874,-144.531250
1875,-144.531250
1876,-144.531250
1877,-140.625000
1878,-140.625000
1879,-140.625000
1880,-140.625000
1881,-140.625000
1882,-140.625000
1883,-140.625000
1884,-136.718750
1885,-136.718750
1886,-136.718750
1887,-136.718750
1888,-136.718750
1889,-136.718750
1890,-136.718750
1891,-136.718750
1892,-132.812500
1893,-132.812500
1894,-132.812500
1895,-132.812500
1896,-132.812500
1897,-132.812500
1898,-132.812500
1899,-132.812500
1900,-128.906250
1901,-128.906250
1902,-128.906250
1903,-128.906250
1904,-128.906250
1905,-128.906250
1906,-125.000000
1907,-125.000000
1908,-125.000000
1909,-125.000000
1910,-125.000000
1911,-125.000000
1912,-125.000000
1913,-125.000000
1914,-121.093750
1915,-121.093750
1916,-121.093750
1917,-121.093750
1918,-121.093750
1919,-117.187500
1920,-117.187500
1921,-117.187500
1922,-117.187500
1923,-117.187500
1924,-117.187500
1925,-117.187500
1926,-113.281250
1927,-113.281250
1928,-113.281250
1929,-113.281250
1930,-109.375000
1931,-109.375000
1932,-109.375000
1933,-109.375000
1934,-109.375000
1935,-109.375000
1936,-109.375000
1937,-105.468750
1938,-105.468750
1939,-105.468750
1940,-105.468750
1941,-105.468750
1942,-101.562500
1943,-101.562500
1944,-101.562500
1945,-101.562500
1946,-101.562500
1947,-101.562500
1948,-101.562500
1949,-97.656250
1950,-97.656250
1951,-97.656250
1952,-97.656250
1953,-97.656250
1954,-93.750000
1955,-93.750000
1956,-93.750000
1957,-93.750000
1958,-89.843750
1959,-89.843750
1960,-89.843750
1961,-89.843750
1962,-89.843750
1963,-85.937500
1964,-85.937500
1965,-85.937500
1966,-85.937500
1967,-85.937500
1968,-85.937500
1969,-82.031250
1970,-82.031250
1971,-82.031250
1972,-82.031250
1973,-82.031250
1974,-78.125000
1975,-78.125000
1976,-78.125000
1977,-78.125000
1978,-74.218750
1979,-74.218750
1980,-74.218750
1981,-74.218750
1982,-70.312500
1983,-70.312500
1984,-70.312500
1985,-70.312500
1986,-66.406250
1987,-66.406250
1988,-66.406250
1989,-66.406250
1990,-66.406250
1991,-66.406250
1992,-62.500000
1993,-62.500000
1994,-62.500000
1995,-62.500000
1996,-58.593750
1997,-58.593750
1998,-58.593750
1999,-58.593750
2000,-58.593750
2001,-54.687500
2002,-54.687500
2003,-54.687500
2004,-50.781250
2005,-50.781250
2006,-50.781250
2007,-50.781250
2008,-50.781250
2009,-50.781250
2010,-46.875000
2011,-46.875000
2012,-46.875000
2013,-46.875000
2014,-42.968750
2015,-42.968750
2016,-42.968750
2017,-42.968750
2018,-39.062500
2019,-39.062500
2020,-39.062500
2021,-39.062500
2022,-35.156250
2023,-35.156250
2024,-35.156250
2025,-35.156250
2026,-35.156250
2027,-35.156250
2028,-31.250000
2029,-31.250000
2030,-31.250000
2031,-27.343750
2032,-27.343750
2033,-27.343750
2034,-27.343750
2035,-27.343750
2036,-23.437500
2037,-23.437500
2038,-23.437500
2039,-23.437500
2040,-19.531250
2041,-19.531250
2042,-19.531250
2043,-19.531250
2044,-19.531250
2045,-15.625000
2046,-15.625000
2047,-15.625000
2048,-15.625000
2049,-11.718750
2050,-11.718750
2051,-11.718750
2052,-11.718750
2053,-11.718750
2054,-7.812500
2055,-7.812500
2056,-7.812500
2057,-7.812500
2058,-3.906250
2059,-3.906250
2060,-3.906250
2061,-3.906250
2062,-3.906250
2063,0.000000
2064,0.000000
2065,0.000000
2066,0.000000
2067,0.000000
2068,3.906250
2069,3.906250
2070,3.906250
2071,3.906250
2072,3.906250
2073,7.812500
2074,7.812500
2075,7.812500
2076,7.812500
2077,7.812500
2078,11.718750
2079,11.718750
2080,11.718750
2081,11.718750
2082,15.625000
2083,15.625000
2084,15.625000
2085,15.625000
2086,15.625000
2087,19.531250
2088,19.531250
2089,19.531250
2090,19.531250
2091,23.437500
2092,23.437500
2093,23.437500
2094,23.437500
2095,23.437500
2096,23.437500
2097,27.343750
2098,27.343750
2099,27.343750
2100,27.343750
2101,27.343750
2102,31.250000
2103,31.250000
2104,31.250000
2105,31.250000
2106,31.250000
2107,35.156250
2108,35.156250
2109,35.156250
2110,35.156250
2111,35.156250
2112,39.062500
2113,39.062500
2114,39.062500
2115,39.062500
2116,39.062500
2117,39.062500
2118,42.968750
2119,42.968750
2120,42.968750
2121,42.968750
2122,42.968750
2123,46.875000
2124,46.875000
2125,46.875000
2126,46.875000
2127,46.875000
2128,50.781250
2129,50.781250
2130,50.781250
2131,50.781250
2132,50.781250
2133,54.687500
2134,54.687500
2135,54.687500
2136,54.687500
2137,54.687500
2138,54.687500
2139,58.593750
2140,58.593750
2141,58.593750
2142,58.593750
2143,58.593750
2144,58.593750
2145,62.500000
2146,62.500000
2147,62.500000
2148,62.500000
2149,62.500000
2150,62.500000
2151,66.406250
2152,66.406250
2153,66.406250
2154,66.406250
2155,66.406250
2156,66.406250
2157,66.406250
2158,70.312500
2159,70.312500
2160,70.312500
2161,70.312500
2162,70.312500
2163,70.312500
2164,74.218750
2165,74.218750
2166,74.218750
2167,74.218750
2168,74.218750
2169,74.218750
2170,78.125000
2171,78.125000
2172,78.125000
2173,78.125000
2174,78.125000
2175,78.125000
2176,78.125000
2177,78.125000
2178,82.031250
2179,82.031250
2180,82.031250
2181,82.031250
2182,82.031250
2183,82.031250
2184,82.031250
2185,82.031250
2186,85.937500
2187,82.031250
2188,85.937500
2189,85.937500
2190,85.937500
2191,85.937500
2192,85.937500
2193,85.937500
2194,85.937500
2195,85.937500
2196,89.843750
2197,89.843750
2198,89.843750
2199,89.843750
2200,89.843750
2201,89.843750
2202,89.843750
2203,89.843750
2204,93.750000
2205,93.750000
2206,93.750000
2207,93.750000
2208,93.750000
2209,93.750000
2210,93.750000
2211,93.750000
2212,93.750000
2213,97.656250
2214,97.656250
2215,97.656250
2216,97.656250
2217,97.656250
2218,97.656250
2219,97.656250
2220,97.656250
2221,97.656250
2222,97.656250
2223,101.562500
2224,101.562500
2225,97.656250
2226,101.562500
2227,101.562500
2228,101.562500
2229,101.562500
2230,101.562500
2231,101.562500
2232,101.562500
2233,101.562500
2234,101.562500
2235,101.562500
2236,105.468750
2237,105.468750
2238,105.468750
2239,105.468750
2240,105.468750
2241,105.468750
2242,105.468750
2243,105.468750
2244,105.468750
2245,105.468750
2246,105.468750
2247,105.468750
2248,105.468750
2249,105.468750
2250,109.375000
2251,105.468750
2252,109.375000
2253,109.375000
2254,109.375000
2255,109.375000
2256,109.375000
2257,109.375000
2258,109.375000
2259,109.375000
2260,109.375000
2261,109.375000
2262,109.375000
2263,109.375000
2264,109.375000
2265,109.375000
2266,113.281250
2267,109.375000
2268,113.281250
2269,113.281250
2270,113.281250
2271,113.281250
2272,109.375000
2273,113.281250
2274,113.281250
2275,113.281250
2276,113.281250
2277,113.281250
2278,113.281250
2279,113.281250
2280,113.281250
2281,113.281250
2282,113.281250
2283,113.281250
2284,113.281250
2285,113.281250
2286,113.281250
2287,113.281250
2288,113.281250
2289,113.281250
2290,113.281250
2291,113.281250
2292,113.281250
2293,113.281250
2294,113.281250
2295,113.281250
2296,113.281250
2297,113.281250
2298,113.281250
2299,117.187500
2300,117.187500
2301,117.187500
2302,113.281250
2303,113.281250
2304,113.281250
2305,113.281250
2306,113.281250
2307,113.281250
2308,113.281250
2309,113.281250
2310,113.281250
2311,113.281250
2312,113.281250
2313,113.281250
2314,113.281250
2315,113.281250
2316,113.281250
2317,113.281250
2318,113.281250
2319,113.281250
2320,113.281250
2321,113.281250
2322,113.281250
2323,113.281250
2324,113.281250
2325,113.281250
2326,113.281250
2327,113.281250
2328,113.281250
2329,113.281250
2330,113.281250
2331,113.281250
2332,113.281250
2333,113.281250
2334,113.281250
2335,113.281250
2336,113.281250
2337,113.281250
2338,113.281250
2339,113.281250
2340,113.281250
2341,113.281250
2342,113.281250
2343,113.281250
2344,113.281250
2345,109.375000
2346,109.375000
2347,109.375000
2348,113.281250
2349,109.375000
2350,109.375000
2351,109.375000
2352,109.375000
2353,109.375000
2354,109.375000
2355,109.375000
2356,109.375000
2357,109.375000
2358,109.375000
2359,109.375000
2360,109.375000
2361,109.375000
2362,109.375000
2363,109.375000
2364,109.375000
2365,105.468750
2366,105.468750
2367,105.468750
2368,105.468750
2369,105.468750
2370,105.468750
2371,105.468750
2372,105.468750
2373,105.468750
2374,105.468750
2375,105.468750
2376,105.468750
2377,105.468750
2378,105.468750
2379,101.562500
2380,101.562500
2381,101.562500
2382,101.562500
2383,101.562500
2384,101.562500
2385,101.562500
2386,101.562500
2387,101.562500
2388,101.562500
2389,101.562500
2390,101.562500
2391,97.656250
2392,97.656250
2393,97.656250
2394,97.656250
2395,97.656250
2396,97.656250
2397,97.656250
2398,97.656250
2399,97.656250
2400,97.656250
2401,93.750000
2402,97.656250
2403,93.750000
2404,93.750000
2405,93.750000
2406,93.750000
2407,93.750000
2408,93.750000
2409,93.750000
2410,89.843750
2411,89.843750
2412,89.843750
2413,89.843750
2414,89.843750
2415,89.843750
2416,89.843750
2417,89.843750
2418,89.843750
2419,85.937500
2420,85.937500
2421,85.937500
2422,85.937500
2423,85.937500
2424,85.937500
2425,85.937500
2426,85.937500
2427,85.937500
2428,85.937500
2429,82.031250
2430,82.031250
2431,82.031250
2432,82.031250
2433,82.031250
2434,82.031250
2435,78.125000
2436,78.125000
2437,78.125000
2438,78.125000
2439,78.125000
2440,78.125000
2441,74.218750
2442,74.218750
2443,74.218750
2444,74.218750
2445,74.218750
2446,74.218750
2447,74.218750
2448,74.218750
2449,70.312500
2450,70.312500
2451,70.312500
2452,70.312500
2453,70.312500
2454,66.406250
2455,66.406250
2456,66.406250
2457,66.406250
2458,66.406250
2459,66.406250
2460,62.500000
2461,62.500000
2462,62.500000
2463,62.500000
2464,62.500000
2465,58.593750
2466,58.593750
2467,58.593750
2468,58.593750
2469,58.593750
2470,58.593750
2471,54.687500
2472,54.687500
2473,54.687500
2474,54.687500
2475,54.687500
2476,54.687500
2477,54.687500
2478,50.781250
2479,50.781250
2480,50.781250
2481,50.781250
2482,46.875000
2483,46.875000
2484,46.875000
2485,46.875000
2486,46.875000
2487,42.968750
2488,42.968750
2489,42.968750
2490,42.968750
2491,42.968750
2492,39.062500
2493,39.062500
2494,39.062500
2495,39.062500
2496,39.062500
2497,39.062500
2498,35.156250
2499,35.156250
2500,35.156250
2501,35.156250
2502,35.156250
2503,31.250000
2504,31.250000
2505,31.250000
2506,31.250000
2507,27.343750
2508,27.343750
2509,27.343750
2510,27.343750
2511,27.343750
2512,23.437500
2513,23.437500
2514,23.437500
2515,23.437500
2516,23.437500
2517,19.531250
2518,19.531250
2519,19.531250
2520,19.531250
2521,15.625000
2522,15.625000
2523,15.625000
2524,15.625000
2525,15.625000
2526,11.718750
2527,11.718750
2528,11.718750
2529,11.718750
2530,11.718750
2531,7.812500
2532,7.812500
2533,7.812500
2534,7.812500
2535,3.906250
2536,3.906250
2537,3.906250
2538,3.906250
2539,0.000000
2540,0.000000
2541,0.000000
2542,0.000000
2543,0.000000
2544,-3.906250
2545,-3.906250
2546,-3.906250
2547,-3.906250
2548,-3.906250
2549,-7.812500
2550,-7.812500
2551,-7.812500
2552,-7.812500
2553,-11.718750
2554,-11.718750
2555,-11.718750
2556,-11.718750
2557,-15.625000
2558,-15.625000
2559,-15.625000
2560,-15.625000
2561,-15.625000
2562,-19.531250
2563,-19.531250
2564,-19.531250
2565,-19.531250
2566,-23.437500
2567,-23.437500
2568,-23.437500
2569,-23.437500
2570,-27.343750
2571,-27.343750
2572,-27.343750
2573,-31.250000
2574,-31.250000
2575,-31.250000
2576,-31.250000
2577,-31.250000
2578,-31.250000
2579,-35.156250
2580,-35.156250
2581,-35.156250
2582,-35.156250
2583,-39.062500
2584,-39.062500
2585,-39.062500
2586,-39.062500
2587,-39.062500
2588,-42.968750
2589,-42.968750
2590,-42.968750
2591,-46.875000
2592,-46.875000
2593,-46.875000
2594,-46.875000
2595,-46.875000
2596,-50.781250
2597,-50.781250
2598,-50.781250
2599,-50.781250
2600,-54.687500
2601,-54.687500
2602,-54.687500
2603,-54.687500
2604,-58.593750
2605,-58.593750
2606,-58.593750
2607,-58.593750
2608,-58.593750
2609,-62.500000
2610,-62.500000
2611,-62.500000
2612,-62.500000
2613,-66.406250
2614,-66.406250
2615,-66.406250
2616,-66.406250
2617,-66.406250
2618,-70.312500
2619,-70.312500
2620,-70.312500
2621,-70.312500
2622,-70.312500
2623,-74.218750
2624,-74.218750
2625,-74.218750
2626,-74.218750
2627,-78.125000
2628,-78.125000
2629,-78.125000
2630,-78.125000
2631,-78.125000
2632,-82.031250
2633,-82.031250
2634,-82.031250
2635,-82.031250
2636,-85.937500
2637,-85.937500
2638,-85.937500
2639,-85.937500
2640,-85.937500
2641,-89.843750
2642,-89.843750
2643,-89.843750
2644,-89.843750
2645,-89.843750
2646,-93.750000
2647,-93.750000
2648,-93.750000
2649,-93.750000
2650,-93.750000
2651,-97.656250
2652,-97.656250
2653,-97.656250
2654,-97.656250
2655,-97.656250
2656,-97.656250
2657,-101.562500
2658,-101.562500
2659,-101.562500
2660,-101.562500
2661,-101.562500
2662,-105.468750
2663,-105.468750
2664,-105.468750
2665,-105.468750
2666,-105.468750
2667,-109.375000
2668,-109.375000
2669,-109.375000
2670,-109.375000
2671,-109.375000
2672,-109.375000
2673,-113.281250
2674,-113.281250
2675,-113.281250
2676,-113.281250
2677,-113.281250
2678,-117.187500
2679,-117.187500
2680,-117.187500
2681,-117.187500
2682,-117.187500
2683,-117.187500
2684,-117.187500
2685,-117.187500
2686,-121.093750
2687,-121.093750
2688,-121.093750
2689,-121.093750
2690,-125.000000
2691,-125.000000
2692,-125.000000
2693,-125.000000
2694,-125.000000
2695,-125.000000
2696,-125.000000
2697,-128.906250
2698,-128.906250
2699,-128.906250
2700,-128.906250
2701,-128.906250
2702,-132.812500
2703,-128.906250
2704,-128.906250
2705,-132.812500
2706,-132.812500
2707,-132.812500
2708,-132.812500
2709,-132.812500
2710,-132.812500
2711,-136.718750
2712,-136.718750
2713,-136.718750
2714,-136.718750
2715,-136.718750
2716,-136.718750
2717,-136.718750
2718,-140.625000
2719,-140.625000
2720,-140.625000
2721,-140.625000
2722,-140.625000
2723,-140.625000
2724,-140.625000
2725,-140.625000
2726,-140.625000
2727,-140.625000
2728,-144.531250
2729,-144.531250
2730,-144.531250
2731,-144.531250
2732,-144.531250
2733,-144.531250
2734,-144.531250
2735,-144.531250
2736,-148.437500
2737,-148.437500
2738,-148.437500
2739,-148.437500
2740,-148.437500
2741,-148.437500
2742,-148.437500
2743,-148.437500
2744,-148.437500
2745,-152.343750
2746,-152.343750
2747,-152.343750
2748,-152.343750
2749,-152.343750
2750,-152.343750
2751,-152.343750
2752,-152.343750
2753,-152.343750
2754,-152.343750
2755,-152.343750
2756,-152.343750
2757,-152.343750
2758,-152.343750
2759,-152.343750
2760,-152.343750
2761,-156.250000
2762,-152.343750
2763,-152.343750
2764,-156.250000
2765,-156.250000
2766,-156.250000
2767,-156.250000
2768,-156.250000
2769,-156.250000
2770,-156.250000
2771,-156.250000
2772,-156.250000
2773,-156.250000
2774,-156.250000
2775,-156.250000
2776,-156.250000
2777,-156.250000
2778,-156.250000
2779,-156.250000
2780,-156.250000
2781,-156.250000
2782,-156.250000
2783,-156.250000
2784,-156.250000
2785,-156.250000
2786,-156.250000
2787,-160.156250
2788,-156.250000
2789,-156.250000
2790,-156.250000
2791,-156.250000
2792,-160.156250
2793,-160.156250
2794,-156.250000
2795,-156.250000
2796,-156.250000
2797,-156.250000
2798,-156.250000
2799,-156.250000
2800,-156.250000
2801,-156.250000
2802,-156.250000
2803,-156.250000
2804,-156.250000
2805,-156.250000
2806,-156.250000
2807,-156.250000
2808,-156.250000
2809,-156.250000
2810,-156.250000
2811,-156.250000
2812,-156.250000
2813,-156.250000
2814,-156.250000
2815,-156.250000
2816,-156.250000
2817,-156.250000
2818,-156.250000
2819,-156.250000
2820,-156.250000
2821,-156.250000
2822,-156.250000
2823,-156.250000
2824,-156.250000
2825,-156.250000
2826,-156.250000
2827,-152.343750
2828,-152.343750
2829,-156.250000
2830,-152.343750
2831,-152.343750
2832,-152.343750
2833,-152.343750
2834,-152.343750
2835,-152.343750
2836,-152.343750
2837,-152.343750
2838,-152.343750
2839,-152.343750
2840,-152.343750
2841,-152.343750
2842,-152.343750
2843,-152.343750
2844,-152.343750
2845,-152.343750
2846,-148.437500
2847,-148.437500
2848,-148.437500
2849,-148.437500
2850,-148.437500
2851,-148.437500
2852,-148.437500
2853,-148.437500
2854,-144.531250
2855,-148.437500
2856,-148.437500
2857,-144.531250
2858,-144.531250
2859,-144.531250
2860,-144.531250
2861,-144.531250
2862,-144.531250
2863,-144.531250
2864,-144.531250
2865,-144.531250
2866,-140.625000
2867,-140.625000
2868,-140.625000
2869,-140.625000
2870,-140.625000
2871,-140.625000
2872,-140.625000
2873,-140.625000
2874,-140.625000
2875,-136.718750
2876,-136.718750
2877,-136.718750
2878,-136.718750
2879,-136.718750
2880,-136.718750
2881,-136.718750
2882,-136.718750
2883,-132.812500
2884,-132.812500
2885,-132.812500
2886,-132.812500
2887,-132.812500
2888,-132.812500
2889,-132.812500
2890,-128.906250
2891,-128.906250
2892,-128.906250
2893,-128.906250
2894,-128.906250
2895,-128.906250
2896,-125.000000
2897,-125.000000
2898,-125.000000
2899,-125.000000
2900,-125.000000
2901,-125.000000
2902,-121.093750
2903,-121.093750
2904,-121.093750
2905,-121.093750
2906,-121.093750
2907,-121.093750
2908,-117.187500
2909,-117.187500
2910,-117.187500
2911,-117.187500
2912,-117.187500
2913,-113.281250
2914,-113.281250
2915,-113.281250
2916,-113.281250
2917,-113.281250
2918,-113.281250
2919,-113.281250
2920,-109.375000
2921,-109.375000
2922,-109.375000
2923,-109.375000
2924,-109.375000
2925,-105.468750
2926,-105.468750
2927,-105.468750
2928,-105.468750
2929,-105.468750
2930,-105.468750
2931,-101.562500
2932,-101.562500
2933,-101.562500
2934,-101.562500
2935,-101.562500
2936,-97.656250
2937,-101.562500
2938,-97.656250
2939,-97.656250
2940,-97.656250
2941,-97.656250
2942,-93.750000
2943,-93.750000
2944,-93.750000
2945,-93.750000
2946,-89.843750
2947,-89.843750
2948,-89.843750
2949,-89.843750
2950,-89.843750
2951,-89.843750
2952,-85.937500
2953,-85.937500
2954,-85.937500
2955,-85.937500
2956,-82.031250
2957,-82.031250
2958,-82.031250
2959,-82.031250
2960,-82.031250
2961,-78.125000
2962,-78.125000
2963,-78.125000
2964,-78.125000
2965,-78.125000
2966,-78.125000
2967,-74.218750
2968,-74.218750
2969,-74.218750
2970,-74.218750
2971,-74.218750
2972,-70.312500
2973,-70.312500
2974,-70.312500
2975,-66.406250
2976,-66.406250
2977,-66.406250
2978,-66.406250
2979,-66.406250
2980,-66.406250
2981,-62.500000
2982,-62.500000
2983,-62.500000
2984,-62.500000
2985,-62.500000
2986,-58.593750
2987,-58.593750
2988,-58.593750
2989,-58.593750
2990,-54.687500
2991,-54.687500
2992,-54.687500
2993,-54.687500
2994,-50.781250
2995,-50.781250
2996,-50.781250
2997,-50.781250
2998,-50.781250
2999,-50.781250
3000,-46.875000
3001,-46.875000
3002,-46.875000
3003,-42.968750
3004,-42.968750
3005,-42.968750
3006,-42.968750
3007,-42.968750
3008,-39.062500
3009,-39.062500
3010,-39.062500
3011,-39.062500
3012,-39.062500
3013,-35.156250
3014,-35.156250
3015,-35.156250
3016,-31.250000
3017,-31.250000
3018,-31.250000
3019,-31.250000
3020,-27.343750
3021,-31.250000
3022,-27.343750
3023,-27.343750
3024,-27.343750
3025,-23.437500
3026,-23.437500
3027,-23.437500
3028,-23.437500
3029,-23.437500
3030,-23.437500
3031,-19.531250
3032,-19.531250
3033,-19.531250
3034,-15.625000
3035,-15.625000
3036,-15.625000
3037,-15.625000
3038,-15.625000
3039,-11.718750
3040,-11.718750
3041,-11.718750
3042,-11.718750
3043,-7.812500
3044,-7.812500
3045,-7.812500
3046,-7.812500
3047,-7.812500
3048,-3.906250
3049,-3.906250
3050,-3.906250
3051,-3.906250
3052,0.000000
3053,0.000000
3054,0.000000
3055,0.000000
3056,0.000000
3057,3.906250
3058,3.906250
3059,3.906250
3060,3.906250
3061,7.812500
3062,7.812500
3063,7.812500
3064,7.812500
3065,7.812500
3066,11.718750
3067,11.718750
3068,11.718750
3069,11.718750
3070,15.625000
3071,15.625000
3072,15.625000
3073,15.625000
3074,15.625000
3075,15.625000
3076,19.531250
3077,19.531250
3078,19.531250
3079,19.531250
3080,19.531250
3081,23.437500
3082,23.437500
3083,23.437500
3084,23.437500
3085,23.437500
3086,27.343750
3087,27.343750
3088,27.343750
3089,27.343750
3090,27.343750
3091,31.250000
3092,31.250000
3093,31.250000
3094,31.250000
3095,31.250000
3096,35.156250
3097,35.156250
3098,35.156250
3099,35.156250
3100,35.156250
3101,39.062500
3102,39.062500
3103,39.062500
3104,39.062500
3105,39.062500
3106,42.968750
3107,42.968750
3108,42.968750
3109,42.968750
3110,42.968750
3111,42.968750
3112,46.875000
3113,46.875000
3114,46.875000
3115,46.875000
3116,50.781250
3117,50.781250
3118,50.781250
3119,50.781250
3120,50.781250
3121,50.781250
3122,50.781250
3123,54.687500
3124,54.687500
3125,54.687500
3126,54.687500
3127,54.687500
3128,54.687500
3129,58.593750
3130,58.593750
3131,58.593750
3132,58.593750
3133,58.593750
3134,62.500000
3135,62.500000
3136,62.500000
3137,62.500000
3138,62.500000
3139,62.500000
3140,62.500000
3141,66.406250
3142,66.406250
3143,66.406250
3144,66.406250
3145,66.406250
3146,66.406250
3147,70.312500
3148,70.312500
3149,70.312500
3150,70.312500
3151,70.312500
3152,70.312500
3153,70.312500
3154,74.218750
3155,74.218750
3156,74.218750
3157,74.218750
3158,74.218750
3159,74.218750
3160,78.125000
3161,74.218750
3162,78.125000
3163,78.125000
3164,78.125000
3165,78.125000
3166,78.125000
3167,82.031250
3168,82.031250
3169,82.031250
3170,82.031250
3171,82.031250
3172,82.031250
3173,82.031250
3174,85.937500
3175,85.937500
3176,85.937500
3177,85.937500
3178,85.937500
3179,85.937500
3180,85.937500
3181,89.843750
3182,85.937500
3183,85.937500
3184,89.843750
3185,89.843750
3186,89.843750
3187,89.843750
3188,89.843750
3189,89.843750
3190,89.843750
3191,93.750000
3192,89.843750
3193,93.750000
3194,93.750000
3195,93.750000
3196,93.750000
3197,93.750000
3198,93.750000
3199,93.750000
3200,93.750000
3201,93.750000
3202,97.656250
3203,97.656250
3204,97.656250
3205,97.656250
3206,97.656250
3207,97.656250
3208,97.656250
3209,97.656250
3210,101.562500
3211,101.562500
3212,101.562500
3213,101.562500
3214,101.562500
3215,101.562500
3216,101.562500
3217,101.562500
3218,101.562500
3219,101.562500
3220,101.562500
3221,101.562500
3222,105.468750
3223,105.468750
3224,105.468750
3225,105.468750
3226,105.468750
3227,105.468750
3228,105.468750
3229,105.468750
3230,105.468750
3231,105.468750
3232,105.468750
3233,105.468750
3234,105.468750
3235,105.468750
3236,105.468750
3237,105.468750
3238,105.468750
3239,105.468750
3240,105.468750
3241,109.375000
3242,109.375000
3243,109.375000
3244,109.375000
3245,109.375000
3246,109.375000
3247,109.375000
3248,109.375000
3249,109.375000
3250,109.375000
3251,109.375000
3252,109.375000
3253,109.375000
3254,109.375000
3255,109.375000
3256,109.375000
3257,109.375000
3258,113.281250
3259,113.281250
3260,113.281250
3261,113.281250
3262,113.281250
3263,113.281250
3264,113.281250
3265,113.281250
3266,113.281250
3267,113.281250
3268,113.281250
3269,113.281250
3270,113.281250
3271,113.281250
3272,113.281250
3273,113.281250
3274,113.281250
3275,113.281250
3276,113.281250
3277,113.281250
3278,113.281250
3279,113.281250
3280,113.281250
3281,113.281250
3282,113.281250
3283,113.281250
3284,113.281250
3285,113.281250
3286,113.281250
3287,113.281250
3288,113.281250
3289,113.281250
3290,113.281250
3291,113.281250
3292,113.281250
3293,113.281250
3294,113.281250
3295,113.281250
3296,113.281250
3297,113.281250
3298,113.281250
3299,113.281250
3300,113.281250
3301,113.281250
3302,113.281250
3303,113.281250
3304,117.187500
3305,113.281250
3306,113.281250
3307,113.281250
3308,113.281250
3309,113.281250
3310,113.281250
3311,113.281250
3312,113.281250
3313,113.281250
3314,113.281250
3315,113.281250
3316,113.281250
3317,113.281250
3318,113.281250
3319,113.281250
3320,113.281250
3321,113.281250
3322,113.281250
3323,113.281250
3324,113.281250
3325,113.281250
3326,113.281250
3327,113.281250
3328,113.281250
3329,113.281250
3330,113.281250
3331,113.281250
3332,113.281250
3333,113.281250
3334,113.281250
3335,113.281250
3336,113.281250
3337,109.375000
3338,113.281250
3339,109.375000
3340,109.375000
3341,109.375000
3342,109.375000
3343,109.375000
3344,109.375000
3345,109.375000
3346,109.375000
3347,109.375000
3348,109.375000
3349,109.375000
3350,109.375000
3351,109.375000
3352,109.375000
3353,105.468750
3354,105.468750
3355,105.468750
3356,109.375000
3357,105.468750
3358,105.468750
3359,105.468750
3360,105.468750
3361,105.468750
3362,105.468750
3363,105.468750
3364,105.468750
3365,105.468750
3366,105.468750
3367,105.468750
3368,105.468750
3369,105.468750
3370,101.562500
3371,101.562500
3372,101.562500
3373,101.562500
3374,101.562500
3375,101.562500
3376,101.562500
3377,101.562500
3378,97.656250
3379,101.562500
3380,101.562500
3381,97.656250
3382,97.656250
3383,97.656250
3384,97.656250
3385,97.656250
3386,97.656250
3387,97.656250
3388,93.750000
3389,97.656250
3390,93.750000
3391,93.750000
3392,93.750000
3393,93.750000
3394,93.750000
3395,93.750000
3396,93.750000
3397,93.750000
3398,93.750000
3399,93.750000
3400,89.843750
3401,89.843750
3402,89.843750
3403,89.843750
3404,89.843750
3405,89.843750
3406,85.937500
3407,85.937500
3408,85.937500
3409,85.937500
3410,85.937500
3411,85.937500
3412,85.937500
3413,85.937500
3414,85.937500
3415,82.031250
3416,82.031250
3417,82.031250
3418,82.031250
3419,82.031250
3420,82.031250
3421,82.031250
3422,78.125000
3423,78.125000
3424,78.125000
3425,78.125000
3426,78.125000
3427,78.125000
3428,78.125000
3429,74.218750
3430,74.218750
3431,74.218750
3432,74.218750
3433,74.218750
3434,74.218750
3435,74.218750
3436,70.312500
3437,70.312500
3438,70.312500
3439,70.312500
3440,70.312500
3441,70.312500
3442,66.406250
3443,66.406250
3444,66.406250
3445,66.406250
3446,66.406250
3447,66.406250
3448,66.406250
3449,62.500000
3450,62.500000
3451,62.500000
3452,62.500000
3453,62.500000
3454,62.500000
3455,62.500000
3456,58.593750
3457,58.593750
3458,58.593750
3459,58.593750
3460,58.593750
3461,54.687500
3462,54.687500
3463,54.687500
3464,54.687500
3465,54.687500
3466,54.687500
3467,50.781250
3468,50.781250
3469,50.781250
3470,50.781250
3471,50.781250
3472,46.875000
3473,46.875000
3474,46.875000
3475,46.875000
3476,46.875000
3477,42.968750
3478,42.968750
3479,42.968750
3480,42.968750
3481,39.062500
3482,42.968750
3483,39.062500
3484,39.062500
3485,39.062500
3486,39.062500
3487,35.156250
3488,35.156250
3489,35.156250
3490,35.156250
3491,35.156250
3492,31.250000
3493,31.250000
3494,31.250000
3495,31.250000
3496,27.343750
3497,27.343750
3498,27.343750
3499,27.343750
3500,23.437500
3501,23.437500
3502,23.437500
3503,23.437500
3504,23.437500
3505,23.437500
3506,19.531250
3507,19.531250
3508,19.531250
3509,15.625000
3510,15.625000
3511,15.625000
3512,15.625000
3513,15.625000
3514,15.625000
3515,11.718750
3516,11.718750
3517,11.718750
3518,7.812500
3519,11.718750
3520,7.812500
3521,7.812500
3522,7.812500
3523,3.906250
3524,3.906250
3525,3.906250
3526,3.906250
3527,3.906250
3528,0.000000
3529,0.000000
3530,0.000000
3531,0.000000
3532,0.000000
3533,-3.906250
3534,-3.906250
3535,-3.906250
3536,-7.812500
3537,-7.812500
3538,-7.812500
3539,-7.812500
3540,-7.812500
3541,-11.718750
3542,-11.718750
3543,-11.718750
3544,-11.718750
3545,-15.625000
3546,-15.625000
3547,-15.625000
3548,-15.625000
3549,-19.531250
3550,-19.531250
3551,-19.531250
3552,-19.531250
3553,-19.531250
3554,-19.531250
3555,-23.437500
3556,-23.437500
3557,-23.437500
3558,-23.437500
3559,-27.343750
3560,-27.343750
3561,-27.343750
3562,-31.250000
3563,-31.250000
3564,-31.250000
3565,-31.250000
3566,-31.250000
3567,-35.156250
3568,-35.156250
3569,-35.156250
3570,-35.156250
3571,-39.062500
3572,-39.062500
3573,-39.062500
3574,-39.062500
3575,-39.062500
3576,-39.062500
3577,-42.968750
3578,-42.968750
3579,-42.968750
3580,-46.875000
3581,-46.875000
3582,-46.875000
3583,-46.875000
3584,-46.875000
3585,-50.781250
3586,-50.781250
3587,-50.781250
3588,-54.687500
3589,-54.687500
3590,-54.687500
3591,-54.687500
3592,-54.687500
3593,-58.593750
3594,-58.593750
3595,-58.593750
3596,-58.593750
3597,-58.593750
3598,-62.500000
3599,-62.500000
3600,-62.500000
3601,-62.500000
3602,-66.406250
3603,-66.406250
3604,-66.406250
3605,-66.406250
3606,-66.406250
3607,-70.312500
3608,-70.312500
3609,-70.312500
3610,-70.312500
3611,-74.218750
3612,-74.218750
3613,-74.218750
3614,-74.218750
3615,-78.125000
3616,-74.218750
3617,-78.125000
3618,-78.125000
3619,-78.125000
3620,-82.031250
3621,-82.031250
3622,-82.031250
3623,-82.031250
3624,-82.031250
3625,-85.937500
3626,-85.937500
3627,-85.937500
3628,-85.937500
3629,-89.843750
3630,-89.843750
3631,-89.843750
3632,-89.843750
3633,-89.843750
3634,-93.750000
3635,-93.750000
3636,-93.750000
3637,-93.750000
3638,-93.750000
3639,-97.656250
3640,-97.656250
3641,-97.656250
3642,-97.656250
3643,-97.656250
3644,-101.562500
3645,-101.562500
3646,-101.562500
3647,-101.562500
3648,-101.562500
3649,-101.562500
3650,-105.468750
3651,-105.468750
3652,-105.468750
3653,-105.468750
3654,-105.468750
3655,-109.375000
3656,-109.375000
3657,-109.375000
3658,-109.375000
3659,-109.375000
3660,-113.281250
3661,-113.281250
3662,-113.281250
3663,-113.281250
3664,-113.281250
3665,-113.281250
3666,-117.187500
3667,-117.187500
3668,-117.187500
3669,-117.187500
3670,-117.187500
3671,-121.093750
3672,-117.187500
3673,-121.093750
3674,-121.093750
3675,-121.093750
3676,-121.093750
3677,-125.000000
3678,-121.093750
3679,-125.000000
3680,-125.000000
3681,-125.000000
3682,-125.000000
3683,-125.000000
3684,-128.906250
3685,-128.906250
3686,-128.906250
3687,-128.906250
3688,-128.906250
3689,-128.906250
3690,-128.906250
3691,-132.812500
3692,-132.812500
3693,-132.812500
3694,-132.812500
3695,-132.812500
3696,-132.812500
3697,-132.812500
3698,-136.718750
3699,-136.718750
3700,-136.718750
3701,-136.718750
3702,-136.718750
3703,-136.718750
3704,-136.718750
3705,-140.625000
3706,-140.625000
3707,-140.625000
3708,-140.625000
3709,-140.625000
3710,-140.625000
3711,-140.625000
3712,-140.625000
3713,-140.625000
3714,-144.531250
3715,-144.531250
3716,-144.531250
3717,-144.531250
3718,-144.531250
3719,-144.531250
3720,-144.531250
3721,-144.531250
3722,-144.531250
3723,-148.437500
3724,-148.437500
3725,-148.437500
3726,-148.437500
3727,-148.437500
3728,-148.437500
3729,-148.437500
3730,-148.437500
3731,-148.437500
3732,-148.437500
3733,-148.437500
3734,-148.437500
3735,-148.437500
3736,-152.343750
3737,-152.343750
3738,-152.343750
3739,-152.343750
3740,-152.343750
3741,-152.343750
3742,-152.343750
3743,-152.343750
3744,-152.343750
3745,-152.343750
3746,-152.343750
3747,-152.343750
3748,-156.250000
3749,-156.250000
3750,-156.250000
3751,-156.250000
3752,-156.250000
3753,-156.250000
3754,-156.250000
3755,-156.250000
3756,-156.250000
3757,-156.250000
3758,-156.250000
3759,-156.250000
3760,-156.250000
3761,-156.250000
3762,-156.250000
3763,-156.250000
3764,-156.250000
3765,-156.250000
3766,-156.250000
3767,-160.156250
3768,-156.250000
3769,-156.250000
3770,-160.156250
3771,-160.156250
3772,-156.250000
3773,-156.250000
3774,-156.250000
3775,-156.250000
3776,-160.156250
3777,-160.156250
3778,-160.156250
3779,-156.250000
3780,-160.156250
3781,-160.156250
3782,-156.250000
3783,-160.156250
3784,-160.156250
3785,-160.156250
3786,-156.250000
3787,-160.156250
3788,-160.156250
3789,-160.156250
3790,-156.250000
3791,-156.250000
3792,-156.250000
3793,-156.250000
3794,-160.156250
3795,-160.156250
3796,-160.156250
3797,-156.250000
3798,-156.250000
3799,-156.250000
3800,-156.250000
3801,-156.250000
3802,-156.250000
3803,-156.250000
3804,-156.250000
3805,-156.250000
3806,-156.250000
3807,-156.250000
3808,-156.250000
3809,-156.250000
3810,-156.250000
3811,-156.250000
3812,-156.250000
3813,-156.250000
3814,-156.250000
3815,-156.250000
3816,-156.250000
3817,-156.250000
3818,-152.343750
3819,-152.343750
3820,-152.343750
3821,-152.343750
3822,-152.343750
3823,-152.343750
3824,-152.343750
3825,-152.343750
3826,-152.343750
3827,-152.343750
3828,-152.343750
3829,-152.343750
3830,-152.343750
3831,-152.343750
3832,-152.343750
3833,-148.437500
3834,-148.437500
3835,-148.437500
3836,-148.437500
3837,-148.437500
3838,-148.437500
3839,-148.437500
3840,-148.437500
3841,-148.437500
3842,-148.437500
3843,-148.437500
3844,-144.531250
3845,-148.437500
3846,-144.531250
3847,-144.531250
3848,-144.531250
3849,-144.531250
3850,-144.531250
3851,-144.531250
3852,-144.531250
3853,-144.531250
3854,-140.625000
3855,-140.625000
3856,-140.625000
3857,-140.625000
3858,-140.625000
3859,-140.625000
3860,-140.625000
3861,-140.625000
3862,-140.625000
3863,-136.718750
3864,-136.718750
3865,-136.718750
3866,-136.718750
3867,-136.718750
3868,-136.718750
3869,-132.812500
3870,-136.718750
3871,-136.718750
3872,-132.812500
3873,-132.812500
3874,-132.812500
3875,-132.812500
3876,-132.812500
3877,-132.812500
3878,-132.812500
3879,-128.906250
3880,-128.906250
3881,-128.906250
3882,-128.906250
3883,-128.906250
3884,-128.906250
3885,-125.000000
3886,-125.000000
3887,-125.000000
3888,-125.000000
3889,-125.000000
3890,-125.000000
3891,-121.093750
3892,-121.093750
3893,-121.093750
3894,-121.093750
3895,-121.093750
3896,-121.093750
3897,-117.187500
3898,-117.187500
3899,-117.187500
3900,-117.187500
3901,-117.187500
3902,-117.187500
3903,-113.281250
3904,-113.281250
3905,-113.281250
3906,-113.281250
3907,-113.281250
3908,-113.281250
3909,-109.375000
3910,-109.375000
3911,-109.375000
3912,-109.375000
3913,-109.375000
3914,-109.375000
3915,-105.468750
3916,-105.468750
3917,-105.468750
3918,-105.468750
3919,-105.468750
3920,-101.562500
3921,-101.562500
3922,-101.562500
3923,-101.562500
3924,-101.562500
3925,-97.656250
3926,-97.656250
3927,-97.656250
3928,-97.656250
3929,-97.656250
3930,-97.656250
3931,-93.750000
3932,-93.750000
3933,-93.750000
3934,-93.750000
3935,-93.750000
3936,-89.843750
3937,-89.843750
3938,-89.843750
3939,-89.843750
3940,-89.843750
3941,-85.937500
3942,-85.937500
3943,-85.937500
3944,-85.937500
3945,-85.937500
3946,-82.031250
3947,-82.031250
3948,-82.031250
3949,-82.031250
3950,-78.125000
3951,-82.031250
3952,-78.125000
3953,-78.125000
3954,-78.125000
3955,-78.125000
3956,-74.218750
3957,-74.218750
3958,-74.218750
3959,-74.218750
3960,-70.312500
3961,-70.312500
3962,-70.312500
3963,-70.312500
3964,-66.406250
3965,-66.406250
3966,-66.406250
3967,-66.406250
3968,-66.406250
3969,-62.500000
3970,-62.500000
3971,-62.500000
3972,-62.500000
3973,-58.593750
3974,-58.593750
3975,-58.593750
3976,-58.593750
3977,-58.593750
3978,-58.593750
3979,-54.687500
3980,-54.687500
3981,-54.687500
3982,-50.781250
3983,-50.781250
3984,-50.781250
3985,-50.781250
3986,-50.781250
3987,-50.781250
3988,-46.875000
3989,-46.875000
3990,-46.875000
3991,-42.968750
3992,-42.968750
3993,-42.968750
3994,-42.968750
3995,-39.062500
3996,-39.062500
3997,-39.062500
3998,-39.062500
3999,-39.062500
4000,-35.156250
4001,-35.156250
4002,-35.156250
4003,-31.250000
4004,-35.156250
4005,-31.250000
4006,-31.250000
4007,-31.250000
4008,-31.250000
4009,-31.250000
4010,-27.343750
4011,-27.343750
4012,-27.343750
4013,-27.343750
4014,-23.437500
4015,-23.437500
4016,-23.437500
4017,-23.437500
4018,-23.437500
4019,-19.531250
4020,-19.531250
4021,-19.531250
4022,-19.531250
4023,-19.531250
4024,-15.625000
4025,-15.625000
4026,-15.625000
4027,-15.625000
4028,-11.718750
4029,-11.718750
4030,-11.718750
4031,-11.718750
4032,-11.718750
4033,-7.812500
4034,-7.812500
4035,-7.812500
4036,-7.812500
4037,-3.906250
4038,-3.906250
4039,-3.906250
4040,-3.906250
4041,0.000000
4042,0.000000
4043,0.000000
4044,0.000000
4045,0.000000
4046,3.906250
4047,3.906250
4048,3.906250
4049,3.906250
4050,3.906250
4051,7.812500
4052,7.812500
4053,7.812500
4054,7.812500
4055,7.812500
4056,11.718750
4057,11.718750
4058,11.718750
4059,11.718750
4060,15.625000
4061,15.625000
4062,15.625000
4063,15.625000
4064,19.531250
4065,19.531250
4066,19.531250
4067,19.531250
4068,19.531250
4069,19.531250
4070,23.437500
4071,23.437500
4072,23.437500
4073,23.437500
4074,23.437500
4075,27.343750
4076,27.343750
4077,27.343750
4078,31.250000
4079,31.250000
4080,31.250000
4081,31.250000
4082,31.250000
4083,31.250000
4084,35.156250
4085,35.156250
4086,35.156250
4087,35.156250
4088,39.062500
4089,39.062500
4090,39.062500
4091,39.062500
4092,39.062500
4093,39.062500
4094,39.062500
4095,42.968750
4096,42.968750
4097,42.968750
4098,42.968750
4099,42.968750
4100,46.875000
4101,46.875000
4102,46.875000
4103,46.875000
4104,46.875000
4105,50.781250
4106,50.781250
4107,50.781250
4108,50.781250
4109,50.781250
4110,54.687500
4111,54.687500
4112,54.687500
4113,54.687500
4114,54.687500
4115,54.687500
4116,58.593750
4117,58.593750
4118,58.593750
4119,58.593750
4120,58.593750
4121,58.593750
4122,58.593750
4123,62.500000
4124,62.500000
4125,62.500000
4126,62.500000
4127,62.500000
4128,66.406250
4129,66.406250
4130,66.406250
4131,66.406250
4132,66.406250
4133,66.406250
4134,66.406250
4135,66.406250
4136,70.312500
4137,70.312500
4138,70.312500
4139,70.312500
4140,70.312500
4141,74.218750
4142,74.218750
4143,74.218750
4144,74.218750
4145,74.218750
4146,74.218750
4147,74.218750
4148,74.218750
4149,74.218750
4150,78.125000
4151,78.125000
4152,78.125000
4153,78.125000
4154,78.125000
4155,78.125000
4156,78.125000
4157,82.031250
4158,82.031250
4159,82.031250
4160,82.031250
4161,82.031250
4162,82.031250
4163,82.031250
4164,82.031250
4165,85.937500
4166,85.937500
4167,85.937500
4168,85.937500
4169,85.937500
4170,85.937500
4171,85.937500
4172,85.937500
4173,89.843750
4174,89.843750
4175,89.843750
4176,89.843750
4177,89.843750
4178,89.843750
4179,89.843750
4180,93.750000
4181,93.750000
4182,93.750000
4183,93.750000
4184,93.750000
4185,93.750000
4186,93.750000
4187,93.750000
4188,93.750000
4189,93.750000
4190,93.750000
4191,97.656250
4192,97.656250
4193,97.656250
4194,97.656250
4195,97.656250
4196,97.656250
4197,97.656250
4198,97.656250
4199,97.656250
4200,101.562500
4201,101.562500
4202,101.562500
4203,101.562500
4204,101.562500
4205,101.562500
4206,101.562500
4207,101.562500
4208,101.562500
4209,101.562500
4210,101.562500
4211,101.562500
4212,105.468750
4213,105.468750
4214,105.468750
4215,105.468750
4216,105.468750
4217,105.468750
4218,105.468750
4219,105.468750
4220,105.468750
4221,105.468750
4222,105.468750
4223,105.468750
4224,105.468750
4225,109.375000
4226,109.375000
4227,109.375000
4228,109.375000
4229,109.375000
4230,109.375000
4231,109.375000
4232,109.375000
4233,109.375000
4234,109.375000
4235,109.375000
4236,109.375000
4237,109.375000
4238,109.375000
4239,109.375000
4240,109.375000
4241,109.375000
4242,109.375000
4243,109.375000
4244,113.281250
4245,109.375000
4246,113.281250
4247,113.281250
4248,113.281250
4249,113.281250
4250,113.281250
4251,113.281250
4252,113.281250
4253,113.281250
4254,113.281250
4255,113.281250
4256,113.281250
4257,113.281250
4258,113.281250
4259,113.281250
4260,113.281250
4261,113.281250
4262,113.281250
4263,113.281250
4264,113.281250
4265,113.281250
4266,113.281250
4267,113.281250
4268,113.281250
4269,113.281250
4270,113.281250
4271,113.281250
4272,113.281250
4273,113.281250
4274,113.281250
4275,113.281250
4276,117.187500
4277,113.281250
4278,113.281250
4279,113.281250
4280,113.281250
4281,113.281250
4282,113.281250
4283,113.281250
4284,113.281250
4285,113.281250
4286,113.281250
4287,113.281250
4288,113.281250
4289,113.281250
4290,113.281250
4291,113.281250
4292,113.281250
4293,113.281250
4294,113.281250
4295,113.281250
4296,113.281250
4297,113.281250
4298,113.281250
4299,113.281250
4300,113.281250
4301,113.281250
4302,113.281250
4303,113.281250
4304,113.281250
4305,113.281250
4306,113.281250
4307,113.281250
4308,113.281250
4309,113.281250
4310,113.281250
4311,113.281250
4312,113.281250
4313,113.281250
4314,113.281250
4315,113.281250
4316,113.281250
4317,113.281250
4318,113.281250
4319,113.281250
4320,113.281250
4321,113.281250
4322,113.281250
4323,109.375000
4324,109.375000
4325,109.375000
4326,109.375000
4327,109.375000
4328,109.375000
4329,109.375000
4330,109.375000
4331,109.375000
4332,109.375000
4333,109.375000
4334,109.375000
4335,109.375000
4336,109.375000
4337,109.375000
4338,109.375000
4339,109.375000
4340,109.375000
4341,109.375000
4342,109.375000
4343,109.375000
4344,105.468750
4345,105.468750
4346,105.468750
4347,105.468750
4348,105.468750
4349,105.468750
4350,105.468750
4351,105.468750
4352,105.468750
4353,105.468750
4354,105.468750
4355,105.468750
4356,105.468750
4357,105.468750
4358,101.562500
4359,101.562500
4360,101.562500
4361,101.562500
4362,101.562500
4363,101.562500
4364,101.562500
4365,101.562500
4366,101.562500
4367,101.562500
4368,97.656250
4369,97.656250
4370,97.656250
4371,97.656250
4372,97.656250
4373,97.656250
4374,97.656250
4375,97.656250
4376,97.656250
4377,97.656250
4378,97.656250
4379,97.656250
4380,97.656250
4381,93.750000
4382,93.750000
4383,93.750000
4384,93.750000
4385,93.750000
4386,93.750000
4387,89.843750
4388,89.843750
4389,93.750000
4390,89.843750
4391,89.843750
4392,89.843750
4393,89.843750
4394,89.843750
4395,89.843750
4396,89.843750
4397,85.937500
4398,85.937500
4399,85.937500
4400,85.937500
4401,85.937500
4402,85.937500
4403,85.937500
4404,82.031250
4405,82.031250
4406,82.031250
4407,82.031250
4408,82.031250
4409,82.031250
4410,82.031250
4411,82.031250
4412,78.125000
4413,78.125000
4414,78.125000
4415,78.125000
4416,78.125000
4417,74.218750
4418,74.218750
4419,74.218750
4420,74.218750
4421,74.218750
4422,74.218750
4423,74.218750
4424,70.312500
4425,70.312500
4426,70.312500
4427,70.312500
4428,70.312500
4429,70.312500
4430,66.406250
4431,66.406250
4432,66.406250
4433,66.406250
4434,66.406250
4435,66.406250
4436,66.406250
4437,62.500000
4438,62.500000
4439,62.500000
4440,62.500000
4441,62.500000
4442,58.593750
4443,58.593750
4444,58.593750
4445,58.593750
4446,58.593750
4447,58.593750
4448,58.593750
4449,54.687500
4450,54.687500
4451,54.687500
4452,54.687500
4453,54.687500
4454,50.781250
4455,50.781250
4456,50.781250
4457,50.781250
4458,50.781250
4459,46.875000
4460,46.875000
4461,46.875000
4462,46.875000
4463,46.875000
4464,46.875000
4465,42.968750
4466,42.968750
4467,42.968750
4468,42.968750
4469,42.968750
4470,39.062500
4471,39.062500
4472,39.062500
4473,39.062500
4474,39.062500
4475,35.156250
4476,35.156250
4477,35.156250
4478,35.156250
4479,31.250000
4480,31.250000
4481,31.250000
4482,31.250000
4483,31.250000
4484,31.250000
4485,27.343750
4486,27.343750
4487,27.343750
4488,27.343750
4489,23.437500
4490,23.437500
4491,23.437500
4492,23.437500
4493,23.437500
4494,23.437500
4495,19.531250
4496,19.531250
4497,19.531250
4498,19.531250
4499,15.625000
4500,15.625000
4501,15.625000
4502,15.625000
4503,15.625000
4504,11.718750
4505,11.718750
4506,11.718750
4507,11.718750
4508,7.812500
4509,7.812500
4510,7.812500
4511,7.812500
4512,7.812500
4513,3.906250
4514,3.906250
4515,3.906250
4516,3.906250
4517,0.000000
4518,0.000000
4519,0.000000
4520,0.000000
4521,-3.906250
4522,-3.906250
4523,-3.906250
4524,-3.906250
4525,-3.906250
4526,-7.812500
4527,-7.812500
4528,-7.812500
4529,-7.812500
4530,-11.718750
4531,-11.718750
4532,-11.718750
4533,-11.718750
4534,-11.718750
4535,-15.625000
4536,-15.625000
4537,-15.625000
4538,-19.531250
4539,-19.531250
4540,-19.531250
4541,-19.531250
4542,-19.531250
4543,-23.437500
4544,-23.437500
4545,-23.437500
4546,-23.437500
4547,-23.437500
4548,-27.343750
4549,-27.343750
4550,-27.343750
4551,-31.250000
4552,-31.250000
4553,-31.250000
4554,-31.250000
4555,-31.250000
4556,-35.156250
4557,-35.156250
4558,-35.156250
4559,-35.156250
4560,-35.156250
4561,-39.062500
4562,-39.062500
4563,-39.062500
4564,-39.062500
4565,-42.968750
4566,-42.968750
4567,-42.968750
4568,-42.968750
4569,-46.875000
4570,-46.875000
4571,-46.875000
4572,-46.875000
4573,-50.781250
4574,-50.781250
4575,-50.781250
4576,-50.781250
4577,-54.687500
4578,-54.687500
4579,-54.687500
4580,-54.687500
4581,-54.687500
4582,-58.593750
4583,-58.593750
4584,-58.593750
4585,-58.593750
4586,-62.500000
4587,-62.500000
4588,-62.500000
4589,-62.500000
4590,-62.500000
4591,-66.406250
4592,-66.406250
4593,-66.406250
4594,-66.406250
4595,-70.312500
4596,-70.312500
4597,-70.312500
4598,-70.312500
4599,-70.312500
4600,-70.312500
4601,-74.218750
4602,-74.218750
4603,-74.218750
4604,-74.218750
4605,-78.125000
4606,-78.125000
4607,-78.125000
4608,-78.125000
4609,-82.031250
4610,-82.031250
4611,-82.031250
4612,-82.031250
4613,-82.031250
4614,-82.031250
4615,-85.937500
4616,-85.937500
4617,-85.937500
4618,-85.937500
4619,-89.843750
4620,-89.843750
4621,-89.843750
4622,-89.843750
4623,-93.750000
4624,-93.750000
4625,-93.750000
4626,-93.750000
4627,-93.750000
4628,-93.750000
4629,-97.656250
4630,-97.656250
4631,-97.656250
4632,-97.656250
4633,-101.562500
4634,-101.562500
4635,-101.562500
4636,-101.562500
4637,-101.562500
4638,-101.562500
4639,-101.562500
4640,-105.468750
4641,-105.468750
4642,-105.468750
4643,-109.375000
4644,-109.375000
4645,-109.375000
4646,-109.375000
4647,-109.375000
4648,-109.375000
4649,-113.281250
4650,-113.281250
4651,-113.281250
4652,-113.281250
4653,-113.281250
4654,-117.187500
4655,-117.187500
4656,-117.187500
4657,-117.187500
4658,-117.187500
4659,-117.187500
4660,-121.093750
4661,-121.093750
4662,-121.093750
4663,-121.093750
4664,-121.093750
4665,-121.093750
4666,-121.093750
4667,-125.000000
4668,-125.000000
4669,-125.000000
4670,-125.000000
4671,-125.000000
4672,-125.000000
4673,-128.906250
4674,-128.906250
4675,-128.906250
4676,-128.906250
4677,-128.906250
4678,-128.906250
4679,-128.906250
4680,-128.906250
4681,-132.812500
4682,-132.812500
4683,-132.812500
4684,-132.812500
4685,-132.812500
4686,-136.718750
4687,-136.718750
4688,-136.718750
4689,-136.718750
4690,-136.718750
4691,-136.718750
4692,-136.718750
4693,-136.718750
4694,-140.625000
4695,-140.625000
4696,-140.625000
4697,-140.625000
4698,-140.625000
4699,-140.625000
4700,-140.625000
4701,-140.625000
4702,-140.625000
4703,-144.531250
4704,-144.531250
4705,-144.531250
4706,-144.531250
4707,-144.531250
4708,-144.531250
4709,-144.531250
4710,-144.531250
4711,-148.437500
4712,-148.437500
4713,-148.437500
4714,-148.437500
4715,-148.437500
4716,-148.437500
4717,-148.437500
4718,-148.437500
4719,-148.437500
4720,-148.437500
4721,-148.437500
4722,-148.437500
4723,-148.437500
4724,-148.437500
4725,-152.343750
4726,-152.343750
4727,-152.343750
4728,-152.343750
4729,-152.343750
4730,-148.437500
4731,-152.343750
4732,-152.343750
4733,-152.343750
4734,-152.343750
4735,-152.343750
4736,-156.250000
4737,-152.343750
4738,-152.343750
4739,-152.343750
4740,-156.250000
4741,-156.250000
4742,-156.250000
4743,-156.250000
4744,-156.250000
4745,-156.250000
4746,-156.250000
4747,-156.250000
4748,-156.250000
4749,-156.250000
4750,-156.250000
4751,-156.250000
4752,-156.250000
4753,-156.250000
4754,-156.250000
4755,-156.250000
4756,-156.250000
4757,-156.250000
4758,-156.250000
4759,-160.156250
4760,-156.250000
4761,-160.156250
4762,-156.250000
4763,-156.250000
4764,-156.250000
4765,-160.156250
4766,-156.250000
4767,-156.250000
4768,-156.250000
4769,-160.156250
4770,-156.250000
4771,-156.250000
4772,-156.250000
4773,-160.156250
4774,-160.156250
4775,-156.250000
4776,-156.250000
4777,-156.250000
4778,-156.250000
4779,-156.250000
4780,-156.250000
4781,-156.250000
4782,-156.250000
4783,-156.250000
4784,-156.250000
4785,-156.250000
4786,-156.250000
4787,-156.250000
4788,-156.250000
4789,-156.250000
4790,-156.250000
4791,-156.250000
4792,-156.250000
4793,-156.250000
4794,-152.343750
4795,-156.250000
4796,-156.250000
4797,-156.250000
4798,-156.250000
4799,-156.250000
4800,-156.250000
4801,-156.250000
4802,-156.250000
4803,-156.250000
4804,-156.250000
4805,-156.250000
4806,-156.250000
4807,-156.250000
4808,-152.343750
4809,-152.343750
4810,-152.343750
4811,-152.343750
4812,-152.343750
4813,-152.343750
4814,-152.343750
4815,-152.343750
4816,-152.343750
4817,-152.343750
4818,-152.343750
4819,-152.343750
4820,-152.343750
4821,-152.343750
4822,-152.343750
4823,-152.343750
4824,-148.437500
4825,-148.437500
4826,-148.437500
4827,-148.437500
4828,-148.437500
4829,-148.437500
4830,-148.437500
4831,-148.437500
4832,-144.531250
4833,-144.531250
4834,-148.437500
4835,-144.531250
4836,-144.531250
4837,-144.531250
4838,-144.531250
4839,-144.531250
4840,-144.531250
4841,-144.531250
4842,-140.625000
4843,-144.531250
4844,-140.625000
4845,-140.625000
4846,-140.625000
4847,-140.625000
4848,-140.625000
4849,-140.625000
4850,-140.625000
4851,-140.625000
4852,-140.625000
4853,-136.718750
4854,-136.718750
4855,-136.718750
4856,-136.718750
4857,-136.718750
4858,-136.718750
4859,-136.718750
4860,-132.812500
4861,-132.812500
4862,-132.812500
4863,-132.812500
4864,-132.812500
4865,-132.812500
4866,-128.906250
4867,-128.906250
4868,-128.906250
4869,-128.906250
4870,-128.906250
4871,-128.906250
4872,-128.906250
4873,-125.000000
4874,-125.000000
4875,-125.000000
4876,-125.000000
4877,-125.000000
4878,-125.000000
4879,-121.093750
4880,-121.093750
4881,-121.093750
4882,-121.093750
4883,-121.093750
4884,-121.093750
4885,-117.187500
4886,-117.187500
4887,-117.187500
4888,-117.187500
4889,-117.187500
4890,-117.187500
4891,-117.187500
4892,-113.281250
4893,-113.281250
4894,-113.281250
4895,-113.281250
4896,-113.281250
4897,-113.281250
4898,-109.375000
4899,-109.375000
4900,-109.375000
4901,-109.375000
4902,-109.375000
4903,-105.468750
4904,-105.468750
4905,-105.468750
4906,-105.468750
4907,-105.468750
4908,-105.468750
4909,-105.468750
4910,-101.562500
4911,-101.562500
4912,-101.562500
4913,-101.562500
4914,-97.656250
4915,-97.656250
4916,-97.656250
4917,-97.656250
4918,-97.656250
4919,-93.750000
4920,-93.750000
4921,-93.750000
4922,-93.750000
4923,-93.750000
4924,-89.843750
4925,-89.843750
4926,-89.843750
4927,-89.843750
4928,-85.937500
4929,-85.937500
4930,-85.937500
4931,-85.937500
4932,-85.937500
4933,-85.937500
4934,-82.031250
4935,-82.031250
4936,-82.031250
4937,-82.031250
4938,-82.031250
4939,-78.125000
4940,-78.125000
4941,-78.125000
4942,-78.125000
4943,-78.125000
4944,-74.218750
4945,-74.218750
4946,-74.218750
4947,-74.218750
4948,-74.218750
4949,-70.312500
4950,-70.312500
4951,-70.312500
4952,-70.312500
4953,-66.406250
4954,-66.406250
4955,-66.406250
4956,-66.406250
4957,-66.406250
4958,-66.406250
4959,-62.500000
4960,-62.500000
4961,-62.500000
4962,-58.593750
4963,-58.593750
4964,-58.593750
4965,-58.593750
4966,-54.687500
4967,-54.687500
4968,-54.687500
4969,-54.687500
4970,-54.687500
4971,-50.781250
4972,-50.781250
4973,-50.781250
4974,-50.781250
4975,-50.781250
4976,-46.875000
4977,-46.875000
4978,-46.875000
4979,-46.875000
4980,-42.968750
4981,-42.968750
4982,-42.968750
4983,-42.968750
4984,-39.062500
4985,-39.062500
4986,-39.062500
4987,-39.062500
4988,-35.156250
4989,-35.156250
4990,-35.156250
4991,-35.156250
4992,-35.156250
4993,-31.250000
4994,-31.250000
4995,-31.250000
4996,-31.250000
4997,-31.250000
4998,-27.343750
4999,-27.343750
5000,-27.343750
5001,-27.343750
5002,-23.437500
5003,-23.437500
5004,-23.437500
5005,-19.531250
5006,-19.531250
5007,-19.531250
5008,-19.531250
5009,-19.531250
5010,-19.531250
5011,-15.625000
5012,-15.625000
5013,-15.625000
5014,-15.625000
5015,-11.718750
5016,-11.718750
5017,-11.718750
5018,-11.718750
5019,-11.718750
5020,-7.812500
5021,-7.812500
5022,-7.812500
5023,-7.812500
5024,-3.906250
5025,-3.906250
5026,-3.906250
5027,0.000000
5028,0.000000
5029,0.000000
5030,0.000000
5031,0.000000
5032,0.000000
5033,0.000000
5034,3.906250
5035,3.906250
5036,3.906250
5037,3.906250
5038,7.812500
5039,7.812500
5040,7.812500
5041,11.718750
5042,11.718750
5043,7.812500
5044,11.718750
5045,11.718750
5046,11.718750
5047,15.625000
5048,15.625000
5049,15.625000
5050,15.625000
5051,15.625000
5052,15.625000
5053,19.531250
5054,19.531250
5055,19.531250
5056,19.531250
5057,19.531250
5058,23.437500
5059,23.437500
5060,23.437500
5061,23.437500
5062,27.343750
5063,27.343750
5064,27.343750
5065,27.343750
5066,31.250000
5067,27.343750
5068,31.250000
5069,31.250000
5070,31.250000
5071,31.250000
5072,35.156250
5073,35.156250
5074,35.156250
5075,35.156250
5076,35.156250
5077,35.156250
5078,35.156250
5079,39.062500
5080,39.062500
5081,39.062500
5082,39.062500
5083,42.968750
5084,42.968750
5085,42.968750
5086,42.968750
5087,42.968750
5088,42.968750
5089,46.875000
5090,46.875000
5091,46.875000
5092,46.875000
5093,50.781250
5094,50.781250
5095,50.781250
5096,50.781250
5097,50.781250
5098,50.781250
5099,54.687500
5100,54.687500
5101,54.687500
5102,54.687500
5103,54.687500
5104,58.593750
5105,54.687500
5106,54.687500
5107,58.593750
5108,58.593750
5109,58.593750
5110,58.593750
5111,62.500000
5112,62.500000
5113,62.500000
5114,62.500000
5115,62.500000
5116,66.406250
5117,62.500000
5118,66.406250
5119,66.406250
5120,66.406250
5121,66.406250
5122,66.406250
5123,70.312500
5124,70.312500
5125,70.312500
5126,70.312500
5127,70.312500
5128,74.218750
5129,74.218750
5130,74.218750
5131,74.218750
5132,74.218750
5133,74.218750
5134,74.218750
5135,74.218750
5136,78.125000
5137,78.125000
5138,78.125000
5139,78.125000
5140,78.125000
5141,78.125000
5142,82.031250
5143,82.031250
5144,82.031250
5145,82.031250
5146,82.031250
5147,82.031250
5148,82.031250
5149,82.031250
5150,82.031250
5151,85.937500
5152,85.937500
5153,85.937500
5154,85.937500
5155,85.937500
5156,85.937500
5157,85.937500
5158,89.843750
5159,89.843750
5160,89.843750
5161,89.843750
5162,89.843750
5163,89.843750
5164,89.843750
5165,89.843750
5166,89.843750
5167,89.843750
5168,93.750000
5169,93.750000
5170,93.750000
5171,93.750000
5172,93.750000
5173,93.750000
5174,93.750000
5175,93.750000
5176,93.750000
5177,97.656250
5178,97.656250
5179,97.656250
5180,93.750000
5181,97.656250
5182,97.656250
5183,97.656250
5184,97.656250
5185,97.656250
5186,97.656250
5187,97.656250
5188,101.562500
5189,101.562500
5190,101.562500
5191,101.562500
5192,101.562500
5193,101.562500
5194,101.562500
5195,101.562500
5196,101.562500
5197,101.562500
5198,101.562500
5199,101.562500
5200,101.562500
5201,105.468750
5202,105.468750
5203,101.562500
5204,105.468750
5205,105.468750
5206,105.468750
5207,105.468750
5208,109.375000
5209,105.468750
5210,105.468750
5211,105.468750
5212,105.468750
5213,105.468750
5214,109.375000
5215,105.468750
5216,109.375000
5217,109.375000
5218,109.375000
5219,109.375000
5220,109.375000
5221,109.375000
5222,109.375000
5223,109.375000
5224,109.375000
5225,109.375000
5226,109.375000
5227,109.375000
5228,109.375000
5229,109.375000
5230,109.375000
5231,109.375000
5232,109.375000
5233,113.281250
5234,113.281250
5235,113.281250
5236,113.281250
5237,113.281250
5238,113.281250
5239,113.281250
5240,113.281250
5241,113.281250
5242,113.281250
5243,113.281250
5244,113.281250
5245,113.281250
5246,113.281250
5247,113.281250
5248,113.281250
5249,113.281250
5250,113.281250
5251,113.281250
5252,113.281250
5253,113.281250
5254,113.281250
5255,113.281250
5256,113.281250
5257,113.281250
5258,113.281250
5259,113.281250
5260,113.281250
5261,113.281250
5262,113.281250
5263,113.281250
5264,113.281250
5265,113.281250
5266,117.187500
5267,113.281250
5268,117.187500
5269,113.281250
5270,113.281250
5271,113.281250
5272,113.281250
5273,113.281250
5274,113.281250
5275,113.281250
5276,117.187500
5277,113.281250
5278,113.281250
5279,113.281250
5280,113.281250
5281,113.281250
5282,113.281250
5283,113.281250
5284,117.187500
5285,113.281250
5286,113.281250
5287,113.281250
5288,113.281250
5289,113.281250
5290,113.281250
5291,113.281250
5292,113.281250
5293,113.281250
5294,113.281250
5295,113.281250
5296,113.281250
5297,113.281250
5298,113.281250
5299,113.281250
5300,113.281250
5301,113.281250
5302,113.281250
5303,113.281250
5304,113.281250
5305,113.281250
5306,113.281250
5307,113.281250
5308,113.281250
5309,113.281250
5310,113.281250
5311,113.281250
5312,113.281250
5313,113.281250
5314,113.281250
5315,109.375000
5316,109.375000
5317,109.375000
5318,109.375000
5319,109.375000
5320,109.375000
5321,109.375000
5322,109.375000
5323,109.375000
5324,109.375000
5325,109.375000
5326,109.375000
5327,109.375000
5328,109.375000
5329,109.375000
5330,109.375000
5331,109.375000
5332,105.468750
5333,105.468750
5334,105.468750
5335,105.468750
5336,105.468750
5337,105.468750
5338,105.468750
5339,105.468750
5340,105.468750
5341,105.468750
5342,105.468750
5343,101.562500
5344,105.468750
5345,101.562500
5346,101.562500
5347,101.562500
5348,101.562500
5349,101.562500
5350,101.562500
5351,101.562500
5352,101.562500
5353,101.562500
5354,101.562500
5355,101.562500
5356,101.562500
5357,97.656250
5358,97.656250
5359,97.656250
5360,97.656250
5361,97.656250
5362,97.656250
5363,97.656250
5364,97.656250
5365,93.750000
5366,97.656250
5367,93.750000
5368,93.750000
5369,93.750000
5370,93.750000
5371,93.750000
5372,93.750000
5373,93.750000
5374,93.750000
5375,93.750000
5376,89.843750
5377,89.843750
5378,89.843750
5379,89.843750
5380,89.843750
5381,89.843750
5382,89.843750
5383,89.843750
5384,89.843750
5385,85.937500
5386,85.937500
5387,85.937500
5388,85.937500
5389,85.937500
5390,85.937500
5391,85.937500
5392,85.937500
5393,82.031250
5394,82.031250
5395,82.031250
5396,82.031250
5397,82.031250
5398,82.031250
5399,82.031250
5400,82.031250
5401,78.125000
5402,78.125000
5403,78.125000
5404,78.125000
5405,78.125000
5406,78.125000
5407,74.218750
5408,74.218750
5409,74.218750
5410,74.218750
5411,74.218750
5412,74.218750
5413,74.218750
5414,70.312500
5415,70.312500
5416,70.312500
5417,70.312500
5418,70.312500
5419,70.312500
5420,66.406250
5421,66.406250
5422,66.406250
5423,66.406250
5424,66.406250
5425,66.406250
5426,62.500000
5427,62.500000
5428,62.500000
5429,62.500000
5430,62.500000
5431,58.593750
5432,62.500000
5433,58.593750
5434,58.593750
5435,58.593750
5436,58.593750
5437,54.687500
5438,54.687500
5439,54.687500
5440,54.687500
5441,54.687500
5442,54.687500
5443,50.781250
5444,50.781250
5445,50.781250
5446,50.781250
5447,50.781250
5448,46.875000
5449,46.875000
5450,46.875000
5451,46.875000
5452,46.875000
5453,42.968750
5454,42.968750
5455,42.968750
5456,42.968750
5457,39.062500
5458,42.968750
5459,39.062500
5460,39.062500
5461,39.062500
5462,39.062500
5463,35.156250
5464,35.156250
5465,35.156250
5466,35.156250
5467,35.156250
5468,31.250000
5469,31.250000
5470,31.250000
5471,31.250000
5472,31.250000
5473,27.343750
5474,27.343750
5475,27.343750
5476,27.343750
5477,27.343750
5478,23.437500
5479,23.437500
5480,23.437500
5481,19.531250
5482,23.437500
5483,19.531250
5484,19.531250
5485,19.531250
5486,19.531250
5487,15.625000
5488,15.625000
5489,15.625000
5490,15.625000
5491,11.718750
5492,11.718750
5493,11.718750
5494,11.718750
5495,11.718750
5496,7.812500
5497,7.812500
5498,7.812500
5499,7.812500
5500,7.812500
5501,7.812500
5502,3.906250
5503,3.906250
5504,3.906250
5505,0.000000
5506,0.000000
5507,0.000000
5508,0.000000
5509,0.000000
5510,-3.906250
5511,-3.906250
5512,-3.906250
5513,-3.906250
5514,-7.812500
5515,-7.812500
5516,-7.812500
5517,-7.812500
5518,-7.812500
5519,-11.718750
5520,-11.718750
5521,-11.718750
5522,-11.718750
5523,-11.718750
5524,-15.625000
5525,-15.625000
5526,-15.625000
5527,-15.625000
5528,-19.531250
5529,-19.531250
5530,-19.531250
5531,-19.531250
5532,-23.437500
5533,-23.437500
5534,-23.437500
5535,-23.437500
5536,-27.343750
5537,-27.343750
5538,-27.343750
5539,-27.343750
5540,-27.343750
5541,-31.250000
5542,-31.250000
5543,-31.250000
5544,-31.250000
5545,-31.250000
5546,-35.156250
5547,-35.156250
5548,-35.156250
5549,-39.062500
5550,-39.062500
5551,-39.062500
5552,-39.062500
5553,-42.968750
5554,-42.968750
5555,-42.968750
5556,-42.968750
5557,-42.968750
5558,-46.875000
5559,-46.875000
5560,-46.875000
5561,-46.875000
5562,-50.781250
5563,-50.781250
5564,-50.781250
5565,-50.781250
5566,-54.687500
5567,-54.687500
5568,-54.687500
5569,-54.687500
5570,-58.593750
5571,-58.593750
5572,-58.593750
5573,-58.593750
5574,-62.500000
5575,-62.500000
5576,-62.500000
5577,-62.500000
5578,-62.500000
5579,-66.406250
5580,-66.406250
5581,-66.406250
5582,-66.406250
5583,-70.312500
5584,-70.312500
5585,-74.218750
5586,-70.312500
5587,-70.312500
5588,-70.312500
5589,-74.218750
5590,-74.218750
5591,-74.218750
5592,-74.218750
5593,-78.125000
5594,-78.125000
5595,-78.125000
5596,-78.125000
5597,-82.031250
5598,-82.031250
5599,-82.031250
5600,-82.031250
5601,-82.031250
5602,-85.937500
5603,-85.937500
5604,-85.937500
5605,-85.937500
5606,-85.937500
5607,-89.843750
5608,-89.843750
5609,-89.843750
5610,-89.843750
5611,-93.750000
5612,-93.750000
5613,-93.750000
5614,-93.750000
5615,-93.750000
5616,-93.750000
5617,-97.656250
5618,-97.656250
5619,-97.656250
5620,-97.656250
5621,-101.562500
5622,-101.562500
5623,-101.562500
5624,-101.562500
5625,-101.562500
5626,-105.468750
5627,-105.468750
5628,-105.468750
5629,-105.468750
5630,-105.468750
5631,-105.468750
5632,-109.375000
5633,-109.375000
5634,-109.375000
5635,-109.375000
5636,-109.375000
5637,-113.281250
5638,-113.281250
5639,-113.281250
5640,-113.281250
5641,-113.281250
5642,-113.281250
5643,-117.187500
5644,-117.187500
5645,-117.187500
5646,-117.187500
5647,-117.187500
5648,-121.093750
5649,-117.187500
5650,-121.093750
5651,-121.093750
5652,-121.093750
5653,-121.093750
5654,-121.093750
5655,-121.093750
5656,-125.000000
5657,-125.000000
5658,-125.000000
5659,-125.000000
5660,-125.000000
5661,-128.906250
5662,-125.000000
5663,-128.906250
5664,-128.906250
5665,-128.906250
5666,-128.906250
5667,-128.906250
5668,-128.906250
5669,-132.812500
5670,-132.812500
5671,-132.812500
5672,-132.812500
5673,-132.812500
5674,-132.812500
5675,-136.718750
5676,-136.718750
5677,-136.718750
5678,-136.718750
5679,-136.718750
5680,-136.718750
5681,-136.718750
5682,-136.718750
5683,-136.718750
5684,-140.625000
5685,-140.625000
5686,-140.625000
5687,-140.625000
5688,-140.625000
5689,-140.625000
5690,-140.625000
5691,-140.625000
5692,-144.531250
5693,-144.531250
5694,-144.531250
5695,-144.531250
5696,-144.531250
5697,-144.531250
5698,-144.531250
5699,-144.531250
5700,-148.437500
5701,-148.437500
5702,-148.437500
5703,-148.437500
5704,-148.437500
5705,-148.437500
5706,-148.437500
5707,-148.437500
5708,-148.437500
5709,-148.437500
5710,-148.437500
5711,-148.437500
5712,-152.343750
5713,-152.343750
5714,-152.343750
5715,-152.343750
5716,-152.343750
5717,-152.343750
5718,-152.343750
5719,-152.343750
5720,-152.343750
5721,-152.343750
5722,-152.343750
5723,-152.343750
5724,-156.250000
5725,-156.250000
5726,-156.250000
5727,-156.250000
5728,-156.250000
5729,-156.250000
5730,-156.250000
5731,-156.250000
5732,-156.250000
5733,-156.250000
5734,-156.250000
5735,-156.250000
5736,-156.250000
5737,-156.250000
5738,-156.250000
5739,-156.250000
5740,-156.250000
5741,-156.250000
5742,-156.250000
5743,-156.250000
5744,-160.156250
5745,-160.156250
5746,-156.250000
5747,-156.250000
5748,-160.156250
5749,-160.156250
5750,-160.156250
5751,-160.156250
5752,-160.156250
5753,-160.156250
5754,-160.156250
5755,-160.156250
5756,-156.250000
5757,-156.250000
5758,-160.156250
5759,-160.156250
5760,-160.156250
5761,-160.156250
5762,-156.250000
5763,-156.250000
5764,-160.156250
5765,-160.156250
5766,-160.156250
5767,-160.156250
5768,-160.156250
5769,-160.156250
5770,-160.156250
5771,-156.250000
5772,-156.250000
5773,-156.250000
5774,-160.156250
5775,-156.250000
5776,-156.250000
5777,-156.250000
5778,-156.250000
5779,-156.250000
5780,-156.250000
5781,-156.250000
5782,-156.250000
5783,-156.250000
5784,-156.250000
5785,-156.250000
5786,-156.250000
5787,-156.250000
5788,-156.250000
5789,-156.250000
5790,-156.250000
5791,-156.250000
5792,-156.250000
5793,-156.250000
5794,-156.250000
5795,-156.250000
5796,-156.250000
5797,-156.250000
5798,-152.343750
5799,-152.343750
5800,-152.343750
5801,-152.343750
5802,-152.343750
5803,-152.343750
5804,-152.343750
5805,-152.343750
5806,-152.343750
5807,-152.343750
5808,-152.343750
5809,-152.343750
5810,-148.437500
5811,-148.437500
5812,-148.437500
5813,-148.437500
5814,-148.437500
5815,-148.437500
5816,-148.437500
5817,-148.437500
5818,-148.437500
5819,-148.437500
5820,-148.437500
5821,-148.437500
5822,-144.531250
5823,-148.437500
5824,-144.531250
5825,-144.531250
5826,-144.531250
5827,-144.531250
5828,-144.531250
5829,-144.531250
5830,-144.531250
5831,-144.531250
5832,-140.625000
5833,-140.625000
5834,-140.625000
5835,-140.625000
5836,-140.625000
5837,-140.625000
5838,-140.625000
5839,-140.625000
5840,-140.625000
5841,-136.718750
5842,-136.718750
5843,-136.718750
5844,-136.718750
5845,-136.718750
5846,-136.718750
5847,-136.718750
5848,-136.718750
5849,-136.718750
5850,-132.812500
5851,-132.812500
5852,-132.812500
5853,-132.812500
5854,-132.812500
5855,-132.812500
5856,-128.906250
5857,-128.906250
5858,-128.906250
5859,-128.906250
5860,-128.906250
5861,-128.906250
5862,-128.906250
5863,-125.000000
5864,-125.000000
5865,-125.000000
5866,-125.000000
5867,-125.000000
5868,-125.000000
5869,-125.000000
5870,-121.093750
5871,-121.093750
5872,-121.093750
5873,-121.093750
5874,-117.187500
5875,-117.187500
5876,-117.187500
5877,-117.187500
5878,-117.187500
5879,-117.187500
5880,-117.187500
5881,-117.187500
5882,-113.281250
5883,-113.281250
5884,-113.281250
5885,-113.281250
5886,-113.281250
5887,-109.375000
5888,-109.375000
5889,-109.375000
5890,-109.375000
5891,-109.375000
5892,-105.468750
5893,-105.468750
5894,-105.468750
5895,-105.468750
5896,-105.468750
5897,-105.468750
5898,-101.562500
5899,-101.562500
5900,-105.468750
5901,-101.562500
5902,-97.656250
5903,-97.656250
5904,-97.656250
5905,-97.656250
5906,-97.656250
5907,-97.656250
5908,-93.750000
5909,-93.750000
5910,-93.750000
5911,-93.750000
5912,-89.843750
5913,-89.843750
5914,-89.843750
5915,-89.843750
5916,-89.843750
5917,-89.843750
5918,-85.937500
5919,-85.937500
5920,-85.937500
5921,-85.937500
5922,-82.031250
5923,-82.031250
5924,-82.031250
5925,-82.031250
5926,-82.031250
5927,-82.031250
5928,-78.125000
5929,-78.125000
5930,-78.125000
5931,-78.125000
5932,-74.218750
5933,-74.218750
5934,-74.218750
5935,-74.218750
5936,-70.312500
5937,-70.312500
5938,-70.312500
5939,-70.312500
5940,-70.312500
5941,-66.406250
5942,-66.406250
5943,-66.406250
5944,-66.406250
5945,-66.406250
5946,-62.500000
5947,-62.500000
5948,-62.500000
5949,-62.500000
5950,-58.593750
5951,-58.593750
5952,-58.593750
5953,-58.593750
5954,-54.687500
5955,-58.593750
5956,-54.687500
5957,-54.687500
5958,-54.687500
5959,-54.687500
5960,-50.781250
5961,-50.781250
5962,-50.781250
5963,-50.781250
5964,-46.875000
5965,-46.875000
5966,-46.875000
5967,-42.968750
5968,-46.875000
5969,-42.968750
5970,-42.968750
5971,-42.968750
5972,-42.968750
5973,-42.968750
5974,-39.062500
5975,-39.062500
5976,-39.062500
5977,-39.062500
5978,-35.156250
5979,-35.156250
5980,-35.156250
5981,-35.156250
5982,-31.250000
5983,-31.250000
5984,-31.250000
5985,-31.250000
5986,-31.250000
5987,-27.343750
5988,-27.343750
5989,-27.343750
5990,-23.437500
5991,-23.437500
5992,-23.437500
5993,-23.437500
5994,-23.437500
5995,-19.531250
5996,-19.531250
5997,-19.531250
5998,-19.531250
5999,-19.531250
6000,-15.625000
6001,-15.625000
6002,-15.625000
6003,-15.625000
6004,-11.718750
6005,-11.718750
6006,-11.718750
6007,-11.718750
6008,-7.812500
6009,-7.812500
6010,-7.812500
6011,-7.812500
6012,-7.812500
6013,-3.906250
6014,-3.906250
6015,-3.906250
6016,-3.906250
6017,-3.906250
6018,0.000000
6019,0.000000
6020,0.000000
6021,0.000000
6022,0.000000
6023,3.906250
6024,3.906250
6025,3.906250
6026,3.906250
6027,7.812500
6028,7.812500
6029,7.812500
6030,7.812500
6031,7.812500
6032,11.718750
6033,11.718750
6034,11.718750
6035,11.718750
6036,15.625000
6037,15.625000
6038,15.625000
6039,15.625000
6040,15.625000
6041,19.531250
6042,19.531250
6043,19.531250
6044,19.531250
6045,23.437500
6046,23.437500
6047,23.437500
6048,23.437500
6049,23.437500
6050,23.437500
6051,27.343750
6052,27.343750
6053,27.343750
6054,27.343750
6055,31.250000
6056,31.250000
6057,31.250000
6058,31.250000
6059,31.250000
6060,31.250000
6061,35.156250
6062,35.156250
6063,39.062500
6064,35.156250
6065,35.156250
6066,39.062500
6067,39.062500
6068,39.062500
6069,39.062500
6070,39.062500
6071,42.968750
6072,42.968750
6073,42.968750
6074,42.968750
6075,46.875000
6076,46.875000
6077,46.875000
6078,46.875000
6079,46.875000
6080,46.875000
6081,50.781250
6082,50.781250
6083,50.781250
6084,50.781250
6085,50.781250
6086,54.687500
6087,54.687500
6088,54.687500
6089,54.687500
6090,54.687500
6091,54.687500
6092,54.687500
6093,54.687500
6094,58.593750
6095,58.593750
6096,58.593750
6097,58.593750
6098,62.500000
6099,62.500000
6100,62.500000
6101,62.500000
6102,62.500000
6103,62.500000
6104,62.500000
6105,62.500000
6106,66.406250
6107,66.406250
6108,66.406250
6109,66.406250
6110,66.406250
6111,70.312500
6112,70.312500
6113,70.312500
6114,70.312500
6115,70.312500
6116,70.312500
6117,70.312500
6118,74.218750
6119,74.218750
6120,74.218750
6121,74.218750
6122,74.218750
6123,74.218750
6124,74.218750
6125,78.125000
6126,78.125000
6127,78.125000
6128,78.125000
6129,78.125000
6130,78.125000
6131,78.125000
6132,82.031250
6133,82.031250
6134,82.031250
6135,82.031250
6136,82.031250
6137,82.031250
6138,82.031250
6139,85.937500
6140,85.937500
6141,85.937500
6142,85.937500
6143,85.937500
6144,85.937500
6145,85.937500
6146,85.937500
6147,85.937500
6148,89.843750
6149,89.843750
6150,89.843750
6151,89.843750
6152,89.843750
6153,89.843750
6154,89.843750
6155,93.750000
6156,93.750000
6157,93.750000
6158,93.750000
6159,93.750000
6160,93.750000
6161,93.750000
6162,93.750000
6163,93.750000
6164,93.750000
6165,97.656250
6166,97.656250
6167,97.656250
6168,97.656250
6169,97.656250
6170,97.656250
6171,97.656250
6172,97.656250
6173,97.656250
6174,97.656250
6175,101.562500
6176,101.562500
6177,101.562500
6178,101.562500
6179,101.562500
6180,101.562500
6181,101.562500
6182,101.562500
6183,101.562500
6184,101.562500
6185,101.562500
6186,105.468750
6187,105.468750
6188,105.468750
6189,105.468750
6190,105.468750
6191,105.468750
6192,105.468750
6193,105.468750
6194,105.468750
6195,105.468750
6196,105.468750
6197,105.468750
6198,109.375000
6199,105.468750
6200,109.375000
6201,109.375000
6202,109.375000
6203,109.375000
6204,109.375000
6205,109.375000
6206,109.375000
6207,109.375000
6208,109.375000
6209,109.375000
6210,109.375000
6211,109.375000
6212,109.375000
6213,109.375000
6214,109.375000
6215,109.375000
6216,113.281250
6217,113.281250
6218,113.281250
6219,113.281250
6220,109.375000
6221,113.281250
6222,113.281250
6223,113.281250
6224,113.281250
6225,113.281250
6226,113.281250
6227,113.281250
6228,113.281250
6229,113.281250
6230,113.281250
6231,113.281250
6232,113.281250
6233,113.281250
6234,113.281250
6235,113.281250
6236,113.281250
6237,113.281250
6238,113.281250
6239,113.281250
6240,113.281250
6241,113.281250
6242,113.281250
6243,113.281250
6244,113.281250
6245,113.281250
6246,113.281250
6247,113.281250
6248,113.281250
6249,117.187500
6250,117.187500
6251,113.281250
6252,117.187500
6253,113.281250
6254,113.281250
6255,113.281250
6256,113.281250
6257,113.281250
6258,117.187500
6259,117.187500
6260,113.281250
6261,113.281250
6262,113.281250
6263,113.281250
6264,117.187500
6265,117.187500
6266,117.187500
6267,113.281250
6268,113.281250
6269,113.281250
6270,113.281250
6271,117.187500
6272,117.187500
6273,117.187500
6274,113.281250
6275,113.281250
6276,113.281250
6277,113.281250
6278,113.281250
6279,113.281250
6280,113.281250
6281,113.281250
6282,113.281250
6283,113.281250
6284,113.281250
6285,113.281250
6286,113.281250
6287,113.281250
6288,113.281250
6289,113.281250
6290,113.281250
6291,109.375000
6292,113.281250
6293,113.281250
6294,113.281250
6295,113.281250
6296,113.281250
6297,113.281250
6298,113.281250
6299,113.281250
6300,113.281250
6301,113.281250
6302,113.281250
6303,109.375000
6304,109.375000
6305,109.375000
6306,113.281250
6307,109.375000
6308,109.375000
6309,109.375000
6310,109.375000
6311,109.375000
6312,109.375000
6313,109.375000
6314,109.375000
6315,109.375000
6316,109.375000
6317,109.375000
6318,109.375000
6319,109.375000
6320,109.375000
6321,109.375000
6322,105.468750
6323,105.468750
6324,109.375000
6325,105.468750
6326,105.468750
6327,105.468750
6328,105.468750
6329,105.468750
6330,105.468750
6331,105.468750
6332,105.468750
6333,105.468750
6334,105.468750
6335,105.468750
6336,101.562500
6337,101.562500
6338,101.562500
6339,101.562500
6340,101.562500
6341,101.562500
6342,101.562500
6343,101.562500
6344,101.562500
6345,97.656250
6346,101.562500
6347,97.656250
6348,97.656250
6349,97.656250
6350,97.656250
6351,97.656250
6352,97.656250
6353,97.656250
6354,97.656250
6355,97.656250
6356,93.750000
6357,93.750000
6358,93.750000
6359,93.750000
6360,93.750000
6361,93.750000
6362,93.750000
6363,89.843750
6364,89.843750
6365,89.843750
6366,89.843750
6367,89.843750
6368,89.843750
6369,89.843750
6370,89.843750
6371,89.843750
6372,89.843750
6373,85.937500
6374,85.937500
6375,85.937500
6376,85.937500
6377,85.937500
6378,85.937500
6379,85.937500
6380,82.031250
6381,82.031250
6382,82.031250
6383,82.031250
6384,82.031250
6385,82.031250
6386,82.031250
6387,82.031250
6388,82.031250
6389,78.125000
6390,78.125000
6391,78.125000
6392,78.125000
6393,78.125000
6394,78.125000
6395,74.218750
6396,74.218750
6397,74.218750
6398,74.218750
6399,74.218750
6400,74.218750
6401,70.312500
6402,70.312500
6403,70.312500
6404,70.312500
6405,70.312500
6406,70.312500
6407,70.312500
6408,66.406250
6409,66.406250
6410,66.406250
6411,66.406250
6412,66.406250
6413,62.500000
6414,62.500000
6415,62.500000
6416,62.500000
6417,62.500000
6418,62.500000
6419,62.500000
6420,62.500000
6421,58.593750
6422,58.593750
6423,58.593750
6424,58.593750
6425,54.687500
6426,54.687500
6427,54.687500
6428,54.687500
6429,54.687500
6430,54.687500
6431,54.687500
6432,50.781250
6433,50.781250
6434,50.781250
6435,50.781250
6436,50.781250
6437,46.875000
6438,46.875000
6439,46.875000
6440,46.875000
6441,46.875000
6442,42.968750
6443,42.968750
6444,42.968750
6445,42.968750
6446,42.968750
6447,39.062500
6448,39.062500
6449,39.062500
6450,39.062500
6451,35.156250
6452,35.156250
6453,35.156250
6454,35.156250
6455,35.156250
6456,35.156250
6457,31.250000
6458,31.250000
6459,31.250000
6460,31.250000
6461,27.343750
6462,27.343750
6463,27.343750
6464,27.343750
6465,27.343750
6466,27.343750
6467,23.437500
6468,23.437500
6469,23.437500
6470,23.437500
6471,19.531250
6472,19.531250
6473,19.531250
6474,19.531250
6475,15.625000
6476,15.625000
6477,15.625000
6478,15.625000
6479,15.625000
6480,15.625000
6481,11.718750
6482,11.718750
6483,11.718750
6484,11.718750
6485,7.812500
6486,7.812500
6487,7.812500
6488,7.812500
6489,7.812500
6490,3.906250
6491,3.906250
6492,3.906250
6493,0.000000
6494,0.000000
6495,0.000000
6496,0.000000
6497,0.000000
6498,-3.906250
6499,-3.906250
6500,-3.906250
6501,-3.906250
6502,-7.812500
6503,-7.812500
6504,-7.812500
6505,-7.812500
6506,-11.718750
6507,-11.718750
6508,-11.718750
6509,-11.718750
6510,-11.718750
6511,-15.625000
6512,-15.625000
6513,-15.625000
6514,-15.625000
6515,-19.531250
6516,-19.531250
6517,-19.531250
6518,-19.531250
6519,-23.437500
6520,-23.437500
6521,-23.437500
6522,-23.437500
6523,-23.437500
6524,-27.343750
6525,-27.343750
6526,-27.343750
6527,-27.343750
6528,-31.250000
6529,-31.250000
6530,-31.250000
6531,-31.250000
6532,-31.250000
6533,-35.156250
6534,-35.156250
6535,-35.156250
6536,-35.156250
6537,-39.062500
6538,-39.062500
6539,-39.062500
6540,-39.062500
6541,-42.968750
6542,-42.968750
6543,-42.968750
6544,-42.968750
6545,-42.968750
6546,-42.968750
6547,-46.875000
6548,-46.875000
6549,-50.781250
6550,-46.875000
6551,-50.781250
6552,-50.781250
6553,-54.687500
6554,-54.687500
6555,-54.687500
6556,-54.687500
6557,-54.687500
6558,-58.593750
6559,-58.593750
6560,-58.593750
6561,-58.593750
6562,-58.593750
6563,-62.500000
6564,-62.500000
6565,-62.500000
6566,-62.500000
6567,-62.500000
6568,-66.406250
6569,-66.406250
6570,-66.406250
6571,-66.406250
6572,-70.312500
6573,-70.312500
6574,-70.312500
6575,-70.312500
6576,-70.312500
6577,-74.218750
6578,-74.218750
6579,-74.218750
6580,-74.218750
6581,-78.125000
6582,-74.218750
6583,-78.125000
6584,-78.125000
6585,-78.125000
6586,-82.031250
6587,-82.031250
6588,-78.125000
6589,-82.031250
6590,-85.937500
6591,-85.937500
6592,-85.937500
6593,-85.937500
6594,-85.937500
6595,-85.937500
6596,-89.843750
6597,-89.843750
6598,-89.843750
6599,-89.843750
6600,-93.750000
6601,-93.750000
6602,-93.750000
6603,-93.750000
6604,-93.750000
6605,-93.750000
6606,-97.656250
6607,-97.656250
6608,-97.656250
6609,-97.656250
6610,-101.562500
6611,-101.562500
6612,-101.562500
6613,-101.562500
6614,-101.562500
6615,-101.562500
6616,-105.468750
6617,-105.468750
6618,-105.468750
6619,-105.468750
6620,-105.468750
6621,-109.375000
6622,-109.375000
6623,-109.375000
6624,-109.375000
6625,-113.281250
6626,-113.281250
6627,-113.281250
6628,-113.281250
6629,-113.281250
6630,-113.281250
6631,-117.187500
6632,-117.187500
6633,-117.187500
6634,-117.187500
6635,-117.187500
6636,-117.187500
6637,-121.093750
6638,-121.093750
6639,-121.093750
6640,-121.093750
6641,-121.093750
6642,-121.093750
6643,-125.000000
6644,-125.000000
6645,-125.000000
6646,-125.000000
6647,-125.000000
6648,-125.000000
6649,-128.906250
6650,-128.906250
6651,-128.906250
6652,-128.906250
6653,-128.906250
6654,-128.906250
6655,-128.906250
6656,-132.812500
6657,-132.812500
6658,-132.812500
6659,-132.812500
6660,-132.812500
6661,-132.812500
6662,-132.812500
6663,-136.718750
6664,-132.812500
6665,-136.718750
6666,-136.718750
6667,-136.718750
6668,-136.718750
6669,-136.718750
6670,-136.718750
6671,-140.625000
6672,-140.625000
6673,-140.625000
6674,-140.625000
6675,-140.625000
6676,-140.625000
6677,-140.625000
6678,-140.625000
6679,-144.531250
6680,-140.625000
6681,-144.531250
6682,-144.531250
6683,-144.531250
6684,-144.531250
6685,-144.531250
6686,-144.531250
6687,-144.531250
6688,-144.531250
6689,-144.531250
6690,-144.531250
6691,-144.531250
6692,-148.437500
6693,-148.437500
6694,-148.437500
6695,-148.437500
6696,-148.437500
6697,-148.437500
6698,-148.437500
6699,-148.437500
6700,-148.437500
6701,-152.343750
6702,-152.343750
6703,-152.343750
6704,-152.343750
6705,-152.343750
6706,-152.343750
6707,-152.343750
6708,-152.343750
6709,-156.250000
6710,-152.343750
6711,-152.343750
6712,-152.343750
6713,-152.343750
6714,-152.343750
6715,-156.250000
6716,-152.343750
6717,-156.250000
6718,-156.250000
6719,-152.343750
6720,-156.250000
6721,-156.250000
6722,-156.250000
6723,-156.250000
6724,-156.250000
6725,-156.250000
6726,-156.250000
6727,-156.250000
6728,-156.250000
6729,-156.250000
6730,-156.250000
6731,-156.250000
6732,-156.250000
6733,-156.250000
6734,-156.250000
6735,-156.250000
6736,-156.250000
6737,-156.250000
6738,-156.250000
6739,-156.250000
6740,-156.250000
6741,-156.250000
6742,-156.250000
6743,-156.250000
6744,-156.250000
6745,-156.250000
6746,-160.156250
6747,-156.250000
6748,-160.156250
6749,-160.156250
6750,-160.156250
6751,-160.156250
6752,-156.250000
6753,-156.250000
6754,-156.250000
6755,-160.156250
6756,-160.156250
6757,-160.156250
6758,-160.156250
6759,-156.250000
6760,-156.250000
6761,-156.250000
6762,-160.156250
6763,-156.250000
6764,-156.250000
6765,-156.250000
6766,-160.156250
6767,-156.250000
6768,-156.250000
6769,-156.250000
6770,-156.250000
6771,-156.250000
6772,-156.250000
6773,-156.250000
6774,-156.250000
6775,-156.250000
6776,-156.250000
6777,-156.250000
6778,-156.250000
6779,-156.250000
6780,-156.250000
6781,-156.250000
6782,-156.250000
6783,-156.250000
6784,-152.343750
6785,-152.343750
6786,-156.250000
6787,-152.343750
6788,-152.343750
6789,-152.343750
6790,-152.343750
6791,-152.343750
6792,-152.343750
6793,-152.343750
6794,-152.343750
6795,-152.343750
6796,-152.343750
6797,-152.343750
6798,-152.343750
6799,-148.437500
6800,-148.437500
6801,-148.437500
6802,-148.437500
6803,-148.437500
6804,-148.437500
6805,-148.437500
6806,-148.437500
6807,-148.437500
6808,-148.437500
6809,-148.437500
6810,-144.531250
6811,-148.437500
6812,-144.531250
6813,-144.531250
6814,-144.531250
6815,-144.531250
6816,-144.531250
6817,-144.531250
6818,-144.531250
6819,-140.625000
6820,-140.625000
6821,-140.625000
6822,-140.625000
6823,-140.625000
6824,-140.625000
6825,-140.625000
6826,-140.625000
6827,-140.625000
6828,-140.625000
6829,-136.718750
6830,-136.718750
6831,-136.718750
6832,-136.718750
6833,-136.718750
6834,-136.718750
6835,-136.718750
6836,-132.812500
6837,-136.718750
6838,-132.812500
6839,-132.812500
6840,-132.812500
6841,-132.812500
6842,-132.812500
6843,-128.906250
6844,-128.906250
6845,-128.906250
6846,-128.906250
6847,-128.906250
6848,-128.906250
6849,-128.906250
6850,-125.000000
6851,-125.000000
6852,-125.000000
6853,-125.000000
6854,-125.000000
6855,-125.000000
6856,-125.000000
6857,-121.093750
6858,-121.093750
6859,-121.093750
6860,-121.093750
6861,-121.093750
6862,-117.187500
6863,-117.187500
6864,-117.187500
6865,-117.187500
6866,-117.187500
6867,-117.187500
6868,-117.187500
6869,-113.281250
6870,-113.281250
6871,-113.281250
6872,-113.281250
6873,-113.281250
6874,-113.281250
6875,-109.375000
6876,-109.375000
6877,-109.375000
6878,-109.375000
6879,-109.375000
6880,-109.375000
6881,-105.468750
6882,-105.468750
6883,-105.468750
6884,-105.468750
6885,-105.468750
6886,-101.562500
6887,-101.562500
6888,-101.562500
6889,-101.562500
6890,-101.562500
6891,-101.562500
6892,-97.656250
6893,-97.656250
6894,-97.656250
6895,-97.656250
6896,-97.656250
6897,-93.750000
6898,-93.750000
6899,-93.750000
6900,-93.750000
6901,-93.750000
6902,-89.843750
6903,-89.843750
6904,-89.843750
6905,-89.843750
6906,-89.843750
6907,-85.937500
6908,-85.937500
6909,-85.937500
6910,-82.031250
6911,-82.031250
6912,-82.031250
6913,-82.031250
6914,-82.031250
6915,-82.031250
6916,-78.125000
6917,-78.125000
6918,-78.125000
6919,-78.125000
6920,-74.218750
6921,-74.218750
6922,-74.218750
6923,-74.218750
6924,-74.218750
6925,-74.218750
6926,-70.312500
6927,-70.312500
6928,-70.312500
6929,-70.312500
6930,-66.406250
6931,-66.406250
6932,-66.406250
6933,-66.406250
6934,-62.500000
6935,-62.500000
6936,-62.500000
6937,-62.500000
6938,-62.500000
6939,-58.593750
6940,-58.593750
6941,-58.593750
6942,-58.593750
6943,-54.687500
6944,-54.687500
6945,-54.687500
6946,-54.687500
6947,-54.687500
6948,-50.781250
6949,-50.781250
6950,-50.781250
6951,-50.781250
6952,-46.875000
6953,-46.875000
6954,-46.875000
6955,-46.875000
6956,-42.968750
6957,-42.968750
6958,-42.968750
6959,-42.968750
6960,-42.968750
6961,-39.062500
6962,-39.062500
6963,-39.062500
6964,-39.062500
6965,-35.156250
6966,-35.156250
6967,-35.156250
6968,-35.156250
6969,-35.156250
6970,-31.250000
6971,-31.250000
6972,-31.250000
6973,-31.250000
6974,-27.343750
6975,-27.343750
6976,-27.343750
6977,-27.343750
6978,-23.437500
6979,-27.343750
6980,-23.437500
6981,-23.437500
6982,-23.437500
6983,-19.531250
6984,-19.531250
6985,-19.531250
6986,-19.531250
6987,-19.531250
6988,-15.625000
6989,-15.625000
6990,-15.625000
6991,-15.625000
6992,-11.718750
6993,-11.718750
6994,-11.718750
6995,-11.718750
6996,-11.718750
6997,-7.812500
6998,-7.812500
6999,-7.812500
7000,-7.812500
7001,-3.906250
7002,-3.906250
7003,-3.906250
7004,-3.906250
7005,-3.906250
7006,0.000000
7007,0.000000
7008,0.000000
7009,0.000000
7010,0.000000
7011,3.906250
7012,3.906250
7013,3.906250
7014,3.906250
7015,3.906250
7016,7.812500
7017,7.812500
7018,7.812500
7019,11.718750
7020,11.718750
7021,11.718750
7022,11.718750
7023,11.718750
7024,15.625000
7025,15.625000
7026,15.625000
7027,15.625000
7028,15.625000
7029,15.625000
7030,19.531250
7031,19.531250
7032,19.531250
7033,19.531250
7034,23.437500
7035,23.437500
7036,23.437500
7037,23.437500
7038,23.437500
7039,23.437500
7040,27.343750
7041,27.343750
7042,27.343750
7043,27.343750
7044,27.343750
7045,31.250000
7046,27.343750
7047,31.250000
7048,31.250000
7049,31.250000
7050,35.156250
7051,35.156250
7052,35.156250
7053,35.156250
7054,39.062500
7055,35.156250
7056,39.062500
7057,39.062500
7058,39.062500
7059,39.062500
7060,42.968750
7061,42.968750
7062,42.968750
7063,42.968750
7064,46.875000
7065,46.875000
7066,46.875000
7067,46.875000
7068,46.875000
7069,46.875000
7070,50.781250
7071,50.781250
7072,50.781250
7073,50.781250
7074,50.781250
7075,54.687500
7076,54.687500
7077,54.687500
7078,54.687500
7079,54.687500
7080,58.593750
7081,58.593750
7082,58.593750
7083,58.593750
7084,58.593750
7085,58.593750
7086,58.593750
7087,62.500000
7088,62.500000
7089,62.500000
7090,62.500000
7091,62.500000
7092,62.500000
7093,66.406250
7094,66.406250
7095,66.406250
7096,66.406250
7097,66.406250
7098,66.406250
7099,66.406250
7100,70.312500
7101,70.312500
7102,70.312500
7103,70.312500
7104,70.312500
7105,70.312500
7106,74.218750
7107,74.218750
7108,74.218750
7109,74.218750
7110,74.218750
7111,74.218750
7112,78.125000
7113,78.125000
7114,78.125000
7115,78.125000
7116,78.125000
7117,78.125000
7118,82.031250
7119,82.031250
7120,82.031250
7121,82.031250
7122,82.031250
7123,82.031250
7124,82.031250
7125,82.031250
7126,85.937500
7127,85.937500
7128,85.937500
7129,85.937500
7130,85.937500
7131,85.937500
7132,85.937500
7133,85.937500
7134,85.937500
7135,89.843750
7136,89.843750
7137,89.843750
7138,89.843750
7139,89.843750
7140,89.843750
7141,89.843750
7142,89.843750
7143,89.843750
7144,89.843750
7145,93.750000
7146,93.750000
7147,93.750000
7148,93.750000
7149,93.750000
7150,93.750000
7151,93.750000
7152,93.750000
7153,93.750000
7154,97.656250
7155,97.656250
7156,97.656250
7157,97.656250
7158,97.656250
7159,97.656250
7160,97.656250
7161,97.656250
7162,101.562500
7163,97.656250
7164,101.562500
7165,101.562500
7166,101.562500
7167,101.562500
7168,101.562500
7169,101.562500
7170,101.562500
7171,101.562500
7172,101.562500
7173,101.562500
7174,105.468750
7175,101.562500
7176,105.468750
7177,105.468750
7178,105.468750
7179,105.468750
7180,105.468750
7181,105.468750
7182,105.468750
7183,105.468750
7184,105.468750
7185,105.468750
7186,105.468750
7187,105.468750
7188,105.468750
7189,109.375000
7190,109.375000
7191,109.375000
7192,109.375000
7193,109.375000
7194,109.375000
7195,109.375000
7196,109.375000
7197,109.375000
7198,109.375000
7199,109.375000
7200,109.375000
7201,109.375000
7202,109.375000
7203,109.375000
7204,113.281250
7205,113.281250
7206,109.375000
7207,109.375000
7208,113.281250
7209,113.281250
7210,113.281250
7211,113.281250
7212,113.281250
7213,113.281250
7214,113.281250
7215,113.281250
7216,113.281250
7217,113.281250
7218,113.281250
7219,113.281250
7220,113.281250
7221,113.281250
7222,113.281250
7223,113.281250
7224,113.281250
7225,113.281250
7226,113.281250
7227,113.281250
7228,113.281250
7229,113.281250
7230,113.281250
7231,113.281250
7232,113.281250
7233,113.281250
7234,113.281250
7235,113.281250
7236,117.187500
7237,113.281250
7238,113.281250
7239,117.187500
7240,117.187500
7241,117.187500
7242,113.281250
7243,117.187500
7244,117.187500
7245,113.281250
7246,117.187500
7247,117.187500
7248,117.187500
7249,117.187500
7250,113.281250
7251,113.281250
7252,117.187500
7253,113.281250
7254,113.281250
7255,113.281250
7256,117.187500
7257,113.281250
7258,117.187500
7259,113.281250
7260,113.281250
7261,113.281250
7262,113.281250
7263,113.281250
7264,113.281250
7265,113.281250
7266,113.281250
7267,113.281250
7268,113.281250
7269,113.281250
7270,117.187500
7271,113.281250
7272,113.281250
7273,113.281250
7274,113.281250
7275,113.281250
7276,113.281250
7277,113.281250
7278,113.281250
7279,113.281250
7280,113.281250
7281,113.281250
7282,113.281250
7283,113.281250
7284,113.281250
7285,113.281250
7286,113.281250
7287,113.281250
7288,113.281250
7289,113.281250
7290,113.281250
7291,109.375000
7292,109.375000
7293,109.375000
7294,109.375000
7295,109.375000
7296,109.375000
7297,109.375000
7298,109.375000
7299,109.375000
7300,109.375000
7301,109.375000
7302,109.375000
7303,109.375000
7304,109.375000
7305,109.375000
7306,109.375000
7307,105.468750
7308,105.468750
7309,105.468750
7310,105.468750
7311,105.468750
7312,105.468750
7313,105.468750
7314,105.468750
7315,105.468750
7316,105.468750
7317,105.468750
7318,105.468750
7319,105.468750
7320,105.468750
7321,105.468750
7322,101.562500
7323,105.468750
7324,101.562500
7325,101.562500
7326,101.562500
7327,101.562500
7328,101.562500
7329,101.562500
7330,101.562500
7331,101.562500
7332,97.656250
7333,101.562500
7334,101.562500
7335,101.562500
7336,101.562500
7337,97.656250
7338,97.656250
7339,97.656250
7340,97.656250
7341,97.656250
7342,97.656250
7343,97.656250
7344,97.656250
7345,93.750000
7346,93.750000
7347,93.750000
7348,93.750000
7349,93.750000
7350,93.750000
7351,93.750000
7352,93.750000
7353,89.843750
7354,89.843750
7355,89.843750
7356,89.843750
7357,89.843750
7358,89.843750
7359,89.843750
7360,89.843750
7361,89.843750
7362,89.843750
7363,85.937500
7364,85.937500
7365,85.937500
7366,85.937500
7367,85.937500
7368,85.937500
7369,85.937500
7370,82.031250
7371,82.031250
7372,82.031250
7373,82.031250
7374,82.031250
7375,78.125000
7376,78.125000
7377,78.125000
7378,78.125000
7379,78.125000
7380,78.125000
7381,78.125000
7382,78.125000
7383,78.125000
7384,74.218750
7385,74.218750
7386,74.218750
7387,74.218750
7388,74.218750
7389,74.218750
7390,74.218750
7391,70.312500
7392,70.312500
7393,70.312500
7394,70.312500
7395,70.312500
7396,66.406250
7397,66.406250
7398,66.406250
7399,66.406250
7400,66.406250
7401,66.406250
7402,66.406250
7403,62.500000
7404,62.500000
7405,62.500000
7406,62.500000
7407,62.500000
7408,58.593750
7409,58.593750
7410,58.593750
7411,58.593750
7412,58.593750
7413,58.593750
7414,54.687500
7415,54.687500
7416,54.687500
7417,54.687500
7418,54.687500
7419,50.781250
7420,50.781250
7421,50.781250
7422,50.781250
7423,50.781250
7424,46.875000
7425,46.875000
7426,46.875000
7427,46.875000
7428,46.875000
7429,42.968750
7430,42.968750
7431,42.968750
7432,42.968750
7433,42.968750
7434,42.968750
7435,39.062500
7436,39.062500
7437,39.062500
7438,39.062500
7439,39.062500
7440,35.156250
7441,35.156250
7442,35.156250
7443,35.156250
7444,35.156250
7445,31.250000
7446,31.250000
7447,31.250000
7448,31.250000
7449,27.343750
7450,27.343750
7451,27.343750
7452,27.343750
7453,27.343750
7454,23.437500
7455,23.437500
7456,23.437500
7457,23.437500
7458,19.531250
7459,19.531250
7460,19.531250
7461,19.531250
7462,19.531250
7463,19.531250
7464,15.625000
7465,15.625000
7466,15.625000
7467,15.625000
7468,15.625000
7469,11.718750
7470,11.718750
7471,11.718750
7472,11.718750
7473,11.718750
7474,7.812500
7475,7.812500
7476,7.812500
7477,7.812500
7478,7.812500
7479,3.906250
7480,3.906250
7481,0.000000
7482,0.000000
7483,0.000000
7484,0.000000
7485,0.000000
7486,0.000000
7487,-3.906250
7488,-3.906250
7489,-3.906250
7490,-3.906250
7491,-7.812500
7492,-7.812500
7493,-7.812500
7494,-7.812500
7495,-7.812500
7496,-11.718750
7497,-11.718750
7498,-11.718750
7499,-15.625000
7500,-15.625000
7501,-15.625000
7502,-15.625000
7503,-15.625000
7504,-19.531250
7505,-19.531250
7506,-19.531250
7507,-19.531250
7508,-23.437500
7509,-23.437500
7510,-23.437500
7511,-23.437500
7512,-27.343750
7513,-27.343750
7514,-23.437500
7515,-27.343750
7516,-27.343750
7517,-31.250000
7518,-31.250000
7519,-31.250000
7520,-31.250000
7521,-35.156250
7522,-35.156250
7523,-35.156250
7524,-39.062500
7525,-39.062500
7526,-39.062500
7527,-39.062500
7528,-39.062500
7529,-42.968750
7530,-42.968750
7531,-42.968750
7532,-42.968750
7533,-46.875000
7534,-46.875000
7535,-46.875000
7536,-46.875000
7537,-46.875000
7538,-50.781250
7539,-50.781250
7540,-50.781250
7541,-50.781250
7542,-54.687500
7543,-54.687500
7544,-54.687500
7545,-54.687500
7546,-58.593750
7547,-58.593750
7548,-58.593750
7549,-58.593750
7550,-62.500000
7551,-62.500000
7552,-62.500000
7553,-62.500000
7554,-62.500000
7555,-62.500000
7556,-66.406250
7557,-66.406250
7558,-66.406250
7559,-70.312500
7560,-70.312500
7561,-70.312500
7562,-70.312500
7563,-74.218750
7564,-74.218750
7565,-74.218750
7566,-74.218750
7567,-74.218750
7568,-74.218750
7569,-78.125000
7570,-78.125000
7571,-78.125000
7572,-78.125000
7573,-82.031250
7574,-82.031250
7575,-82.031250
7576,-82.031250
7577,-82.031250
7578,-85.937500
7579,-85.937500
7580,-85.937500
7581,-85.937500
7582,-85.937500
7583,-89.843750
7584,-89.843750
7585,-89.843750
7586,-89.843750
7587,-89.843750
7588,-93.750000
7589,-93.750000
7590,-93.750000
7591,-93.750000
7592,-93.750000
7593,-97.656250
7594,-97.656250
7595,-97.656250
7596,-97.656250
7597,-97.656250
7598,-101.562500
7599,-101.562500
7600,-101.562500
7601,-101.562500
7602,-101.562500
7603,-101.562500
7604,-105.468750
7605,-105.468750
7606,-105.468750
7607,-105.468750
7608,-105.468750
7609,-109.375000
7610,-109.375000
7611,-109.375000
7612,-109.375000
7613,-109.375000
7614,-113.281250
7615,-113.281250
7616,-113.281250
7617,-113.281250
7618,-113.281250
7619,-113.281250
7620,-113.281250
7621,-117.187500
7622,-117.187500
7623,-117.187500
7624,-117.187500
7625,-121.093750
7626,-121.093750
7627,-121.093750
7628,-121.093750
7629,-121.093750
7630,-121.093750
7631,-121.093750
7632,-125.000000
7633,-125.000000
7634,-125.000000
7635,-125.000000
7636,-125.000000
7637,-125.000000
7638,-125.000000
7639,-128.906250
7640,-128.906250
7641,-128.906250
7642,-128.906250
7643,-128.906250
7644,-132.812500
7645,-132.812500
7646,-132.812500
7647,-132.812500
7648,-132.812500
7649,-132.812500
7650,-132.812500
7651,-132.812500
7652,-136.718750
7653,-136.718750
7654,-136.718750
7655,-136.718750
7656,-136.718750
7657,-136.718750
7658,-140.625000
7659,-136.718750
7660,-140.625000
7661,-140.625000
7662,-140.625000
7663,-140.625000
7664,-140.625000
7665,-140.625000
7666,-140.625000
7667,-144.531250
7668,-144.531250
7669,-144.531250
7670,-144.531250
7671,-144.531250
7672,-144.531250
7673,-144.531250
7674,-144.531250
7675,-144.531250
7676,-148.437500
7677,-148.437500
7678,-148.437500
7679,-148.437500
7680,-148.437500
7681,-148.437500
7682,-148.437500
7683,-148.437500
7684,-148.437500
7685,-148.437500
7686,-152.343750
7687,-152.343750
7688,-152.343750
7689,-152.343750
7690,-152.343750
7691,-152.343750
7692,-152.343750
7693,-152.343750
7694,-152.343750
7695,-152.343750
7696,-152.343750
7697,-152.343750
7698,-152.343750
7699,-152.343750
7700,-152.343750
7701,-152.343750
7702,-152.343750
7703,-156.250000
7704,-156.250000
7705,-156.250000
7706,-156.250000
7707,-156.250000
7708,-156.250000
7709,-156.250000
7710,-156.250000
7711,-156.250000
7712,-156.250000
7713,-156.250000
7714,-156.250000
7715,-156.250000
7716,-156.250000
7717,-156.250000
7718,-156.250000
7719,-156.250000
7720,-156.250000
7721,-156.250000
7722,-156.250000
7723,-156.250000
7724,-156.250000
7725,-156.250000
7726,-156.250000
7727,-156.250000
7728,-156.250000
7729,-156.250000
7730,-160.156250
7731,-156.250000
7732,-156.250000
7733,-156.250000
7734,-160.156250
7735,-156.250000
7736,-160.156250
7737,-160.156250
7738,-160.156250
7739,-160.156250
7740,-156.250000
7741,-156.250000
7742,-156.250000
7743,-156.250000
7744,-156.250000
7745,-156.250000
7746,-156.250000
7747,-160.156250
7748,-156.250000
7749,-156.250000
7750,-156.250000
7751,-156.250000
7752,-156.250000
7753,-156.250000
7754,-156.250000
7755,-156.250000
7756,-156.250000
7757,-156.250000
7758,-156.250000
7759,-156.250000
7760,-156.250000
7761,-156.250000
7762,-156.250000
7763,-156.250000
7764,-156.250000
7765,-156.250000
7766,-156.250000
7767,-156.250000
7768,-156.250000
7769,-156.250000
7770,-156.250000
7771,-156.250000
7772,-152.343750
7773,-152.343750
7774,-152.343750
7775,-152.343750
7776,-152.343750
7777,-152.343750
7778,-152.343750
7779,-152.343750
7780,-152.343750
7781,-152.343750
7782,-152.343750
7783,-152.343750
7784,-152.343750
7785,-152.343750
7786,-152.343750
7787,-152.343750
7788,-152.343750
7789,-148.437500
7790,-148.437500
7791,-148.437500
7792,-148.437500
7793,-148.437500
7794,-148.437500
7795,-148.437500
7796,-148.437500
7797,-148.437500
7798,-144.531250
7799,-144.531250
7800,-144.531250
7801,-144.531250
7802,-144.531250
7803,-144.531250
7804,-144.531250
7805,-144.531250
7806,-144.531250
7807,-144.531250
7808,-144.531250
7809,-140.625000
7810,-140.625000
7811,-140.625000
7812,-140.625000
7813,-140.625000
7814,-140.625000
7815,-140.625000
7816,-140.625000
7817,-140.625000
7818,-136.718750
7819,-136.718750
7820,-136.718750
7821,-136.718750
7822,-136.718750
7823,-136.718750
7824,-136.718750
7825,-136.718750
7826,-132.812500
7827,-132.812500
7828,-132.812500
7829,-132.812500
7830,-132.812500
7831,-132.812500
7832,-132.812500
7833,-132.812500
7834,-128.906250
7835,-128.906250
7836,-128.906250
7837,-128.906250
7838,-125.000000
7839,-128.906250
7840,-125.000000
7841,-125.000000
7842,-125.000000
7843,-125.000000
7844,-125.000000
7845,-125.000000
7846,-121.093750
7847,-121.093750
7848,-121.093750
7849,-121.093750
7850,-121.093750
7851,-121.093750
7852,-117.187500
7853,-117.187500
7854,-117.187500
7855,-117.187500
7856,-117.187500
7857,-117.187500
7858,-113.281250
7859,-113.281250
7860,-113.281250
7861,-113.281250
7862,-109.375000
7863,-109.375000
7864,-109.375000
7865,-109.375000
7866,-109.375000
7867,-109.375000
7868,-109.375000
7869,-105.468750
7870,-105.468750
7871,-105.468750
7872,-105.468750
7873,-105.468750
7874,-101.562500
7875,-101.562500
7876,-101.562500
7877,-101.562500
7878,-101.562500
7879,-101.562500
7880,-97.656250
7881,-97.656250
7882,-97.656250
7883,-97.656250
7884,-97.656250
7885,-93.750000
7886,-93.750000
7887,-93.750000
7888,-93.750000
7889,-93.750000
7890,-93.750000
7891,-89.843750
7892,-89.843750
7893,-89.843750
7894,-85.937500
7895,-85.937500
7896,-85.937500
7897,-85.937500
7898,-85.937500
7899,-85.937500
7900,-85.937500
7901,-82.031250
7902,-82.031250
7903,-82.031250
7904,-82.031250
7905,-78.125000
7906,-78.125000
7907,-78.125000
7908,-78.125000
7909,-78.125000
7910,-74.218750
7911,-74.218750
7912,-74.218750
7913,-74.218750
7914,-74.218750
7915,-70.312500
7916,-70.312500
7917,-70.312500
7918,-66.406250
7919,-66.406250
7920,-66.406250
7921,-66.406250
7922,-66.406250
7923,-62.500000
7924,-62.500000
7925,-62.500000
7926,-62.500000
7927,-58.593750
7928,-58.593750
7929,-58.593750
7930,-58.593750
7931,-58.593750
7932,-58.593750
7933,-54.687500
7934,-54.687500
7935,-54.687500
7936,-54.687500
7937,-50.781250
7938,-50.781250
7939,-50.781250
7940,-50.781250
7941,-50.781250
7942,-46.875000
7943,-46.875000
7944,-46.875000
7945,-46.875000
7946,-46.875000
7947,-42.968750
7948,-42.968750
7949,-42.968750
7950,-39.062500
7951,-39.062500
7952,-39.062500
7953,-39.062500
7954,-39.062500
7955,-35.156250
7956,-35.156250
7957,-35.156250
7958,-35.156250
7959,-31.250000
7960,-31.250000
7961,-31.250000
7962,-31.250000
7963,-31.250000
7964,-27.343750
7965,-27.343750
7966,-27.343750
7967,-27.343750
7968,-23.437500
7969,-23.437500
7970,-23.437500
7971,-23.437500
7972,-23.437500
7973,-19.531250
7974,-19.531250
7975,-19.531250
7976,-15.625000
7977,-15.625000
7978,-15.625000
7979,-15.625000
7980,-15.625000
7981,-15.625000
7982,-11.718750
7983,-11.718750
7984,-11.718750
7985,-11.718750
7986,-7.812500
7987,-7.812500
7988,-7.812500
7989,-7.812500
7990,-3.906250
7991,-3.906250
7992,-3.906250
7993,-3.906250
7994,-3.906250
7995,0.000000
7996,0.000000
7997,0.000000
7998,0.000000
7999,3.906250
8000,3.906250
8001,3.906250
8002,3.906250
8003,3.906250
8004,7.812500
8005,7.812500
8006,7.812500
8007,7.812500
8008,7.812500
8009,11.718750
8010,11.718750
8011,11.718750
8012,11.718750
8013,15.625000
8014,15.625000
8015,15.625000
8016,15.625000
8017,15.625000
8018,19.531250
8019,19.531250
8020,19.531250
8021,19.531250
8022,19.531250
8023,23.437500
8024,23.437500
8025,23.437500
8026,23.437500
8027,23.437500
8028,27.343750
8029,27.343750
8030,27.343750
8031,27.343750
8032,31.250000
8033,31.250000
8034,31.250000
8035,31.250000
8036,31.250000
8037,31.250000
8038,35.156250
8039,35.156250
8040,35.156250
8041,35.156250
8042,35.156250
8043,35.156250
8044,39.062500
8045,39.062500
8046,39.062500
8047,39.062500
8048,39.062500
8049,42.968750
8050,42.968750
8051,42.968750
8052,42.968750
8053,42.968750
8054,46.875000
8055,46.875000
8056,46.875000
8057,46.875000
8058,50.781250
8059,50.781250
8060,50.781250
8061,50.781250
8062,50.781250
8063,50.781250
8064,50.781250
8065,54.687500
8066,54.687500
8067,54.687500
8068,54.687500
8069,54.687500
8070,54.687500
8071,58.593750
8072,58.593750
8073,58.593750
8074,58.593750
8075,58.593750
8076,62.500000
8077,62.500000
8078,62.500000
8079,62.500000
8080,62.500000
8081,62.500000
8082,66.406250
8083,66.406250
8084,66.406250
8085,66.406250
8086,66.406250
8087,66.406250
8088,66.406250
8089,70.312500
8090,70.312500
8091,70.312500
8092,70.312500
8093,70.312500
8094,70.312500
8095,74.218750
8096,74.218750
8097,74.218750
8098,74.218750
8099,74.218750
8100,78.125000
8101,74.218750
8102,78.125000
8103,78.125000
8104,78.125000
8105,78.125000
8106,78.125000
8107,78.125000
8108,78.125000
8109,82.031250
8110,82.031250
8111,82.031250
8112,82.031250
8113,82.031250
8114,82.031250
8115,82.031250
8116,85.937500
8117,85.937500
8118,85.937500
8119,85.937500
8120,85.937500
8121,85.937500
8122,85.937500
8123,85.937500
8124,85.937500
8125,89.843750
8126,89.843750
8127,89.843750
8128,89.843750
8129,89.843750
8130,89.843750
8131,89.843750
8132,93.750000
8133,93.750000
8134,93.750000
8135,93.750000
8136,93.750000
8137,93.750000
8138,93.750000
8139,93.750000
8140,93.750000
8141,93.750000
8142,97.656250
8143,97.656250
8144,97.656250
8145,97.656250
8146,97.656250
8147,97.656250
8148,97.656250
8149,97.656250
8150,101.562500
8151,97.656250
8152,101.562500
8153,97.656250
8154,97.656250
8155,101.562500
8156,101.562500
8157,101.562500
8158,101.562500
8159,101.562500
8160,101.562500
8161,101.562500
8162,101.562500
8163,105.468750
8164,101.562500
8165,105.468750
8166,105.468750
8167,105.468750
8168,105.468750
8169,105.468750
8170,105.468750
8171,105.468750
8172,105.468750
8173,105.468750
8174,105.468750
8175,105.468750
8176,105.468750
8177,105.468750
8178,105.468750
8179,105.468750
8180,109.375000
8181,109.375000
8182,109.375000
8183,109.375000
8184,109.375000
8185,109.375000
8186,109.375000
8187,109.375000
8188,109.375000
8189,109.375000
8190,109.375000
8191,109.375000
8192,109.375000
8193,109.375000
8194,109.375000
8195,109.375000
8196,113.281250
8197,113.281250
8198,113.281250
8199,113.281250
8200,113.281250
8201,113.281250
8202,113.281250
8203,113.281250
8204,113.281250
8205,113.281250
8206,113.281250
8207,113.281250
8208,113.281250
8209,113.281250
8210,113.281250
8211,113.281250
8212,113.281250
8213,113.281250
8214,113.281250
8215,113.281250
8216,113.281250
8217,113.281250
8218,113.281250
8219,113.281250
8220,117.187500
8221,117.187500
8222,113.281250
8223,113.281250
8224,113.281250
8225,113.281250
8226,117.187500
8227,113.281250
8228,113.281250
8229,113.281250
8230,113.281250
8231,113.281250
8232,117.187500
8233,113.281250
8234,113.281250
8235,113.281250
8236,117.187500
8237,117.187500
8238,113.281250
8239,113.281250
8240,113.281250
8241,113.281250
8242,113.281250
8243,117.187500
8244,113.281250
8245,113.281250
8246,117.187500
8247,117.187500
8248,113.281250
8249,113.281250
8250,113.281250
8251,113.281250
8252,113.281250
8253,113.281250
8254,113.281250
8255,113.281250
8256,113.281250
8257,113.281250
8258,113.281250
8259,113.281250
8260,113.281250
8261,113.281250
8262,113.281250
8263,113.281250
8264,113.281250
8265,113.281250
8266,113.281250
8267,113.281250
8268,113.281250
8269,113.281250
8270,113.281250
8271,113.281250
8272,113.281250
8273,113.281250
8274,113.281250
8275,113.281250
8276,113.281250
8277,113.281250
8278,113.281250
8279,113.281250
8280,113.281250
8281,113.281250
8282,113.281250
8283,109.375000
8284,109.375000
8285,109.375000
8286,109.375000
8287,109.375000
8288,109.375000
8289,109.375000
8290,109.375000
8291,109.375000
8292,109.375000
8293,109.375000
8294,109.375000
8295,109.375000
8296,109.375000
8297,105.468750
8298,109.375000
8299,109.375000
8300,109.375000
8301,105.468750
8302,109.375000
8303,105.468750
8304,105.468750
8305,105.468750
8306,109.375000
8307,101.562500
8308,105.468750
8309,105.468750
8310,105.468750
8311,101.562500
8312,101.562500
8313,101.562500
8314,101.562500
8315,101.562500
8316,101.562500
8317,101.562500
8318,101.562500
8319,101.562500
8320,101.562500
8321,101.562500
8322,101.562500
8323,97.656250
8324,97.656250
8325,97.656250
8326,97.656250
8327,97.656250
8328,97.656250
8329,97.656250
8330,97.656250
8331,97.656250
8332,97.656250
8333,97.656250
8334,93.750000
8335,93.750000
8336,93.750000
8337,93.750000
8338,93.750000
8339,93.750000
8340,93.750000
8341,93.750000
8342,89.843750
8343,89.843750
8344,89.843750
8345,89.843750
8346,89.843750
8347,89.843750
8348,89.843750
8349,89.843750
8350,85.937500
8351,85.937500
8352,85.937500
8353,85.937500
8354,85.937500
8355,85.937500
8356,82.031250
8357,85.937500
8358,82.031250
8359,82.031250
8360,82.031250
8361,82.031250
8362,82.031250
8363,82.031250
8364,82.031250
8365,78.125000
8366,82.031250
8367,78.125000
8368,78.125000
8369,78.125000
8370,78.125000
8371,78.125000
8372,78.125000
8373,74.218750
8374,74.218750
8375,74.218750
8376,74.218750
8377,74.218750
8378,74.218750
8379,74.218750
8380,70.312500
8381,70.312500
8382,70.312500
8383,70.312500
8384,70.312500
8385,66.406250
8386,66.406250
8387,66.406250
8388,66.406250
8389,66.406250
8390,66.406250
8391,62.500000
8392,62.500000
8393,62.500000
8394,62.500000
8395,62.500000
8396,62.500000
8397,58.593750
8398,58.593750
8399,58.593750
8400,58.593750
8401,58.593750
8402,58.593750
8403,58.593750
8404,54.687500
8405,54.687500
8406,54.687500
8407,54.687500
8408,54.687500
8409,50.781250
8410,50.781250
8411,50.781250
8412,50.781250
8413,50.781250
8414,46.875000
8415,46.875000
8416,46.875000
8417,46.875000
8418,46.875000
8419,42.968750
8420,42.968750
8421,42.968750
8422,42.968750
8423,39.062500
8424,39.062500
8425,39.062500
8426,39.062500
8427,39.062500
8428,39.062500
8429,35.156250
8430,35.156250
8431,35.156250
8432,35.156250
8433,35.156250
8434,31.250000
8435,31.250000
8436,31.250000
8437,31.250000
8438,27.343750
8439,27.343750
8440,27.343750
8441,27.343750
8442,27.343750
8443,27.343750
8444,23.437500
8445,23.437500
8446,23.437500
8447,23.437500
8448,19.531250
8449,19.531250
8450,19.531250
8451,19.531250
8452,19.531250
8453,15.625000
8454,15.625000
8455,15.625000
8456,15.625000
8457,11.718750
8458,11.718750
8459,11.718750
8460,11.718750
8461,7.812500
8462,7.812500
8463,7.812500
8464,7.812500
8465,3.906250
8466,7.812500
8467,3.906250
8468,3.906250
8469,0.000000
8470,0.000000
8471,0.000000
8472,0.000000
8473,0.000000
8474,0.000000
8475,-3.906250
8476,-3.906250
8477,-3.906250
8478,-3.906250
8479,-7.812500
8480,-7.812500
8481,-7.812500
8482,-7.812500
8483,-11.718750
8484,-11.718750
8485,-11.718750
8486,-11.718750
8487,-11.718750
8488,-15.625000
8489,-15.625000
8490,-15.625000
8491,-15.625000
8492,-15.625000
8493,-19.531250
8494,-19.531250
8495,-19.531250
8496,-19.531250
8497,-23.437500
8498,-23.437500
8499,-23.437500
8500,-23.437500
8501,-27.343750
8502,-27.343750
8503,-27.343750
8504,-27.343750
8505,-27.343750
8506,-31.250000
8507,-31.250000
8508,-31.250000
8509,-31.250000
8510,-35.156250
8511,-35.156250
8512,-35.156250
8513,-35.156250
8514,-35.156250
8515,-39.062500
8516,-39.062500
8517,-39.062500
8518,-39.062500
8519,-42.968750
8520,-42.968750
8521,-42.968750
8522,-42.968750
8523,-46.875000
8524,-46.875000
8525,-46.875000
8526,-46.875000
8527,-46.875000
8528,-50.781250
8529,-50.781250
8530,-50.781250
8531,-50.781250
8532,-54.687500
8533,-54.687500
8534,-54.687500
8535,-58.593750
8536,-54.687500
8537,-58.593750
8538,-58.593750
8539,-58.593750
8540,-58.593750
8541,-62.500000
8542,-62.500000
8543,-62.500000
8544,-62.500000
8545,-66.406250
8546,-66.406250
8547,-66.406250
8548,-66.406250
8549,-70.312500
8550,-70.312500
8551,-70.312500
8552,-70.312500
8553,-74.218750
8554,-74.218750
8555,-74.218750
8556,-74.218750
8557,-74.218750
8558,-78.125000
8559,-78.125000
8560,-78.125000
8561,-78.125000
8562,-78.125000
8563,-82.031250
8564,-82.031250
8565,-82.031250
8566,-82.031250
8567,-85.937500
8568,-85.937500
8569,-85.937500
8570,-85.937500
8571,-85.937500
8572,-89.843750
8573,-89.843750
8574,-89.843750
8575,-89.843750
8576,-89.843750
8577,-93.750000
8578,-93.750000
8579,-93.750000
8580,-93.750000
8581,-97.656250
8582,-97.656250
8583,-97.656250
8584,-97.656250
8585,-97.656250
8586,-97.656250
8587,-101.562500
8588,-101.562500
8589,-101.562500
8590,-101.562500
8591,-101.562500
8592,-105.468750
8593,-105.468750
8594,-105.468750
8595,-105.468750
8596,-105.468750
8597,-109.375000
8598,-109.375000
8599,-109.375000
8600,-109.375000
8601,-109.375000
8602,-109.375000
8603,-113.281250
8604,-113.281250
8605,-113.281250
8606,-113.281250
8607,-113.281250
8608,-113.281250
8609,-113.281250
8610,-117.187500
8611,-117.187500
8612,-117.187500
8613,-121.093750
8614,-117.187500
8615,-121.093750
8616,-121.093750
8617,-121.093750
8618,-121.093750
8619,-121.093750
8620,-125.000000
8621,-125.000000
8622,-125.000000
8623,-125.000000
8624,-125.000000
8625,-125.000000
8626,-125.000000
8627,-125.000000
8628,-128.906250
8629,-128.906250
8630,-128.906250
8631,-128.906250
8632,-128.906250
8633,-132.812500
8634,-132.812500
8635,-132.812500
8636,-132.812500
8637,-132.812500
8638,-132.812500
8639,-136.718750
8640,-136.718750
8641,-136.718750
8642,-136.718750
8643,-136.718750
8644,-136.718750
8645,-136.718750
8646,-136.718750
8647,-136.718750
8648,-136.718750
8649,-140.625000
8650,-140.625000
8651,-140.625000
8652,-140.625000
8653,-140.625000
8654,-140.625000
8655,-140.625000
8656,-140.625000
8657,-140.625000
8658,-144.531250
8659,-144.531250
8660,-144.531250
8661,-144.531250
8662,-144.531250
8663,-144.531250
8664,-144.531250
8665,-144.531250
8666,-144.531250
8667,-144.531250
8668,-148.437500
8669,-148.437500
8670,-148.437500
8671,-148.437500
8672,-148.437500
8673,-148.437500
8674,-148.437500
8675,-148.437500
8676,-148.437500
8677,-152.343750
8678,-152.343750
8679,-148.437500
8680,-148.437500
8681,-152.343750
8682,-152.343750
8683,-152.343750
8684,-152.343750
8685,-152.343750
8686,-152.343750
8687,-152.343750
8688,-152.343750
8689,-152.343750
8690,-152.343750
8691,-156.250000
8692,-156.250000
8693,-156.250000
8694,-156.250000
8695,-156.250000
8696,-156.250000
8697,-156.250000
8698,-156.250000
8699,-156.250000
8700,-156.250000
8701,-156.250000
8702,-156.250000
8703,-156.250000
8704,-156.250000
8705,-156.250000
8706,-156.250000
8707,-156.250000
8708,-156.250000
8709,-156.250000
8710,-156.250000
8711,-156.250000
8712,-156.250000
8713,-156.250000
8714,-156.250000
8715,-156.250000
8716,-156.250000
8717,-160.156250
8718,-156.250000
8719,-156.250000
8720,-160.156250
8721,-160.156250
8722,-156.250000
8723,-156.250000
8724,-160.156250
8725,-160.156250
8726,-160.156250
8727,-156.250000
8728,-156.250000
8729,-160.156250
8730,-156.250000
8731,-160.156250
8732,-156.250000
8733,-160.156250
8734,-156.250000
8735,-156.250000
8736,-160.156250
8737,-160.156250
8738,-156.250000
8739,-156.250000
8740,-156.250000
8741,-156.250000
8742,-156.250000
8743,-156.250000
8744,-156.250000
8745,-156.250000
8746,-156.250000
8747,-156.250000
8748,-156.250000
8749,-156.250000
8750,-156.250000
8751,-156.250000
8752,-156.250000
8753,-156.250000
8754,-156.250000
8755,-156.250000
8756,-156.250000
8757,-156.250000
8758,-156.250000
8759,-156.250000
8760,-156.250000
8761,-152.343750
8762,-152.343750
8763,-156.250000
8764,-152.343750
8765,-152.343750
8766,-152.343750
8767,-152.343750
8768,-152.343750
8769,-152.343750
8770,-152.343750
8771,-152.343750
8772,-152.343750
8773,-152.343750
8774,-152.343750
8775,-148.437500
8776,-148.437500
8777,-148.437500
8778,-148.437500
8779,-148.437500
8780,-148.437500
8781,-148.437500
8782,-148.437500
8783,-148.437500
8784,-148.437500
8785,-148.437500
8786,-148.437500
8787,-144.531250
8788,-144.531250
8789,-144.531250
8790,-144.531250
8791,-144.531250
8792,-144.531250
8793,-144.531250
8794,-144.531250
8795,-144.531250
8796,-140.625000
8797,-140.625000
8798,-140.625000
8799,-140.625000
8800,-140.625000
8801,-140.625000
8802,-140.625000
8803,-140.625000
8804,-140.625000
8805,-140.625000
8806,-136.718750
8807,-136.718750
8808,-136.718750
8809,-136.718750
8810,-136.718750
8811,-136.718750
8812,-132.812500
8813,-132.812500
8814,-132.812500
8815,-132.812500
8816,-132.812500
8817,-132.812500
8818,-132.812500
8819,-132.812500
8820,-128.906250
8821,-128.906250
8822,-128.906250
8823,-128.906250
8824,-128.906250
8825,-128.906250
8826,-128.906250
8827,-128.906250
8828,-125.000000
8829,-125.000000
8830,-125.000000
8831,-125.000000
8832,-125.000000
8833,-121.093750
8834,-121.093750
8835,-121.093750
8836,-121.093750
8837,-121.093750
8838,-121.093750
8839,-121.093750
8840,-121.093750
8841,-117.187500
8842,-117.187500
8843,-117.187500
8844,-117.187500
8845,-117.187500
8846,-113.281250
8847,-113.281250
8848,-113.281250
8849,-113.281250
8850,-113.281250
8851,-113.281250
8852,-109.375000
8853,-109.375000
8854,-109.375000
8855,-109.375000
8856,-109.375000
8857,-109.375000
8858,-105.468750
8859,-105.468750
8860,-105.468750
8861,-105.468750
8862,-105.468750
8863,-101.562500
8864,-101.562500
8865,-101.562500
8866,-101.562500
8867,-101.562500
8868,-101.562500
8869,-97.656250
8870,-97.656250
8871,-97.656250
8872,-97.656250
8873,-93.750000
8874,-93.750000
8875,-93.750000
8876,-93.750000
8877,-93.750000
8878,-89.843750
8879,-89.843750
8880,-89.843750
8881,-89.843750
8882,-89.843750
8883,-89.843750
8884,-85.937500
8885,-85.937500
8886,-85.937500
8887,-85.937500
8888,-82.031250
8889,-82.031250
8890,-82.031250
8891,-82.031250
8892,-82.031250
8893,-78.125000
8894,-78.125000
8895,-78.125000
8896,-78.125000
8897,-74.218750
8898,-74.218750
8899,-74.218750
8900,-74.218750
8901,-70.312500
8902,-70.312500
8903,-70.312500
8904,-70.312500
8905,-70.312500
8906,-70.312500
8907,-66.406250
8908,-66.406250
8909,-66.406250
8910,-66.406250
8911,-62.500000
8912,-62.500000
8913,-62.500000
8914,-62.500000
8915,-62.500000
8916,-58.593750
8917,-58.593750
8918,-58.593750
8919,-58.593750
8920,-54.687500
8921,-54.687500
8922,-54.687500
8923,-54.687500
8924,-54.687500
8925,-50.781250
8926,-50.781250
8927,-50.781250
8928,-50.781250
8929,-46.875000
8930,-46.875000
8931,-46.875000
8932,-46.875000
8933,-46.875000
8934,-42.968750
8935,-42.968750
8936,-42.968750
8937,-42.968750
8938,-42.968750
8939,-39.062500
8940,-39.062500
8941,-39.062500
8942,-35.156250
8943,-35.156250
8944,-35.156250
8945,-35.156250
8946,-35.156250
8947,-35.156250
8948,-31.250000
8949,-31.250000
8950,-31.250000
8951,-27.343750
8952,-27.343750
8953,-27.343750
8954,-27.343750
8955,-27.343750
8956,-23.437500
8957,-23.437500
8958,-23.437500
8959,-23.437500
8960,-19.531250
8961,-19.531250
8962,-19.531250
8963,-19.531250
8964,-19.531250
8965,-19.531250
8966,-15.625000
8967,-15.625000
8968,-15.625000
8969,-15.625000
8970,-11.718750
8971,-11.718750
8972,-11.718750
8973,-11.718750
8974,-11.718750
8975,-7.812500
8976,-7.812500
8977,-7.812500
8978,-7.812500
8979,-3.906250
8980,-3.906250
8981,-3.906250
8982,-3.906250
8983,0.000000
8984,0.000000
8985,0.000000
8986,0.000000
8987,3.906250
8988,3.906250
8989,3.906250
8990,3.906250
8991,3.906250
8992,7.812500
8993,7.812500
8994,7.812500
8995,7.812500
8996,7.812500
8997,7.812500
8998,11.718750
8999,11.718750
9000,11.718750
9001,11.718750
9002,15.625000
9003,15.625000
9004,15.625000
9005,15.625000
9006,19.531250
9007,19.531250
9008,19.531250
9009,19.531250
9010,19.531250
9011,19.531250
9012,23.437500
9013,23.437500
9014,23.437500
9015,23.437500
9016,27.343750
9017,27.343750
9018,27.343750
9019,27.343750
9020,31.250000
9021,31.250000
9022,31.250000
9023,31.250000
9024,31.250000
9025,31.250000
9026,35.156250
9027,31.250000
9028,35.156250
9029,35.156250
9030,39.062500
9031,35.156250
9032,39.062500
9033,39.062500
9034,39.062500
9035,39.062500
9036,42.968750
9037,42.968750
9038,42.968750
9039,42.968750
9040,42.968750
9041,42.968750
9042,46.875000
9043,46.875000
9044,46.875000
9045,46.875000
9046,46.875000
9047,50.781250
9048,50.781250
9049,50.781250
9050,50.781250
9051,54.687500
9052,54.687500
9053,54.687500
9054,54.687500
9055,54.687500
9056,54.687500
9057,54.687500
9058,54.687500
9059,58.593750
9060,58.593750
9061,58.593750
9062,58.593750
9063,58.593750
9064,62.500000
9065,62.500000
9066,62.500000
9067,62.500000
9068,62.500000
9069,66.406250
9070,66.406250
9071,66.406250
9072,66.406250
9073,66.406250
9074,66.406250
9075,66.406250
9076,70.312500
9077,70.312500
9078,70.312500
9079,70.312500
9080,70.312500
9081,70.312500
9082,70.312500
9083,74.218750
9084,74.218750
9085,74.218750
9086,74.218750
9087,74.218750
9088,74.218750
9089,74.218750
9090,74.218750
9091,78.125000
9092,78.125000
9093,78.125000
9094,78.125000
9095,78.125000
9096,78.125000
9097,78.125000
9098,82.031250
9099,82.031250
9100,82.031250
9101,82.031250
9102,82.031250
9103,82.031250
9104,82.031250
9105,85.937500
9106,85.937500
9107,85.937500
9108,85.937500
9109,85.937500
9110,85.937500
9111,85.937500
9112,89.843750
9113,89.843750
9114,89.843750
9115,89.843750
9116,89.843750
9117,89.843750
9118,89.843750
9119,89.843750
9120,89.843750
9121,93.750000
9122,93.750000
9123,93.750000
9124,93.750000
9125,93.750000
9126,93.750000
9127,93.750000
9128,93.750000
9129,93.750000
9130,97.656250
9131,97.656250
9132,97.656250
9133,97.656250
9134,97.656250
9135,97.656250
9136,97.656250
9137,97.656250
9138,97.656250
9139,97.656250
9140,97.656250
9141,101.562500
9142,101.562500
9143,101.562500
9144,101.562500
9145,101.562500
9146,101.562500
9147,101.562500
9148,101.562500
9149,101.562500
9150,101.562500
9151,101.562500
9152,105.468750
9153,105.468750
9154,105.468750
9155,105.468750
9156,105.468750
9157,105.468750
9158,105.468750
9159,105.468750
9160,105.468750
9161,105.468750
9162,109.375000
9163,105.468750
9164,109.375000
9165,109.375000
9166,109.375000
9167,109.375000
9168,109.375000
9169,109.375000
9170,109.375000
9171,109.375000
9172,109.375000
9173,109.375000
9174,109.375000
9175,109.375000
9176,109.375000
9177,109.375000
9178,109.375000
9179,109.375000
9180,109.375000
9181,113.281250
9182,109.375000
9183,113.281250
9184,113.281250
9185,113.281250
9186,113.281250
9187,113.281250
9188,113.281250
9189,113.281250
9190,113.281250
9191,113.281250
9192,113.281250
9193,113.281250
9194,113.281250
9195,113.281250
9196,113.281250
9197,113.281250
9198,113.281250
9199,113.281250
9200,117.187500
9201,113.281250
9202,113.281250
9203,113.281250
9204,113.281250
9205,113.281250
9206,113.281250
9207,113.281250
9208,113.281250
9209,117.187500
9210,117.187500
9211,113.281250
9212,113.281250
9213,113.281250
9214,113.281250
9215,113.281250
9216,113.281250
9217,113.281250
9218,113.281250
9219,113.281250
9220,117.187500
9221,113.281250
9222,117.187500
9223,113.281250
9224,117.187500
9225,113.281250
9226,113.281250
9227,117.187500
9228,117.187500
9229,117.187500
9230,113.281250
9231,113.281250
9232,113.281250
9233,113.281250
9234,113.281250
9235,113.281250
9236,113.281250
9237,113.281250
9238,113.281250
9239,113.281250
9240,117.187500
9241,113.281250
9242,113.281250
9243,113.281250
9244,113.281250
9245,113.281250
9246,113.281250
9247,113.281250
9248,113.281250
9249,113.281250
9250,113.281250
9251,113.281250
9252,113.281250
9253,113.281250
9254,113.281250
9255,113.281250
9256,113.281250
9257,113.281250
9258,113.281250
9259,113.281250
9260,113.281250
9261,113.281250
9262,113.281250
9263,113.281250
9264,113.281250
9265,113.281250
9266,113.281250
9267,113.281250
9268,113.281250
9269,113.281250
9270,109.375000
9271,109.375000
9272,113.281250
9273,109.375000
9274,109.375000
9275,109.375000
9276,109.375000
9277,109.375000
9278,109.375000
9279,109.375000
9280,109.375000
9281,109.375000
9282,109.375000
9283,109.375000
9284,109.375000
9285,109.375000
9286,109.375000
9287,109.375000
9288,109.375000
9289,105.468750
9290,105.468750
9291,105.468750
9292,105.468750
9293,105.468750
9294,105.468750
9295,105.468750
9296,105.468750
9297,105.468750
9298,105.468750
9299,105.468750
9300,105.468750
9301,105.468750
9302,105.468750
9303,101.562500
9304,101.562500
9305,101.562500
9306,101.562500
9307,101.562500
9308,101.562500
9309,101.562500
9310,101.562500
9311,101.562500
9312,101.562500
9313,101.562500
9314,97.656250
9315,97.656250
9316,97.656250
9317,97.656250
9318,97.656250
9319,97.656250
9320,97.656250
9321,97.656250
9322,97.656250
9323,93.750000
9324,93.750000
9325,93.750000
9326,93.750000
9327,93.750000
9328,93.750000
9329,93.750000
9330,89.843750
9331,89.843750
9332,89.843750
9333,89.843750
9334,89.843750
9335,89.843750
9336,89.843750
9337,89.843750
9338,89.843750
9339,85.937500
9340,85.937500
9341,85.937500
9342,85.937500
9343,85.937500
9344,85.937500
9345,85.937500
9346,85.937500
9347,82.031250
9348,82.031250
9349,82.031250
9350,82.031250
9351,82.031250
9352,82.031250
9353,82.031250
9354,82.031250
9355,78.125000
9356,78.125000
9357,78.125000
9358,78.125000
9359,78.125000
9360,78.125000
9361,78.125000
9362,74.218750
9363,74.218750
9364,74.218750
9365,74.218750
9366,74.218750
9367,70.312500
9368,70.312500
9369,70.312500
9370,70.312500
9371,70.312500
9372,70.312500
9373,66.406250
9374,66.406250
9375,66.406250
9376,66.406250
9377,66.406250
9378,66.406250
9379,66.406250
9380,66.406250
9381,58.593750
9382,62.500000
9383,62.500000
9384,62.500000
9385,62.500000
9386,62.500000
9387,58.593750
9388,58.593750
9389,58.593750
9390,58.593750
9391,58.593750
9392,54.687500
9393,54.687500
9394,54.687500
9395,54.687500
9396,54.687500
9397,50.781250
9398,50.781250
9399,50.781250
9400,50.781250
9401,50.781250
9402,50.781250
9403,46.875000
9404,46.875000
9405,46.875000
9406,46.875000
9407,46.875000
9408,42.968750
9409,42.968750
9410,42.968750
9411,42.968750
9412,39.062500
9413,39.062500
9414,39.062500
9415,39.062500
9416,39.062500
9417,35.156250
9418,39.062500
9419,35.156250
9420,35.156250
9421,35.156250
9422,35.156250
9423,31.250000
9424,31.250000
9425,31.250000
9426,31.250000
9427,27.343750
9428,27.343750
9429,27.343750
9430,27.343750
9431,27.343750
9432,27.343750
9433,23.437500
9434,23.437500
9435,23.437500
9436,23.437500
9437,19.531250
9438,19.531250
9439,19.531250
9440,19.531250
9441,19.531250
9442,15.625000
9443,15.625000
9444,15.625000
9445,15.625000
9446,15.625000
9447,11.718750
9448,11.718750
9449,11.718750
9450,11.718750
9451,7.812500
9452,7.812500
9453,7.812500
9454,7.812500
9455,3.906250
9456,3.906250
9457,3.906250
9458,3.906250
9459,3.906250
9460,3.906250
9461,0.000000
9462,0.000000
9463,0.000000
9464,-3.906250
9465,-3.906250
9466,-3.906250
9467,-3.906250
9468,-3.906250
9469,-7.812500
9470,-7.812500
9471,-7.812500
9472,-11.718750
9473,-11.718750
9474,-11.718750
9475,-11.718750
9476,-11.718750
9477,-11.718750
9478,-15.625000
9479,-15.625000
9480,-15.625000
9481,-19.531250
9482,-19.531250
9483,-19.531250
9484,-19.531250
9485,-19.531250
9486,-23.437500
9487,-23.437500
9488,-23.437500
9489,-27.343750
9490,-27.343750
9491,-27.343750
9492,-27.343750
9493,-27.343750
9494,-31.250000
9495,-31.250000
9496,-31.250000
9497,-35.156250
9498,-35.156250
9499,-35.156250
9500,-35.156250
9501,-35.156250
9502,-39.062500
9503,-39.062500
9504,-39.062500
9505,-39.062500
9506,-39.062500
9507,-42.968750
9508,-42.968750
9509,-42.968750
9510,-42.968750
9511,-46.875000
9512,-46.875000
9513,-46.875000
9514,-46.875000
9515,-46.875000
9516,-50.781250
9517,-50.781250
9518,-50.781250
9519,-54.687500
9520,-50.781250
9521,-54.687500
9522,-54.687500
9523,-54.687500
9524,-54.687500
9525,-58.593750
9526,-58.593750
9527,-58.593750
9528,-58.593750
9529,-62.500000
9530,-62.500000
9531,-62.500000
9532,-62.500000
9533,-66.406250
9534,-66.406250
9535,-66.406250
9536,-66.406250
9537,-70.312500
9538,-70.312500
9539,-70.312500
9540,-70.312500
9541,-70.312500
9542,-70.312500
9543,-74.218750
9544,-74.218750
9545,-74.218750
9546,-74.218750
9547,-78.125000
9548,-78.125000
9549,-78.125000
9550,-78.125000
9551,-78.125000
9552,-82.031250
9553,-82.031250
9554,-82.031250
9555,-82.031250
9556,-82.031250
9557,-85.937500
9558,-85.937500
9559,-85.937500
9560,-85.937500
9561,-89.843750
9562,-89.843750
9563,-89.843750
9564,-89.843750
9565,-89.843750
9566,-93.750000
9567,-93.750000
9568,-93.750000
9569,-93.750000
9570,-97.656250
9571,-97.656250
9572,-97.656250
9573,-97.656250
9574,-97.656250
9575,-97.656250
9576,-101.562500
9577,-101.562500
9578,-101.562500
9579,-101.562500
9580,-101.562500
9581,-105.468750
9582,-105.468750
9583,-105.468750
9584,-105.468750
9585,-105.468750
9586,-109.375000
9587,-109.375000
9588,-109.375000
9589,-109.375000
9590,-109.375000
9591,-109.375000
9592,-113.281250
9593,-113.281250
9594,-113.281250
9595,-113.281250
9596,-113.281250
9597,-117.187500
9598,-117.187500
9599,-117.187500
9600,-117.187500
9601,-117.187500
9602,-121.093750
9603,-121.093750
9604,-121.093750
9605,-121.093750
9606,-121.093750
9607,-121.093750
9608,-121.093750
9609,-125.000000
9610,-125.000000
9611,-125.000000
9612,-125.000000
9613,-125.000000
9614,-125.000000
9615,-125.000000
9616,-128.906250
9617,-128.906250
9618,-128.906250
9619,-128.906250
9620,-128.906250
9621,-128.906250
9622,-132.812500
9623,-132.812500
9624,-132.812500
9625,-132.812500
9626,-132.812500
9627,-132.812500
9628,-132.812500
9629,-136.718750
9630,-136.718750
9631,-136.718750
9632,-136.718750
9633,-136.718750
9634,-136.718750
9635,-136.718750
9636,-136.718750
9637,-140.625000
9638,-140.625000
9639,-140.625000
9640,-140.625000
9641,-140.625000
9642,-140.625000
9643,-140.625000
9644,-140.625000
9645,-140.625000
9646,-144.531250
9647,-144.531250
9648,-144.531250
9649,-144.531250
9650,-144.531250
9651,-144.531250
9652,-144.531250
9653,-148.437500
9654,-144.531250
9655,-148.437500
9656,-148.437500
9657,-148.437500
9658,-148.437500
9659,-148.437500
9660,-148.437500
9661,-148.437500
9662,-148.437500
9663,-148.437500
9664,-148.437500
9665,-148.437500
9666,-148.437500
9667,-152.343750
9668,-152.343750
9669,-152.343750
9670,-152.343750
9671,-152.343750
9672,-152.343750
9673,-152.343750
9674,-152.343750
9675,-152.343750
9676,-152.343750
9677,-152.343750
9678,-152.343750
9679,-152.343750
9680,-152.343750
9681,-152.343750
9682,-152.343750
9683,-156.250000
9684,-152.343750
9685,-156.250000
9686,-156.250000
9687,-156.250000
9688,-156.250000
9689,-156.250000
9690,-156.250000
9691,-156.250000
9692,-156.250000
9693,-156.250000
9694,-156.250000
9695,-156.250000
9696,-156.250000
9697,-156.250000
9698,-156.250000
9699,-156.250000
9700,-156.250000
9701,-156.250000
9702,-156.250000
9703,-156.250000
9704,-156.250000
9705,-156.250000
9706,-156.250000
9707,-156.250000
9708,-156.250000
9709,-156.250000
9710,-156.250000
9711,-156.250000
9712,-156.250000
9713,-156.250000
9714,-156.250000
9715,-160.156250
9716,-156.250000
9717,-156.250000
9718,-160.156250
9719,-156.250000
9720,-160.156250
9721,-160.156250
9722,-160.156250
9723,-156.250000
9724,-156.250000
9725,-156.250000
9726,-156.250000
9727,-156.250000
9728,-156.250000
9729,-156.250000
9730,-156.250000
9731,-156.250000
9732,-156.250000
9733,-156.250000
9734,-156.250000
9735,-156.250000
9736,-156.250000
9737,-156.250000
9738,-156.250000
9739,-156.250000
9740,-156.250000
9741,-156.250000
9742,-156.250000
9743,-156.250000
9744,-156.250000
9745,-156.250000
9746,-156.250000
9747,-156.250000
9748,-152.343750
9749,-156.250000
9750,-156.250000
9751,-152.343750
9752,-156.250000
9753,-152.343750
9754,-152.343750
9755,-152.343750
9756,-152.343750
9757,-152.343750
9758,-152.343750
9759,-152.343750
9760,-152.343750
9761,-152.343750
9762,-152.343750
9763,-152.343750
9764,-148.437500
9765,-148.437500
9766,-148.437500
9767,-148.437500
9768,-148.437500
9769,-148.437500
9770,-148.437500
9771,-148.437500
9772,-148.437500
9773,-148.437500
9774,-148.437500
9775,-148.437500
9776,-148.437500
9777,-144.531250
9778,-144.531250
9779,-144.531250
9780,-144.531250
9781,-144.531250
9782,-144.531250
9783,-144.531250
9784,-144.531250
9785,-144.531250
9786,-140.625000
9787,-140.625000
9788,-140.625000
9789,-140.625000
9790,-140.625000
9791,-140.625000
9792,-140.625000
9793,-136.718750
9794,-136.718750
9795,-136.718750
9796,-136.718750
9797,-136.718750
9798,-136.718750
9799,-136.718750
9800,-136.718750
9801,-136.718750
9802,-132.812500
9803,-132.812500
9804,-132.812500
9805,-132.812500
9806,-132.812500
9807,-132.812500
9808,-128.906250
9809,-128.906250
9810,-128.906250
9811,-128.906250
9812,-128.906250
9813,-128.906250
9814,-128.906250
9815,-125.000000
9816,-125.000000
9817,-125.000000
9818,-125.000000
9819,-125.000000
9820,-125.000000
9821,-125.000000
9822,-121.093750
9823,-121.093750
9824,-121.093750
9825,-121.093750
9826,-121.093750
9827,-121.093750
9828,-117.187500
9829,-117.187500
9830,-117.187500
9831,-117.187500
9832,-117.187500
9833,-117.187500
9834,-113.281250
9835,-113.281250
9836,-113.281250
9837,-113.281250
9838,-113.281250
9839,-113.281250
9840,-109.375000
9841,-109.375000
9842,-109.375000
9843,-109.375000
9844,-109.375000
9845,-105.468750
9846,-105.468750
9847,-105.468750
9848,-105.468750
9849,-105.468750
9850,-101.562500
9851,-105.468750
9852,-101.562500
9853,-101.562500
9854,-101.562500
9855,-101.562500
9856,-97.656250
9857,-97.656250
9858,-97.656250
9859,-97.656250
9860,-97.656250
9861,-97.656250
9862,-93.750000
9863,-93.750000
9864,-93.750000
9865,-93.750000
9866,-93.750000
9867,-89.843750
9868,-89.843750
9869,-85.937500
9870,-89.843750
9871,-85.937500
9872,-85.937500
9873,-85.937500
9874,-85.937500
9875,-85.937500
9876,-85.937500
9877,-78.125000
9878,-82.031250
9879,-82.031250
9880,-78.125000
9881,-82.031250
9882,-78.125000
9883,-78.125000
9884,-78.125000
9885,-78.125000
9886,-74.218750
9887,-74.218750
9888,-74.218750
9889,-74.218750
9890,-74.218750
9891,-70.312500
9892,-70.312500
9893,-70.312500
9894,-70.312500
9895,-70.312500
9896,-66.406250
9897,-66.406250
9898,-66.406250
9899,-66.406250
9900,-62.500000
9901,-62.500000
9902,-62.500000
9903,-62.500000
9904,-62.500000
9905,-58.593750
9906,-58.593750
9907,-58.593750
9908,-58.593750
9909,-54.687500
9910,-54.687500
9911,-54.687500
9912,-54.687500
9913,-54.687500
9914,-50.781250
9915,-50.781250
9916,-50.781250
9917,-50.781250
9918,-50.781250
9919,-46.875000
9920,-46.875000
9921,-46.875000
9922,-46.875000
9923,-42.968750
9924,-42.968750
9925,-42.968750
9926,-42.968750
9927,-39.062500
9928,-39.062500
9929,-39.062500
9930,-39.062500
9931,-35.156250
9932,-35.156250
9933,-35.156250
9934,-35.156250
9935,-31.250000
9936,-31.250000
9937,-31.250000
9938,-31.250000
9939,-27.343750
9940,-27.343750
9941,-27.343750
9942,-27.343750
9943,-27.343750
9944,-23.437500
9945,-23.437500
9946,-23.437500
9947,-23.437500
9948,-19.531250
9949,-19.531250
9950,-19.531250
9951,-19.531250
9952,-19.531250
9953,-15.625000
9954,-15.625000
9955,-15.625000
9956,-15.625000
9957,-11.718750
9958,-11.718750
9959,-11.718750
9960,-11.718750
9961,-11.718750
9962,-7.812500
9963,-7.812500
9964,-7.812500
9965,-7.812500
9966,-3.906250
9967,-3.906250
9968,-3.906250
9969,-3.906250
9970,-3.906250
9971,-3.906250
9972,0.000000
9973,0.000000
9974,0.000000
9975,0.000000
9976,3.906250
9977,3.906250
9978,3.906250
9979,3.906250
9980,3.906250
9981,7.812500
9982,7.812500
9983,7.812500
9984,7.812500
9985,11.718750
9986,11.718750
9987,11.718750
9988,11.718750
9989,11.718750
9990,11.718750
9991,15.625000
9992,15.625000
9993,15.625000
9994,15.625000
9995,15.625000
9996,19.531250
9997,19.531250
9998,19.531250
9999,19.531250
10000,23.437500
