Channel              :,CH1
Frequency            :,1.012kHz
Period               :,0.989ms
PK-PK                :,160.2mV
Probe attenuation    :,1X
Voltage per ADC value:,0.244141mV
Time interval        :,1.00000us

index,CH1_Voltage(mV)
1,-46.875000
2,-46.875000
3,-46.875000
4,-46.875000
5,-46.875000
6,-46.875000
7,-46.875000
8,-46.875000
9,-46.875000
10,-42.968750
11,-42.968750
12,-42.968750
13,-42.968750
14,-42.968750
15,-42.968750
16,-42.968750
17,-42.968750
18,-39.062500
19,-39.062500
20,-39.062500
21,-39.062500
22,-39.062500
23,-39.062500
24,-39.062500
25,-35.156250
26,-35.156250
27,-35.156250
28,-35.156250
29,-35.156250
30,-35.156250
31,-35.156250
32,-35.156250
33,-35.156250
34,-31.250000
35,-31.250000
36,-31.250000
37,-31.250000
38,-31.250000
39,-31.250000
40,-31.250000
41,-27.343750
42,-27.343750
43,-27.343750
44,-27.343750
45,-27.343750
46,-27.343750
47,-27.343750
48,-27.343750
49,-23.437500
50,-23.437500
51,-23.437500
52,-23.437500
53,-23.437500
54,-23.437500
55,-23.437500
56,-23.437500
57,-23.437500
58,-23.437500
59,-19.531250
60,-19.531250
61,-19.531250
62,-19.531250
63,-19.531250
64,-19.531250
65,-15.625000
66,-15.625000
67,-15.625000
68,-15.625000
69,-15.625000
70,-15.625000
71,-15.625000
72,-15.625000
73,-11.718750
74,-11.718750
75,-11.718750
76,-11.718750
77,-11.718750
78,-11.718750
79,-11.718750
80,-11.718750
81,-11.718750
82,-7.812500
83,-7.812500
84,-7.812500
85,-7.812500
86,-7.812500
87,-7.812500
88,-7.812500
89,-3.906250
90,-3.906250
91,-3.906250
92,-3.906250
93,-3.906250
94,-3.906250
95,-3.906250
96,0.000000
97,0.000000
98,0.000000
99,0.000000
100,0.000000
101,0.000000
102,0.000000
103,0.000000
104,0.000000
105,3.906250
106,3.906250
107,3.906250
108,3.906250
109,3.906250
110,3.906250
111,3.906250
112,7.812500
113,3.906250
114,7.812500
115,7.812500
116,7.812500
117,7.812500
118,7.812500
119,7.812500
120,11.718750
121,11.718750
122,11.718750
123,11.718750
124,11.718750
125,11.718750
126,11.718750
127,11.718750
128,11.718750
129,11.718750
130,15.625000
131,15.625000
132,15.625000
133,15.625000
134,15.625000
135,15.625000
136,15.625000
137,19.531250
138,19.531250
139,19.531250
140,19.531250
141,19.531250
142,19.531250
143,19.531250
144,19.531250
145,23.437500
146,23.437500
147,23.437500
148,23.437500
149,23.437500
150,23.437500
151,23.437500
152,23.437500
153,23.437500
154,27.343750
155,27.343750
156,23.437500
157,27.343750
158,27.343750
159,27.343750
160,27.343750
161,27.343750
162,27.343750
163,27.343750
164,27.343750
165,31.250000
166,31.250000
167,31.250000
168,31.250000
169,31.250000
170,31.250000
171,31.250000
172,31.250000
173,31.250000
174,35.156250
175,35.156250
176,35.156250
177,35.156250
178,35.156250
179,35.156250
180,35.156250
181,35.156250
182,35.156250
183,35.156250
184,35.156250
185,35.156250
186,35.156250
187,39.062500
188,39.062500
189,39.062500
190,39.062500
191,39.062500
192,39.062500
193,39.062500
194,39.062500
195,39.062500
196,39.062500
197,42.968750
198,42.968750
199,42.968750
200,42.968750
201,42.968750
202,42.968750
203,42.968750
204,42.968750
205,42.968750
206,46.875000
207,42.968750
208,42.968750
209,42.968750
210,42.968750
211,46.875000
212,46.875000
213,46.875000
214,46.875000
215,46.875000
216,46.875000
217,46.875000
218,46.875000
219,46.875000
220,46.875000
221,46.875000
222,46.875000
223,46.875000
224,50.781250
225,50.781250
226,50.781250
227,50.781250
228,50.781250
229,50.781250
230,50.781250
231,50.781250
232,50.781250
233,50.781250
234,50.781250
235,50.781250
236,50.781250
237,50.781250
238,54.687500
239,50.781250
240,50.781250
241,54.687500
242,54.687500
243,54.687500
244,54.687500
245,54.687500
246,54.687500
247,54.687500
248,54.687500
249,54.687500
250,54.687500
251,54.687500
252,54.687500
253,54.687500
254,54.687500
255,54.687500
256,58.593750
257,58.593750
258,54.687500
259,54.687500
260,58.593750
261,58.593750
262,58.593750
263,58.593750
264,58.593750
265,58.593750
266,58.593750
267,58.593750
268,58.593750
269,58.593750
270,58.593750
271,58.593750
272,58.593750
273,58.593750
274,58.593750
275,58.593750
276,58.593750
277,58.593750
278,58.593750
279,58.593750
280,58.593750
281,58.593750
282,62.500000
283,62.500000
284,58.593750
285,58.593750
286,58.593750
287,58.593750
288,62.500000
289,62.500000
290,62.500000
291,62.500000
292,62.500000
293,62.500000
294,62.500000
295,62.500000
296,62.500000
297,62.500000
298,62.500000
299,62.500000
300,62.500000
301,62.500000
302,62.500000
303,62.500000
304,62.500000
305,62.500000
306,62.500000
307,62.500000
308,62.500000
309,62.500000
310,62.500000
311,62.500000
312,62.500000
313,62.500000
314,62.500000
315,62.500000
316,62.500000
317,62.500000
318,62.500000
319,62.500000
320,62.500000
321,62.500000
322,62.500000
323,62.500000
324,62.500000
325,62.500000
326,62.500000
327,62.500000
328,62.500000
329,62.500000
330,62.500000
331,62.500000
332,62.500000
333,62.500000
334,62.500000
335,62.500000
336,62.500000
337,62.500000
338,62.500000
339,62.500000
340,62.500000
341,62.500000
342,62.500000
343,62.500000
344,62.500000
345,62.500000
346,62.500000
347,58.593750
348,58.593750
349,58.593750
350,62.500000
351,62.500000
352,62.500000
353,62.500000
354,62.500000
355,58.593750
356,58.593750
357,58.593750
358,58.593750
359,58.593750
360,58.593750
361,58.593750
362,58.593750
363,58.593750
364,58.593750
365,58.593750
366,58.593750
367,58.593750
368,58.593750
369,58.593750
370,58.593750
371,58.593750
372,58.593750
373,58.593750
374,58.593750
375,58.593750
376,58.593750
377,58.593750
378,58.593750
379,58.593750
380,58.593750
381,58.593750
382,58.593750
383,58.593750
384,54.687500
385,54.687500
386,58.593750
387,58.593750
388,54.687500
389,54.687500
390,54.687500
391,54.687500
392,54.687500
393,54.687500
394,54.687500
395,54.687500
396,54.687500
397,54.687500
398,54.687500
399,54.687500
400,54.687500
401,54.687500
402,54.687500
403,54.687500
404,54.687500
405,54.687500
406,50.781250
407,50.781250
408,50.781250
409,50.781250
410,50.781250
411,50.781250
412,50.781250
413,50.781250
414,50.781250
415,50.781250
416,50.781250
417,50.781250
418,46.875000
419,50.781250
420,46.875000
421,46.875000
422,46.875000
423,46.875000
424,46.875000
425,46.875000
426,46.875000
427,46.875000
428,46.875000
429,46.875000
430,46.875000
431,46.875000
432,46.875000
433,46.875000
434,42.968750
435,42.968750
436,42.968750
437,42.968750
438,42.968750
439,42.968750
440,42.968750
441,42.968750
442,42.968750
443,42.968750
444,42.968750
445,42.968750
446,39.062500
447,39.062500
448,39.062500
449,39.062500
450,39.062500
451,39.062500
452,39.062500
453,39.062500
454,39.062500
455,39.062500
456,39.062500
457,39.062500
458,35.156250
459,35.156250
460,35.156250
461,35.156250
462,35.156250
463,35.156250
464,35.156250
465,35.156250
466,35.156250
467,31.250000
468,31.250000
469,31.250000
470,31.250000
471,31.250000
472,31.250000
473,31.250000
474,31.250000
475,31.250000
476,31.250000
477,31.250000
478,27.343750
479,31.250000
480,27.343750
481,27.343750
482,27.343750
483,27.343750
484,27.343750
485,27.343750
486,27.343750
487,27.343750
488,23.437500
489,23.437500
490,23.437500
491,23.437500
492,23.437500
493,23.437500
494,23.437500
495,23.437500
496,19.531250
497,23.437500
498,23.437500
499,19.531250
500,19.531250
501,19.531250
502,19.531250
503,19.531250
504,19.531250
505,19.531250
506,19.531250
507,19.531250
508,19.531250
509,15.625000
510,15.625000
511,15.625000
512,15.625000
513,15.625000
514,15.625000
515,15.625000
516,15.625000
517,11.718750
518,15.625000
519,11.718750
520,11.718750
521,11.718750
522,11.718750
523,11.718750
524,11.718750
525,11.718750
526,11.718750
527,7.812500
528,7.812500
529,7.812500
530,7.812500
531,7.812500
532,7.812500
533,7.812500
534,3.906250
535,3.906250
536,3.906250
537,3.906250
538,3.906250
539,3.906250
540,3.906250
541,3.906250
542,0.000000
543,0.000000
544,0.000000
545,0.000000
546,0.000000
547,0.000000
548,0.000000
549,0.000000
550,0.000000
551,-3.906250
552,-3.906250
553,-3.906250
554,-3.906250
555,-3.906250
556,-3.906250
557,-3.906250
558,-3.906250
559,-7.812500
560,-7.812500
561,-7.812500
562,-7.812500
563,-7.812500
564,-7.812500
565,-7.812500
566,-11.718750
567,-11.718750
568,-11.718750
569,-11.718750
570,-11.718750
571,-11.718750
572,-11.718750
573,-11.718750
574,-15.625000
575,-15.625000
576,-15.625000
577,-15.625000
578,-15.625000
579,-15.625000
580,-15.625000
581,-15.625000
582,-19.531250
583,-19.531250
584,-19.531250
585,-19.531250
586,-19.531250
587,-19.531250
588,-19.531250
589,-23.437500
590,-19.531250
591,-23.437500
592,-23.437500
593,-23.437500
594,-23.437500
595,-23.437500
596,-23.437500
597,-27.343750
598,-23.437500
599,-27.343750
600,-27.343750
601,-27.343750
602,-27.343750
603,-27.343750
604,-27.343750
605,-27.343750
606,-31.250000
607,-31.250000
608,-31.250000
609,-31.250000
610,-31.250000
611,-31.250000
612,-31.250000
613,-31.250000
614,-35.156250
615,-35.156250
616,-35.156250
617,-35.156250
618,-35.156250
619,-35.156250
620,-35.156250
621,-35.156250
622,-39.062500
623,-39.062500
624,-39.062500
625,-39.062500
626,-39.062500
627,-39.062500
628,-39.062500
629,-39.062500
630,-42.968750
631,-42.968750
632,-42.968750
633,-42.968750
634,-42.968750
635,-42.968750
636,-42.968750
637,-42.968750
638,-42.968750
639,-42.968750
640,-46.875000
641,-46.875000
642,-46.875000
643,-46.875000
644,-46.875000
645,-46.875000
646,-46.875000
647,-46.875000
648,-50.781250
649,-50.781250
650,-50.781250
651,-50.781250
652,-50.781250
653,-50.781250
654,-50.781250
655,-50.781250
656,-54.687500
657,-54.687500
658,-54.687500
659,-54.687500
660,-54.687500
661,-54.687500
662,-54.687500
663,-54.687500
664,-54.687500
665,-54.687500
666,-58.593750
667,-58.593750
668,-58.593750
669,-58.593750
670,-58.593750
671,-58.593750
672,-58.593750
673,-58.593750
674,-58.593750
675,-62.500000
676,-62.500000
677,-62.500000
678,-62.500000
679,-62.500000
680,-62.500000
681,-62.500000
682,-62.500000
683,-62.500000
684,-66.406250
685,-66.406250
686,-66.406250
687,-66.406250
688,-66.406250
689,-66.406250
690,-70.312500
691,-66.406250
692,-70.312500
693,-70.312500
694,-70.312500
695,-70.312500
696,-70.312500
697,-70.312500
698,-70.312500
699,-70.312500
700,-70.312500
701,-70.312500
702,-74.218750
703,-70.312500
704,-74.218750
705,-74.218750
706,-74.218750
707,-74.218750
708,-74.218750
709,-74.218750
710,-74.218750
711,-74.218750
712,-74.218750
713,-74.218750
714,-78.125000
715,-78.125000
716,-78.125000
717,-78.125000
718,-78.125000
719,-78.125000
720,-78.125000
721,-78.125000
722,-78.125000
723,-78.125000
724,-78.125000
725,-78.125000
726,-82.031250
727,-82.031250
728,-82.031250
729,-82.031250
730,-82.031250
731,-82.031250
732,-82.031250
733,-82.031250
734,-82.031250
735,-82.031250
736,-82.031250
737,-82.031250
738,-82.031250
739,-82.031250
740,-82.031250
741,-85.937500
742,-85.937500
743,-85.937500
744,-85.937500
745,-85.937500
746,-85.937500
747,-85.937500
748,-85.937500
749,-85.937500
750,-85.937500
751,-85.937500
752,-85.937500
753,-85.937500
754,-89.843750
755,-85.937500
756,-85.937500
757,-89.843750
758,-89.843750
759,-89.843750
760,-89.843750
761,-89.843750
762,-89.843750
763,-89.843750
764,-89.843750
765,-89.843750
766,-89.843750
767,-89.843750
768,-89.843750
769,-89.843750
770,-89.843750
771,-89.843750
772,-89.843750
773,-89.843750
774,-89.843750
775,-89.843750
776,-89.843750
777,-89.843750
778,-89.843750
779,-93.750000
780,-89.843750
781,-89.843750
782,-93.750000
783,-89.843750
784,-93.750000
785,-93.750000
786,-93.750000
787,-93.750000
788,-93.750000
789,-93.750000
790,-93.750000
791,-93.750000
792,-93.750000
793,-93.750000
794,-93.750000
795,-93.750000
796,-93.750000
797,-93.750000
798,-93.750000
799,-93.750000
800,-93.750000
801,-93.750000
802,-93.750000
803,-93.750000
804,-93.750000
805,-93.750000
806,-93.750000
807,-93.750000
808,-93.750000
809,-93.750000
810,-93.750000
811,-93.750000
812,-93.750000
813,-93.750000
814,-93.750000
815,-93.750000
816,-93.750000
817,-93.750000
818,-93.750000
819,-93.750000
820,-93.750000
821,-93.750000
822,-93.750000
823,-93.750000
824,-93.750000
825,-93.750000
826,-93.750000
827,-93.750000
828,-93.750000
829,-93.750000
830,-93.750000
831,-93.750000
832,-93.750000
833,-93.750000
834,-93.750000
835,-93.750000
836,-93.750000
837,-93.750000
838,-93.750000
839,-93.750000
840,-93.750000
841,-93.750000
842,-93.750000
843,-93.750000
844,-93.750000
845,-93.750000
846,-93.750000
847,-93.750000
848,-93.750000
849,-93.750000
850,-93.750000
851,-93.750000
852,-93.750000
853,-93.750000
854,-89.843750
855,-93.750000
856,-93.750000
857,-93.750000
858,-93.750000
859,-89.843750
860,-89.843750
861,-89.843750
862,-89.843750
863,-89.843750
864,-89.843750
865,-89.843750
866,-89.843750
867,-89.843750
868,-89.843750
869,-89.843750
870,-89.843750
871,-89.843750
872,-89.843750
873,-89.843750
874,-89.843750
875,-89.843750
876,-89.843750
877,-89.843750
878,-89.843750
879,-89.843750
880,-85.937500
881,-85.937500
882,-85.937500
883,-85.937500
884,-85.937500
885,-85.937500
886,-85.937500
887,-85.937500
888,-85.937500
889,-85.937500
890,-85.937500
891,-85.937500
892,-85.937500
893,-85.937500
894,-85.937500
895,-85.937500
896,-85.937500
897,-85.937500
898,-82.031250
899,-82.031250
900,-82.031250
901,-82.031250
902,-82.031250
903,-82.031250
904,-82.031250
905,-82.031250
906,-82.031250
907,-82.031250
908,-82.031250
909,-82.031250
910,-82.031250
911,-78.125000
912,-78.125000
913,-78.125000
914,-78.125000
915,-78.125000
916,-78.125000
917,-78.125000
918,-78.125000
919,-78.125000
920,-78.125000
921,-78.125000
922,-78.125000
923,-74.218750
924,-74.218750
925,-74.218750
926,-74.218750
927,-74.218750
928,-74.218750
929,-74.218750
930,-74.218750
931,-70.312500
932,-70.312500
933,-74.218750
934,-70.312500
935,-70.312500
936,-70.312500
937,-70.312500
938,-70.312500
939,-70.312500
940,-70.312500
941,-70.312500
942,-70.312500
943,-66.406250
944,-66.406250
945,-66.406250
946,-66.406250
947,-66.406250
948,-66.406250
949,-66.406250
950,-66.406250
951,-66.406250
952,-66.406250
953,-66.406250
954,-62.500000
955,-62.500000
956,-62.500000
957,-62.500000
958,-62.500000
959,-62.500000
960,-62.500000
961,-62.500000
962,-62.500000
963,-62.500000
964,-58.593750
965,-58.593750
966,-58.593750
967,-58.593750
968,-58.593750
969,-58.593750
970,-58.593750
971,-58.593750
972,-58.593750
973,-58.593750
974,-54.687500
975,-54.687500
976,-54.687500
977,-54.687500
978,-54.687500
979,-54.687500
980,-54.687500
981,-54.687500
982,-54.687500
983,-50.781250
984,-50.781250
985,-50.781250
986,-50.781250
987,-50.781250
988,-50.781250
989,-50.781250
990,-50.781250
991,-46.875000
992,-46.875000
993,-46.875000
994,-46.875000
995,-46.875000
996,-46.875000
997,-46.875000
998,-46.875000
999,-42.968750
1000,-42.968750
1001,-42.968750
1002,-42.968750
1003,-42.968750
1004,-42.968750
1005,-42.968750
1006,-39.062500
1007,-39.062500
1008,-39.062500
1009,-39.062500
1010,-39.062500
1011,-39.062500
1012,-39.062500
1013,-39.062500
1014,-39.062500
1015,-39.062500
1016,-35.156250
1017,-35.156250
1018,-35.156250
1019,-35.156250
1020,-35.156250
1021,-35.156250
1022,-31.250000
1023,-31.250000
1024,-31.250000
1025,-31.250000
1026,-31.250000
1027,-31.250000
1028,-31.250000
1029,-31.250000
1030,-27.343750
1031,-27.343750
1032,-27.343750
1033,-27.343750
1034,-27.343750
1035,-27.343750
1036,-27.343750
1037,-27.343750
1038,-23.437500
1039,-23.437500
1040,-23.437500
1041,-23.437500
1042,-23.437500
1043,-23.437500
1044,-23.437500
1045,-23.437500
1046,-19.531250
1047,-19.531250
1048,-19.531250
1049,-19.531250
1050,-19.531250
1051,-19.531250
1052,-19.531250
1053,-19.531250
1054,-15.625000
1055,-15.625000
1056,-15.625000
1057,-15.625000
1058,-15.625000
1059,-15.625000
1060,-15.625000
1061,-15.625000
1062,-11.718750
1063,-15.625000
1064,-11.718750
1065,-11.718750
1066,-11.718750
1067,-11.718750
1068,-11.718750
1069,-11.718750
1070,-11.718750
1071,-7.812500
1072,-7.812500
1073,-7.812500
1074,-7.812500
1075,-7.812500
1076,-7.812500
1077,-7.812500
1078,-7.812500
1079,-3.906250
1080,-3.906250
1081,-3.906250
1082,-3.906250
1083,-3.906250
1084,-3.906250
1085,0.000000
1086,0.000000
1087,0.000000
1088,0.000000
1089,0.000000
1090,0.000000
1091,3.906250
1092,0.000000
1093,0.000000
1094,3.906250
1095,3.906250
1096,3.906250
1097,3.906250
1098,3.906250
1099,3.906250
1100,3.906250
1101,3.906250
1102,3.906250
1103,7.812500
1104,7.812500
1105,7.812500
1106,7.812500
1107,7.812500
1108,7.812500
1109,7.812500
1110,11.718750
1111,11.718750
1112,11.718750
1113,11.718750
1114,11.718750
1115,11.718750
1116,11.718750
1117,11.718750
1118,15.625000
1119,11.718750
1120,15.625000
1121,15.625000
1122,15.625000
1123,15.625000
1124,15.625000
1125,15.625000
1126,15.625000
1127,15.625000
1128,15.625000
1129,19.531250
1130,19.531250
1131,19.531250
1132,19.531250
1133,19.531250
1134,19.531250
1135,19.531250
1136,19.531250
1137,23.437500
1138,23.437500
1139,23.437500
1140,23.437500
1141,23.437500
1142,23.437500
1143,23.437500
1144,23.437500
1145,27.343750
1146,27.343750
1147,27.343750
1148,27.343750
1149,27.343750
1150,27.343750
1151,27.343750
1152,27.343750
1153,27.343750
1154,27.343750
1155,31.250000
1156,31.250000
1157,31.250000
1158,31.250000
1159,31.250000
1160,31.250000
1161,31.250000
1162,31.250000
1163,31.250000
1164,31.250000
1165,35.156250
1166,35.156250
1167,35.156250
1168,35.156250
1169,35.156250
1170,35.156250
1171,35.156250
1172,35.156250
1173,35.156250
1174,35.156250
1175,35.156250
1176,39.062500
1177,39.062500
1178,39.062500
1179,39.062500
1180,39.062500
1181,39.062500
1182,39.062500
1183,39.062500
1184,39.062500
1185,39.062500
1186,39.062500
1187,42.968750
1188,42.968750
1189,42.968750
1190,42.968750
1191,42.968750
1192,42.968750
1193,42.968750
1194,42.968750
1195,42.968750
1196,42.968750
1197,42.968750
1198,42.968750
1199,46.875000
1200,46.875000
1201,46.875000
1202,46.875000
1203,46.875000
1204,46.875000
1205,46.875000
1206,46.875000
1207,46.875000
1208,46.875000
1209,46.875000
1210,46.875000
1211,46.875000
1212,50.781250
1213,50.781250
1214,46.875000
1215,50.781250
1216,50.781250
1217,50.781250
1218,50.781250
1219,50.781250
1220,50.781250
1221,50.781250
1222,50.781250
1223,50.781250
1224,50.781250
1225,50.781250
1226,50.781250
1227,50.781250
1228,50.781250
1229,54.687500
1230,54.687500
1231,54.687500
1232,54.687500
1233,54.687500
1234,54.687500
1235,54.687500
1236,54.687500
1237,54.687500
1238,54.687500
1239,54.687500
1240,54.687500
1241,54.687500
1242,54.687500
1243,54.687500
1244,54.687500
1245,54.687500
1246,54.687500
1247,58.593750
1248,54.687500
1249,54.687500
1250,54.687500
1251,58.593750
1252,58.593750
1253,58.593750
1254,58.593750
1255,58.593750
1256,58.593750
1257,58.593750
1258,58.593750
1259,58.593750
1260,58.593750
1261,58.593750
1262,58.593750
1263,58.593750
1264,58.593750
1265,58.593750
1266,58.593750
1267,58.593750
1268,58.593750
1269,58.593750
1270,58.593750
1271,58.593750
1272,58.593750
1273,58.593750
1274,58.593750
1275,62.500000
1276,62.500000
1277,62.500000
1278,62.500000
1279,62.500000
1280,62.500000
1281,62.500000
1282,62.500000
1283,62.500000
1284,62.500000
1285,62.500000
1286,62.500000
1287,62.500000
1288,62.500000
1289,62.500000
1290,62.500000
1291,62.500000
1292,62.500000
1293,62.500000
1294,62.500000
1295,62.500000
1296,62.500000
1297,62.500000
1298,62.500000
1299,62.500000
1300,62.500000
1301,62.500000
1302,62.500000
1303,62.500000
1304,62.500000
1305,62.500000
1306,62.500000
1307,62.500000
1308,62.500000
1309,62.500000
1310,62.500000
1311,62.500000
1312,62.500000
1313,62.500000
1314,62.500000
1315,62.500000
1316,62.500000
1317,62.500000
1318,62.500000
1319,62.500000
1320,62.500000
1321,62.500000
1322,62.500000
1323,62.500000
1324,62.500000
1325,62.500000
1326,62.500000
1327,62.500000
1328,62.500000
1329,62.500000
1330,62.500000
1331,62.500000
1332,62.500000
1333,62.500000
1334,62.500000
1335,62.500000
1336,62.500000
1337,62.500000
1338,62.500000
1339,62.500000
1340,58.593750
1341,62.500000
1342,62.500000
1343,62.500000
1344,62.500000
1345,62.500000
1346,58.593750
1347,62.500000
1348,58.593750
1349,58.593750
1350,58.593750
1351,58.593750
1352,58.593750
1353,58.593750
1354,58.593750
1355,58.593750
1356,58.593750
1357,58.593750
1358,58.593750
1359,58.593750
1360,58.593750
1361,58.593750
1362,58.593750
1363,58.593750
1364,58.593750
1365,58.593750
1366,58.593750
1367,58.593750
1368,58.593750
1369,58.593750
1370,58.593750
1371,58.593750
1372,58.593750
1373,54.687500
1374,54.687500
1375,54.687500
1376,54.687500
1377,54.687500
1378,54.687500
1379,54.687500
1380,54.687500
1381,54.687500
1382,54.687500
1383,54.687500
1384,54.687500
1385,54.687500
1386,54.687500
1387,54.687500
1388,54.687500
1389,54.687500
1390,54.687500
1391,54.687500
1392,54.687500
1393,54.687500
1394,50.781250
1395,54.687500
1396,50.781250
1397,50.781250
1398,50.781250
1399,50.781250
1400,50.781250
1401,50.781250
1402,50.781250
1403,50.781250
1404,50.781250
1405,50.781250
1406,50.781250
1407,50.781250
1408,46.875000
1409,50.781250
1410,50.781250
1411,50.781250
1412,46.875000
1413,46.875000
1414,46.875000
1415,46.875000
1416,46.875000
1417,46.875000
1418,46.875000
1419,46.875000
1420,46.875000
1421,46.875000
1422,46.875000
1423,46.875000
1424,42.968750
1425,42.968750
1426,42.968750
1427,42.968750
1428,42.968750
1429,42.968750
1430,42.968750
1431,42.968750
1432,42.968750
1433,42.968750
1434,42.968750
1435,42.968750
1436,42.968750
1437,39.062500
1438,39.062500
1439,39.062500
1440,39.062500
1441,39.062500
1442,39.062500
1443,39.062500
1444,39.062500
1445,39.062500
1446,39.062500
1447,39.062500
1448,39.062500
1449,35.156250
1450,35.156250
1451,35.156250
1452,35.156250
1453,35.156250
1454,35.156250
1455,35.156250
1456,35.156250
1457,35.156250
1458,35.156250
1459,31.250000
1460,31.250000
1461,31.250000
1462,31.250000
1463,31.250000
1464,31.250000
1465,31.250000
1466,31.250000
1467,31.250000
1468,31.250000
1469,31.250000
1470,27.343750
1471,27.343750
1472,27.343750
1473,27.343750
1474,27.343750
1475,27.343750
1476,27.343750
1477,27.343750
1478,23.437500
1479,27.343750
1480,23.437500
1481,23.437500
1482,23.437500
1483,23.437500
1484,23.437500
1485,23.437500
1486,23.437500
1487,19.531250
1488,19.531250
1489,19.531250
1490,19.531250
1491,19.531250
1492,19.531250
1493,19.531250
1494,19.531250
1495,19.531250
1496,15.625000
1497,19.531250
1498,15.625000
1499,15.625000
1500,15.625000
1501,15.625000
1502,15.625000
1503,15.625000
1504,15.625000
1505,11.718750
1506,11.718750
1507,11.718750
1508,11.718750
1509,11.718750
1510,11.718750
1511,11.718750
1512,11.718750
1513,7.812500
1514,7.812500
1515,7.812500
1516,7.812500
1517,7.812500
1518,7.812500
1519,7.812500
1520,7.812500
1521,7.812500
1522,3.906250
1523,3.906250
1524,7.812500
1525,3.906250
1526,3.906250
1527,3.906250
1528,3.906250
1529,3.906250
1530,3.906250
1531,0.000000
1532,0.000000
1533,0.000000
1534,0.000000
1535,0.000000
1536,0.000000
1537,0.000000
1538,0.000000
1539,0.000000
1540,-3.906250
1541,-3.906250
1542,-3.906250
1543,-3.906250
1544,-3.906250
1545,-3.906250
1546,-3.906250
1547,-7.812500
1548,-7.812500
1549,-7.812500
1550,-7.812500
1551,-7.812500
1552,-7.812500
1553,-7.812500
1554,-7.812500
1555,-7.812500
1556,-11.718750
1557,-11.718750
1558,-11.718750
1559,-11.718750
1560,-11.718750
1561,-11.718750
1562,-11.718750
1563,-15.625000
1564,-15.625000
1565,-15.625000
1566,-15.625000
1567,-15.625000
1568,-15.625000
1569,-15.625000
1570,-15.625000
1571,-15.625000
1572,-19.531250
1573,-19.531250
1574,-19.531250
1575,-19.531250
1576,-19.531250
1577,-19.531250
1578,-19.531250
1579,-23.437500
1580,-23.437500
1581,-23.437500
1582,-23.437500
1583,-23.437500
1584,-23.437500
1585,-23.437500
1586,-23.437500
1587,-27.343750
1588,-27.343750
1589,-27.343750
1590,-27.343750
1591,-27.343750
1592,-27.343750
1593,-27.343750
1594,-31.250000
1595,-31.250000
1596,-31.250000
1597,-31.250000
1598,-31.250000
1599,-31.250000
1600,-31.250000
1601,-31.250000
1602,-35.156250
1603,-35.156250
1604,-35.156250
1605,-35.156250
1606,-35.156250
1607,-35.156250
1608,-35.156250
1609,-35.156250
1610,-39.062500
1611,-39.062500
1612,-39.062500
1613,-39.062500
1614,-39.062500
1615,-39.062500
1616,-39.062500
1617,-39.062500
1618,-39.062500
1619,-42.968750
1620,-42.968750
1621,-42.968750
1622,-42.968750
1623,-42.968750
1624,-42.968750
1625,-42.968750
1626,-46.875000
1627,-46.875000
1628,-46.875000
1629,-46.875000
1630,-46.875000
1631,-46.875000
1632,-46.875000
1633,-46.875000
1634,-46.875000
1635,-50.781250
1636,-50.781250
1637,-50.781250
1638,-50.781250
1639,-50.781250
1640,-50.781250
1641,-50.781250
1642,-50.781250
1643,-50.781250
1644,-54.687500
1645,-54.687500
1646,-54.687500
1647,-54.687500
1648,-54.687500
1649,-54.687500
1650,-54.687500
1651,-54.687500
1652,-54.687500
1653,-58.593750
1654,-58.593750
1655,-58.593750
1656,-58.593750
1657,-58.593750
1658,-58.593750
1659,-58.593750
1660,-58.593750
1661,-58.593750
1662,-58.593750
1663,-62.500000
1664,-62.500000
1665,-62.500000
1666,-62.500000
1667,-62.500000
1668,-62.500000
1669,-62.500000
1670,-62.500000
1671,-62.500000
1672,-66.406250
1673,-66.406250
1674,-66.406250
1675,-66.406250
1676,-66.406250
1677,-66.406250
1678,-66.406250
1679,-66.406250
1680,-66.406250
1681,-66.406250
1682,-70.312500
1683,-70.312500
1684,-70.312500
1685,-70.312500
1686,-70.312500
1687,-70.312500
1688,-70.312500
1689,-70.312500
1690,-70.312500
1691,-70.312500
1692,-74.218750
1693,-74.218750
1694,-74.218750
1695,-74.218750
1696,-74.218750
1697,-74.218750
1698,-74.218750
1699,-74.218750
1700,-74.218750
1701,-74.218750
1702,-78.125000
1703,-78.125000
1704,-78.125000
1705,-78.125000
1706,-78.125000
1707,-78.125000
1708,-78.125000
1709,-78.125000
1710,-78.125000
1711,-78.125000
1712,-78.125000
1713,-78.125000
1714,-82.031250
1715,-82.031250
1716,-82.031250
1717,-82.031250
1718,-82.031250
1719,-82.031250
1720,-82.031250
1721,-82.031250
1722,-82.031250
1723,-82.031250
1724,-82.031250
1725,-82.031250
1726,-82.031250
1727,-85.937500
1728,-85.937500
1729,-82.031250
1730,-85.937500
1731,-85.937500
1732,-85.937500
1733,-85.937500
1734,-85.937500
1735,-85.937500
1736,-85.937500
1737,-85.937500
1738,-85.937500
1739,-85.937500
1740,-85.937500
1741,-85.937500
1742,-85.937500
1743,-85.937500
1744,-85.937500
1745,-89.843750
1746,-89.843750
1747,-89.843750
1748,-89.843750
1749,-89.843750
1750,-89.843750
1751,-89.843750
1752,-89.843750
1753,-89.843750
1754,-89.843750
1755,-89.843750
1756,-89.843750
1757,-89.843750
1758,-89.843750
1759,-89.843750
1760,-89.843750
1761,-89.843750
1762,-89.843750
1763,-89.843750
1764,-89.843750
1765,-89.843750
1766,-93.750000
1767,-93.750000
1768,-93.750000
1769,-93.750000
1770,-93.750000
1771,-93.750000
1772,-93.750000
1773,-93.750000
1774,-93.750000
1775,-93.750000
1776,-93.750000
1777,-93.750000
1778,-93.750000
1779,-93.750000
1780,-93.750000
1781,-93.750000
1782,-93.750000
1783,-93.750000
1784,-93.750000
1785,-93.750000
1786,-93.750000
1787,-93.750000
1788,-93.750000
1789,-93.750000
1790,-93.750000
1791,-93.750000
1792,-93.750000
1793,-93.750000
1794,-93.750000
1795,-93.750000
1796,-93.750000
1797,-93.750000
1798,-93.750000
1799,-93.750000
1800,-93.750000
1801,-93.750000
1802,-93.750000
1803,-93.750000
1804,-93.750000
1805,-93.750000
1806,-93.750000
1807,-93.750000
1808,-93.750000
1809,-93.750000
1810,-93.750000
1811,-93.750000
1812,-93.750000
1813,-93.750000
1814,-93.750000
1815,-93.750000
1816,-93.750000
1817,-93.750000
1818,-93.750000
1819,-93.750000
1820,-93.750000
1821,-93.750000
1822,-93.750000
1823,-93.750000
1824,-93.750000
1825,-93.750000
1826,-93.750000
1827,-93.750000
1828,-93.750000
1829,-93.750000
1830,-93.750000
1831,-93.750000
1832,-93.750000
1833,-93.750000
1834,-93.750000
1835,-93.750000
1836,-93.750000
1837,-93.750000
1838,-93.750000
1839,-93.750000
1840,-93.750000
1841,-93.750000
1842,-93.750000
1843,-89.843750
1844,-93.750000
1845,-89.843750
1846,-93.750000
1847,-89.843750
1848,-89.843750
1849,-89.843750
1850,-93.750000
1851,-89.843750
1852,-89.843750
1853,-89.843750
1854,-89.843750
1855,-89.843750
1856,-89.843750
1857,-89.843750
1858,-89.843750
1859,-89.843750
1860,-89.843750
1861,-89.843750
1862,-89.843750
1863,-89.843750
1864,-89.843750
1865,-89.843750
1866,-89.843750
1867,-89.843750
1868,-89.843750
1869,-89.843750
1870,-89.843750
1871,-85.937500
1872,-85.937500
1873,-89.843750
1874,-85.937500
1875,-85.937500
1876,-85.937500
1877,-85.937500
1878,-85.937500
1879,-85.937500
1880,-85.937500
1881,-85.937500
1882,-85.937500
1883,-85.937500
1884,-85.937500
1885,-85.937500
1886,-85.937500
1887,-82.031250
1888,-82.031250
1889,-82.031250
1890,-82.031250
1891,-82.031250
1892,-82.031250
1893,-82.031250
1894,-82.031250
1895,-82.031250
1896,-82.031250
1897,-82.031250
1898,-82.031250
1899,-82.031250
1900,-78.125000
1901,-78.125000
1902,-78.125000
1903,-78.125000
1904,-78.125000
1905,-78.125000
1906,-78.125000
1907,-78.125000
1908,-78.125000
1909,-78.125000
1910,-78.125000
1911,-78.125000
1912,-74.218750
1913,-74.218750
1914,-74.218750
1915,-74.218750
1916,-74.218750
1917,-74.218750
1918,-74.218750
1919,-74.218750
1920,-74.218750
1921,-74.218750
1922,-74.218750
1923,-70.312500
1924,-74.218750
1925,-70.312500
1926,-70.312500
1927,-70.312500
1928,-70.312500
1929,-70.312500
1930,-70.312500
1931,-70.312500
1932,-70.312500
1933,-70.312500
1934,-70.312500
1935,-66.406250
1936,-66.406250
1937,-66.406250
1938,-66.406250
1939,-66.406250
1940,-66.406250
1941,-66.406250
1942,-66.406250
1943,-62.500000
1944,-62.500000
1945,-62.500000
1946,-62.500000
1947,-62.500000
1948,-62.500000
1949,-62.500000
1950,-62.500000
1951,-62.500000
1952,-58.593750
1953,-58.593750
1954,-58.593750
1955,-58.593750
1956,-58.593750
1957,-58.593750
1958,-58.593750
1959,-58.593750
1960,-58.593750
1961,-58.593750
1962,-58.593750
1963,-54.687500
1964,-54.687500
1965,-54.687500
1966,-54.687500
1967,-54.687500
1968,-54.687500
1969,-54.687500
1970,-54.687500
1971,-50.781250
1972,-50.781250
1973,-50.781250
1974,-50.781250
1975,-50.781250
1976,-50.781250
1977,-50.781250
1978,-50.781250
1979,-50.781250
1980,-46.875000
1981,-46.875000
1982,-46.875000
1983,-46.875000
1984,-46.875000
1985,-46.875000
1986,-42.968750
1987,-42.968750
1988,-42.968750
1989,-42.968750
1990,-42.968750
1991,-42.968750
1992,-42.968750
1993,-42.968750
1994,-42.968750
1995,-39.062500
1996,-39.062500
1997,-39.062500
1998,-39.062500
1999,-39.062500
2000,-39.062500
2001,-39.062500
2002,-39.062500
2003,-35.156250
2004,-35.156250
2005,-35.156250
2006,-35.156250
2007,-35.156250
2008,-35.156250
2009,-35.156250
2010,-35.156250
2011,-35.156250
2012,-31.250000
2013,-31.250000
2014,-31.250000
2015,-31.250000
2016,-31.250000
2017,-31.250000
2018,-31.250000
2019,-31.250000
2020,-27.343750
2021,-27.343750
2022,-27.343750
2023,-27.343750
2024,-27.343750
2025,-27.343750
2026,-27.343750
2027,-23.437500
2028,-23.437500
2029,-23.437500
2030,-23.437500
2031,-23.437500
2032,-23.437500
2033,-23.437500
2034,-23.437500
2035,-19.531250
2036,-19.531250
2037,-19.531250
2038,-19.531250
2039,-19.531250
2040,-19.531250
2041,-19.531250
2042,-15.625000
2043,-15.625000
2044,-15.625000
2045,-15.625000
2046,-15.625000
2047,-15.625000
2048,-15.625000
2049,-15.625000
2050,-15.625000
2051,-11.718750
2052,-11.718750
2053,-11.718750
2054,-11.718750
2055,-11.718750
2056,-11.718750
2057,-7.812500
2058,-7.812500
2059,-7.812500
2060,-7.812500
2061,-7.812500
2062,-7.812500
2063,-7.812500
2064,-7.812500
2065,-3.906250
2066,-3.906250
2067,-3.906250
2068,-3.906250
2069,-3.906250
2070,-3.906250
2071,0.000000
2072,-3.906250
2073,0.000000
2074,0.000000
2075,0.000000
2076,0.000000
2077,0.000000
2078,0.000000
2079,0.000000
2080,3.906250
2081,3.906250
2082,3.906250
2083,3.906250
2084,3.906250
2085,3.906250
2086,3.906250
2087,3.906250
2088,3.906250
2089,7.812500
2090,7.812500
2091,7.812500
2092,7.812500
2093,7.812500
2094,7.812500
2095,7.812500
2096,7.812500
2097,11.718750
2098,7.812500
2099,11.718750
2100,11.718750
2101,11.718750
2102,11.718750
2103,11.718750
2104,11.718750
2105,11.718750
2106,15.625000
2107,15.625000
2108,15.625000
2109,15.625000
2110,15.625000
2111,15.625000
2112,15.625000
2113,19.531250
2114,15.625000
2115,19.531250
2116,19.531250
2117,19.531250
2118,19.531250
2119,19.531250
2120,19.531250
2121,19.531250
2122,19.531250
2123,23.437500
2124,23.437500
2125,23.437500
2126,23.437500
2127,23.437500
2128,23.437500
2129,23.437500
2130,23.437500
2131,23.437500
2132,27.343750
2133,23.437500
2134,27.343750
2135,27.343750
2136,27.343750
2137,27.343750
2138,27.343750
2139,27.343750
2140,27.343750
2141,27.343750
2142,31.250000
2143,31.250000
2144,31.250000
2145,31.250000
2146,31.250000
2147,31.250000
2148,31.250000
2149,31.250000
2150,31.250000
2151,31.250000
2152,31.250000
2153,31.250000
2154,35.156250
2155,35.156250
2156,35.156250
2157,35.156250
2158,35.156250
2159,35.156250
2160,35.156250
2161,35.156250
2162,35.156250
2163,39.062500
2164,39.062500
2165,39.062500
2166,39.062500
2167,39.062500
2168,39.062500
2169,39.062500
2170,39.062500
2171,39.062500
2172,39.062500
2173,42.968750
2174,39.062500
2175,42.968750
2176,42.968750
2177,42.968750
2178,42.968750
2179,42.968750
2180,42.968750
2181,42.968750
2182,42.968750
2183,42.968750
2184,42.968750
2185,46.875000
2186,42.968750
2187,46.875000
2188,46.875000
2189,46.875000
2190,46.875000
2191,46.875000
2192,46.875000
2193,46.875000
2194,46.875000
2195,46.875000
2196,46.875000
2197,46.875000
2198,46.875000
2199,46.875000
2200,50.781250
2201,50.781250
2202,50.781250
2203,50.781250
2204,50.781250
2205,50.781250
2206,50.781250
2207,50.781250
2208,50.781250
2209,50.781250
2210,50.781250
2211,50.781250
2212,50.781250
2213,54.687500
2214,54.687500
2215,54.687500
2216,54.687500
2217,54.687500
2218,54.687500
2219,50.781250
2220,54.687500
2221,54.687500
2222,54.687500
2223,54.687500
2224,54.687500
2225,54.687500
2226,54.687500
2227,54.687500
2228,54.687500
2229,54.687500
2230,54.687500
2231,54.687500
2232,54.687500
2233,58.593750
2234,54.687500
2235,58.593750
2236,58.593750
2237,58.593750
2238,58.593750
2239,58.593750
2240,58.593750
2241,58.593750
2242,58.593750
2243,58.593750
2244,58.593750
2245,58.593750
2246,58.593750
2247,58.593750
2248,58.593750
2249,58.593750
2250,58.593750
2251,58.593750
2252,58.593750
2253,58.593750
2254,58.593750
2255,58.593750
2256,58.593750
2257,62.500000
2258,58.593750
2259,58.593750
2260,58.593750
2261,62.500000
2262,58.593750
2263,58.593750
2264,58.593750
2265,58.593750
2266,58.593750
2267,58.593750
2268,58.593750
2269,58.593750
2270,62.500000
2271,62.500000
2272,62.500000
2273,62.500000
2274,62.500000
2275,62.500000
2276,62.500000
2277,62.500000
2278,58.593750
2279,62.500000
2280,62.500000
2281,62.500000
2282,62.500000
2283,62.500000
2284,62.500000
2285,62.500000
2286,62.500000
2287,62.500000
2288,62.500000
2289,62.500000
2290,62.500000
2291,62.500000
2292,62.500000
2293,62.500000
2294,62.500000
2295,62.500000
2296,62.500000
2297,62.500000
2298,62.500000
2299,62.500000
2300,62.500000
2301,62.500000
2302,62.500000
2303,62.500000
2304,62.500000
2305,62.500000
2306,62.500000
2307,62.500000
2308,62.500000
2309,62.500000
2310,62.500000
2311,62.500000
2312,62.500000
2313,62.500000
2314,62.500000
2315,62.500000
2316,62.500000
2317,62.500000
2318,62.500000
2319,62.500000
2320,58.593750
2321,62.500000
2322,62.500000
2323,62.500000
2324,62.500000
2325,62.500000
2326,62.500000
2327,62.500000
2328,58.593750
2329,58.593750
2330,58.593750
2331,62.500000
2332,62.500000
2333,62.500000
2334,58.593750
2335,58.593750
2336,58.593750
2337,58.593750
2338,58.593750
2339,58.593750
2340,58.593750
2341,58.593750
2342,58.593750
2343,58.593750
2344,58.593750
2345,58.593750
2346,58.593750
2347,58.593750
2348,58.593750
2349,58.593750
2350,58.593750
2351,58.593750
2352,58.593750
2353,58.593750
2354,58.593750
2355,58.593750
2356,58.593750
2357,58.593750
2358,54.687500
2359,58.593750
2360,58.593750
2361,54.687500
2362,54.687500
2363,54.687500
2364,54.687500
2365,54.687500
2366,54.687500
2367,54.687500
2368,54.687500
2369,54.687500
2370,54.687500
2371,54.687500
2372,54.687500
2373,54.687500
2374,54.687500
2375,54.687500
2376,54.687500
2377,54.687500
2378,50.781250
2379,50.781250
2380,50.781250
2381,50.781250
2382,50.781250
2383,50.781250
2384,50.781250
2385,50.781250
2386,50.781250
2387,50.781250
2388,50.781250
2389,50.781250
2390,50.781250
2391,50.781250
2392,50.781250
2393,50.781250
2394,50.781250
2395,46.875000
2396,46.875000
2397,46.875000
2398,46.875000
2399,46.875000
2400,46.875000
2401,46.875000
2402,46.875000
2403,46.875000
2404,46.875000
2405,46.875000
2406,46.875000
2407,46.875000
2408,46.875000
2409,46.875000
2410,42.968750
2411,42.968750
2412,46.875000
2413,42.968750
2414,42.968750
2415,42.968750
2416,42.968750
2417,42.968750
2418,42.968750
2419,42.968750
2420,42.968750
2421,42.968750
2422,39.062500
2423,42.968750
2424,39.062500
2425,39.062500
2426,39.062500
2427,39.062500
2428,39.062500
2429,39.062500
2430,39.062500
2431,39.062500
2432,39.062500
2433,39.062500
2434,39.062500
2435,39.062500
2436,39.062500
2437,35.156250
2438,35.156250
2439,35.156250
2440,35.156250
2441,35.156250
2442,35.156250
2443,35.156250
2444,35.156250
2445,35.156250
2446,35.156250
2447,35.156250
2448,31.250000
2449,31.250000
2450,31.250000
2451,31.250000
2452,31.250000
2453,31.250000
2454,31.250000
2455,31.250000
2456,31.250000
2457,31.250000
2458,27.343750
2459,27.343750
2460,27.343750
2461,27.343750
2462,27.343750
2463,27.343750
2464,27.343750
2465,27.343750
2466,27.343750
2467,27.343750
2468,23.437500
2469,23.437500
2470,23.437500
2471,23.437500
2472,23.437500
2473,23.437500
2474,23.437500
2475,23.437500
2476,23.437500
2477,19.531250
2478,19.531250
2479,19.531250
2480,19.531250
2481,19.531250
2482,19.531250
2483,19.531250
2484,19.531250
2485,15.625000
2486,15.625000
2487,15.625000
2488,15.625000
2489,15.625000
2490,15.625000
2491,15.625000
2492,15.625000
2493,15.625000
2494,11.718750
2495,11.718750
2496,11.718750
2497,11.718750
2498,11.718750
2499,11.718750
2500,11.718750
2501,11.718750
2502,7.812500
2503,11.718750
2504,7.812500
2505,7.812500
2506,7.812500
2507,7.812500
2508,7.812500
2509,7.812500
2510,7.812500
2511,3.906250
2512,3.906250
2513,3.906250
2514,3.906250
2515,3.906250
2516,3.906250
2517,3.906250
2518,0.000000
2519,0.000000
2520,0.000000
2521,0.000000
2522,0.000000
2523,0.000000
2524,0.000000
2525,0.000000
2526,0.000000
2527,0.000000
2528,-3.906250
2529,-3.906250
2530,-3.906250
2531,-3.906250
2532,-3.906250
2533,-3.906250
2534,-3.906250
2535,-7.812500
2536,-7.812500
2537,-7.812500
2538,-7.812500
2539,-7.812500
2540,-7.812500
2541,-7.812500
2542,-11.718750
2543,-7.812500
2544,-11.718750
2545,-11.718750
2546,-11.718750
2547,-11.718750
2548,-11.718750
2549,-11.718750
2550,-11.718750
2551,-15.625000
2552,-15.625000
2553,-15.625000
2554,-15.625000
2555,-15.625000
2556,-15.625000
2557,-15.625000
2558,-15.625000
2559,-19.531250
2560,-19.531250
2561,-19.531250
2562,-19.531250
2563,-19.531250
2564,-19.531250
2565,-19.531250
2566,-19.531250
2567,-23.437500
2568,-23.437500
2569,-23.437500
2570,-23.437500
2571,-23.437500
2572,-23.437500
2573,-23.437500
2574,-23.437500
2575,-23.437500
2576,-27.343750
2577,-27.343750
2578,-27.343750
2579,-27.343750
2580,-27.343750
2581,-27.343750
2582,-31.250000
2583,-27.343750
2584,-31.250000
2585,-31.250000
2586,-31.250000
2587,-31.250000
2588,-31.250000
2589,-31.250000
2590,-31.250000
2591,-35.156250
2592,-35.156250
2593,-35.156250
2594,-35.156250
2595,-35.156250
2596,-35.156250
2597,-35.156250
2598,-39.062500
2599,-39.062500
2600,-39.062500
2601,-39.062500
2602,-39.062500
2603,-39.062500
2604,-39.062500
2605,-39.062500
2606,-39.062500
2607,-42.968750
2608,-42.968750
2609,-42.968750
2610,-42.968750
2611,-42.968750
2612,-42.968750
2613,-42.968750
2614,-42.968750
2615,-46.875000
2616,-46.875000
2617,-46.875000
2618,-46.875000
2619,-46.875000
2620,-46.875000
2621,-46.875000
2622,-46.875000
2623,-46.875000
2624,-50.781250
2625,-50.781250
2626,-50.781250
2627,-50.781250
2628,-50.781250
2629,-50.781250
2630,-50.781250
2631,-50.781250
2632,-50.781250
2633,-54.687500
2634,-54.687500
2635,-54.687500
2636,-54.687500
2637,-54.687500
2638,-54.687500
2639,-54.687500
2640,-54.687500
2641,-58.593750
2642,-58.593750
2643,-58.593750
2644,-58.593750
2645,-58.593750
2646,-58.593750
2647,-58.593750
2648,-58.593750
2649,-62.500000
2650,-62.500000
2651,-62.500000
2652,-62.500000
2653,-62.500000
2654,-62.500000
2655,-62.500000
2656,-62.500000
2657,-62.500000
2658,-66.406250
2659,-66.406250
2660,-66.406250
2661,-66.406250
2662,-66.406250
2663,-66.406250
2664,-66.406250
2665,-66.406250
2666,-66.406250
2667,-66.406250
2668,-70.312500
2669,-70.312500
2670,-70.312500
2671,-70.312500
2672,-70.312500
2673,-70.312500
2674,-70.312500
2675,-70.312500
2676,-70.312500
2677,-70.312500
2678,-70.312500
2679,-74.218750
2680,-74.218750
2681,-74.218750
2682,-74.218750
2683,-74.218750
2684,-74.218750
2685,-74.218750
2686,-74.218750
2687,-74.218750
2688,-74.218750
2689,-74.218750
2690,-78.125000
2691,-74.218750
2692,-78.125000
2693,-78.125000
2694,-78.125000
2695,-78.125000
2696,-78.125000
2697,-78.125000
2698,-78.125000
2699,-78.125000
2700,-78.125000
2701,-78.125000
2702,-78.125000
2703,-78.125000
2704,-82.031250
2705,-82.031250
2706,-82.031250
2707,-82.031250
2708,-82.031250
2709,-82.031250
2710,-82.031250
2711,-82.031250
2712,-82.031250
2713,-82.031250
2714,-82.031250
2715,-82.031250
2716,-82.031250
2717,-82.031250
2718,-85.937500
2719,-85.937500
2720,-85.937500
2721,-85.937500
2722,-85.937500
2723,-85.937500
2724,-85.937500
2725,-85.937500
2726,-85.937500
2727,-85.937500
2728,-85.937500
2729,-85.937500
2730,-85.937500
2731,-85.937500
2732,-85.937500
2733,-85.937500
2734,-85.937500
2735,-85.937500
2736,-89.843750
2737,-89.843750
2738,-89.843750
2739,-89.843750
2740,-89.843750
2741,-89.843750
2742,-89.843750
2743,-89.843750
2744,-89.843750
2745,-89.843750
2746,-89.843750
2747,-89.843750
2748,-89.843750
2749,-89.843750
2750,-89.843750
2751,-89.843750
2752,-89.843750
2753,-89.843750
2754,-89.843750
2755,-89.843750
2756,-89.843750
2757,-93.750000
2758,-89.843750
2759,-93.750000
2760,-89.843750
2761,-93.750000
2762,-93.750000
2763,-93.750000
2764,-93.750000
2765,-93.750000
2766,-93.750000
2767,-93.750000
2768,-93.750000
2769,-93.750000
2770,-93.750000
2771,-93.750000
2772,-93.750000
2773,-93.750000
2774,-93.750000
2775,-93.750000
2776,-93.750000
2777,-93.750000
2778,-93.750000
2779,-93.750000
2780,-93.750000
2781,-93.750000
2782,-93.750000
2783,-93.750000
2784,-93.750000
2785,-93.750000
2786,-93.750000
2787,-93.750000
2788,-93.750000
2789,-93.750000
2790,-93.750000
2791,-93.750000
2792,-93.750000
2793,-93.750000
2794,-93.750000
2795,-93.750000
2796,-93.750000
2797,-93.750000
2798,-93.750000
2799,-93.750000
2800,-93.750000
2801,-93.750000
2802,-93.750000
2803,-93.750000
2804,-93.750000
2805,-93.750000
2806,-93.750000
2807,-93.750000
2808,-93.750000
2809,-93.750000
2810,-93.750000
2811,-93.750000
2812,-93.750000
2813,-93.750000
2814,-93.750000
2815,-93.750000
2816,-93.750000
2817,-93.750000
2818,-93.750000
2819,-93.750000
2820,-93.750000
2821,-93.750000
2822,-93.750000
2823,-93.750000
2824,-93.750000
2825,-89.843750
2826,-93.750000
2827,-89.843750
2828,-93.750000
2829,-89.843750
2830,-93.750000
2831,-89.843750
2832,-93.750000
2833,-89.843750
2834,-89.843750
2835,-89.843750
2836,-89.843750
2837,-89.843750
2838,-89.843750
2839,-89.843750
2840,-89.843750
2841,-89.843750
2842,-89.843750
2843,-89.843750
2844,-89.843750
2845,-89.843750
2846,-89.843750
2847,-89.843750
2848,-89.843750
2849,-89.843750
2850,-89.843750
2851,-89.843750
2852,-89.843750
2853,-85.937500
2854,-85.937500
2855,-85.937500
2856,-85.937500
2857,-85.937500
2858,-85.937500
2859,-85.937500
2860,-85.937500
2861,-85.937500
2862,-85.937500
2863,-85.937500
2864,-85.937500
2865,-85.937500
2866,-85.937500
2867,-85.937500
2868,-85.937500
2869,-85.937500
2870,-85.937500
2871,-82.031250
2872,-82.031250
2873,-82.031250
2874,-82.031250
2875,-85.937500
2876,-82.031250
2877,-82.031250
2878,-82.031250
2879,-82.031250
2880,-82.031250
2881,-82.031250
2882,-82.031250
2883,-82.031250
2884,-82.031250
2885,-82.031250
2886,-82.031250
2887,-78.125000
2888,-78.125000
2889,-78.125000
2890,-78.125000
2891,-78.125000
2892,-78.125000
2893,-78.125000
2894,-78.125000
2895,-78.125000
2896,-78.125000
2897,-78.125000
2898,-78.125000
2899,-74.218750
2900,-74.218750
2901,-74.218750
2902,-74.218750
2903,-74.218750
2904,-74.218750
2905,-74.218750
2906,-74.218750
2907,-74.218750
2908,-74.218750
2909,-70.312500
2910,-74.218750
2911,-74.218750
2912,-70.312500
2913,-70.312500
2914,-70.312500
2915,-70.312500
2916,-70.312500
2917,-70.312500
2918,-70.312500
2919,-70.312500
2920,-70.312500
2921,-70.312500
2922,-70.312500
2923,-66.406250
2924,-66.406250
2925,-66.406250
2926,-66.406250
2927,-66.406250
2928,-66.406250
2929,-66.406250
2930,-66.406250
2931,-66.406250
2932,-62.500000
2933,-62.500000
2934,-62.500000
2935,-62.500000
2936,-62.500000
2937,-62.500000
2938,-62.500000
2939,-62.500000
2940,-62.500000
2941,-62.500000
2942,-58.593750
2943,-58.593750
2944,-58.593750
2945,-58.593750
2946,-58.593750
2947,-58.593750
2948,-58.593750
2949,-58.593750
2950,-58.593750
2951,-54.687500
2952,-54.687500
2953,-54.687500
2954,-54.687500
2955,-54.687500
2956,-54.687500
2957,-50.781250
2958,-54.687500
2959,-50.781250
2960,-50.781250
2961,-50.781250
2962,-50.781250
2963,-50.781250
2964,-50.781250
2965,-50.781250
2966,-50.781250
2967,-50.781250
2968,-46.875000
2969,-46.875000
2970,-46.875000
2971,-46.875000
2972,-46.875000
2973,-46.875000
2974,-46.875000
2975,-46.875000
2976,-42.968750
2977,-42.968750
2978,-42.968750
2979,-42.968750
2980,-42.968750
2981,-42.968750
2982,-42.968750
2983,-39.062500
2984,-39.062500
2985,-39.062500
2986,-39.062500
2987,-39.062500
2988,-39.062500
2989,-39.062500
2990,-39.062500
2991,-35.156250
2992,-35.156250
2993,-35.156250
2994,-35.156250
2995,-35.156250
2996,-35.156250
2997,-35.156250
2998,-31.250000
2999,-31.250000
3000,-31.250000
3001,-31.250000
3002,-31.250000
3003,-31.250000
3004,-31.250000
3005,-31.250000
3006,-31.250000
3007,-27.343750
3008,-27.343750
3009,-27.343750
3010,-27.343750
3011,-27.343750
3012,-23.437500
3013,-23.437500
3014,-27.343750
3015,-23.437500
3016,-23.437500
3017,-23.437500
3018,-23.437500
3019,-23.437500
3020,-23.437500
3021,-19.531250
3022,-19.531250
3023,-19.531250
3024,-19.531250
3025,-19.531250
3026,-19.531250
3027,-19.531250
3028,-19.531250
3029,-15.625000
3030,-15.625000
3031,-15.625000
3032,-15.625000
3033,-15.625000
3034,-15.625000
3035,-15.625000
3036,-15.625000
3037,-15.625000
3038,-11.718750
3039,-11.718750
3040,-11.718750
3041,-11.718750
3042,-11.718750
3043,-11.718750
3044,-11.718750
3045,-11.718750
3046,-7.812500
3047,-7.812500
3048,-7.812500
3049,-7.812500
3050,-7.812500
3051,-7.812500
3052,-7.812500
3053,-7.812500
3054,-7.812500
3055,-3.906250
3056,-3.906250
3057,-3.906250
3058,-3.906250
3059,-3.906250
3060,-3.906250
3061,-3.906250
3062,0.000000
3063,0.000000
3064,0.000000
3065,0.000000
3066,0.000000
3067,0.000000
3068,0.000000
3069,0.000000
3070,0.000000
3071,3.906250
3072,3.906250
3073,3.906250
3074,3.906250
3075,3.906250
3076,3.906250
3077,7.812500
3078,7.812500
3079,7.812500
3080,7.812500
3081,7.812500
3082,7.812500
3083,7.812500
3084,7.812500
3085,7.812500
3086,7.812500
3087,11.718750
3088,11.718750
3089,11.718750
3090,11.718750
3091,11.718750
3092,11.718750
3093,11.718750
3094,15.625000
3095,15.625000
3096,15.625000
3097,15.625000
3098,15.625000
3099,15.625000
3100,15.625000
3101,15.625000
3102,15.625000
3103,19.531250
3104,19.531250
3105,19.531250
3106,19.531250
3107,19.531250
3108,19.531250
3109,19.531250
3110,19.531250
3111,19.531250
3112,23.437500
3113,23.437500
3114,23.437500
3115,23.437500
3116,23.437500
3117,23.437500
3118,23.437500
3119,23.437500
3120,23.437500
3121,27.343750
3122,27.343750
3123,27.343750
3124,27.343750
3125,27.343750
3126,27.343750
3127,27.343750
3128,27.343750
3129,27.343750
3130,27.343750
3131,31.250000
3132,31.250000
3133,31.250000
3134,31.250000
3135,31.250000
3136,31.250000
3137,31.250000
3138,31.250000
3139,31.250000
3140,31.250000
3141,35.156250
3142,35.156250
3143,35.156250
3144,35.156250
3145,35.156250
3146,35.156250
3147,35.156250
3148,35.156250
3149,35.156250
3150,35.156250
3151,39.062500
3152,39.062500
3153,39.062500
3154,39.062500
3155,39.062500
3156,39.062500
3157,39.062500
3158,39.062500
3159,39.062500
3160,39.062500
3161,39.062500
3162,39.062500
3163,39.062500
3164,39.062500
3165,42.968750
3166,42.968750
3167,42.968750
3168,42.968750
3169,42.968750
3170,42.968750
3171,42.968750
3172,42.968750
3173,42.968750
3174,42.968750
3175,46.875000
3176,42.968750
3177,42.968750
3178,46.875000
3179,46.875000
3180,46.875000
3181,46.875000
3182,46.875000
3183,46.875000
3184,46.875000
3185,46.875000
3186,46.875000
3187,46.875000
3188,46.875000
3189,46.875000
3190,46.875000
3191,50.781250
3192,46.875000
3193,50.781250
3194,50.781250
3195,50.781250
3196,50.781250
3197,50.781250
3198,50.781250
3199,50.781250
3200,50.781250
3201,50.781250
3202,50.781250
3203,50.781250
3204,50.781250
3205,50.781250
3206,50.781250
3207,50.781250
3208,54.687500
3209,54.687500
3210,54.687500
3211,54.687500
3212,54.687500
3213,54.687500
3214,54.687500
3215,54.687500
3216,54.687500
3217,54.687500
3218,54.687500
3219,54.687500
3220,54.687500
3221,54.687500
3222,54.687500
3223,54.687500
3224,54.687500
3225,54.687500
3226,54.687500
3227,54.687500
3228,54.687500
3229,58.593750
3230,58.593750
3231,58.593750
3232,58.593750
3233,58.593750
3234,58.593750
3235,58.593750
3236,58.593750
3237,58.593750
3238,58.593750
3239,58.593750
3240,58.593750
3241,58.593750
3242,58.593750
3243,58.593750
3244,58.593750
3245,58.593750
3246,58.593750
3247,58.593750
3248,58.593750
3249,58.593750
3250,58.593750
3251,58.593750
3252,58.593750
3253,58.593750
3254,58.593750
3255,58.593750
3256,62.500000
3257,62.500000
3258,62.500000
3259,58.593750
3260,58.593750
3261,62.500000
3262,62.500000
3263,62.500000
3264,62.500000
3265,62.500000
3266,62.500000
3267,62.500000
3268,62.500000
3269,62.500000
3270,62.500000
3271,62.500000
3272,62.500000
3273,62.500000
3274,62.500000
3275,62.500000
3276,62.500000
3277,62.500000
3278,62.500000
3279,62.500000
3280,62.500000
3281,62.500000
3282,62.500000
3283,62.500000
3284,62.500000
3285,62.500000
3286,62.500000
3287,62.500000
3288,62.500000
3289,62.500000
3290,62.500000
3291,62.500000
3292,62.500000
3293,62.500000
3294,62.500000
3295,62.500000
3296,62.500000
3297,62.500000
3298,62.500000
3299,62.500000
3300,62.500000
3301,62.500000
3302,62.500000
3303,62.500000
3304,62.500000
3305,58.593750
3306,58.593750
3307,58.593750
3308,58.593750
3309,58.593750
3310,62.500000
3311,62.500000
3312,62.500000
3313,62.500000
3314,62.500000
3315,58.593750
3316,58.593750
3317,58.593750
3318,58.593750
3319,58.593750
3320,58.593750
3321,58.593750
3322,58.593750
3323,58.593750
3324,58.593750
3325,58.593750
3326,58.593750
3327,58.593750
3328,58.593750
3329,58.593750
3330,58.593750
3331,58.593750
3332,58.593750
3333,58.593750
3334,58.593750
3335,58.593750
3336,58.593750
3337,58.593750
3338,58.593750
3339,58.593750
3340,58.593750
3341,58.593750
3342,58.593750
3343,58.593750
3344,54.687500
3345,54.687500
3346,54.687500
3347,54.687500
3348,54.687500
3349,54.687500
3350,54.687500
3351,54.687500
3352,54.687500
3353,54.687500
3354,54.687500
3355,54.687500
3356,54.687500
3357,54.687500
3358,54.687500
3359,54.687500
3360,54.687500
3361,54.687500
3362,54.687500
3363,54.687500
3364,54.687500
3365,50.781250
3366,50.781250
3367,50.781250
3368,54.687500
3369,54.687500
3370,50.781250
3371,50.781250
3372,50.781250
3373,50.781250
3374,50.781250
3375,50.781250
3376,50.781250
3377,50.781250
3378,50.781250
3379,50.781250
3380,50.781250
3381,50.781250
3382,50.781250
3383,46.875000
3384,50.781250
3385,46.875000
3386,46.875000
3387,46.875000
3388,46.875000
3389,46.875000
3390,46.875000
3391,46.875000
3392,46.875000
3393,46.875000
3394,46.875000
3395,46.875000
3396,46.875000
3397,42.968750
3398,42.968750
3399,42.968750
3400,42.968750
3401,42.968750
3402,42.968750
3403,42.968750
3404,42.968750
3405,42.968750
3406,42.968750
3407,42.968750
3408,42.968750
3409,42.968750
3410,42.968750
3411,42.968750
3412,39.062500
3413,39.062500
3414,39.062500
3415,39.062500
3416,39.062500
3417,39.062500
3418,39.062500
3419,39.062500
3420,39.062500
3421,39.062500
3422,35.156250
3423,35.156250
3424,35.156250
3425,35.156250
3426,35.156250
3427,35.156250
3428,35.156250
3429,35.156250
3430,35.156250
3431,35.156250
3432,35.156250
3433,31.250000
3434,31.250000
3435,31.250000
3436,31.250000
3437,31.250000
3438,31.250000
3439,31.250000
3440,31.250000
3441,31.250000
3442,31.250000
3443,27.343750
3444,27.343750
3445,27.343750
3446,27.343750
3447,27.343750
3448,27.343750
3449,27.343750
3450,27.343750
3451,27.343750
3452,27.343750
3453,23.437500
3454,23.437500
3455,27.343750
3456,23.437500
3457,23.437500
3458,23.437500
3459,23.437500
3460,23.437500
3461,23.437500
3462,23.437500
3463,19.531250
3464,19.531250
3465,19.531250
3466,19.531250
3467,19.531250
3468,19.531250
3469,19.531250
3470,19.531250
3471,19.531250
3472,19.531250
3473,15.625000
3474,15.625000
3475,15.625000
3476,15.625000
3477,15.625000
3478,15.625000
3479,15.625000
3480,11.718750
3481,15.625000
3482,15.625000
3483,11.718750
3484,11.718750
3485,11.718750
3486,11.718750
3487,11.718750
3488,11.718750
3489,11.718750
3490,11.718750
3491,7.812500
3492,7.812500
3493,7.812500
3494,7.812500
3495,7.812500
3496,7.812500
3497,7.812500
3498,7.812500
3499,7.812500
3500,3.906250
3501,3.906250
3502,3.906250
3503,3.906250
3504,3.906250
3505,3.906250
3506,3.906250
3507,3.906250
3508,3.906250
3509,0.000000
3510,0.000000
3511,0.000000
3512,0.000000
3513,0.000000
3514,0.000000
3515,0.000000
3516,0.000000
3517,-3.906250
3518,-3.906250
3519,-3.906250
3520,-3.906250
3521,-3.906250
3522,-3.906250
3523,-3.906250
3524,-3.906250
3525,-3.906250
3526,-7.812500
3527,-7.812500
3528,-7.812500
3529,-7.812500
3530,-7.812500
3531,-7.812500
3532,-7.812500
3533,-11.718750
3534,-11.718750
3535,-11.718750
3536,-11.718750
3537,-11.718750
3538,-11.718750
3539,-11.718750
3540,-11.718750
3541,-11.718750
3542,-15.625000
3543,-15.625000
3544,-15.625000
3545,-15.625000
3546,-15.625000
3547,-15.625000
3548,-19.531250
3549,-15.625000
3550,-19.531250
3551,-19.531250
3552,-19.531250
3553,-19.531250
3554,-19.531250
3555,-19.531250
3556,-19.531250
3557,-23.437500
3558,-23.437500
3559,-23.437500
3560,-23.437500
3561,-23.437500
3562,-23.437500
3563,-23.437500
3564,-27.343750
3565,-27.343750
3566,-27.343750
3567,-27.343750
3568,-27.343750
3569,-27.343750
3570,-27.343750
3571,-31.250000
3572,-31.250000
3573,-31.250000
3574,-31.250000
3575,-31.250000
3576,-31.250000
3577,-31.250000
3578,-31.250000
3579,-31.250000
3580,-31.250000
3581,-31.250000
3582,-35.156250
3583,-35.156250
3584,-35.156250
3585,-35.156250
3586,-35.156250
3587,-39.062500
3588,-39.062500
3589,-39.062500
3590,-39.062500
3591,-39.062500
3592,-39.062500
3593,-39.062500
3594,-39.062500
3595,-39.062500
3596,-39.062500
3597,-42.968750
3598,-42.968750
3599,-42.968750
3600,-42.968750
3601,-42.968750
3602,-42.968750
3603,-42.968750
3604,-42.968750
3605,-46.875000
3606,-46.875000
3607,-46.875000
3608,-46.875000
3609,-46.875000
3610,-46.875000
3611,-46.875000
3612,-46.875000
3613,-50.781250
3614,-50.781250
3615,-50.781250
3616,-50.781250
3617,-50.781250
3618,-50.781250
3619,-50.781250
3620,-50.781250
3621,-54.687500
3622,-50.781250
3623,-54.687500
3624,-54.687500
3625,-54.687500
3626,-54.687500
3627,-54.687500
3628,-54.687500
3629,-54.687500
3630,-54.687500
3631,-54.687500
3632,-54.687500
3633,-58.593750
3634,-58.593750
3635,-58.593750
3636,-58.593750
3637,-58.593750
3638,-58.593750
3639,-58.593750
3640,-58.593750
3641,-58.593750
3642,-62.500000
3643,-62.500000
3644,-62.500000
3645,-62.500000
3646,-62.500000
3647,-62.500000
3648,-62.500000
3649,-62.500000
3650,-62.500000
3651,-62.500000
3652,-66.406250
3653,-66.406250
3654,-66.406250
3655,-66.406250
3656,-66.406250
3657,-66.406250
3658,-66.406250
3659,-66.406250
3660,-66.406250
3661,-70.312500
3662,-70.312500
3663,-70.312500
3664,-70.312500
3665,-70.312500
3666,-70.312500
3667,-70.312500
3668,-70.312500
3669,-70.312500
3670,-70.312500
3671,-74.218750
3672,-74.218750
3673,-74.218750
3674,-74.218750
3675,-74.218750
3676,-74.218750
3677,-74.218750
3678,-74.218750
3679,-74.218750
3680,-78.125000
3681,-74.218750
3682,-78.125000
3683,-78.125000
3684,-78.125000
3685,-74.218750
3686,-78.125000
3687,-78.125000
3688,-78.125000
3689,-78.125000
3690,-78.125000
3691,-78.125000
3692,-78.125000
3693,-78.125000
3694,-82.031250
3695,-78.125000
3696,-82.031250
3697,-82.031250
3698,-82.031250
3699,-82.031250
3700,-82.031250
3701,-82.031250
3702,-82.031250
3703,-82.031250
3704,-82.031250
3705,-82.031250
3706,-82.031250
3707,-82.031250
3708,-85.937500
3709,-82.031250
3710,-82.031250
3711,-85.937500
3712,-85.937500
3713,-85.937500
3714,-85.937500
3715,-85.937500
3716,-85.937500
3717,-85.937500
3718,-85.937500
3719,-85.937500
3720,-85.937500
3721,-85.937500
3722,-85.937500
3723,-85.937500
3724,-85.937500
3725,-85.937500
3726,-85.937500
3727,-85.937500
3728,-89.843750
3729,-85.937500
3730,-89.843750
3731,-89.843750
3732,-89.843750
3733,-89.843750
3734,-89.843750
3735,-89.843750
3736,-89.843750
3737,-89.843750
3738,-89.843750
3739,-89.843750
3740,-89.843750
3741,-89.843750
3742,-89.843750
3743,-89.843750
3744,-89.843750
3745,-89.843750
3746,-89.843750
3747,-89.843750
3748,-89.843750
3749,-89.843750
3750,-89.843750
3751,-89.843750
3752,-89.843750
3753,-89.843750
3754,-93.750000
3755,-89.843750
3756,-89.843750
3757,-93.750000
3758,-93.750000
3759,-89.843750
3760,-89.843750
3761,-93.750000
3762,-93.750000
3763,-93.750000
3764,-93.750000
3765,-93.750000
3766,-93.750000
3767,-93.750000
3768,-93.750000
3769,-93.750000
3770,-93.750000
3771,-93.750000
3772,-93.750000
3773,-93.750000
3774,-93.750000
3775,-93.750000
3776,-93.750000
3777,-93.750000
3778,-93.750000
3779,-93.750000
3780,-93.750000
3781,-93.750000
3782,-93.750000
3783,-93.750000
3784,-93.750000
3785,-93.750000
3786,-93.750000
3787,-93.750000
3788,-93.750000
3789,-93.750000
3790,-93.750000
3791,-93.750000
3792,-93.750000
3793,-93.750000
3794,-93.750000
3795,-93.750000
3796,-93.750000
3797,-93.750000
3798,-93.750000
3799,-93.750000
3800,-89.843750
3801,-93.750000
3802,-93.750000
3803,-93.750000
3804,-93.750000
3805,-93.750000
3806,-93.750000
3807,-93.750000
3808,-89.843750
3809,-93.750000
3810,-93.750000
3811,-93.750000
3812,-93.750000
3813,-93.750000
3814,-89.843750
3815,-93.750000
3816,-93.750000
3817,-93.750000
3818,-89.843750
3819,-89.843750
3820,-89.843750
3821,-89.843750
3822,-89.843750
3823,-89.843750
3824,-89.843750
3825,-89.843750
3826,-89.843750
3827,-89.843750
3828,-89.843750
3829,-89.843750
3830,-89.843750
3831,-89.843750
3832,-89.843750
3833,-89.843750
3834,-89.843750
3835,-89.843750
3836,-89.843750
3837,-89.843750
3838,-89.843750
3839,-89.843750
3840,-89.843750
3841,-89.843750
3842,-89.843750
3843,-89.843750
3844,-89.843750
3845,-85.937500
3846,-85.937500
3847,-85.937500
3848,-85.937500
3849,-85.937500
3850,-85.937500
3851,-85.937500
3852,-85.937500
3853,-85.937500
3854,-85.937500
3855,-85.937500
3856,-85.937500
3857,-85.937500
3858,-85.937500
3859,-85.937500
3860,-85.937500
3861,-85.937500
3862,-85.937500
3863,-85.937500
3864,-82.031250
3865,-82.031250
3866,-82.031250
3867,-82.031250
3868,-82.031250
3869,-82.031250
3870,-82.031250
3871,-82.031250
3872,-82.031250
3873,-82.031250
3874,-82.031250
3875,-78.125000
3876,-78.125000
3877,-78.125000
3878,-78.125000
3879,-78.125000
3880,-78.125000
3881,-78.125000
3882,-78.125000
3883,-78.125000
3884,-78.125000
3885,-78.125000
3886,-74.218750
3887,-74.218750
3888,-74.218750
3889,-74.218750
3890,-74.218750
3891,-74.218750
3892,-74.218750
3893,-74.218750
3894,-74.218750
3895,-74.218750
3896,-74.218750
3897,-74.218750
3898,-70.312500
3899,-74.218750
3900,-70.312500
3901,-74.218750
3902,-70.312500
3903,-70.312500
3904,-70.312500
3905,-70.312500
3906,-70.312500
3907,-70.312500
3908,-70.312500
3909,-66.406250
3910,-66.406250
3911,-66.406250
3912,-66.406250
3913,-66.406250
3914,-66.406250
3915,-66.406250
3916,-66.406250
3917,-66.406250
3918,-66.406250
3919,-66.406250
3920,-66.406250
3921,-62.500000
3922,-62.500000
3923,-62.500000
3924,-62.500000
3925,-62.500000
3926,-62.500000
3927,-62.500000
3928,-58.593750
3929,-62.500000
3930,-62.500000
3931,-62.500000
3932,-58.593750
3933,-58.593750
3934,-58.593750
3935,-58.593750
3936,-58.593750
3937,-58.593750
3938,-58.593750
3939,-58.593750
3940,-58.593750
3941,-54.687500
3942,-54.687500
3943,-54.687500
3944,-54.687500
3945,-54.687500
3946,-54.687500
3947,-54.687500
3948,-54.687500
3949,-50.781250
3950,-54.687500
3951,-50.781250
3952,-50.781250
3953,-50.781250
3954,-50.781250
3955,-50.781250
3956,-50.781250
3957,-46.875000
3958,-46.875000
3959,-46.875000
3960,-46.875000
3961,-46.875000
3962,-46.875000
3963,-46.875000
3964,-46.875000
3965,-42.968750
3966,-42.968750
3967,-42.968750
3968,-42.968750
3969,-42.968750
3970,-42.968750
3971,-42.968750
3972,-42.968750
3973,-39.062500
3974,-39.062500
3975,-39.062500
3976,-39.062500
3977,-39.062500
3978,-39.062500
3979,-39.062500
3980,-35.156250
3981,-35.156250
3982,-39.062500
3983,-35.156250
3984,-35.156250
3985,-35.156250
3986,-35.156250
3987,-35.156250
3988,-35.156250
3989,-31.250000
3990,-31.250000
3991,-31.250000
3992,-31.250000
3993,-31.250000
3994,-31.250000
3995,-31.250000
3996,-27.343750
3997,-27.343750
3998,-27.343750
3999,-27.343750
4000,-27.343750
4001,-27.343750
4002,-27.343750
4003,-27.343750
4004,-27.343750
4005,-23.437500
4006,-23.437500
4007,-23.437500
4008,-23.437500
4009,-23.437500
4010,-23.437500
4011,-19.531250
4012,-19.531250
4013,-19.531250
4014,-19.531250
4015,-19.531250
4016,-19.531250
4017,-19.531250
4018,-19.531250
4019,-19.531250
4020,-19.531250
4021,-15.625000
4022,-15.625000
4023,-15.625000
4024,-15.625000
4025,-15.625000
4026,-15.625000
4027,-11.718750
4028,-11.718750
4029,-11.718750
4030,-11.718750
4031,-11.718750
4032,-11.718750
4033,-11.718750
4034,-11.718750
4035,-11.718750
4036,-7.812500
4037,-7.812500
4038,-7.812500
4039,-7.812500
4040,-7.812500
4041,-7.812500
4042,-7.812500
4043,-7.812500
4044,-7.812500
4045,-7.812500
4046,-3.906250
4047,-3.906250
4048,-3.906250
4049,-3.906250
4050,-3.906250
4051,-3.906250
4052,0.000000
4053,0.000000
4054,0.000000
4055,0.000000
4056,0.000000
4057,0.000000
4058,0.000000
4059,0.000000
4060,3.906250
4061,3.906250
4062,3.906250
4063,3.906250
4064,3.906250
4065,3.906250
4066,3.906250
4067,3.906250
4068,3.906250
4069,7.812500
4070,7.812500
4071,7.812500
4072,7.812500
4073,7.812500
4074,7.812500
4075,7.812500
4076,7.812500
4077,7.812500
4078,11.718750
4079,11.718750
4080,11.718750
4081,11.718750
4082,11.718750
4083,11.718750
4084,11.718750
4085,15.625000
4086,11.718750
4087,15.625000
4088,15.625000
4089,15.625000
4090,15.625000
4091,15.625000
4092,15.625000
4093,15.625000
4094,19.531250
4095,15.625000
4096,19.531250
4097,19.531250
4098,19.531250
4099,19.531250
4100,19.531250
4101,19.531250
4102,19.531250
4103,23.437500
4104,23.437500
4105,23.437500
4106,23.437500
4107,23.437500
4108,23.437500
4109,23.437500
4110,23.437500
4111,23.437500
4112,23.437500
4113,27.343750
4114,27.343750
4115,27.343750
4116,27.343750
4117,23.437500
4118,27.343750
4119,27.343750
4120,27.343750
4121,27.343750
4122,31.250000
4123,27.343750
4124,31.250000
4125,31.250000
4126,31.250000
4127,31.250000
4128,31.250000
4129,31.250000
4130,31.250000
4131,31.250000
4132,35.156250
4133,35.156250
4134,35.156250
4135,35.156250
4136,35.156250
4137,35.156250
4138,35.156250
4139,35.156250
4140,35.156250
4141,35.156250
4142,39.062500
4143,39.062500
4144,39.062500
4145,39.062500
4146,39.062500
4147,39.062500
4148,39.062500
4149,39.062500
4150,39.062500
4151,39.062500
4152,39.062500
4153,39.062500
4154,42.968750
4155,42.968750
4156,42.968750
4157,42.968750
4158,42.968750
4159,42.968750
4160,42.968750
4161,42.968750
4162,42.968750
4163,42.968750
4164,42.968750
4165,42.968750
4166,46.875000
4167,46.875000
4168,46.875000
4169,46.875000
4170,46.875000
4171,46.875000
4172,46.875000
4173,46.875000
4174,46.875000
4175,46.875000
4176,46.875000
4177,46.875000
4178,46.875000
4179,50.781250
4180,46.875000
4181,46.875000
4182,46.875000
4183,50.781250
4184,50.781250
4185,50.781250
4186,50.781250
4187,50.781250
4188,50.781250
4189,50.781250
4190,50.781250
4191,50.781250
4192,50.781250
4193,50.781250
4194,50.781250
4195,50.781250
4196,54.687500
4197,54.687500
4198,50.781250
4199,54.687500
4200,54.687500
4201,54.687500
4202,54.687500
4203,54.687500
4204,54.687500
4205,54.687500
4206,54.687500
4207,54.687500
4208,54.687500
4209,54.687500
4210,54.687500
4211,54.687500
4212,54.687500
4213,54.687500
4214,54.687500
4215,54.687500
4216,54.687500
4217,54.687500
4218,54.687500
4219,58.593750
4220,58.593750
4221,54.687500
4222,58.593750
4223,58.593750
4224,58.593750
4225,58.593750
4226,58.593750
4227,58.593750
4228,58.593750
4229,58.593750
4230,58.593750
4231,58.593750
4232,58.593750
4233,58.593750
4234,58.593750
4235,58.593750
4236,58.593750
4237,58.593750
4238,58.593750
4239,58.593750
4240,58.593750
4241,58.593750
4242,58.593750
4243,58.593750
4244,58.593750
4245,58.593750
4246,58.593750
4247,58.593750
4248,58.593750
4249,58.593750
4250,58.593750
4251,58.593750
4252,62.500000
4253,58.593750
4254,58.593750
4255,58.593750
4256,62.500000
4257,62.500000
4258,62.500000
4259,62.500000
4260,62.500000
4261,62.500000
4262,62.500000
4263,62.500000
4264,62.500000
4265,62.500000
4266,62.500000
4267,62.500000
4268,62.500000
4269,62.500000
4270,62.500000
4271,62.500000
4272,62.500000
4273,62.500000
4274,62.500000
4275,62.500000
4276,62.500000
4277,62.500000
4278,62.500000
4279,62.500000
4280,62.500000
4281,62.500000
4282,62.500000
4283,62.500000
4284,62.500000
4285,62.500000
4286,62.500000
4287,62.500000
4288,62.500000
4289,62.500000
4290,62.500000
4291,62.500000
4292,62.500000
4293,62.500000
4294,62.500000
4295,62.500000
4296,62.500000
4297,62.500000
4298,62.500000
4299,62.500000
4300,58.593750
4301,62.500000
4302,58.593750
4303,62.500000
4304,58.593750
4305,58.593750
4306,62.500000
4307,62.500000
4308,62.500000
4309,58.593750
4310,58.593750
4311,58.593750
4312,58.593750
4313,58.593750
4314,58.593750
4315,58.593750
4316,58.593750
4317,58.593750
4318,58.593750
4319,58.593750
4320,58.593750
4321,58.593750
4322,58.593750
4323,58.593750
4324,58.593750
4325,58.593750
4326,58.593750
4327,58.593750
4328,58.593750
4329,58.593750
4330,58.593750
4331,58.593750
4332,58.593750
4333,58.593750
4334,54.687500
4335,54.687500
4336,54.687500
4337,54.687500
4338,58.593750
4339,54.687500
4340,54.687500
4341,54.687500
4342,54.687500
4343,54.687500
4344,54.687500
4345,54.687500
4346,54.687500
4347,54.687500
4348,54.687500
4349,54.687500
4350,54.687500
4351,54.687500
4352,54.687500
4353,54.687500
4354,54.687500
4355,54.687500
4356,50.781250
4357,50.781250
4358,50.781250
4359,50.781250
4360,50.781250
4361,50.781250
4362,50.781250
4363,50.781250
4364,50.781250
4365,50.781250
4366,50.781250
4367,50.781250
4368,50.781250
4369,50.781250
4370,50.781250
4371,50.781250
4372,46.875000
4373,50.781250
4374,46.875000
4375,46.875000
4376,46.875000
4377,46.875000
4378,46.875000
4379,46.875000
4380,46.875000
4381,46.875000
4382,46.875000
4383,46.875000
4384,46.875000
4385,46.875000
4386,46.875000
4387,46.875000
4388,42.968750
4389,42.968750
4390,42.968750
4391,42.968750
4392,42.968750
4393,42.968750
4394,42.968750
4395,42.968750
4396,42.968750
4397,42.968750
4398,42.968750
4399,42.968750
4400,42.968750
4401,42.968750
4402,39.062500
4403,42.968750
4404,39.062500
4405,39.062500
4406,39.062500
4407,39.062500
4408,39.062500
4409,39.062500
4410,39.062500
4411,39.062500
4412,35.156250
4413,39.062500
4414,35.156250
4415,35.156250
4416,35.156250
4417,35.156250
4418,35.156250
4419,35.156250
4420,35.156250
4421,35.156250
4422,35.156250
4423,35.156250
4424,31.250000
4425,31.250000
4426,31.250000
4427,31.250000
4428,31.250000
4429,35.156250
4430,31.250000
4431,31.250000
4432,31.250000
4433,27.343750
4434,31.250000
4435,31.250000
4436,27.343750
4437,27.343750
4438,27.343750
4439,27.343750
4440,27.343750
4441,27.343750
4442,27.343750
4443,27.343750
4444,23.437500
4445,23.437500
4446,23.437500
4447,23.437500
4448,23.437500
4449,23.437500
4450,23.437500
4451,23.437500
4452,23.437500
4453,19.531250
4454,19.531250
4455,19.531250
4456,19.531250
4457,19.531250
4458,19.531250
4459,19.531250
4460,19.531250
4461,19.531250
4462,19.531250
4463,15.625000
4464,15.625000
4465,15.625000
4466,15.625000
4467,15.625000
4468,15.625000
4469,15.625000
4470,15.625000
4471,11.718750
4472,11.718750
4473,11.718750
4474,11.718750
4475,11.718750
4476,11.718750
4477,11.718750
4478,11.718750
4479,11.718750
4480,7.812500
4481,7.812500
4482,7.812500
4483,7.812500
4484,7.812500
4485,7.812500
4486,7.812500
4487,7.812500
4488,7.812500
4489,3.906250
4490,3.906250
4491,3.906250
4492,0.000000
4493,3.906250
4494,3.906250
4495,0.000000
4496,3.906250
4497,3.906250
4498,0.000000
4499,0.000000
4500,0.000000
4501,-3.906250
4502,0.000000
4503,0.000000
4504,0.000000
4505,0.000000
4506,-3.906250
4507,-3.906250
4508,-3.906250
4509,-3.906250
4510,-3.906250
4511,-3.906250
4512,-3.906250
4513,-3.906250
4514,-3.906250
4515,-7.812500
4516,-7.812500
4517,-7.812500
4518,-7.812500
4519,-7.812500
4520,-7.812500
4521,-7.812500
4522,-11.718750
4523,-11.718750
4524,-11.718750
4525,-11.718750
4526,-11.718750
4527,-11.718750
4528,-15.625000
4529,-11.718750
4530,-11.718750
4531,-15.625000
4532,-15.625000
4533,-15.625000
4534,-15.625000
4535,-15.625000
4536,-15.625000
4537,-15.625000
4538,-19.531250
4539,-19.531250
4540,-15.625000
4541,-19.531250
4542,-19.531250
4543,-19.531250
4544,-19.531250
4545,-19.531250
4546,-23.437500
4547,-23.437500
4548,-23.437500
4549,-23.437500
4550,-23.437500
4551,-23.437500
4552,-23.437500
4553,-23.437500
4554,-27.343750
4555,-27.343750
4556,-27.343750
4557,-27.343750
4558,-27.343750
4559,-27.343750
4560,-27.343750
4561,-31.250000
4562,-27.343750
4563,-31.250000
4564,-31.250000
4565,-31.250000
4566,-31.250000
4567,-31.250000
4568,-31.250000
4569,-31.250000
4570,-31.250000
4571,-35.156250
4572,-31.250000
4573,-35.156250
4574,-35.156250
4575,-35.156250
4576,-35.156250
4577,-35.156250
4578,-39.062500
4579,-39.062500
4580,-39.062500
4581,-39.062500
4582,-39.062500
4583,-39.062500
4584,-39.062500
4585,-39.062500
4586,-39.062500
4587,-39.062500
4588,-42.968750
4589,-42.968750
4590,-42.968750
4591,-42.968750
4592,-42.968750
4593,-46.875000
4594,-46.875000
4595,-46.875000
4596,-46.875000
4597,-46.875000
4598,-46.875000
4599,-46.875000
4600,-46.875000
4601,-46.875000
4602,-46.875000
4603,-50.781250
4604,-50.781250
4605,-50.781250
4606,-50.781250
4607,-50.781250
4608,-50.781250
4609,-50.781250
4610,-50.781250
4611,-54.687500
4612,-54.687500
4613,-54.687500
4614,-54.687500
4615,-54.687500
4616,-54.687500
4617,-54.687500
4618,-54.687500
4619,-54.687500
4620,-54.687500
4621,-58.593750
4622,-58.593750
4623,-58.593750
4624,-58.593750
4625,-58.593750
4626,-58.593750
4627,-58.593750
4628,-58.593750
4629,-58.593750
4630,-62.500000
4631,-62.500000
4632,-62.500000
4633,-62.500000
4634,-62.500000
4635,-62.500000
4636,-62.500000
4637,-62.500000
4638,-66.406250
4639,-62.500000
4640,-66.406250
4641,-66.406250
4642,-66.406250
4643,-66.406250
4644,-66.406250
4645,-66.406250
4646,-66.406250
4647,-66.406250
4648,-66.406250
4649,-70.312500
4650,-70.312500
4651,-70.312500
4652,-70.312500
4653,-70.312500
4654,-70.312500
4655,-70.312500
4656,-70.312500
4657,-70.312500
4658,-70.312500
4659,-70.312500
4660,-74.218750
4661,-74.218750
4662,-74.218750
4663,-74.218750
4664,-74.218750
4665,-74.218750
4666,-74.218750
4667,-74.218750
4668,-74.218750
4669,-74.218750
4670,-74.218750
4671,-74.218750
4672,-78.125000
4673,-78.125000
4674,-78.125000
4675,-78.125000
4676,-78.125000
4677,-78.125000
4678,-78.125000
4679,-78.125000
4680,-78.125000
4681,-78.125000
4682,-78.125000
4683,-78.125000
4684,-78.125000
4685,-78.125000
4686,-78.125000
4687,-82.031250
4688,-82.031250
4689,-82.031250
4690,-82.031250
4691,-82.031250
4692,-82.031250
4693,-82.031250
4694,-82.031250
4695,-82.031250
4696,-82.031250
4697,-82.031250
4698,-85.937500
4699,-82.031250
4700,-82.031250
4701,-82.031250
4702,-85.937500
4703,-85.937500
4704,-85.937500
4705,-85.937500
4706,-85.937500
4707,-85.937500
4708,-85.937500
4709,-85.937500
4710,-85.937500
4711,-85.937500
4712,-85.937500
4713,-85.937500
4714,-85.937500
4715,-89.843750
4716,-89.843750
4717,-89.843750
4718,-89.843750
4719,-89.843750
4720,-89.843750
4721,-89.843750
4722,-89.843750
4723,-89.843750
4724,-89.843750
4725,-89.843750
4726,-89.843750
4727,-89.843750
4728,-89.843750
4729,-89.843750
4730,-89.843750
4731,-89.843750
4732,-89.843750
4733,-89.843750
4734,-93.750000
4735,-89.843750
4736,-89.843750
4737,-89.843750
4738,-89.843750
4739,-93.750000
4740,-93.750000
4741,-93.750000
4742,-89.843750
4743,-89.843750
4744,-93.750000
4745,-93.750000
4746,-93.750000
4747,-93.750000
4748,-93.750000
4749,-93.750000
4750,-93.750000
4751,-93.750000
4752,-93.750000
4753,-93.750000
4754,-93.750000
4755,-93.750000
4756,-93.750000
4757,-93.750000
4758,-93.750000
4759,-93.750000
4760,-93.750000
4761,-93.750000
4762,-93.750000
4763,-93.750000
4764,-93.750000
4765,-93.750000
4766,-93.750000
4767,-93.750000
4768,-93.750000
4769,-93.750000
4770,-93.750000
4771,-93.750000
4772,-93.750000
4773,-93.750000
4774,-93.750000
4775,-93.750000
4776,-93.750000
4777,-93.750000
4778,-93.750000
4779,-93.750000
4780,-93.750000
4781,-93.750000
4782,-93.750000
4783,-93.750000
4784,-93.750000
4785,-93.750000
4786,-93.750000
4787,-93.750000
4788,-93.750000
4789,-93.750000
4790,-93.750000
4791,-93.750000
4792,-93.750000
4793,-93.750000
4794,-93.750000
4795,-93.750000
4796,-93.750000
4797,-93.750000
4798,-93.750000
4799,-93.750000
4800,-93.750000
4801,-89.843750
4802,-93.750000
4803,-93.750000
4804,-93.750000
4805,-89.843750
4806,-93.750000
4807,-93.750000
4808,-93.750000
4809,-93.750000
4810,-89.843750
4811,-89.843750
4812,-89.843750
4813,-89.843750
4814,-89.843750
4815,-89.843750
4816,-89.843750
4817,-89.843750
4818,-89.843750
4819,-89.843750
4820,-89.843750
4821,-89.843750
4822,-89.843750
4823,-89.843750
4824,-89.843750
4825,-89.843750
4826,-89.843750
4827,-89.843750
4828,-89.843750
4829,-89.843750
4830,-89.843750
4831,-85.937500
4832,-89.843750
4833,-85.937500
4834,-85.937500
4835,-89.843750
4836,-85.937500
4837,-85.937500
4838,-85.937500
4839,-85.937500
4840,-85.937500
4841,-85.937500
4842,-85.937500
4843,-85.937500
4844,-85.937500
4845,-85.937500
4846,-85.937500
4847,-85.937500
4848,-85.937500
4849,-85.937500
4850,-85.937500
4851,-85.937500
4852,-82.031250
4853,-82.031250
4854,-82.031250
4855,-82.031250
4856,-82.031250
4857,-82.031250
4858,-82.031250
4859,-82.031250
4860,-82.031250
4861,-82.031250
4862,-82.031250
4863,-82.031250
4864,-82.031250
4865,-82.031250
4866,-82.031250
4867,-78.125000
4868,-78.125000
4869,-78.125000
4870,-78.125000
4871,-78.125000
4872,-78.125000
4873,-78.125000
4874,-78.125000
4875,-78.125000
4876,-78.125000
4877,-78.125000
4878,-78.125000
4879,-74.218750
4880,-74.218750
4881,-74.218750
4882,-74.218750
4883,-74.218750
4884,-74.218750
4885,-74.218750
4886,-74.218750
4887,-74.218750
4888,-74.218750
4889,-70.312500
4890,-74.218750
4891,-70.312500
4892,-70.312500
4893,-70.312500
4894,-70.312500
4895,-70.312500
4896,-70.312500
4897,-70.312500
4898,-70.312500
4899,-70.312500
4900,-70.312500
4901,-66.406250
4902,-70.312500
4903,-66.406250
4904,-66.406250
4905,-66.406250
4906,-66.406250
4907,-66.406250
4908,-66.406250
4909,-66.406250
4910,-62.500000
4911,-62.500000
4912,-66.406250
4913,-62.500000
4914,-62.500000
4915,-62.500000
4916,-62.500000
4917,-62.500000
4918,-62.500000
4919,-62.500000
4920,-58.593750
4921,-62.500000
4922,-58.593750
4923,-58.593750
4924,-58.593750
4925,-58.593750
4926,-58.593750
4927,-58.593750
4928,-54.687500
4929,-54.687500
4930,-54.687500
4931,-54.687500
4932,-54.687500
4933,-54.687500
4934,-54.687500
4935,-54.687500
4936,-54.687500
4937,-54.687500
4938,-50.781250
4939,-54.687500
4940,-50.781250
4941,-50.781250
4942,-50.781250
4943,-50.781250
4944,-50.781250
4945,-50.781250
4946,-50.781250
4947,-46.875000
4948,-46.875000
4949,-46.875000
4950,-46.875000
4951,-46.875000
4952,-46.875000
4953,-46.875000
4954,-42.968750
4955,-42.968750
4956,-42.968750
4957,-42.968750
4958,-42.968750
4959,-42.968750
4960,-42.968750
4961,-42.968750
4962,-42.968750
4963,-42.968750
4964,-39.062500
4965,-39.062500
4966,-39.062500
4967,-39.062500
4968,-39.062500
4969,-39.062500
4970,-35.156250
4971,-39.062500
4972,-35.156250
4973,-35.156250
4974,-35.156250
4975,-35.156250
4976,-35.156250
4977,-35.156250
4978,-35.156250
4979,-31.250000
4980,-31.250000
4981,-31.250000
4982,-31.250000
4983,-31.250000
4984,-31.250000
4985,-31.250000
4986,-27.343750
4987,-27.343750
4988,-27.343750
4989,-27.343750
4990,-27.343750
4991,-27.343750
4992,-27.343750
4993,-27.343750
4994,-27.343750
4995,-23.437500
4996,-23.437500
4997,-23.437500
4998,-23.437500
4999,-23.437500
5000,-23.437500
5001,-23.437500
5002,-23.437500
5003,-19.531250
5004,-19.531250
5005,-19.531250
5006,-19.531250
5007,-19.531250
5008,-19.531250
5009,-19.531250
5010,-19.531250
5011,-15.625000
5012,-15.625000
5013,-15.625000
5014,-15.625000
5015,-15.625000
5016,-15.625000
5017,-15.625000
5018,-11.718750
5019,-11.718750
5020,-11.718750
5021,-11.718750
5022,-11.718750
5023,-11.718750
5024,-11.718750
5025,-7.812500
5026,-7.812500
5027,-7.812500
5028,-7.812500
5029,-7.812500
5030,-7.812500
5031,-7.812500
5032,-7.812500
5033,-7.812500
5034,-3.906250
5035,-3.906250
5036,-3.906250
5037,-3.906250
5038,-3.906250
5039,-3.906250
5040,-3.906250
5041,-3.906250
5042,0.000000
5043,0.000000
5044,0.000000
5045,0.000000
5046,0.000000
5047,0.000000
5048,0.000000
5049,3.906250
5050,3.906250
5051,3.906250
5052,3.906250
5053,3.906250
5054,3.906250
5055,7.812500
5056,7.812500
5057,7.812500
5058,7.812500
5059,7.812500
5060,7.812500
5061,7.812500
5062,7.812500
5063,7.812500
5064,7.812500
5065,11.718750
5066,11.718750
5067,11.718750
5068,11.718750
5069,11.718750
5070,11.718750
5071,11.718750
5072,11.718750
5073,11.718750
5074,11.718750
5075,15.625000
5076,15.625000
5077,15.625000
5078,15.625000
5079,15.625000
5080,15.625000
5081,15.625000
5082,15.625000
5083,19.531250
5084,19.531250
5085,19.531250
5086,19.531250
5087,19.531250
5088,19.531250
5089,19.531250
5090,19.531250
5091,19.531250
5092,19.531250
5093,19.531250
5094,23.437500
5095,23.437500
5096,23.437500
5097,23.437500
5098,23.437500
5099,23.437500
5100,23.437500
5101,23.437500
5102,23.437500
5103,27.343750
5104,27.343750
5105,27.343750
5106,27.343750
5107,27.343750
5108,27.343750
5109,27.343750
5110,27.343750
5111,27.343750
5112,31.250000
5113,31.250000
5114,31.250000
5115,31.250000
5116,31.250000
5117,31.250000
5118,31.250000
5119,31.250000
5120,31.250000
5121,35.156250
5122,35.156250
5123,35.156250
5124,35.156250
5125,35.156250
5126,35.156250
5127,35.156250
5128,35.156250
5129,35.156250
5130,35.156250
5131,39.062500
5132,39.062500
5133,39.062500
5134,39.062500
5135,39.062500
5136,39.062500
5137,39.062500
5138,39.062500
5139,39.062500
5140,39.062500
5141,39.062500
5142,39.062500
5143,42.968750
5144,39.062500
5145,42.968750
5146,42.968750
5147,42.968750
5148,42.968750
5149,42.968750
5150,42.968750
5151,42.968750
5152,42.968750
5153,46.875000
5154,42.968750
5155,42.968750
5156,46.875000
5157,42.968750
5158,46.875000
5159,46.875000
5160,46.875000
5161,46.875000
5162,46.875000
5163,46.875000
5164,46.875000
5165,46.875000
5166,46.875000
5167,46.875000
5168,46.875000
5169,46.875000
5170,46.875000
5171,50.781250
5172,50.781250
5173,50.781250
5174,50.781250
5175,50.781250
5176,50.781250
5177,50.781250
5178,50.781250
5179,50.781250
5180,50.781250
5181,50.781250
5182,50.781250
5183,54.687500
5184,54.687500
5185,50.781250
5186,54.687500
5187,54.687500
5188,54.687500
5189,54.687500
5190,54.687500
5191,54.687500
5192,54.687500
5193,54.687500
5194,54.687500
5195,54.687500
5196,54.687500
5197,54.687500
5198,54.687500
5199,54.687500
5200,54.687500
5201,54.687500
5202,54.687500
5203,54.687500
5204,54.687500
5205,58.593750
5206,58.593750
5207,58.593750
5208,58.593750
5209,58.593750
5210,58.593750
5211,58.593750
5212,58.593750
5213,58.593750
5214,58.593750
5215,58.593750
5216,58.593750
5217,58.593750
5218,58.593750
5219,58.593750
5220,58.593750
5221,58.593750
5222,58.593750
5223,58.593750
5224,58.593750
5225,58.593750
5226,58.593750
5227,58.593750
5228,58.593750
5229,58.593750
5230,58.593750
5231,58.593750
5232,58.593750
5233,58.593750
5234,58.593750
5235,62.500000
5236,62.500000
5237,62.500000
5238,62.500000
5239,58.593750
5240,58.593750
5241,62.500000
5242,62.500000
5243,62.500000
5244,62.500000
5245,62.500000
5246,62.500000
5247,58.593750
5248,62.500000
5249,62.500000
5250,62.500000
5251,62.500000
5252,62.500000
5253,62.500000
5254,62.500000
5255,62.500000
5256,62.500000
5257,62.500000
5258,62.500000
5259,62.500000
5260,62.500000
5261,62.500000
5262,62.500000
5263,62.500000
5264,62.500000
5265,62.500000
5266,62.500000
5267,62.500000
5268,62.500000
5269,62.500000
5270,62.500000
5271,62.500000
5272,62.500000
5273,62.500000
5274,62.500000
5275,58.593750
5276,62.500000
5277,62.500000
5278,62.500000
5279,62.500000
5280,58.593750
5281,62.500000
5282,62.500000
5283,58.593750
5284,62.500000
5285,62.500000
5286,58.593750
5287,62.500000
5288,58.593750
5289,58.593750
5290,58.593750
5291,62.500000
5292,62.500000
5293,62.500000
5294,62.500000
5295,62.500000
5296,62.500000
5297,62.500000
5298,58.593750
5299,58.593750
5300,58.593750
5301,58.593750
5302,58.593750
5303,58.593750
5304,58.593750
5305,58.593750
5306,58.593750
5307,58.593750
5308,58.593750
5309,58.593750
5310,58.593750
5311,58.593750
5312,58.593750
5313,58.593750
5314,58.593750
5315,58.593750
5316,58.593750
5317,58.593750
5318,58.593750
5319,58.593750
5320,58.593750
5321,58.593750
5322,58.593750
5323,58.593750
5324,58.593750
5325,58.593750
5326,54.687500
5327,54.687500
5328,54.687500
5329,54.687500
5330,54.687500
5331,54.687500
5332,54.687500
5333,54.687500
5334,54.687500
5335,54.687500
5336,54.687500
5337,54.687500
5338,54.687500
5339,54.687500
5340,54.687500
5341,54.687500
5342,54.687500
5343,54.687500
5344,54.687500
5345,54.687500
5346,54.687500
5347,50.781250
5348,54.687500
5349,50.781250
5350,50.781250
5351,50.781250
5352,50.781250
5353,50.781250
5354,50.781250
5355,50.781250
5356,50.781250
5357,50.781250
5358,50.781250
5359,50.781250
5360,50.781250
5361,50.781250
5362,50.781250
5363,46.875000
5364,46.875000
5365,46.875000
5366,46.875000
5367,46.875000
5368,46.875000
5369,46.875000
5370,46.875000
5371,46.875000
5372,46.875000
5373,46.875000
5374,46.875000
5375,46.875000
5376,42.968750
5377,42.968750
5378,42.968750
5379,42.968750
5380,42.968750
5381,42.968750
5382,39.062500
5383,42.968750
5384,46.875000
5385,42.968750
5386,42.968750
5387,42.968750
5388,42.968750
5389,39.062500
5390,39.062500
5391,39.062500
5392,39.062500
5393,39.062500
5394,39.062500
5395,39.062500
5396,39.062500
5397,39.062500
5398,39.062500
5399,39.062500
5400,39.062500
5401,39.062500
5402,35.156250
5403,35.156250
5404,35.156250
5405,35.156250
5406,35.156250
5407,35.156250
5408,35.156250
5409,35.156250
5410,35.156250
5411,35.156250
5412,31.250000
5413,31.250000
5414,31.250000
5415,31.250000
5416,31.250000
5417,31.250000
5418,31.250000
5419,31.250000
5420,31.250000
5421,31.250000
5422,31.250000
5423,31.250000
5424,31.250000
5425,27.343750
5426,27.343750
5427,27.343750
5428,27.343750
5429,27.343750
5430,27.343750
5431,27.343750
5432,27.343750
5433,27.343750
5434,23.437500
5435,23.437500
5436,23.437500
5437,23.437500
5438,23.437500
5439,23.437500
5440,23.437500
5441,23.437500
5442,23.437500
5443,19.531250
5444,19.531250
5445,19.531250
5446,19.531250
5447,19.531250
5448,19.531250
5449,19.531250
5450,19.531250
5451,19.531250
5452,19.531250
5453,19.531250
5454,15.625000
5455,15.625000
5456,15.625000
5457,15.625000
5458,15.625000
5459,15.625000
5460,15.625000
5461,15.625000
5462,11.718750
5463,11.718750
5464,11.718750
5465,11.718750
5466,11.718750
5467,11.718750
5468,11.718750
5469,11.718750
5470,7.812500
5471,11.718750
5472,7.812500
5473,7.812500
5474,7.812500
5475,7.812500
5476,7.812500
5477,7.812500
5478,7.812500
5479,3.906250
5480,3.906250
5481,3.906250
5482,3.906250
5483,3.906250
5484,3.906250
5485,3.906250
5486,3.906250
5487,0.000000
5488,0.000000
5489,0.000000
5490,0.000000
5491,0.000000
5492,0.000000
5493,0.000000
5494,0.000000
5495,-3.906250
5496,-3.906250
5497,-3.906250
5498,-3.906250
5499,-3.906250
5500,-3.906250
5501,-3.906250
5502,-7.812500
5503,-7.812500
5504,-7.812500
5505,-7.812500
5506,-7.812500
5507,-7.812500
5508,-7.812500
5509,-7.812500
5510,-11.718750
5511,-11.718750
5512,-11.718750
5513,-11.718750
5514,-11.718750
5515,-11.718750
5516,-11.718750
5517,-11.718750
5518,-15.625000
5519,-15.625000
5520,-15.625000
5521,-15.625000
5522,-15.625000
5523,-15.625000
5524,-15.625000
5525,-15.625000
5526,-19.531250
5527,-19.531250
5528,-19.531250
5529,-19.531250
5530,-19.531250
5531,-19.531250
5532,-19.531250
5533,-19.531250
5534,-23.437500
5535,-23.437500
5536,-23.437500
5537,-23.437500
5538,-23.437500
5539,-23.437500
5540,-23.437500
5541,-23.437500
5542,-27.343750
5543,-27.343750
5544,-27.343750
5545,-27.343750
5546,-27.343750
5547,-27.343750
5548,-27.343750
5549,-27.343750
5550,-31.250000
5551,-31.250000
5552,-31.250000
5553,-31.250000
5554,-31.250000
5555,-31.250000
5556,-31.250000
5557,-31.250000
5558,-35.156250
5559,-35.156250
5560,-35.156250
5561,-35.156250
5562,-35.156250
5563,-35.156250
5564,-35.156250
5565,-35.156250
5566,-35.156250
5567,-39.062500
5568,-39.062500
5569,-39.062500
5570,-39.062500
5571,-39.062500
5572,-39.062500
5573,-39.062500
5574,-39.062500
5575,-42.968750
5576,-42.968750
5577,-42.968750
5578,-42.968750
5579,-42.968750
5580,-42.968750
5581,-42.968750
5582,-42.968750
5583,-46.875000
5584,-46.875000
5585,-46.875000
5586,-46.875000
5587,-46.875000
5588,-46.875000
5589,-46.875000
5590,-46.875000
5591,-46.875000
5592,-46.875000
5593,-50.781250
5594,-50.781250
5595,-50.781250
5596,-50.781250
5597,-50.781250
5598,-50.781250
5599,-50.781250
5600,-50.781250
5601,-50.781250
5602,-54.687500
5603,-54.687500
5604,-54.687500
5605,-54.687500
5606,-54.687500
5607,-54.687500
5608,-54.687500
5609,-58.593750
5610,-54.687500
5611,-58.593750
5612,-58.593750
5613,-58.593750
5614,-58.593750
5615,-58.593750
5616,-58.593750
5617,-58.593750
5618,-58.593750
5619,-62.500000
5620,-62.500000
5621,-62.500000
5622,-62.500000
5623,-62.500000
5624,-62.500000
5625,-62.500000
5626,-62.500000
5627,-62.500000
5628,-66.406250
5629,-62.500000
5630,-66.406250
5631,-66.406250
5632,-66.406250
5633,-66.406250
5634,-66.406250
5635,-66.406250
5636,-70.312500
5637,-66.406250
5638,-70.312500
5639,-70.312500
5640,-70.312500
5641,-70.312500
5642,-70.312500
5643,-70.312500
5644,-70.312500
5645,-70.312500
5646,-70.312500
5647,-74.218750
5648,-70.312500
5649,-74.218750
5650,-74.218750
5651,-74.218750
5652,-74.218750
5653,-74.218750
5654,-74.218750
5655,-74.218750
5656,-74.218750
5657,-74.218750
5658,-78.125000
5659,-74.218750
5660,-78.125000
5661,-78.125000
5662,-78.125000
5663,-78.125000
5664,-78.125000
5665,-78.125000
5666,-78.125000
5667,-78.125000
5668,-78.125000
5669,-78.125000
5670,-78.125000
5671,-82.031250
5672,-78.125000
5673,-82.031250
5674,-82.031250
5675,-82.031250
5676,-82.031250
5677,-82.031250
5678,-82.031250
5679,-82.031250
5680,-82.031250
5681,-82.031250
5682,-82.031250
5683,-82.031250
5684,-82.031250
5685,-82.031250
5686,-82.031250
5687,-82.031250
5688,-85.937500
5689,-85.937500
5690,-85.937500
5691,-85.937500
5692,-85.937500
5693,-85.937500
5694,-85.937500
5695,-85.937500
5696,-85.937500
5697,-85.937500
5698,-85.937500
5699,-85.937500
5700,-85.937500
5701,-85.937500
5702,-85.937500
5703,-85.937500
5704,-85.937500
5705,-85.937500
5706,-89.843750
5707,-89.843750
5708,-89.843750
5709,-89.843750
5710,-89.843750
5711,-89.843750
5712,-89.843750
5713,-89.843750
5714,-89.843750
5715,-89.843750
5716,-89.843750
5717,-89.843750
5718,-89.843750
5719,-89.843750
5720,-89.843750
5721,-89.843750
5722,-89.843750
5723,-89.843750
5724,-89.843750
5725,-89.843750
5726,-89.843750
5727,-89.843750
5728,-93.750000
5729,-93.750000
5730,-93.750000
5731,-93.750000
5732,-93.750000
5733,-93.750000
5734,-93.750000
5735,-93.750000
5736,-93.750000
5737,-93.750000
5738,-93.750000
5739,-93.750000
5740,-93.750000
5741,-93.750000
5742,-93.750000
5743,-93.750000
5744,-93.750000
5745,-93.750000
5746,-93.750000
5747,-93.750000
5748,-93.750000
5749,-93.750000
5750,-93.750000
5751,-93.750000
5752,-93.750000
5753,-93.750000
5754,-89.843750
5755,-93.750000
5756,-93.750000
5757,-93.750000
5758,-93.750000
5759,-93.750000
5760,-93.750000
5761,-93.750000
5762,-93.750000
5763,-93.750000
5764,-93.750000
5765,-93.750000
5766,-93.750000
5767,-93.750000
5768,-93.750000
5769,-93.750000
5770,-93.750000
5771,-93.750000
5772,-93.750000
5773,-93.750000
5774,-93.750000
5775,-93.750000
5776,-93.750000
5777,-93.750000
5778,-93.750000
5779,-93.750000
5780,-93.750000
5781,-93.750000
5782,-97.656250
5783,-93.750000
5784,-93.750000
5785,-93.750000
5786,-93.750000
5787,-93.750000
5788,-93.750000
5789,-93.750000
5790,-93.750000
5791,-93.750000
5792,-93.750000
5793,-93.750000
5794,-93.750000
5795,-93.750000
5796,-93.750000
5797,-93.750000
5798,-93.750000
5799,-93.750000
5800,-89.843750
5801,-93.750000
5802,-93.750000
5803,-93.750000
5804,-89.843750
5805,-89.843750
5806,-93.750000
5807,-89.843750
5808,-89.843750
5809,-89.843750
5810,-89.843750
5811,-89.843750
5812,-89.843750
5813,-89.843750
5814,-89.843750
5815,-89.843750
5816,-89.843750
5817,-89.843750
5818,-89.843750
5819,-89.843750
5820,-89.843750
5821,-89.843750
5822,-85.937500
5823,-85.937500
5824,-89.843750
5825,-85.937500
5826,-85.937500
5827,-89.843750
5828,-85.937500
5829,-85.937500
5830,-85.937500
5831,-85.937500
5832,-85.937500
5833,-85.937500
5834,-85.937500
5835,-85.937500
5836,-85.937500
5837,-85.937500
5838,-85.937500
5839,-82.031250
5840,-82.031250
5841,-82.031250
5842,-82.031250
5843,-82.031250
5844,-82.031250
5845,-82.031250
5846,-82.031250
5847,-82.031250
5848,-82.031250
5849,-82.031250
5850,-82.031250
5851,-82.031250
5852,-82.031250
5853,-82.031250
5854,-82.031250
5855,-78.125000
5856,-82.031250
5857,-78.125000
5858,-78.125000
5859,-78.125000
5860,-78.125000
5861,-78.125000
5862,-78.125000
5863,-78.125000
5864,-78.125000
5865,-78.125000
5866,-78.125000
5867,-78.125000
5868,-74.218750
5869,-74.218750
5870,-74.218750
5871,-74.218750
5872,-74.218750
5873,-74.218750
5874,-74.218750
5875,-74.218750
5876,-74.218750
5877,-74.218750
5878,-74.218750
5879,-74.218750
5880,-70.312500
5881,-70.312500
5882,-70.312500
5883,-70.312500
5884,-70.312500
5885,-70.312500
5886,-70.312500
5887,-70.312500
5888,-70.312500
5889,-70.312500
5890,-70.312500
5891,-66.406250
5892,-66.406250
5893,-66.406250
5894,-66.406250
5895,-66.406250
5896,-66.406250
5897,-66.406250
5898,-66.406250
5899,-66.406250
5900,-66.406250
5901,-62.500000
5902,-62.500000
5903,-62.500000
5904,-62.500000
5905,-62.500000
5906,-62.500000
5907,-62.500000
5908,-62.500000
5909,-62.500000
5910,-58.593750
5911,-58.593750
5912,-58.593750
5913,-58.593750
5914,-58.593750
5915,-58.593750
5916,-58.593750
5917,-58.593750
5918,-58.593750
5919,-54.687500
5920,-54.687500
5921,-54.687500
5922,-54.687500
5923,-54.687500
5924,-54.687500
5925,-54.687500
5926,-54.687500
5927,-54.687500
5928,-50.781250
5929,-50.781250
5930,-50.781250
5931,-50.781250
5932,-50.781250
5933,-50.781250
5934,-50.781250
5935,-50.781250
5936,-46.875000
5937,-46.875000
5938,-46.875000
5939,-46.875000
5940,-46.875000
5941,-46.875000
5942,-46.875000
5943,-42.968750
5944,-42.968750
5945,-42.968750
5946,-42.968750
5947,-42.968750
5948,-42.968750
5949,-42.968750
5950,-42.968750
5951,-39.062500
5952,-39.062500
5953,-39.062500
5954,-39.062500
5955,-39.062500
5956,-39.062500
5957,-39.062500
5958,-39.062500
5959,-39.062500
5960,-39.062500
5961,-35.156250
5962,-35.156250
5963,-35.156250
5964,-35.156250
5965,-35.156250
5966,-35.156250
5967,-31.250000
5968,-31.250000
5969,-31.250000
5970,-31.250000
5971,-31.250000
5972,-31.250000
5973,-31.250000
5974,-31.250000
5975,-31.250000
5976,-31.250000
5977,-27.343750
5978,-27.343750
5979,-27.343750
5980,-27.343750
5981,-27.343750
5982,-27.343750
5983,-23.437500
5984,-23.437500
5985,-23.437500
5986,-23.437500
5987,-19.531250
5988,-23.437500
5989,-23.437500
5990,-23.437500
5991,-19.531250
5992,-23.437500
5993,-19.531250
5994,-19.531250
5995,-19.531250
5996,-19.531250
5997,-19.531250
5998,-19.531250
5999,-19.531250
6000,-15.625000
6001,-15.625000
6002,-15.625000
6003,-15.625000
6004,-15.625000
6005,-11.718750
6006,-11.718750
6007,-11.718750
6008,-15.625000
6009,-11.718750
6010,-11.718750
6011,-11.718750
6012,-11.718750
6013,-11.718750
6014,-7.812500
6015,-7.812500
6016,-7.812500
6017,-7.812500
6018,-7.812500
6019,-7.812500
6020,-7.812500
6021,-7.812500
6022,-7.812500
6023,-7.812500
6024,-3.906250
6025,-3.906250
6026,-3.906250
6027,-3.906250
6028,-3.906250
6029,-3.906250
6030,-3.906250
6031,-3.906250
6032,0.000000
6033,0.000000
6034,0.000000
6035,0.000000
6036,0.000000
6037,0.000000
6038,0.000000
6039,0.000000
6040,3.906250
6041,3.906250
6042,3.906250
6043,3.906250
6044,3.906250
6045,3.906250
6046,3.906250
6047,7.812500
6048,7.812500
6049,7.812500
6050,7.812500
6051,7.812500
6052,7.812500
6053,7.812500
6054,7.812500
6055,11.718750
6056,11.718750
6057,11.718750
6058,11.718750
6059,11.718750
6060,11.718750
6061,11.718750
6062,11.718750
6063,15.625000
6064,15.625000
6065,15.625000
6066,15.625000
6067,15.625000
6068,15.625000
6069,15.625000
6070,15.625000
6071,15.625000
6072,11.718750
6073,19.531250
6074,19.531250
6075,19.531250
6076,19.531250
6077,19.531250
6078,19.531250
6079,19.531250
6080,19.531250
6081,19.531250
6082,23.437500
6083,23.437500
6084,23.437500
6085,23.437500
6086,23.437500
6087,23.437500
6088,23.437500
6089,23.437500
6090,23.437500
6091,27.343750
6092,27.343750
6093,27.343750
6094,27.343750
6095,27.343750
6096,27.343750
6097,27.343750
6098,27.343750
6099,27.343750
6100,31.250000
6101,31.250000
6102,31.250000
6103,31.250000
6104,31.250000
6105,31.250000
6106,31.250000
6107,31.250000
6108,31.250000
6109,31.250000
6110,31.250000
6111,35.156250
6112,35.156250
6113,35.156250
6114,35.156250
6115,35.156250
6116,35.156250
6117,35.156250
6118,35.156250
6119,39.062500
6120,39.062500
6121,39.062500
6122,39.062500
6123,39.062500
6124,39.062500
6125,39.062500
6126,39.062500
6127,39.062500
6128,39.062500
6129,39.062500
6130,39.062500
6131,42.968750
6132,39.062500
6133,42.968750
6134,42.968750
6135,42.968750
6136,42.968750
6137,42.968750
6138,42.968750
6139,42.968750
6140,42.968750
6141,42.968750
6142,42.968750
6143,42.968750
6144,42.968750
6145,42.968750
6146,46.875000
6147,46.875000
6148,46.875000
6149,46.875000
6150,50.781250
6151,46.875000
6152,46.875000
6153,46.875000
6154,46.875000
6155,46.875000
6156,46.875000
6157,46.875000
6158,46.875000
6159,50.781250
6160,50.781250
6161,50.781250
6162,50.781250
6163,50.781250
6164,50.781250
6165,50.781250
6166,50.781250
6167,50.781250
6168,50.781250
6169,50.781250
6170,50.781250
6171,50.781250
6172,50.781250
6173,50.781250
6174,50.781250
6175,50.781250
6176,50.781250
6177,50.781250
6178,54.687500
6179,54.687500
6180,54.687500
6181,54.687500
6182,54.687500
6183,54.687500
6184,54.687500
6185,54.687500
6186,54.687500
6187,54.687500
6188,54.687500
6189,54.687500
6190,54.687500
6191,54.687500
6192,54.687500
6193,54.687500
6194,54.687500
6195,54.687500
6196,54.687500
6197,58.593750
6198,58.593750
6199,58.593750
6200,58.593750
6201,58.593750
6202,58.593750
6203,58.593750
6204,58.593750
6205,58.593750
6206,58.593750
6207,58.593750
6208,58.593750
6209,58.593750
6210,58.593750
6211,58.593750
6212,58.593750
6213,58.593750
6214,58.593750
6215,58.593750
6216,58.593750
6217,58.593750
6218,58.593750
6219,62.500000
6220,58.593750
6221,58.593750
6222,58.593750
6223,62.500000
6224,62.500000
6225,62.500000
6226,62.500000
6227,62.500000
6228,62.500000
6229,62.500000
6230,62.500000
6231,62.500000
6232,62.500000
6233,58.593750
6234,62.500000
6235,62.500000
6236,62.500000
6237,62.500000
6238,62.500000
6239,62.500000
6240,62.500000
6241,62.500000
6242,62.500000
6243,62.500000
6244,62.500000
6245,62.500000
6246,62.500000
6247,62.500000
6248,62.500000
6249,62.500000
6250,62.500000
6251,62.500000
6252,62.500000
6253,62.500000
6254,62.500000
6255,62.500000
6256,62.500000
6257,62.500000
6258,62.500000
6259,62.500000
6260,62.500000
6261,62.500000
6262,62.500000
6263,62.500000
6264,62.500000
6265,62.500000
6266,62.500000
6267,62.500000
6268,62.500000
6269,62.500000
6270,62.500000
6271,62.500000
6272,62.500000
6273,58.593750
6274,62.500000
6275,62.500000
6276,62.500000
6277,62.500000
6278,62.500000
6279,62.500000
6280,58.593750
6281,62.500000
6282,62.500000
6283,62.500000
6284,58.593750
6285,62.500000
6286,58.593750
6287,58.593750
6288,58.593750
6289,58.593750
6290,58.593750
6291,58.593750
6292,58.593750
6293,58.593750
6294,58.593750
6295,58.593750
6296,58.593750
6297,58.593750
6298,58.593750
6299,58.593750
6300,58.593750
6301,58.593750
6302,58.593750
6303,58.593750
6304,58.593750
6305,58.593750
6306,58.593750
6307,54.687500
6308,58.593750
6309,58.593750
6310,58.593750
6311,58.593750
6312,54.687500
6313,58.593750
6314,58.593750
6315,54.687500
6316,54.687500
6317,54.687500
6318,54.687500
6319,54.687500
6320,54.687500
6321,54.687500
6322,54.687500
6323,54.687500
6324,54.687500
6325,54.687500
6326,54.687500
6327,54.687500
6328,54.687500
6329,54.687500
6330,54.687500
6331,54.687500
6332,54.687500
6333,54.687500
6334,50.781250
6335,54.687500
6336,54.687500
6337,50.781250
6338,50.781250
6339,50.781250
6340,50.781250
6341,50.781250
6342,50.781250
6343,50.781250
6344,50.781250
6345,50.781250
6346,50.781250
6347,50.781250
6348,50.781250
6349,50.781250
6350,50.781250
6351,50.781250
6352,50.781250
6353,50.781250
6354,46.875000
6355,46.875000
6356,46.875000
6357,46.875000
6358,46.875000
6359,46.875000
6360,46.875000
6361,46.875000
6362,46.875000
6363,46.875000
6364,42.968750
6365,46.875000
6366,42.968750
6367,42.968750
6368,42.968750
6369,42.968750
6370,42.968750
6371,42.968750
6372,42.968750
6373,42.968750
6374,42.968750
6375,42.968750
6376,42.968750
6377,42.968750
6378,42.968750
6379,39.062500
6380,39.062500
6381,39.062500
6382,39.062500
6383,39.062500
6384,39.062500
6385,39.062500
6386,39.062500
6387,35.156250
6388,39.062500
6389,39.062500
6390,39.062500
6391,39.062500
6392,35.156250
6393,35.156250
6394,35.156250
6395,35.156250
6396,35.156250
6397,35.156250
6398,35.156250
6399,35.156250
6400,31.250000
6401,31.250000
6402,35.156250
6403,31.250000
6404,31.250000
6405,31.250000
6406,31.250000
6407,31.250000
6408,31.250000
6409,31.250000
6410,31.250000
6411,31.250000
6412,27.343750
6413,31.250000
6414,27.343750
6415,27.343750
6416,27.343750
6417,27.343750
6418,27.343750
6419,27.343750
6420,27.343750
6421,27.343750
6422,23.437500
6423,27.343750
6424,23.437500
6425,23.437500
6426,23.437500
6427,23.437500
6428,23.437500
6429,23.437500
6430,23.437500
6431,19.531250
6432,19.531250
6433,19.531250
6434,19.531250
6435,19.531250
6436,19.531250
6437,19.531250
6438,19.531250
6439,19.531250
6440,15.625000
6441,15.625000
6442,15.625000
6443,15.625000
6444,15.625000
6445,15.625000
6446,15.625000
6447,15.625000
6448,15.625000
6449,15.625000
6450,15.625000
6451,11.718750
6452,11.718750
6453,11.718750
6454,11.718750
6455,11.718750
6456,11.718750
6457,11.718750
6458,7.812500
6459,7.812500
6460,7.812500
6461,7.812500
6462,7.812500
6463,7.812500
6464,7.812500
6465,7.812500
6466,3.906250
6467,3.906250
6468,3.906250
6469,3.906250
6470,3.906250
6471,3.906250
6472,3.906250
6473,3.906250
6474,3.906250
6475,3.906250
6476,0.000000
6477,0.000000
6478,0.000000
6479,0.000000
6480,0.000000
6481,0.000000
6482,0.000000
6483,0.000000
6484,0.000000
6485,-3.906250
6486,-3.906250
6487,-3.906250
6488,-3.906250
6489,-3.906250
6490,-3.906250
6491,-3.906250
6492,-7.812500
6493,-7.812500
6494,-7.812500
6495,-7.812500
6496,-7.812500
6497,-7.812500
6498,-7.812500
6499,-7.812500
6500,-11.718750
6501,-7.812500
6502,-11.718750
6503,-11.718750
6504,-11.718750
6505,-11.718750
6506,-11.718750
6507,-15.625000
6508,-15.625000
6509,-15.625000
6510,-15.625000
6511,-15.625000
6512,-15.625000
6513,-15.625000
6514,-15.625000
6515,-15.625000
6516,-19.531250
6517,-19.531250
6518,-19.531250
6519,-19.531250
6520,-19.531250
6521,-19.531250
6522,-19.531250
6523,-19.531250
6524,-23.437500
6525,-23.437500
6526,-23.437500
6527,-23.437500
6528,-23.437500
6529,-23.437500
6530,-27.343750
6531,-27.343750
6532,-27.343750
6533,-27.343750
6534,-27.343750
6535,-27.343750
6536,-27.343750
6537,-27.343750
6538,-27.343750
6539,-31.250000
6540,-27.343750
6541,-31.250000
6542,-31.250000
6543,-31.250000
6544,-31.250000
6545,-31.250000
6546,-31.250000
6547,-31.250000
6548,-31.250000
6549,-35.156250
6550,-35.156250
6551,-35.156250
6552,-35.156250
6553,-35.156250
6554,-35.156250
6555,-39.062500
6556,-39.062500
6557,-39.062500
6558,-39.062500
6559,-39.062500
6560,-39.062500
6561,-39.062500
6562,-39.062500
6563,-42.968750
6564,-42.968750
6565,-42.968750
6566,-42.968750
6567,-42.968750
6568,-42.968750
6569,-42.968750
6570,-42.968750
6571,-42.968750
6572,-46.875000
6573,-46.875000
6574,-46.875000
6575,-46.875000
6576,-46.875000
6577,-46.875000
6578,-46.875000
6579,-46.875000
6580,-50.781250
6581,-46.875000
6582,-50.781250
6583,-50.781250
6584,-50.781250
6585,-50.781250
6586,-50.781250
6587,-50.781250
6588,-50.781250
6589,-50.781250
6590,-54.687500
6591,-54.687500
6592,-54.687500
6593,-54.687500
6594,-54.687500
6595,-54.687500
6596,-54.687500
6597,-54.687500
6598,-54.687500
6599,-58.593750
6600,-58.593750
6601,-58.593750
6602,-58.593750
6603,-58.593750
6604,-58.593750
6605,-58.593750
6606,-58.593750
6607,-58.593750
6608,-58.593750
6609,-62.500000
6610,-62.500000
6611,-62.500000
6612,-62.500000
6613,-62.500000
6614,-62.500000
6615,-62.500000
6616,-62.500000
6617,-66.406250
6618,-66.406250
6619,-66.406250
6620,-66.406250
6621,-66.406250
6622,-66.406250
6623,-66.406250
6624,-66.406250
6625,-66.406250
6626,-66.406250
6627,-70.312500
6628,-70.312500
6629,-70.312500
6630,-70.312500
6631,-70.312500
6632,-70.312500
6633,-70.312500
6634,-70.312500
6635,-70.312500
6636,-70.312500
6637,-70.312500
6638,-74.218750
6639,-74.218750
6640,-74.218750
6641,-74.218750
6642,-74.218750
6643,-74.218750
6644,-74.218750
6645,-74.218750
6646,-74.218750
6647,-74.218750
6648,-74.218750
6649,-74.218750
6650,-78.125000
6651,-78.125000
6652,-78.125000
6653,-78.125000
6654,-78.125000
6655,-78.125000
6656,-78.125000
6657,-78.125000
6658,-78.125000
6659,-78.125000
6660,-78.125000
6661,-82.031250
6662,-82.031250
6663,-82.031250
6664,-82.031250
6665,-82.031250
6666,-82.031250
6667,-82.031250
6668,-82.031250
6669,-82.031250
6670,-82.031250
6671,-82.031250
6672,-82.031250
6673,-82.031250
6674,-82.031250
6675,-82.031250
6676,-85.937500
6677,-85.937500
6678,-85.937500
6679,-85.937500
6680,-85.937500
6681,-85.937500
6682,-85.937500
6683,-85.937500
6684,-85.937500
6685,-85.937500
6686,-85.937500
6687,-85.937500
6688,-85.937500
6689,-89.843750
6690,-89.843750
6691,-89.843750
6692,-85.937500
6693,-85.937500
6694,-89.843750
6695,-89.843750
6696,-89.843750
6697,-89.843750
6698,-89.843750
6699,-89.843750
6700,-89.843750
6701,-89.843750
6702,-89.843750
6703,-89.843750
6704,-89.843750
6705,-89.843750
6706,-89.843750
6707,-89.843750
6708,-89.843750
6709,-89.843750
6710,-89.843750
6711,-89.843750
6712,-89.843750
6713,-89.843750
6714,-89.843750
6715,-89.843750
6716,-89.843750
6717,-93.750000
6718,-93.750000
6719,-93.750000
6720,-93.750000
6721,-93.750000
6722,-89.843750
6723,-93.750000
6724,-93.750000
6725,-93.750000
6726,-93.750000
6727,-93.750000
6728,-93.750000
6729,-93.750000
6730,-93.750000
6731,-93.750000
6732,-93.750000
6733,-93.750000
6734,-93.750000
6735,-93.750000
6736,-93.750000
6737,-93.750000
6738,-93.750000
6739,-93.750000
6740,-93.750000
6741,-93.750000
6742,-93.750000
6743,-93.750000
6744,-93.750000
6745,-93.750000
6746,-93.750000
6747,-93.750000
6748,-93.750000
6749,-93.750000
6750,-93.750000
6751,-93.750000
6752,-93.750000
6753,-93.750000
6754,-93.750000
6755,-93.750000
6756,-93.750000
6757,-93.750000
6758,-93.750000
6759,-93.750000
6760,-93.750000
6761,-93.750000
6762,-93.750000
6763,-93.750000
6764,-93.750000
6765,-93.750000
6766,-93.750000
6767,-93.750000
6768,-93.750000
6769,-93.750000
6770,-93.750000
6771,-93.750000
6772,-93.750000
6773,-93.750000
6774,-93.750000
6775,-93.750000
6776,-93.750000
6777,-93.750000
6778,-93.750000
6779,-93.750000
6780,-93.750000
6781,-89.843750
6782,-93.750000
6783,-93.750000
6784,-93.750000
6785,-93.750000
6786,-93.750000
6787,-93.750000
6788,-93.750000
6789,-89.843750
6790,-89.843750
6791,-89.843750
6792,-89.843750
6793,-89.843750
6794,-89.843750
6795,-89.843750
6796,-89.843750
6797,-89.843750
6798,-89.843750
6799,-89.843750
6800,-89.843750
6801,-89.843750
6802,-89.843750
6803,-89.843750
6804,-89.843750
6805,-89.843750
6806,-89.843750
6807,-89.843750
6808,-89.843750
6809,-89.843750
6810,-89.843750
6811,-89.843750
6812,-89.843750
6813,-89.843750
6814,-85.937500
6815,-89.843750
6816,-85.937500
6817,-85.937500
6818,-85.937500
6819,-85.937500
6820,-85.937500
6821,-85.937500
6822,-85.937500
6823,-85.937500
6824,-85.937500
6825,-85.937500
6826,-85.937500
6827,-85.937500
6828,-85.937500
6829,-82.031250
6830,-85.937500
6831,-85.937500
6832,-82.031250
6833,-82.031250
6834,-82.031250
6835,-82.031250
6836,-82.031250
6837,-82.031250
6838,-82.031250
6839,-82.031250
6840,-82.031250
6841,-82.031250
6842,-78.125000
6843,-82.031250
6844,-82.031250
6845,-82.031250
6846,-78.125000
6847,-78.125000
6848,-78.125000
6849,-78.125000
6850,-78.125000
6851,-78.125000
6852,-78.125000
6853,-78.125000
6854,-78.125000
6855,-74.218750
6856,-74.218750
6857,-74.218750
6858,-74.218750
6859,-74.218750
6860,-74.218750
6861,-74.218750
6862,-74.218750
6863,-74.218750
6864,-74.218750
6865,-74.218750
6866,-74.218750
6867,-74.218750
6868,-70.312500
6869,-74.218750
6870,-70.312500
6871,-70.312500
6872,-70.312500
6873,-70.312500
6874,-70.312500
6875,-70.312500
6876,-70.312500
6877,-70.312500
6878,-66.406250
6879,-66.406250
6880,-66.406250
6881,-66.406250
6882,-66.406250
6883,-66.406250
6884,-66.406250
6885,-66.406250
6886,-66.406250
6887,-66.406250
6888,-62.500000
6889,-62.500000
6890,-62.500000
6891,-62.500000
6892,-62.500000
6893,-62.500000
6894,-62.500000
6895,-62.500000
6896,-62.500000
6897,-62.500000
6898,-58.593750
6899,-58.593750
6900,-58.593750
6901,-58.593750
6902,-58.593750
6903,-58.593750
6904,-58.593750
6905,-58.593750
6906,-54.687500
6907,-54.687500
6908,-54.687500
6909,-54.687500
6910,-54.687500
6911,-54.687500
6912,-54.687500
6913,-54.687500
6914,-54.687500
6915,-54.687500
6916,-50.781250
6917,-50.781250
6918,-50.781250
6919,-50.781250
6920,-50.781250
6921,-50.781250
6922,-50.781250
6923,-50.781250
6924,-50.781250
6925,-46.875000
6926,-46.875000
6927,-46.875000
6928,-46.875000
6929,-46.875000
6930,-46.875000
6931,-46.875000
6932,-46.875000
6933,-42.968750
6934,-42.968750
6935,-42.968750
6936,-42.968750
6937,-42.968750
6938,-42.968750
6939,-42.968750
6940,-42.968750
6941,-39.062500
6942,-39.062500
6943,-39.062500
6944,-39.062500
6945,-39.062500
6946,-39.062500
6947,-39.062500
6948,-39.062500
6949,-39.062500
6950,-35.156250
6951,-35.156250
6952,-35.156250
6953,-35.156250
6954,-35.156250
6955,-35.156250
6956,-35.156250
6957,-35.156250
6958,-31.250000
6959,-31.250000
6960,-31.250000
6961,-31.250000
6962,-31.250000
6963,-31.250000
6964,-31.250000
6965,-31.250000
6966,-27.343750
6967,-27.343750
6968,-27.343750
6969,-27.343750
6970,-27.343750
6971,-27.343750
6972,-27.343750
6973,-23.437500
6974,-23.437500
6975,-23.437500
6976,-23.437500
6977,-23.437500
6978,-23.437500
6979,-23.437500
6980,-23.437500
6981,-19.531250
6982,-19.531250
6983,-19.531250
6984,-19.531250
6985,-19.531250
6986,-19.531250
6987,-19.531250
6988,-15.625000
6989,-15.625000
6990,-15.625000
6991,-15.625000
6992,-15.625000
6993,-15.625000
6994,-15.625000
6995,-15.625000
6996,-15.625000
6997,-11.718750
6998,-11.718750
6999,-11.718750
7000,-11.718750
7001,-11.718750
7002,-11.718750
7003,-11.718750
7004,-7.812500
7005,-11.718750
7006,-7.812500
7007,-7.812500
7008,-7.812500
7009,-7.812500
7010,-7.812500
7011,-7.812500
7012,-3.906250
7013,-3.906250
7014,-3.906250
7015,-3.906250
7016,-3.906250
7017,-3.906250
7018,-3.906250
7019,-3.906250
7020,0.000000
7021,0.000000
7022,0.000000
7023,0.000000
7024,0.000000
7025,0.000000
7026,0.000000
7027,3.906250
7028,3.906250
7029,3.906250
7030,3.906250
7031,3.906250
7032,3.906250
7033,3.906250
7034,3.906250
7035,7.812500
7036,7.812500
7037,7.812500
7038,7.812500
7039,7.812500
7040,7.812500
7041,7.812500
7042,7.812500
7043,7.812500
7044,11.718750
7045,11.718750
7046,11.718750
7047,11.718750
7048,11.718750
7049,11.718750
7050,11.718750
7051,11.718750
7052,11.718750
7053,15.625000
7054,15.625000
7055,15.625000
7056,15.625000
7057,15.625000
7058,15.625000
7059,15.625000
7060,15.625000
7061,15.625000
7062,19.531250
7063,19.531250
7064,19.531250
7065,19.531250
7066,19.531250
7067,19.531250
7068,19.531250
7069,19.531250
7070,23.437500
7071,23.437500
7072,23.437500
7073,23.437500
7074,23.437500
7075,23.437500
7076,23.437500
7077,23.437500
7078,23.437500
7079,23.437500
7080,27.343750
7081,27.343750
7082,27.343750
7083,27.343750
7084,27.343750
7085,27.343750
7086,27.343750
7087,27.343750
7088,27.343750
7089,31.250000
7090,31.250000
7091,31.250000
7092,31.250000
7093,31.250000
7094,31.250000
7095,31.250000
7096,31.250000
7097,31.250000
7098,31.250000
7099,31.250000
7100,31.250000
7101,35.156250
7102,35.156250
7103,35.156250
7104,35.156250
7105,35.156250
7106,35.156250
7107,35.156250
7108,35.156250
7109,39.062500
7110,39.062500
7111,35.156250
7112,39.062500
7113,39.062500
7114,39.062500
7115,39.062500
7116,39.062500
7117,39.062500
7118,39.062500
7119,39.062500
7120,39.062500
7121,39.062500
7122,42.968750
7123,42.968750
7124,42.968750
7125,42.968750
7126,42.968750
7127,42.968750
7128,42.968750
7129,42.968750
7130,42.968750
7131,42.968750
7132,42.968750
7133,46.875000
7134,46.875000
7135,46.875000
7136,46.875000
7137,46.875000
7138,46.875000
7139,46.875000
7140,46.875000
7141,46.875000
7142,46.875000
7143,50.781250
7144,50.781250
7145,46.875000
7146,50.781250
7147,50.781250
7148,50.781250
7149,50.781250
7150,50.781250
7151,50.781250
7152,50.781250
7153,50.781250
7154,50.781250
7155,50.781250
7156,50.781250
7157,50.781250
7158,50.781250
7159,50.781250
7160,54.687500
7161,50.781250
7162,54.687500
7163,50.781250
7164,54.687500
7165,54.687500
7166,54.687500
7167,54.687500
7168,54.687500
7169,54.687500
7170,54.687500
7171,54.687500
7172,54.687500
7173,54.687500
7174,54.687500
7175,54.687500
7176,54.687500
7177,54.687500
7178,54.687500
7179,54.687500
7180,54.687500
7181,54.687500
7182,54.687500
7183,54.687500
7184,58.593750
7185,58.593750
7186,58.593750
7187,58.593750
7188,58.593750
7189,58.593750
7190,58.593750
7191,58.593750
7192,58.593750
7193,58.593750
7194,58.593750
7195,58.593750
7196,58.593750
7197,58.593750
7198,58.593750
7199,58.593750
7200,58.593750
7201,58.593750
7202,58.593750
7203,58.593750
7204,58.593750
7205,58.593750
7206,58.593750
7207,58.593750
7208,58.593750
7209,58.593750
7210,58.593750
7211,58.593750
7212,62.500000
7213,62.500000
7214,58.593750
7215,62.500000
7216,62.500000
7217,58.593750
7218,58.593750
7219,62.500000
7220,58.593750
7221,58.593750
7222,62.500000
7223,62.500000
7224,62.500000
7225,62.500000
7226,62.500000
7227,62.500000
7228,62.500000
7229,62.500000
7230,62.500000
7231,62.500000
7232,62.500000
7233,62.500000
7234,62.500000
7235,62.500000
7236,62.500000
7237,62.500000
7238,62.500000
7239,62.500000
7240,62.500000
7241,62.500000
7242,62.500000
7243,62.500000
7244,62.500000
7245,62.500000
7246,62.500000
7247,62.500000
7248,62.500000
7249,62.500000
7250,62.500000
7251,62.500000
7252,62.500000
7253,62.500000
7254,62.500000
7255,62.500000
7256,62.500000
7257,62.500000
7258,62.500000
7259,62.500000
7260,62.500000
7261,62.500000
7262,62.500000
7263,62.500000
7264,62.500000
7265,62.500000
7266,58.593750
7267,58.593750
7268,62.500000
7269,62.500000
7270,62.500000
7271,62.500000
7272,62.500000
7273,62.500000
7274,62.500000
7275,62.500000
7276,58.593750
7277,62.500000
7278,58.593750
7279,58.593750
7280,58.593750
7281,62.500000
7282,62.500000
7283,58.593750
7284,58.593750
7285,58.593750
7286,58.593750
7287,58.593750
7288,58.593750
7289,58.593750
7290,58.593750
7291,58.593750
7292,58.593750
7293,58.593750
7294,58.593750
7295,58.593750
7296,58.593750
7297,58.593750
7298,58.593750
7299,58.593750
7300,58.593750
7301,58.593750
7302,58.593750
7303,58.593750
7304,58.593750
7305,58.593750
7306,54.687500
7307,58.593750
7308,54.687500
7309,54.687500
7310,54.687500
7311,54.687500
7312,54.687500
7313,54.687500
7314,54.687500
7315,54.687500
7316,54.687500
7317,54.687500
7318,54.687500
7319,54.687500
7320,54.687500
7321,54.687500
7322,54.687500
7323,54.687500
7324,54.687500
7325,50.781250
7326,50.781250
7327,50.781250
7328,50.781250
7329,50.781250
7330,50.781250
7331,50.781250
7332,50.781250
7333,50.781250
7334,50.781250
7335,50.781250
7336,50.781250
7337,50.781250
7338,50.781250
7339,50.781250
7340,50.781250
7341,50.781250
7342,46.875000
7343,50.781250
7344,46.875000
7345,46.875000
7346,46.875000
7347,46.875000
7348,46.875000
7349,46.875000
7350,46.875000
7351,46.875000
7352,46.875000
7353,46.875000
7354,46.875000
7355,42.968750
7356,46.875000
7357,42.968750
7358,42.968750
7359,42.968750
7360,42.968750
7361,42.968750
7362,42.968750
7363,42.968750
7364,42.968750
7365,42.968750
7366,42.968750
7367,42.968750
7368,42.968750
7369,39.062500
7370,39.062500
7371,39.062500
7372,39.062500
7373,39.062500
7374,39.062500
7375,39.062500
7376,39.062500
7377,39.062500
7378,39.062500
7379,39.062500
7380,35.156250
7381,39.062500
7382,35.156250
7383,35.156250
7384,35.156250
7385,35.156250
7386,35.156250
7387,35.156250
7388,35.156250
7389,35.156250
7390,35.156250
7391,35.156250
7392,35.156250
7393,31.250000
7394,31.250000
7395,31.250000
7396,31.250000
7397,31.250000
7398,31.250000
7399,31.250000
7400,31.250000
7401,31.250000
7402,31.250000
7403,27.343750
7404,27.343750
7405,27.343750
7406,27.343750
7407,27.343750
7408,27.343750
7409,27.343750
7410,27.343750
7411,27.343750
7412,27.343750
7413,27.343750
7414,23.437500
7415,23.437500
7416,23.437500
7417,23.437500
7418,23.437500
7419,23.437500
7420,19.531250
7421,19.531250
7422,19.531250
7423,19.531250
7424,19.531250
7425,19.531250
7426,19.531250
7427,19.531250
7428,19.531250
7429,19.531250
7430,19.531250
7431,19.531250
7432,15.625000
7433,15.625000
7434,15.625000
7435,15.625000
7436,15.625000
7437,15.625000
7438,15.625000
7439,15.625000
7440,11.718750
7441,11.718750
7442,11.718750
7443,11.718750
7444,11.718750
7445,11.718750
7446,7.812500
7447,11.718750
7448,7.812500
7449,7.812500
7450,7.812500
7451,7.812500
7452,7.812500
7453,7.812500
7454,7.812500
7455,3.906250
7456,3.906250
7457,3.906250
7458,3.906250
7459,3.906250
7460,3.906250
7461,3.906250
7462,3.906250
7463,0.000000
7464,0.000000
7465,0.000000
7466,0.000000
7467,0.000000
7468,0.000000
7469,0.000000
7470,0.000000
7471,0.000000
7472,0.000000
7473,-3.906250
7474,-3.906250
7475,-3.906250
7476,-3.906250
7477,-3.906250
7478,-3.906250
7479,-3.906250
7480,-3.906250
7481,-7.812500
7482,-7.812500
7483,-7.812500
7484,-7.812500
7485,-7.812500
7486,-7.812500
7487,-7.812500
7488,-11.718750
7489,-11.718750
7490,-11.718750
7491,-11.718750
7492,-11.718750
7493,-11.718750
7494,-11.718750
7495,-11.718750
7496,-11.718750
7497,-15.625000
7498,-15.625000
7499,-15.625000
7500,-15.625000
7501,-15.625000
7502,-15.625000
7503,-15.625000
7504,-19.531250
7505,-19.531250
7506,-19.531250
7507,-19.531250
7508,-19.531250
7509,-19.531250
7510,-19.531250
7511,-19.531250
7512,-23.437500
7513,-23.437500
7514,-23.437500
7515,-23.437500
7516,-23.437500
7517,-23.437500
7518,-23.437500
7519,-23.437500
7520,-23.437500
7521,-27.343750
7522,-27.343750
7523,-27.343750
7524,-27.343750
7525,-27.343750
7526,-27.343750
7527,-27.343750
7528,-27.343750
7529,-31.250000
7530,-31.250000
7531,-31.250000
7532,-31.250000
7533,-31.250000
7534,-31.250000
7535,-31.250000
7536,-31.250000
7537,-35.156250
7538,-35.156250
7539,-35.156250
7540,-35.156250
7541,-35.156250
7542,-35.156250
7543,-35.156250
7544,-35.156250
7545,-35.156250
7546,-39.062500
7547,-39.062500
7548,-39.062500
7549,-39.062500
7550,-39.062500
7551,-39.062500
7552,-39.062500
7553,-42.968750
7554,-42.968750
7555,-42.968750
7556,-42.968750
7557,-42.968750
7558,-42.968750
7559,-42.968750
7560,-42.968750
7561,-42.968750
7562,-46.875000
7563,-46.875000
7564,-46.875000
7565,-46.875000
7566,-46.875000
7567,-46.875000
7568,-46.875000
7569,-50.781250
7570,-50.781250
7571,-50.781250
7572,-50.781250
7573,-50.781250
7574,-50.781250
7575,-50.781250
7576,-50.781250
7577,-50.781250
7578,-54.687500
7579,-54.687500
7580,-54.687500
7581,-54.687500
7582,-54.687500
7583,-54.687500
7584,-54.687500
7585,-54.687500
7586,-58.593750
7587,-58.593750
7588,-58.593750
7589,-58.593750
7590,-58.593750
7591,-58.593750
7592,-58.593750
7593,-58.593750
7594,-58.593750
7595,-58.593750
7596,-62.500000
7597,-62.500000
7598,-62.500000
7599,-62.500000
7600,-62.500000
7601,-62.500000
7602,-62.500000
7603,-62.500000
7604,-62.500000
7605,-62.500000
7606,-66.406250
7607,-66.406250
7608,-66.406250
7609,-66.406250
7610,-66.406250
7611,-66.406250
7612,-66.406250
7613,-66.406250
7614,-66.406250
7615,-70.312500
7616,-70.312500
7617,-70.312500
7618,-70.312500
7619,-70.312500
7620,-70.312500
7621,-66.406250
7622,-70.312500
7623,-70.312500
7624,-66.406250
7625,-74.218750
7626,-74.218750
7627,-74.218750
7628,-74.218750
7629,-74.218750
7630,-78.125000
7631,-74.218750
7632,-74.218750
7633,-74.218750
7634,-74.218750
7635,-78.125000
7636,-78.125000
7637,-74.218750
7638,-78.125000
7639,-78.125000
7640,-78.125000
7641,-78.125000
7642,-78.125000
7643,-78.125000
7644,-78.125000
7645,-78.125000
7646,-78.125000
7647,-78.125000
7648,-78.125000
7649,-78.125000
7650,-78.125000
7651,-78.125000
7652,-82.031250
7653,-82.031250
7654,-82.031250
7655,-82.031250
7656,-82.031250
7657,-82.031250
7658,-82.031250
7659,-82.031250
7660,-82.031250
7661,-82.031250
7662,-82.031250
7663,-82.031250
7664,-85.937500
7665,-85.937500
7666,-85.937500
7667,-85.937500
7668,-85.937500
7669,-85.937500
7670,-85.937500
7671,-85.937500
7672,-85.937500
7673,-85.937500
7674,-85.937500
7675,-85.937500
7676,-85.937500
7677,-85.937500
7678,-85.937500
7679,-89.843750
7680,-89.843750
7681,-89.843750
7682,-85.937500
7683,-89.843750
7684,-89.843750
7685,-89.843750
7686,-89.843750
7687,-89.843750
7688,-89.843750
7689,-89.843750
7690,-89.843750
7691,-89.843750
7692,-89.843750
7693,-89.843750
7694,-89.843750
7695,-89.843750
7696,-89.843750
7697,-89.843750
7698,-89.843750
7699,-89.843750
7700,-93.750000
7701,-89.843750
7702,-93.750000
7703,-89.843750
7704,-93.750000
7705,-89.843750
7706,-93.750000
7707,-93.750000
7708,-93.750000
7709,-93.750000
7710,-93.750000
7711,-93.750000
7712,-93.750000
7713,-93.750000
7714,-93.750000
7715,-93.750000
7716,-93.750000
7717,-93.750000
7718,-93.750000
7719,-93.750000
7720,-93.750000
7721,-93.750000
7722,-93.750000
7723,-93.750000
7724,-93.750000
7725,-93.750000
7726,-93.750000
7727,-93.750000
7728,-93.750000
7729,-93.750000
7730,-93.750000
7731,-93.750000
7732,-93.750000
7733,-93.750000
7734,-93.750000
7735,-93.750000
7736,-93.750000
7737,-93.750000
7738,-93.750000
7739,-93.750000
7740,-93.750000
7741,-93.750000
7742,-93.750000
7743,-93.750000
7744,-93.750000
7745,-93.750000
7746,-93.750000
7747,-93.750000
7748,-93.750000
7749,-93.750000
7750,-93.750000
7751,-93.750000
7752,-93.750000
7753,-93.750000
7754,-93.750000
7755,-93.750000
7756,-93.750000
7757,-93.750000
7758,-93.750000
7759,-93.750000
7760,-93.750000
7761,-93.750000
7762,-93.750000
7763,-93.750000
7764,-93.750000
7765,-93.750000
7766,-93.750000
7767,-93.750000
7768,-93.750000
7769,-93.750000
7770,-93.750000
7771,-93.750000
7772,-93.750000
7773,-89.843750
7774,-93.750000
7775,-93.750000
7776,-89.843750
7777,-93.750000
7778,-93.750000
7779,-93.750000
7780,-89.843750
7781,-89.843750
7782,-89.843750
7783,-89.843750
7784,-89.843750
7785,-89.843750
7786,-89.843750
7787,-89.843750
7788,-89.843750
7789,-89.843750
7790,-89.843750
7791,-89.843750
7792,-89.843750
7793,-89.843750
7794,-89.843750
7795,-89.843750
7796,-89.843750
7797,-89.843750
7798,-89.843750
7799,-89.843750
7800,-89.843750
7801,-89.843750
7802,-85.937500
7803,-85.937500
7804,-85.937500
7805,-85.937500
7806,-85.937500
7807,-85.937500
7808,-85.937500
7809,-85.937500
7810,-85.937500
7811,-85.937500
7812,-85.937500
7813,-85.937500
7814,-85.937500
7815,-85.937500
7816,-85.937500
7817,-85.937500
7818,-85.937500
7819,-85.937500
7820,-85.937500
7821,-82.031250
7822,-82.031250
7823,-82.031250
7824,-82.031250
7825,-82.031250
7826,-82.031250
7827,-82.031250
7828,-82.031250
7829,-82.031250
7830,-82.031250
7831,-82.031250
7832,-82.031250
7833,-82.031250
7834,-78.125000
7835,-78.125000
7836,-78.125000
7837,-78.125000
7838,-78.125000
7839,-78.125000
7840,-78.125000
7841,-78.125000
7842,-78.125000
7843,-78.125000
7844,-78.125000
7845,-78.125000
7846,-78.125000
7847,-78.125000
7848,-74.218750
7849,-74.218750
7850,-74.218750
7851,-74.218750
7852,-74.218750
7853,-74.218750
7854,-74.218750
7855,-74.218750
7856,-74.218750
7857,-74.218750
7858,-70.312500
7859,-70.312500
7860,-70.312500
7861,-74.218750
7862,-70.312500
7863,-70.312500
7864,-70.312500
7865,-70.312500
7866,-70.312500
7867,-70.312500
7868,-70.312500
7869,-66.406250
7870,-66.406250
7871,-66.406250
7872,-66.406250
7873,-66.406250
7874,-66.406250
7875,-66.406250
7876,-66.406250
7877,-66.406250
7878,-66.406250
7879,-62.500000
7880,-62.500000
7881,-62.500000
7882,-62.500000
7883,-62.500000
7884,-62.500000
7885,-62.500000
7886,-62.500000
7887,-58.593750
7888,-58.593750
7889,-58.593750
7890,-58.593750
7891,-58.593750
7892,-58.593750
7893,-58.593750
7894,-58.593750
7895,-54.687500
7896,-54.687500
7897,-54.687500
7898,-54.687500
7899,-54.687500
7900,-54.687500
7901,-54.687500
7902,-54.687500
7903,-54.687500
7904,-54.687500
7905,-50.781250
7906,-50.781250
7907,-50.781250
7908,-50.781250
7909,-50.781250
7910,-50.781250
7911,-50.781250
7912,-50.781250
7913,-50.781250
7914,-46.875000
7915,-46.875000
7916,-46.875000
7917,-46.875000
7918,-46.875000
7919,-46.875000
7920,-46.875000
7921,-42.968750
7922,-42.968750
7923,-42.968750
7924,-42.968750
7925,-42.968750
7926,-42.968750
7927,-42.968750
7928,-42.968750
7929,-42.968750
7930,-42.968750
7931,-39.062500
7932,-39.062500
7933,-39.062500
7934,-39.062500
7935,-35.156250
7936,-39.062500
7937,-35.156250
7938,-35.156250
7939,-35.156250
7940,-35.156250
7941,-35.156250
7942,-35.156250
7943,-35.156250
7944,-35.156250
7945,-31.250000
7946,-31.250000
7947,-31.250000
7948,-31.250000
7949,-31.250000
7950,-31.250000
7951,-31.250000
7952,-31.250000
7953,-27.343750
7954,-27.343750
7955,-27.343750
7956,-27.343750
7957,-27.343750
7958,-27.343750
7959,-27.343750
7960,-23.437500
7961,-23.437500
7962,-23.437500
7963,-23.437500
7964,-23.437500
7965,-23.437500
7966,-23.437500
7967,-19.531250
7968,-23.437500
7969,-19.531250
7970,-23.437500
7971,-19.531250
7972,-19.531250
7973,-19.531250
7974,-19.531250
7975,-19.531250
7976,-15.625000
7977,-15.625000
7978,-15.625000
7979,-15.625000
7980,-15.625000
7981,-15.625000
7982,-15.625000
7983,-15.625000
7984,-11.718750
7985,-11.718750
7986,-11.718750
7987,-11.718750
7988,-11.718750
7989,-11.718750
7990,-11.718750
7991,-11.718750
7992,-11.718750
7993,-7.812500
7994,-7.812500
7995,-7.812500
7996,-7.812500
7997,-7.812500
7998,-7.812500
7999,-3.906250
8000,-7.812500
8001,-3.906250
8002,-7.812500
8003,-3.906250
8004,-3.906250
8005,-3.906250
8006,-3.906250
8007,0.000000
8008,0.000000
8009,0.000000
8010,0.000000
8011,0.000000
8012,0.000000
8013,0.000000
8014,0.000000
8015,3.906250
8016,3.906250
8017,3.906250
8018,3.906250
8019,3.906250
8020,3.906250
8021,3.906250
8022,3.906250
8023,7.812500
8024,7.812500
8025,7.812500
8026,7.812500
8027,7.812500
8028,7.812500
8029,7.812500
8030,7.812500
8031,7.812500
8032,11.718750
8033,11.718750
8034,11.718750
8035,11.718750
8036,11.718750
8037,11.718750
8038,11.718750
8039,11.718750
8040,15.625000
8041,11.718750
8042,15.625000
8043,15.625000
8044,15.625000
8045,15.625000
8046,15.625000
8047,15.625000
8048,15.625000
8049,19.531250
8050,19.531250
8051,19.531250
8052,19.531250
8053,19.531250
8054,19.531250
8055,19.531250
8056,23.437500
8057,23.437500
8058,23.437500
8059,23.437500
8060,23.437500
8061,23.437500
8062,23.437500
8063,23.437500
8064,23.437500
8065,27.343750
8066,27.343750
8067,27.343750
8068,23.437500
8069,27.343750
8070,27.343750
8071,27.343750
8072,27.343750
8073,27.343750
8074,27.343750
8075,27.343750
8076,31.250000
8077,31.250000
8078,31.250000
8079,31.250000
8080,31.250000
8081,31.250000
8082,31.250000
8083,31.250000
8084,31.250000
8085,31.250000
8086,35.156250
8087,35.156250
8088,35.156250
8089,35.156250
8090,35.156250
8091,35.156250
8092,35.156250
8093,35.156250
8094,35.156250
8095,35.156250
8096,39.062500
8097,39.062500
8098,39.062500
8099,39.062500
8100,39.062500
8101,39.062500
8102,39.062500
8103,39.062500
8104,39.062500
8105,39.062500
8106,39.062500
8107,39.062500
8108,39.062500
8109,39.062500
8110,42.968750
8111,42.968750
8112,42.968750
8113,42.968750
8114,42.968750
8115,42.968750
8116,42.968750
8117,42.968750
8118,42.968750
8119,46.875000
8120,42.968750
8121,42.968750
8122,46.875000
8123,46.875000
8124,46.875000
8125,46.875000
8126,46.875000
8127,46.875000
8128,46.875000
8129,46.875000
8130,46.875000
8131,46.875000
8132,46.875000
8133,46.875000
8134,46.875000
8135,46.875000
8136,46.875000
8137,50.781250
8138,50.781250
8139,50.781250
8140,50.781250
8141,50.781250
8142,50.781250
8143,50.781250
8144,50.781250
8145,50.781250
8146,50.781250
8147,50.781250
8148,50.781250
8149,50.781250
8150,50.781250
8151,50.781250
8152,54.687500
8153,54.687500
8154,54.687500
8155,54.687500
8156,54.687500
8157,54.687500
8158,54.687500
8159,54.687500
8160,54.687500
8161,54.687500
8162,54.687500
8163,54.687500
8164,54.687500
8165,54.687500
8166,54.687500
8167,54.687500
8168,54.687500
8169,54.687500
8170,58.593750
8171,54.687500
8172,54.687500
8173,58.593750
8174,58.593750
8175,58.593750
8176,58.593750
8177,58.593750
8178,58.593750
8179,58.593750
8180,58.593750
8181,58.593750
8182,58.593750
8183,58.593750
8184,58.593750
8185,58.593750
8186,58.593750
8187,58.593750
8188,58.593750
8189,58.593750
8190,58.593750
8191,58.593750
8192,58.593750
8193,62.500000
8194,58.593750
8195,58.593750
8196,58.593750
8197,58.593750
8198,58.593750
8199,62.500000
8200,62.500000
8201,58.593750
8202,62.500000
8203,62.500000
8204,62.500000
8205,62.500000
8206,62.500000
8207,58.593750
8208,62.500000
8209,62.500000
8210,62.500000
8211,62.500000
8212,62.500000
8213,62.500000
8214,62.500000
8215,62.500000
8216,62.500000
8217,62.500000
8218,62.500000
8219,62.500000
8220,62.500000
8221,62.500000
8222,62.500000
8223,62.500000
8224,62.500000
8225,62.500000
8226,62.500000
8227,62.500000
8228,62.500000
8229,62.500000
8230,62.500000
8231,62.500000
8232,62.500000
8233,62.500000
8234,62.500000
8235,62.500000
8236,62.500000
8237,62.500000
8238,62.500000
8239,62.500000
8240,62.500000
8241,62.500000
8242,62.500000
8243,62.500000
8244,62.500000
8245,62.500000
8246,62.500000
8247,62.500000
8248,62.500000
8249,62.500000
8250,62.500000
8251,62.500000
8252,62.500000
8253,62.500000
8254,58.593750
8255,62.500000
8256,62.500000
8257,62.500000
8258,62.500000
8259,58.593750
8260,62.500000
8261,62.500000
8262,58.593750
8263,62.500000
8264,62.500000
8265,58.593750
8266,58.593750
8267,58.593750
8268,58.593750
8269,58.593750
8270,62.500000
8271,58.593750
8272,58.593750
8273,58.593750
8274,58.593750
8275,58.593750
8276,58.593750
8277,58.593750
8278,58.593750
8279,58.593750
8280,58.593750
8281,58.593750
8282,58.593750
8283,58.593750
8284,58.593750
8285,58.593750
8286,58.593750
8287,58.593750
8288,58.593750
8289,58.593750
8290,58.593750
8291,58.593750
8292,58.593750
8293,58.593750
8294,54.687500
8295,58.593750
8296,54.687500
8297,54.687500
8298,54.687500
8299,54.687500
8300,54.687500
8301,54.687500
8302,54.687500
8303,54.687500
8304,54.687500
8305,54.687500
8306,54.687500
8307,54.687500
8308,54.687500
8309,54.687500
8310,54.687500
8311,54.687500
8312,54.687500
8313,54.687500
8314,54.687500
8315,50.781250
8316,50.781250
8317,54.687500
8318,54.687500
8319,50.781250
8320,50.781250
8321,50.781250
8322,50.781250
8323,50.781250
8324,50.781250
8325,50.781250
8326,50.781250
8327,50.781250
8328,50.781250
8329,50.781250
8330,50.781250
8331,50.781250
8332,46.875000
8333,46.875000
8334,46.875000
8335,46.875000
8336,46.875000
8337,46.875000
8338,46.875000
8339,46.875000
8340,46.875000
8341,46.875000
8342,46.875000
8343,46.875000
8344,46.875000
8345,46.875000
8346,42.968750
8347,42.968750
8348,42.968750
8349,42.968750
8350,42.968750
8351,42.968750
8352,42.968750
8353,42.968750
8354,42.968750
8355,42.968750
8356,42.968750
8357,39.062500
8358,39.062500
8359,39.062500
8360,39.062500
8361,39.062500
8362,39.062500
8363,39.062500
8364,39.062500
8365,39.062500
8366,39.062500
8367,39.062500
8368,39.062500
8369,35.156250
8370,35.156250
8371,35.156250
8372,35.156250
8373,35.156250
8374,35.156250
8375,35.156250
8376,35.156250
8377,35.156250
8378,35.156250
8379,35.156250
8380,35.156250
8381,31.250000
8382,31.250000
8383,31.250000
8384,31.250000
8385,31.250000
8386,31.250000
8387,31.250000
8388,27.343750
8389,31.250000
8390,31.250000
8391,27.343750
8392,27.343750
8393,27.343750
8394,27.343750
8395,27.343750
8396,27.343750
8397,27.343750
8398,27.343750
8399,27.343750
8400,23.437500
8401,23.437500
8402,23.437500
8403,23.437500
8404,23.437500
8405,23.437500
8406,23.437500
8407,23.437500
8408,23.437500
8409,23.437500
8410,19.531250
8411,19.531250
8412,19.531250
8413,19.531250
8414,19.531250
8415,19.531250
8416,19.531250
8417,19.531250
8418,19.531250
8419,15.625000
8420,15.625000
8421,15.625000
8422,15.625000
8423,15.625000
8424,15.625000
8425,15.625000
8426,15.625000
8427,15.625000
8428,11.718750
8429,11.718750
8430,11.718750
8431,11.718750
8432,11.718750
8433,11.718750
8434,11.718750
8435,11.718750
8436,11.718750
8437,11.718750
8438,7.812500
8439,7.812500
8440,7.812500
8441,7.812500
8442,7.812500
8443,7.812500
8444,3.906250
8445,3.906250
8446,3.906250
8447,3.906250
8448,3.906250
8449,3.906250
8450,3.906250
8451,3.906250
8452,3.906250
8453,3.906250
8454,0.000000
8455,0.000000
8456,0.000000
8457,0.000000
8458,0.000000
8459,0.000000
8460,0.000000
8461,0.000000
8462,-3.906250
8463,-3.906250
8464,-3.906250
8465,-3.906250
8466,-3.906250
8467,-3.906250
8468,-3.906250
8469,-3.906250
8470,-7.812500
8471,-7.812500
8472,-7.812500
8473,-7.812500
8474,-7.812500
8475,-7.812500
8476,-7.812500
8477,-11.718750
8478,-11.718750
8479,-11.718750
8480,-11.718750
8481,-11.718750
8482,-11.718750
8483,-11.718750
8484,-11.718750
8485,-15.625000
8486,-15.625000
8487,-15.625000
8488,-15.625000
8489,-15.625000
8490,-15.625000
8491,-15.625000
8492,-15.625000
8493,-15.625000
8494,-19.531250
8495,-19.531250
8496,-19.531250
8497,-19.531250
8498,-19.531250
8499,-19.531250
8500,-23.437500
8501,-23.437500
8502,-23.437500
8503,-23.437500
8504,-23.437500
8505,-23.437500
8506,-23.437500
8507,-23.437500
8508,-27.343750
8509,-27.343750
8510,-27.343750
8511,-27.343750
8512,-27.343750
8513,-27.343750
8514,-27.343750
8515,-31.250000
8516,-31.250000
8517,-27.343750
8518,-31.250000
8519,-31.250000
8520,-31.250000
8521,-31.250000
8522,-35.156250
8523,-35.156250
8524,-35.156250
8525,-35.156250
8526,-35.156250
8527,-35.156250
8528,-35.156250
8529,-35.156250
8530,-35.156250
8531,-35.156250
8532,-39.062500
8533,-39.062500
8534,-39.062500
8535,-39.062500
8536,-39.062500
8537,-39.062500
8538,-39.062500
8539,-39.062500
8540,-39.062500
8541,-42.968750
8542,-42.968750
8543,-42.968750
8544,-42.968750
8545,-42.968750
8546,-42.968750
8547,-42.968750
8548,-42.968750
8549,-46.875000
8550,-46.875000
8551,-46.875000
8552,-46.875000
8553,-46.875000
8554,-46.875000
8555,-46.875000
8556,-46.875000
8557,-46.875000
8558,-50.781250
8559,-50.781250
8560,-50.781250
8561,-50.781250
8562,-50.781250
8563,-50.781250
8564,-50.781250
8565,-50.781250
8566,-50.781250
8567,-54.687500
8568,-54.687500
8569,-54.687500
8570,-54.687500
8571,-54.687500
8572,-54.687500
8573,-54.687500
8574,-54.687500
8575,-54.687500
8576,-58.593750
8577,-58.593750
8578,-58.593750
8579,-58.593750
8580,-58.593750
8581,-58.593750
8582,-58.593750
8583,-58.593750
8584,-62.500000
8585,-62.500000
8586,-62.500000
8587,-62.500000
8588,-62.500000
8589,-62.500000
8590,-62.500000
8591,-62.500000
8592,-66.406250
8593,-66.406250
8594,-66.406250
8595,-66.406250
8596,-66.406250
8597,-66.406250
8598,-66.406250
8599,-66.406250
8600,-66.406250
8601,-66.406250
8602,-66.406250
8603,-70.312500
8604,-70.312500
8605,-70.312500
8606,-70.312500
8607,-70.312500
8608,-70.312500
8609,-70.312500
8610,-70.312500
8611,-70.312500
8612,-70.312500
8613,-70.312500
8614,-74.218750
8615,-74.218750
8616,-74.218750
8617,-74.218750
8618,-74.218750
8619,-74.218750
8620,-74.218750
8621,-74.218750
8622,-74.218750
8623,-74.218750
8624,-74.218750
8625,-78.125000
8626,-78.125000
8627,-78.125000
8628,-78.125000
8629,-78.125000
8630,-78.125000
8631,-78.125000
8632,-78.125000
8633,-78.125000
8634,-78.125000
8635,-82.031250
8636,-82.031250
8637,-82.031250
8638,-82.031250
8639,-82.031250
8640,-82.031250
8641,-82.031250
8642,-82.031250
8643,-82.031250
8644,-82.031250
8645,-82.031250
8646,-82.031250
8647,-82.031250
8648,-82.031250
8649,-82.031250
8650,-82.031250
8651,-85.937500
8652,-85.937500
8653,-85.937500
8654,-85.937500
8655,-85.937500
8656,-85.937500
8657,-85.937500
8658,-85.937500
8659,-85.937500
8660,-85.937500
8661,-85.937500
8662,-85.937500
8663,-85.937500
8664,-85.937500
8665,-85.937500
8666,-85.937500
8667,-85.937500
8668,-85.937500
8669,-89.843750
8670,-89.843750
8671,-89.843750
8672,-89.843750
8673,-89.843750
8674,-89.843750
8675,-89.843750
8676,-89.843750
8677,-89.843750
8678,-89.843750
8679,-89.843750
8680,-89.843750
8681,-89.843750
8682,-89.843750
8683,-89.843750
8684,-89.843750
8685,-89.843750
8686,-89.843750
8687,-89.843750
8688,-89.843750
8689,-89.843750
8690,-89.843750
8691,-89.843750
8692,-93.750000
8693,-89.843750
8694,-89.843750
8695,-93.750000
8696,-93.750000
8697,-93.750000
8698,-93.750000
8699,-93.750000
8700,-93.750000
8701,-93.750000
8702,-93.750000
8703,-93.750000
8704,-93.750000
8705,-93.750000
8706,-93.750000
8707,-93.750000
8708,-93.750000
8709,-93.750000
8710,-93.750000
8711,-93.750000
8712,-93.750000
8713,-93.750000
8714,-93.750000
8715,-93.750000
8716,-93.750000
8717,-93.750000
8718,-93.750000
8719,-93.750000
8720,-93.750000
8721,-93.750000
8722,-93.750000
8723,-93.750000
8724,-93.750000
8725,-93.750000
8726,-93.750000
8727,-93.750000
8728,-93.750000
8729,-93.750000
8730,-93.750000
8731,-93.750000
8732,-93.750000
8733,-93.750000
8734,-93.750000
8735,-93.750000
8736,-93.750000
8737,-93.750000
8738,-93.750000
8739,-93.750000
8740,-93.750000
8741,-93.750000
8742,-93.750000
8743,-93.750000
8744,-93.750000
8745,-93.750000
8746,-93.750000
8747,-93.750000
8748,-93.750000
8749,-93.750000
8750,-93.750000
8751,-93.750000
8752,-93.750000
8753,-93.750000
8754,-93.750000
8755,-93.750000
8756,-93.750000
8757,-93.750000
8758,-93.750000
8759,-93.750000
8760,-93.750000
8761,-93.750000
8762,-93.750000
8763,-93.750000
8764,-93.750000
8765,-93.750000
8766,-93.750000
8767,-93.750000
8768,-93.750000
8769,-89.843750
8770,-89.843750
8771,-89.843750
8772,-89.843750
8773,-89.843750
8774,-89.843750
8775,-89.843750
8776,-89.843750
8777,-89.843750
8778,-89.843750
8779,-89.843750
8780,-89.843750
8781,-89.843750
8782,-89.843750
8783,-89.843750
8784,-89.843750
8785,-89.843750
8786,-89.843750
8787,-89.843750
8788,-89.843750
8789,-89.843750
8790,-89.843750
8791,-89.843750
8792,-85.937500
8793,-85.937500
8794,-85.937500
8795,-85.937500
8796,-85.937500
8797,-85.937500
8798,-85.937500
8799,-85.937500
8800,-85.937500
8801,-85.937500
8802,-85.937500
8803,-85.937500
8804,-85.937500
8805,-85.937500
8806,-85.937500
8807,-82.031250
8808,-85.937500
8809,-82.031250
8810,-82.031250
8811,-82.031250
8812,-82.031250
8813,-82.031250
8814,-82.031250
8815,-82.031250
8816,-82.031250
8817,-82.031250
8818,-82.031250
8819,-82.031250
8820,-82.031250
8821,-82.031250
8822,-78.125000
8823,-78.125000
8824,-78.125000
8825,-78.125000
8826,-78.125000
8827,-78.125000
8828,-78.125000
8829,-78.125000
8830,-78.125000
8831,-78.125000
8832,-78.125000
8833,-74.218750
8834,-74.218750
8835,-74.218750
8836,-74.218750
8837,-74.218750
8838,-74.218750
8839,-74.218750
8840,-74.218750
8841,-74.218750
8842,-74.218750
8843,-74.218750
8844,-74.218750
8845,-70.312500
8846,-70.312500
8847,-70.312500
8848,-70.312500
8849,-70.312500
8850,-70.312500
8851,-70.312500
8852,-70.312500
8853,-70.312500
8854,-70.312500
8855,-70.312500
8856,-66.406250
8857,-66.406250
8858,-66.406250
8859,-66.406250
8860,-66.406250
8861,-66.406250
8862,-66.406250
8863,-66.406250
8864,-66.406250
8865,-62.500000
8866,-62.500000
8867,-62.500000
8868,-62.500000
8869,-62.500000
8870,-62.500000
8871,-62.500000
8872,-62.500000
8873,-62.500000
8874,-62.500000
8875,-58.593750
8876,-58.593750
8877,-58.593750
8878,-58.593750
8879,-58.593750
8880,-58.593750
8881,-58.593750
8882,-58.593750
8883,-58.593750
8884,-58.593750
8885,-54.687500
8886,-54.687500
8887,-54.687500
8888,-54.687500
8889,-54.687500
8890,-54.687500
8891,-54.687500
8892,-54.687500
8893,-54.687500
8894,-50.781250
8895,-50.781250
8896,-50.781250
8897,-50.781250
8898,-50.781250
8899,-50.781250
8900,-50.781250
8901,-50.781250
8902,-50.781250
8903,-46.875000
8904,-46.875000
8905,-46.875000
8906,-46.875000
8907,-46.875000
8908,-46.875000
8909,-46.875000
8910,-42.968750
8911,-46.875000
8912,-42.968750
8913,-42.968750
8914,-42.968750
8915,-42.968750
8916,-42.968750
8917,-42.968750
8918,-39.062500
8919,-39.062500
8920,-39.062500
8921,-39.062500
8922,-39.062500
8923,-39.062500
8924,-39.062500
8925,-39.062500
8926,-35.156250
8927,-35.156250
8928,-35.156250
8929,-35.156250
8930,-35.156250
8931,-35.156250
8932,-35.156250
8933,-35.156250
8934,-35.156250
8935,-31.250000
8936,-31.250000
8937,-31.250000
8938,-31.250000
8939,-31.250000
8940,-31.250000
8941,-31.250000
8942,-27.343750
8943,-27.343750
8944,-27.343750
8945,-27.343750
8946,-27.343750
8947,-27.343750
8948,-27.343750
8949,-23.437500
8950,-23.437500
8951,-23.437500
8952,-23.437500
8953,-23.437500
8954,-23.437500
8955,-23.437500
8956,-23.437500
8957,-19.531250
8958,-19.531250
8959,-19.531250
8960,-19.531250
8961,-19.531250
8962,-19.531250
8963,-19.531250
8964,-15.625000
8965,-15.625000
8966,-15.625000
8967,-15.625000
8968,-15.625000
8969,-15.625000
8970,-15.625000
8971,-15.625000
8972,-15.625000
8973,-11.718750
8974,-11.718750
8975,-11.718750
8976,-11.718750
8977,-11.718750
8978,-11.718750
8979,-11.718750
8980,-11.718750
8981,-11.718750
8982,-7.812500
8983,-7.812500
8984,-7.812500
8985,-7.812500
8986,-7.812500
8987,-7.812500
8988,-7.812500
8989,-7.812500
8990,-3.906250
8991,-3.906250
8992,-3.906250
8993,-3.906250
8994,-3.906250
8995,-3.906250
8996,-3.906250
8997,0.000000
8998,0.000000
8999,0.000000
9000,0.000000
9001,0.000000
9002,0.000000
9003,0.000000
9004,0.000000
9005,0.000000
9006,3.906250
9007,3.906250
9008,3.906250
9009,3.906250
9010,3.906250
9011,3.906250
9012,7.812500
9013,7.812500
9014,7.812500
9015,7.812500
9016,7.812500
9017,7.812500
9018,7.812500
9019,7.812500
9020,7.812500
9021,7.812500
9022,11.718750
9023,11.718750
9024,11.718750
9025,11.718750
9026,11.718750
9027,11.718750
9028,11.718750
9029,11.718750
9030,15.625000
9031,15.625000
9032,15.625000
9033,15.625000
9034,15.625000
9035,15.625000
9036,15.625000
9037,15.625000
9038,15.625000
9039,19.531250
9040,19.531250
9041,19.531250
9042,19.531250
9043,19.531250
9044,19.531250
9045,19.531250
9046,19.531250
9047,19.531250
9048,19.531250
9049,23.437500
9050,23.437500
9051,23.437500
9052,23.437500
9053,23.437500
9054,23.437500
9055,23.437500
9056,23.437500
9057,27.343750
9058,27.343750
9059,27.343750
9060,27.343750
9061,27.343750
9062,27.343750
9063,27.343750
9064,27.343750
9065,31.250000
9066,27.343750
9067,31.250000
9068,31.250000
9069,31.250000
9070,31.250000
9071,31.250000
9072,31.250000
9073,31.250000
9074,31.250000
9075,31.250000
9076,35.156250
9077,35.156250
9078,35.156250
9079,35.156250
9080,35.156250
9081,35.156250
9082,35.156250
9083,35.156250
9084,35.156250
9085,35.156250
9086,39.062500
9087,39.062500
9088,39.062500
9089,39.062500
9090,39.062500
9091,39.062500
9092,39.062500
9093,39.062500
9094,39.062500
9095,39.062500
9096,42.968750
9097,42.968750
9098,42.968750
9099,42.968750
9100,42.968750
9101,42.968750
9102,42.968750
9103,42.968750
9104,42.968750
9105,42.968750
9106,42.968750
9107,42.968750
9108,46.875000
9109,46.875000
9110,42.968750
9111,46.875000
9112,46.875000
9113,46.875000
9114,46.875000
9115,46.875000
9116,46.875000
9117,46.875000
9118,46.875000
9119,46.875000
9120,46.875000
9121,46.875000
9122,46.875000
9123,46.875000
9124,50.781250
9125,50.781250
9126,50.781250
9127,50.781250
9128,50.781250
9129,50.781250
9130,50.781250
9131,50.781250
9132,50.781250
9133,50.781250
9134,50.781250
9135,50.781250
9136,50.781250
9137,54.687500
9138,50.781250
9139,50.781250
9140,50.781250
9141,50.781250
9142,54.687500
9143,54.687500
9144,50.781250
9145,54.687500
9146,54.687500
9147,54.687500
9148,54.687500
9149,54.687500
9150,54.687500
9151,54.687500
9152,54.687500
9153,54.687500
9154,54.687500
9155,54.687500
9156,54.687500
9157,54.687500
9158,54.687500
9159,54.687500
9160,54.687500
9161,54.687500
9162,58.593750
9163,58.593750
9164,58.593750
9165,58.593750
9166,58.593750
9167,58.593750
9168,58.593750
9169,58.593750
9170,58.593750
9171,58.593750
9172,58.593750
9173,58.593750
9174,58.593750
9175,58.593750
9176,58.593750
9177,58.593750
9178,58.593750
9179,58.593750
9180,58.593750
9181,58.593750
9182,58.593750
9183,58.593750
9184,58.593750
9185,58.593750
9186,58.593750
9187,62.500000
9188,62.500000
9189,58.593750
9190,62.500000
9191,62.500000
9192,58.593750
9193,62.500000
9194,58.593750
9195,62.500000
9196,62.500000
9197,62.500000
9198,62.500000
9199,62.500000
9200,58.593750
9201,62.500000
9202,62.500000
9203,62.500000
9204,62.500000
9205,58.593750
9206,62.500000
9207,62.500000
9208,62.500000
9209,62.500000
9210,62.500000
9211,62.500000
9212,62.500000
9213,62.500000
9214,62.500000
9215,62.500000
9216,62.500000
9217,62.500000
9218,62.500000
9219,62.500000
9220,62.500000
9221,62.500000
9222,62.500000
9223,62.500000
9224,62.500000
9225,62.500000
9226,62.500000
9227,62.500000
9228,62.500000
9229,62.500000
9230,62.500000
9231,62.500000
9232,62.500000
9233,62.500000
9234,62.500000
9235,62.500000
9236,62.500000
9237,62.500000
9238,62.500000
9239,62.500000
9240,62.500000
9241,62.500000
9242,62.500000
9243,62.500000
9244,62.500000
9245,62.500000
9246,62.500000
9247,62.500000
9248,62.500000
9249,62.500000
9250,62.500000
9251,58.593750
9252,58.593750
9253,58.593750
9254,62.500000
9255,62.500000
9256,58.593750
9257,58.593750
9258,58.593750
9259,58.593750
9260,58.593750
9261,58.593750
9262,58.593750
9263,58.593750
9264,58.593750
9265,58.593750
9266,58.593750
9267,58.593750
9268,58.593750
9269,58.593750
9270,58.593750
9271,58.593750
9272,58.593750
9273,58.593750
9274,58.593750
9275,58.593750
9276,58.593750
9277,58.593750
9278,58.593750
9279,58.593750
9280,54.687500
9281,58.593750
9282,58.593750
9283,58.593750
9284,54.687500
9285,54.687500
9286,54.687500
9287,54.687500
9288,54.687500
9289,54.687500
9290,54.687500
9291,54.687500
9292,54.687500
9293,54.687500
9294,54.687500
9295,54.687500
9296,54.687500
9297,54.687500
9298,54.687500
9299,54.687500
9300,50.781250
9301,54.687500
9302,54.687500
9303,50.781250
9304,50.781250
9305,50.781250
9306,50.781250
9307,50.781250
9308,50.781250
9309,50.781250
9310,50.781250
9311,50.781250
9312,50.781250
9313,50.781250
9314,50.781250
9315,50.781250
9316,46.875000
9317,50.781250
9318,50.781250
9319,50.781250
9320,46.875000
9321,46.875000
9322,46.875000
9323,46.875000
9324,46.875000
9325,46.875000
9326,46.875000
9327,46.875000
9328,46.875000
9329,46.875000
9330,46.875000
9331,46.875000
9332,46.875000
9333,42.968750
9334,46.875000
9335,42.968750
9336,42.968750
9337,42.968750
9338,42.968750
9339,42.968750
9340,42.968750
9341,42.968750
9342,42.968750
9343,42.968750
9344,42.968750
9345,42.968750
9346,42.968750
9347,39.062500
9348,39.062500
9349,39.062500
9350,39.062500
9351,39.062500
9352,39.062500
9353,39.062500
9354,39.062500
9355,39.062500
9356,39.062500
9357,35.156250
9358,39.062500
9359,39.062500
9360,35.156250
9361,35.156250
9362,35.156250
9363,35.156250
9364,35.156250
9365,35.156250
9366,35.156250
9367,35.156250
9368,35.156250
9369,35.156250
9370,35.156250
9371,31.250000
9372,31.250000
9373,31.250000
9374,31.250000
9375,31.250000
9376,31.250000
9377,31.250000
9378,31.250000
9379,27.343750
9380,27.343750
9381,27.343750
9382,27.343750
9383,27.343750
9384,27.343750
9385,27.343750
9386,27.343750
9387,27.343750
9388,27.343750
9389,23.437500
9390,23.437500
9391,23.437500
9392,23.437500
9393,23.437500
9394,23.437500
9395,23.437500
9396,23.437500
9397,23.437500
9398,19.531250
9399,19.531250
9400,19.531250
9401,19.531250
9402,19.531250
9403,19.531250
9404,19.531250
9405,19.531250
9406,19.531250
9407,19.531250
9408,15.625000
9409,15.625000
9410,15.625000
9411,15.625000
9412,15.625000
9413,15.625000
9414,15.625000
9415,11.718750
9416,11.718750
9417,11.718750
9418,11.718750
9419,11.718750
9420,11.718750
9421,11.718750
9422,11.718750
9423,11.718750
9424,7.812500
9425,7.812500
9426,7.812500
9427,7.812500
9428,7.812500
9429,7.812500
9430,7.812500
9431,7.812500
9432,7.812500
9433,3.906250
9434,3.906250
9435,3.906250
9436,3.906250
9437,3.906250
9438,3.906250
9439,3.906250
9440,3.906250
9441,3.906250
9442,0.000000
9443,0.000000
9444,0.000000
9445,0.000000
9446,0.000000
9447,0.000000
9448,0.000000
9449,0.000000
9450,0.000000
9451,-3.906250
9452,-3.906250
9453,-3.906250
9454,-3.906250
9455,-3.906250
9456,-3.906250
9457,-3.906250
9458,-3.906250
9459,-3.906250
9460,-7.812500
9461,-7.812500
9462,-7.812500
9463,-7.812500
9464,-7.812500
9465,-7.812500
9466,-11.718750
9467,-11.718750
9468,-11.718750
9469,-11.718750
9470,-11.718750
9471,-11.718750
9472,-11.718750
9473,-11.718750
9474,-15.625000
9475,-15.625000
9476,-15.625000
9477,-15.625000
9478,-15.625000
9479,-15.625000
9480,-15.625000
9481,-15.625000
9482,-19.531250
9483,-19.531250
9484,-19.531250
9485,-19.531250
9486,-19.531250
9487,-19.531250
9488,-19.531250
9489,-19.531250
9490,-19.531250
9491,-23.437500
9492,-23.437500
9493,-23.437500
9494,-23.437500
9495,-23.437500
9496,-23.437500
9497,-23.437500
9498,-23.437500
9499,-27.343750
9500,-27.343750
9501,-27.343750
9502,-27.343750
9503,-27.343750
9504,-27.343750
9505,-27.343750
9506,-31.250000
9507,-31.250000
9508,-31.250000
9509,-27.343750
9510,-31.250000
9511,-31.250000
9512,-31.250000
9513,-35.156250
9514,-35.156250
9515,-35.156250
9516,-35.156250
9517,-35.156250
9518,-35.156250
9519,-35.156250
9520,-35.156250
9521,-39.062500
9522,-39.062500
9523,-39.062500
9524,-39.062500
9525,-39.062500
9526,-39.062500
9527,-39.062500
9528,-39.062500
9529,-39.062500
9530,-42.968750
9531,-42.968750
9532,-42.968750
9533,-42.968750
9534,-42.968750
9535,-42.968750
9536,-42.968750
9537,-42.968750
9538,-46.875000
9539,-46.875000
9540,-46.875000
9541,-46.875000
9542,-46.875000
9543,-46.875000
9544,-46.875000
9545,-46.875000
9546,-50.781250
9547,-50.781250
9548,-50.781250
9549,-50.781250
9550,-50.781250
9551,-50.781250
9552,-50.781250
9553,-50.781250
9554,-54.687500
9555,-54.687500
9556,-54.687500
9557,-54.687500
9558,-54.687500
9559,-54.687500
9560,-54.687500
9561,-54.687500
9562,-54.687500
9563,-58.593750
9564,-58.593750
9565,-54.687500
9566,-58.593750
9567,-58.593750
9568,-58.593750
9569,-58.593750
9570,-62.500000
9571,-58.593750
9572,-58.593750
9573,-62.500000
9574,-62.500000
9575,-62.500000
9576,-62.500000
9577,-62.500000
9578,-62.500000
9579,-62.500000
9580,-62.500000
9581,-62.500000
9582,-66.406250
9583,-66.406250
9584,-66.406250
9585,-66.406250
9586,-66.406250
9587,-66.406250
9588,-66.406250
9589,-66.406250
9590,-66.406250
9591,-70.312500
9592,-70.312500
9593,-70.312500
9594,-70.312500
9595,-70.312500
9596,-70.312500
9597,-70.312500
9598,-70.312500
9599,-70.312500
9600,-70.312500
9601,-70.312500
9602,-70.312500
9603,-74.218750
9604,-70.312500
9605,-74.218750
9606,-74.218750
9607,-74.218750
9608,-74.218750
9609,-74.218750
9610,-74.218750
9611,-74.218750
9612,-74.218750
9613,-74.218750
9614,-74.218750
9615,-74.218750
9616,-78.125000
9617,-78.125000
9618,-78.125000
9619,-78.125000
9620,-78.125000
9621,-78.125000
9622,-78.125000
9623,-78.125000
9624,-78.125000
9625,-82.031250
9626,-82.031250
9627,-82.031250
9628,-82.031250
9629,-82.031250
9630,-82.031250
9631,-82.031250
9632,-82.031250
9633,-82.031250
9634,-82.031250
9635,-82.031250
9636,-82.031250
9637,-85.937500
9638,-82.031250
9639,-85.937500
9640,-85.937500
9641,-85.937500
9642,-85.937500
9643,-85.937500
9644,-85.937500
9645,-85.937500
9646,-85.937500
9647,-85.937500
9648,-85.937500
9649,-85.937500
9650,-85.937500
9651,-85.937500
9652,-85.937500
9653,-85.937500
9654,-85.937500
9655,-85.937500
9656,-85.937500
9657,-89.843750
9658,-89.843750
9659,-89.843750
9660,-89.843750
9661,-89.843750
9662,-89.843750
9663,-89.843750
9664,-89.843750
9665,-89.843750
9666,-89.843750
9667,-89.843750
9668,-89.843750
9669,-89.843750
9670,-89.843750
9671,-89.843750
9672,-89.843750
9673,-89.843750
9674,-89.843750
9675,-89.843750
9676,-93.750000
9677,-93.750000
9678,-89.843750
9679,-89.843750
9680,-89.843750
9681,-93.750000
9682,-93.750000
9683,-93.750000
9684,-93.750000
9685,-93.750000
9686,-93.750000
9687,-93.750000
9688,-93.750000
9689,-93.750000
9690,-93.750000
9691,-93.750000
9692,-93.750000
9693,-93.750000
9694,-93.750000
9695,-93.750000
9696,-93.750000
9697,-93.750000
9698,-93.750000
9699,-93.750000
9700,-93.750000
9701,-93.750000
9702,-93.750000
9703,-93.750000
9704,-93.750000
9705,-93.750000
9706,-93.750000
9707,-93.750000
9708,-93.750000
9709,-93.750000
9710,-93.750000
9711,-93.750000
9712,-93.750000
9713,-93.750000
9714,-93.750000
9715,-93.750000
9716,-93.750000
9717,-93.750000
9718,-93.750000
9719,-93.750000
9720,-93.750000
9721,-93.750000
9722,-93.750000
9723,-93.750000
9724,-93.750000
9725,-93.750000
9726,-93.750000
9727,-93.750000
9728,-93.750000
9729,-93.750000
9730,-93.750000
9731,-93.750000
9732,-93.750000
9733,-93.750000
9734,-93.750000
9735,-93.750000
9736,-93.750000
9737,-93.750000
9738,-93.750000
9739,-93.750000
9740,-93.750000
9741,-93.750000
9742,-93.750000
9743,-93.750000
9744,-93.750000
9745,-93.750000
9746,-93.750000
9747,-93.750000
9748,-93.750000
9749,-93.750000
9750,-93.750000
9751,-89.843750
9752,-89.843750
9753,-89.843750
9754,-89.843750
9755,-93.750000
9756,-89.843750
9757,-89.843750
9758,-93.750000
9759,-93.750000
9760,-89.843750
9761,-89.843750
9762,-89.843750
9763,-89.843750
9764,-89.843750
9765,-89.843750
9766,-89.843750
9767,-89.843750
9768,-89.843750
9769,-89.843750
9770,-89.843750
9771,-89.843750
9772,-89.843750
9773,-89.843750
9774,-89.843750
9775,-89.843750
9776,-89.843750
9777,-89.843750
9778,-85.937500
9779,-89.843750
9780,-89.843750
9781,-85.937500
9782,-85.937500
9783,-85.937500
9784,-85.937500
9785,-85.937500
9786,-85.937500
9787,-85.937500
9788,-85.937500
9789,-85.937500
9790,-85.937500
9791,-85.937500
9792,-85.937500
9793,-85.937500
9794,-85.937500
9795,-85.937500
9796,-85.937500
9797,-82.031250
9798,-82.031250
9799,-82.031250
9800,-82.031250
9801,-82.031250
9802,-82.031250
9803,-82.031250
9804,-82.031250
9805,-82.031250
9806,-82.031250
9807,-82.031250
9808,-82.031250
9809,-82.031250
9810,-82.031250
9811,-78.125000
9812,-78.125000
9813,-78.125000
9814,-78.125000
9815,-78.125000
9816,-78.125000
9817,-78.125000
9818,-78.125000
9819,-78.125000
9820,-78.125000
9821,-78.125000
9822,-74.218750
9823,-78.125000
9824,-78.125000
9825,-74.218750
9826,-74.218750
9827,-74.218750
9828,-74.218750
9829,-74.218750
9830,-74.218750
9831,-74.218750
9832,-74.218750
9833,-74.218750
9834,-70.312500
9835,-70.312500
9836,-70.312500
9837,-70.312500
9838,-70.312500
9839,-70.312500
9840,-70.312500
9841,-70.312500
9842,-70.312500
9843,-70.312500
9844,-70.312500
9845,-66.406250
9846,-66.406250
9847,-66.406250
9848,-66.406250
9849,-66.406250
9850,-66.406250
9851,-66.406250
9852,-66.406250
9853,-62.500000
9854,-66.406250
9855,-62.500000
9856,-62.500000
9857,-62.500000
9858,-62.500000
9859,-62.500000
9860,-62.500000
9861,-62.500000
9862,-62.500000
9863,-62.500000
9864,-62.500000
9865,-58.593750
9866,-58.593750
9867,-58.593750
9868,-58.593750
9869,-58.593750
9870,-58.593750
9871,-54.687500
9872,-58.593750
9873,-54.687500
9874,-54.687500
9875,-54.687500
9876,-54.687500
9877,-54.687500
9878,-54.687500
9879,-54.687500
9880,-54.687500
9881,-50.781250
9882,-50.781250
9883,-50.781250
9884,-50.781250
9885,-50.781250
9886,-50.781250
9887,-50.781250
9888,-50.781250
9889,-50.781250
9890,-46.875000
9891,-46.875000
9892,-46.875000
9893,-46.875000
9894,-46.875000
9895,-46.875000
9896,-46.875000
9897,-42.968750
9898,-42.968750
9899,-42.968750
9900,-42.968750
9901,-42.968750
9902,-42.968750
9903,-42.968750
9904,-42.968750
9905,-42.968750
9906,-42.968750
9907,-39.062500
9908,-39.062500
9909,-39.062500
9910,-39.062500
9911,-39.062500
9912,-39.062500
9913,-39.062500
9914,-39.062500
9915,-35.156250
9916,-35.156250
9917,-35.156250
9918,-35.156250
9919,-35.156250
9920,-35.156250
9921,-35.156250
9922,-31.250000
9923,-31.250000
9924,-31.250000
9925,-31.250000
9926,-31.250000
9927,-31.250000
9928,-31.250000
9929,-31.250000
9930,-31.250000
9931,-27.343750
9932,-27.343750
9933,-27.343750
9934,-27.343750
9935,-27.343750
9936,-27.343750
9937,-23.437500
9938,-23.437500
9939,-23.437500
9940,-23.437500
9941,-23.437500
9942,-23.437500
9943,-23.437500
9944,-23.437500
9945,-23.437500
9946,-23.437500
9947,-19.531250
9948,-19.531250
9949,-19.531250
9950,-19.531250
9951,-19.531250
9952,-19.531250
9953,-15.625000
9954,-15.625000
9955,-15.625000
9956,-15.625000
9957,-15.625000
9958,-15.625000
9959,-15.625000
9960,-15.625000
9961,-15.625000
9962,-11.718750
9963,-11.718750
9964,-11.718750
9965,-11.718750
9966,-11.718750
9967,-11.718750
9968,-7.812500
9969,-11.718750
9970,-7.812500
9971,-7.812500
9972,-7.812500
9973,-7.812500
9974,-7.812500
9975,-7.812500
9976,-3.906250
9977,-3.906250
9978,-3.906250
9979,-3.906250
9980,-3.906250
9981,-3.906250
9982,-3.906250
9983,-3.906250
9984,-3.906250
9985,0.000000
9986,0.000000
9987,0.000000
9988,0.000000
9989,0.000000
9990,0.000000
9991,0.000000
9992,0.000000
9993,0.000000
9994,3.906250
9995,3.906250
9996,3.906250
9997,3.906250
9998,3.906250
9999,3.906250
10000,3.906250
