Channel              :,CH1
Frequency            :,1.012kHz
Period               :,0.989ms
PK-PK                :,242.2mV
Probe attenuation    :,1X
Voltage per ADC value:,0.244141mV
Time interval        :,1.00000us

index,CH1_Voltage(mV)
1,-62.500000
2,-62.500000
3,-62.500000
4,-62.500000
5,-62.500000
6,-62.500000
7,-58.593750
8,-58.593750
9,-58.593750
10,-58.593750
11,-58.593750
12,-58.593750
13,-54.687500
14,-54.687500
15,-54.687500
16,-54.687500
17,-54.687500
18,-50.781250
19,-50.781250
20,-50.781250
21,-50.781250
22,-50.781250
23,-46.875000
24,-46.875000
25,-46.875000
26,-46.875000
27,-46.875000
28,-42.968750
29,-42.968750
30,-42.968750
31,-42.968750
32,-42.968750
33,-42.968750
34,-39.062500
35,-39.062500
36,-39.062500
37,-39.062500
38,-35.156250
39,-35.156250
40,-35.156250
41,-35.156250
42,-35.156250
43,-31.250000
44,-31.250000
45,-31.250000
46,-31.250000
47,-31.250000
48,-31.250000
49,-27.343750
50,-27.343750
51,-27.343750
52,-27.343750
53,-27.343750
54,-27.343750
55,-23.437500
56,-23.437500
57,-23.437500
58,-23.437500
59,-19.531250
60,-19.531250
61,-19.531250
62,-19.531250
63,-19.531250
64,-19.531250
65,-15.625000
66,-15.625000
67,-15.625000
68,-15.625000
69,-15.625000
70,-11.718750
71,-11.718750
72,-11.718750
73,-11.718750
74,-11.718750
75,-7.812500
76,-7.812500
77,-7.812500
78,-7.812500
79,-7.812500
80,-7.812500
81,-3.906250
82,-3.906250
83,-3.906250
84,-3.906250
85,0.000000
86,0.000000
87,0.000000
88,0.000000
89,0.000000
90,0.000000
91,0.000000
92,3.906250
93,3.906250
94,3.906250
95,3.906250
96,7.812500
97,7.812500
98,7.812500
99,7.812500
100,7.812500
101,11.718750
102,11.718750
103,11.718750
104,11.718750
105,11.718750
106,15.625000
107,15.625000
108,15.625000
109,15.625000
110,15.625000
111,15.625000
112,19.531250
113,19.531250
114,19.531250
115,19.531250
116,19.531250
117,23.437500
118,23.437500
119,23.437500
120,23.437500
121,23.437500
122,23.437500
123,27.343750
124,27.343750
125,27.343750
126,27.343750
127,27.343750
128,27.343750
129,27.343750
130,31.250000
131,31.250000
132,31.250000
133,31.250000
134,31.250000
135,35.156250
136,35.156250
137,35.156250
138,35.156250
139,35.156250
140,35.156250
141,35.156250
142,39.062500
143,39.062500
144,39.062500
145,39.062500
146,39.062500
147,39.062500
148,42.968750
149,42.968750
150,42.968750
151,42.968750
152,46.875000
153,42.968750
154,46.875000
155,46.875000
156,46.875000
157,46.875000
158,46.875000
159,46.875000
160,46.875000
161,46.875000
162,50.781250
163,50.781250
164,50.781250
165,50.781250
166,50.781250
167,54.687500
168,54.687500
169,54.687500
170,54.687500
171,54.687500
172,54.687500
173,54.687500
174,54.687500
175,58.593750
176,54.687500
177,58.593750
178,58.593750
179,58.593750
180,58.593750
181,62.500000
182,62.500000
183,62.500000
184,62.500000
185,62.500000
186,62.500000
187,62.500000
188,62.500000
189,62.500000
190,62.500000
191,66.406250
192,66.406250
193,66.406250
194,66.406250
195,66.406250
196,66.406250
197,70.312500
198,70.312500
199,70.312500
200,70.312500
201,70.312500
202,70.312500
203,70.312500
204,70.312500
205,70.312500
206,70.312500
207,74.218750
208,74.218750
209,74.218750
210,74.218750
211,74.218750
212,74.218750
213,74.218750
214,74.218750
215,78.125000
216,78.125000
217,78.125000
218,78.125000
219,78.125000
220,78.125000
221,78.125000
222,78.125000
223,78.125000
224,78.125000
225,82.031250
226,82.031250
227,82.031250
228,82.031250
229,82.031250
230,82.031250
231,82.031250
232,82.031250
233,82.031250
234,85.937500
235,85.937500
236,85.937500
237,85.937500
238,85.937500
239,85.937500
240,85.937500
241,85.937500
242,85.937500
243,85.937500
244,85.937500
245,85.937500
246,89.843750
247,89.843750
248,89.843750
249,89.843750
250,89.843750
251,89.843750
252,89.843750
253,89.843750
254,89.843750
255,89.843750
256,89.843750
257,89.843750
258,89.843750
259,89.843750
260,93.750000
261,89.843750
262,93.750000
263,93.750000
264,93.750000
265,93.750000
266,93.750000
267,93.750000
268,93.750000
269,93.750000
270,93.750000
271,93.750000
272,93.750000
273,93.750000
274,93.750000
275,93.750000
276,93.750000
277,97.656250
278,93.750000
279,93.750000
280,97.656250
281,97.656250
282,97.656250
283,97.656250
284,97.656250
285,97.656250
286,97.656250
287,97.656250
288,97.656250
289,97.656250
290,97.656250
291,97.656250
292,97.656250
293,97.656250
294,97.656250
295,97.656250
296,97.656250
297,97.656250
298,97.656250
299,97.656250
300,97.656250
301,97.656250
302,97.656250
303,97.656250
304,97.656250
305,97.656250
306,97.656250
307,101.562500
308,101.562500
309,97.656250
310,97.656250
311,97.656250
312,97.656250
313,97.656250
314,101.562500
315,97.656250
316,97.656250
317,97.656250
318,97.656250
319,101.562500
320,97.656250
321,97.656250
322,101.562500
323,101.562500
324,97.656250
325,101.562500
326,101.562500
327,101.562500
328,101.562500
329,101.562500
330,97.656250
331,101.562500
332,101.562500
333,101.562500
334,97.656250
335,101.562500
336,101.562500
337,101.562500
338,101.562500
339,101.562500
340,101.562500
341,101.562500
342,101.562500
343,97.656250
344,97.656250
345,101.562500
346,97.656250
347,97.656250
348,97.656250
349,97.656250
350,97.656250
351,97.656250
352,101.562500
353,101.562500
354,101.562500
355,97.656250
356,97.656250
357,97.656250
358,97.656250
359,97.656250
360,97.656250
361,97.656250
362,97.656250
363,97.656250
364,97.656250
365,97.656250
366,97.656250
367,97.656250
368,97.656250
369,97.656250
370,97.656250
371,97.656250
372,97.656250
373,93.750000
374,93.750000
375,93.750000
376,93.750000
377,93.750000
378,93.750000
379,93.750000
380,93.750000
381,93.750000
382,93.750000
383,93.750000
384,93.750000
385,93.750000
386,93.750000
387,93.750000
388,93.750000
389,93.750000
390,93.750000
391,89.843750
392,89.843750
393,89.843750
394,89.843750
395,93.750000
396,89.843750
397,89.843750
398,89.843750
399,89.843750
400,89.843750
401,89.843750
402,89.843750
403,89.843750
404,89.843750
405,89.843750
406,85.937500
407,89.843750
408,85.937500
409,85.937500
410,85.937500
411,85.937500
412,85.937500
413,85.937500
414,85.937500
415,85.937500
416,85.937500
417,85.937500
418,82.031250
419,82.031250
420,82.031250
421,82.031250
422,82.031250
423,82.031250
424,82.031250
425,82.031250
426,82.031250
427,82.031250
428,78.125000
429,78.125000
430,78.125000
431,78.125000
432,78.125000
433,78.125000
434,78.125000
435,78.125000
436,78.125000
437,78.125000
438,74.218750
439,78.125000
440,74.218750
441,74.218750
442,74.218750
443,74.218750
444,74.218750
445,74.218750
446,70.312500
447,70.312500
448,70.312500
449,70.312500
450,70.312500
451,70.312500
452,70.312500
453,70.312500
454,66.406250
455,66.406250
456,66.406250
457,66.406250
458,66.406250
459,66.406250
460,66.406250
461,66.406250
462,66.406250
463,62.500000
464,62.500000
465,62.500000
466,62.500000
467,62.500000
468,62.500000
469,58.593750
470,58.593750
471,58.593750
472,58.593750
473,58.593750
474,58.593750
475,58.593750
476,58.593750
477,58.593750
478,58.593750
479,54.687500
480,54.687500
481,54.687500
482,54.687500
483,54.687500
484,50.781250
485,50.781250
486,50.781250
487,50.781250
488,50.781250
489,50.781250
490,50.781250
491,46.875000
492,46.875000
493,46.875000
494,46.875000
495,46.875000
496,42.968750
497,42.968750
498,42.968750
499,42.968750
500,42.968750
501,42.968750
502,42.968750
503,42.968750
504,39.062500
505,39.062500
506,39.062500
507,39.062500
508,39.062500
509,39.062500
510,35.156250
511,35.156250
512,35.156250
513,35.156250
514,31.250000
515,35.156250
516,31.250000
517,31.250000
518,31.250000
519,31.250000
520,27.343750
521,27.343750
522,27.343750
523,27.343750
524,27.343750
525,27.343750
526,27.343750
527,23.437500
528,23.437500
529,23.437500
530,23.437500
531,19.531250
532,19.531250
533,19.531250
534,19.531250
535,19.531250
536,19.531250
537,19.531250
538,15.625000
539,15.625000
540,15.625000
541,15.625000
542,15.625000
543,11.718750
544,11.718750
545,11.718750
546,11.718750
547,11.718750
548,7.812500
549,7.812500
550,7.812500
551,7.812500
552,7.812500
553,7.812500
554,3.906250
555,3.906250
556,3.906250
557,3.906250
558,0.000000
559,0.000000
560,0.000000
561,0.000000
562,0.000000
563,0.000000
564,-3.906250
565,-3.906250
566,-3.906250
567,-3.906250
568,-3.906250
569,-7.812500
570,-7.812500
571,-7.812500
572,-7.812500
573,-7.812500
574,-11.718750
575,-11.718750
576,-11.718750
577,-11.718750
578,-11.718750
579,-15.625000
580,-15.625000
581,-15.625000
582,-15.625000
583,-15.625000
584,-15.625000
585,-19.531250
586,-19.531250
587,-19.531250
588,-19.531250
589,-19.531250
590,-23.437500
591,-23.437500
592,-23.437500
593,-23.437500
594,-27.343750
595,-27.343750
596,-27.343750
597,-27.343750
598,-27.343750
599,-27.343750
600,-27.343750
601,-31.250000
602,-31.250000
603,-31.250000
604,-31.250000
605,-35.156250
606,-35.156250
607,-35.156250
608,-35.156250
609,-35.156250
610,-35.156250
611,-39.062500
612,-39.062500
613,-39.062500
614,-39.062500
615,-42.968750
616,-42.968750
617,-42.968750
618,-42.968750
619,-42.968750
620,-42.968750
621,-46.875000
622,-46.875000
623,-46.875000
624,-46.875000
625,-50.781250
626,-50.781250
627,-50.781250
628,-50.781250
629,-50.781250
630,-54.687500
631,-54.687500
632,-54.687500
633,-54.687500
634,-54.687500
635,-54.687500
636,-58.593750
637,-58.593750
638,-58.593750
639,-58.593750
640,-58.593750
641,-62.500000
642,-62.500000
643,-62.500000
644,-62.500000
645,-62.500000
646,-66.406250
647,-66.406250
648,-66.406250
649,-66.406250
650,-70.312500
651,-66.406250
652,-70.312500
653,-70.312500
654,-70.312500
655,-70.312500
656,-70.312500
657,-74.218750
658,-74.218750
659,-74.218750
660,-74.218750
661,-74.218750
662,-78.125000
663,-78.125000
664,-78.125000
665,-78.125000
666,-78.125000
667,-78.125000
668,-78.125000
669,-82.031250
670,-82.031250
671,-82.031250
672,-82.031250
673,-85.937500
674,-85.937500
675,-85.937500
676,-85.937500
677,-85.937500
678,-85.937500
679,-85.937500
680,-89.843750
681,-89.843750
682,-89.843750
683,-89.843750
684,-89.843750
685,-93.750000
686,-93.750000
687,-93.750000
688,-93.750000
689,-93.750000
690,-93.750000
691,-93.750000
692,-93.750000
693,-97.656250
694,-97.656250
695,-97.656250
696,-97.656250
697,-97.656250
698,-97.656250
699,-101.562500
700,-101.562500
701,-101.562500
702,-101.562500
703,-101.562500
704,-101.562500
705,-101.562500
706,-105.468750
707,-105.468750
708,-105.468750
709,-105.468750
710,-105.468750
711,-105.468750
712,-105.468750
713,-105.468750
714,-109.375000
715,-109.375000
716,-109.375000
717,-109.375000
718,-109.375000
719,-113.281250
720,-109.375000
721,-113.281250
722,-109.375000
723,-113.281250
724,-113.281250
725,-113.281250
726,-113.281250
727,-113.281250
728,-117.187500
729,-117.187500
730,-117.187500
731,-117.187500
732,-117.187500
733,-117.187500
734,-117.187500
735,-117.187500
736,-117.187500
737,-117.187500
738,-121.093750
739,-121.093750
740,-121.093750
741,-121.093750
742,-121.093750
743,-121.093750
744,-121.093750
745,-121.093750
746,-121.093750
747,-121.093750
748,-121.093750
749,-125.000000
750,-125.000000
751,-125.000000
752,-125.000000
753,-125.000000
754,-125.000000
755,-125.000000
756,-125.000000
757,-125.000000
758,-125.000000
759,-125.000000
760,-125.000000
761,-128.906250
762,-128.906250
763,-128.906250
764,-128.906250
765,-128.906250
766,-128.906250
767,-128.906250
768,-128.906250
769,-128.906250
770,-128.906250
771,-128.906250
772,-128.906250
773,-128.906250
774,-132.812500
775,-128.906250
776,-132.812500
777,-132.812500
778,-132.812500
779,-132.812500
780,-132.812500
781,-132.812500
782,-132.812500
783,-132.812500
784,-132.812500
785,-132.812500
786,-132.812500
787,-132.812500
788,-132.812500
789,-132.812500
790,-132.812500
791,-136.718750
792,-132.812500
793,-132.812500
794,-136.718750
795,-136.718750
796,-136.718750
797,-136.718750
798,-136.718750
799,-136.718750
800,-136.718750
801,-136.718750
802,-136.718750
803,-136.718750
804,-136.718750
805,-136.718750
806,-136.718750
807,-136.718750
808,-136.718750
809,-136.718750
810,-136.718750
811,-136.718750
812,-136.718750
813,-136.718750
814,-136.718750
815,-136.718750
816,-136.718750
817,-136.718750
818,-136.718750
819,-136.718750
820,-136.718750
821,-136.718750
822,-136.718750
823,-136.718750
824,-136.718750
825,-136.718750
826,-136.718750
827,-136.718750
828,-136.718750
829,-136.718750
830,-136.718750
831,-136.718750
832,-136.718750
833,-136.718750
834,-136.718750
835,-136.718750
836,-132.812500
837,-136.718750
838,-132.812500
839,-136.718750
840,-132.812500
841,-132.812500
842,-132.812500
843,-132.812500
844,-132.812500
845,-132.812500
846,-132.812500
847,-132.812500
848,-132.812500
849,-132.812500
850,-132.812500
851,-132.812500
852,-132.812500
853,-132.812500
854,-132.812500
855,-132.812500
856,-132.812500
857,-132.812500
858,-132.812500
859,-132.812500
860,-132.812500
861,-128.906250
862,-128.906250
863,-128.906250
864,-128.906250
865,-128.906250
866,-128.906250
867,-128.906250
868,-128.906250
869,-128.906250
870,-128.906250
871,-128.906250
872,-128.906250
873,-128.906250
874,-128.906250
875,-125.000000
876,-125.000000
877,-125.000000
878,-125.000000
879,-125.000000
880,-125.000000
881,-125.000000
882,-125.000000
883,-125.000000
884,-125.000000
885,-125.000000
886,-125.000000
887,-125.000000
888,-121.093750
889,-121.093750
890,-121.093750
891,-121.093750
892,-121.093750
893,-121.093750
894,-121.093750
895,-121.093750
896,-121.093750
897,-117.187500
898,-117.187500
899,-117.187500
900,-117.187500
901,-117.187500
902,-117.187500
903,-117.187500
904,-117.187500
905,-113.281250
906,-113.281250
907,-113.281250
908,-113.281250
909,-113.281250
910,-113.281250
911,-113.281250
912,-113.281250
913,-113.281250
914,-113.281250
915,-109.375000
916,-109.375000
917,-109.375000
918,-109.375000
919,-109.375000
920,-109.375000
921,-105.468750
922,-105.468750
923,-105.468750
924,-105.468750
925,-105.468750
926,-105.468750
927,-105.468750
928,-105.468750
929,-105.468750
930,-101.562500
931,-101.562500
932,-101.562500
933,-101.562500
934,-101.562500
935,-101.562500
936,-101.562500
937,-97.656250
938,-97.656250
939,-97.656250
940,-97.656250
941,-97.656250
942,-97.656250
943,-97.656250
944,-93.750000
945,-93.750000
946,-93.750000
947,-93.750000
948,-93.750000
949,-93.750000
950,-93.750000
951,-89.843750
952,-89.843750
953,-89.843750
954,-89.843750
955,-89.843750
956,-89.843750
957,-85.937500
958,-85.937500
959,-85.937500
960,-85.937500
961,-85.937500
962,-85.937500
963,-82.031250
964,-82.031250
965,-82.031250
966,-82.031250
967,-82.031250
968,-82.031250
969,-78.125000
970,-78.125000
971,-78.125000
972,-78.125000
973,-78.125000
974,-78.125000
975,-74.218750
976,-74.218750
977,-74.218750
978,-74.218750
979,-74.218750
980,-74.218750
981,-70.312500
982,-70.312500
983,-70.312500
984,-70.312500
985,-66.406250
986,-66.406250
987,-66.406250
988,-66.406250
989,-66.406250
990,-66.406250
991,-62.500000
992,-62.500000
993,-62.500000
994,-62.500000
995,-62.500000
996,-62.500000
997,-58.593750
998,-58.593750
999,-58.593750
1000,-58.593750
1001,-54.687500
1002,-54.687500
1003,-54.687500
1004,-54.687500
1005,-54.687500
1006,-54.687500
1007,-50.781250
1008,-50.781250
1009,-50.781250
1010,-50.781250
1011,-46.875000
1012,-46.875000
1013,-46.875000
1014,-46.875000
1015,-46.875000
1016,-46.875000
1017,-42.968750
1018,-42.968750
1019,-42.968750
1020,-42.968750
1021,-42.968750
1022,-39.062500
1023,-39.062500
1024,-39.062500
1025,-39.062500
1026,-39.062500
1027,-35.156250
1028,-39.062500
1029,-35.156250
1030,-35.156250
1031,-35.156250
1032,-35.156250
1033,-31.250000
1034,-31.250000
1035,-31.250000
1036,-31.250000
1037,-31.250000
1038,-27.343750
1039,-27.343750
1040,-27.343750
1041,-27.343750
1042,-23.437500
1043,-23.437500
1044,-23.437500
1045,-23.437500
1046,-23.437500
1047,-23.437500
1048,-19.531250
1049,-19.531250
1050,-19.531250
1051,-19.531250
1052,-19.531250
1053,-15.625000
1054,-15.625000
1055,-15.625000
1056,-15.625000
1057,-11.718750
1058,-15.625000
1059,-11.718750
1060,-11.718750
1061,-11.718750
1062,-11.718750
1063,-11.718750
1064,-11.718750
1065,-7.812500
1066,-7.812500
1067,-7.812500
1068,-7.812500
1069,-3.906250
1070,-3.906250
1071,-3.906250
1072,-3.906250
1073,-3.906250
1074,-3.906250
1075,0.000000
1076,0.000000
1077,0.000000
1078,0.000000
1079,0.000000
1080,3.906250
1081,3.906250
1082,3.906250
1083,3.906250
1084,3.906250
1085,7.812500
1086,7.812500
1087,7.812500
1088,7.812500
1089,7.812500
1090,7.812500
1091,11.718750
1092,11.718750
1093,11.718750
1094,11.718750
1095,11.718750
1096,15.625000
1097,15.625000
1098,15.625000
1099,15.625000
1100,15.625000
1101,15.625000
1102,19.531250
1103,19.531250
1104,19.531250
1105,19.531250
1106,23.437500
1107,23.437500
1108,23.437500
1109,23.437500
1110,23.437500
1111,23.437500
1112,23.437500
1113,27.343750
1114,27.343750
1115,27.343750
1116,27.343750
1117,27.343750
1118,27.343750
1119,31.250000
1120,31.250000
1121,31.250000
1122,31.250000
1123,31.250000
1124,35.156250
1125,35.156250
1126,35.156250
1127,35.156250
1128,35.156250
1129,35.156250
1130,39.062500
1131,39.062500
1132,39.062500
1133,39.062500
1134,39.062500
1135,39.062500
1136,39.062500
1137,42.968750
1138,42.968750
1139,42.968750
1140,42.968750
1141,42.968750
1142,42.968750
1143,46.875000
1144,46.875000
1145,46.875000
1146,46.875000
1147,46.875000
1148,46.875000
1149,50.781250
1150,50.781250
1151,50.781250
1152,50.781250
1153,50.781250
1154,50.781250
1155,50.781250
1156,54.687500
1157,54.687500
1158,54.687500
1159,54.687500
1160,54.687500
1161,54.687500
1162,58.593750
1163,58.593750
1164,58.593750
1165,58.593750
1166,58.593750
1167,58.593750
1168,58.593750
1169,58.593750
1170,58.593750
1171,62.500000
1172,62.500000
1173,62.500000
1174,62.500000
1175,62.500000
1176,62.500000
1177,66.406250
1178,66.406250
1179,66.406250
1180,66.406250
1181,66.406250
1182,66.406250
1183,66.406250
1184,70.312500
1185,70.312500
1186,66.406250
1187,70.312500
1188,70.312500
1189,70.312500
1190,70.312500
1191,70.312500
1192,70.312500
1193,74.218750
1194,70.312500
1195,74.218750
1196,74.218750
1197,74.218750
1198,74.218750
1199,74.218750
1200,74.218750
1201,74.218750
1202,78.125000
1203,78.125000
1204,78.125000
1205,78.125000
1206,78.125000
1207,78.125000
1208,78.125000
1209,78.125000
1210,78.125000
1211,78.125000
1212,78.125000
1213,82.031250
1214,82.031250
1215,82.031250
1216,82.031250
1217,82.031250
1218,82.031250
1219,82.031250
1220,82.031250
1221,82.031250
1222,82.031250
1223,85.937500
1224,85.937500
1225,85.937500
1226,85.937500
1227,85.937500
1228,85.937500
1229,85.937500
1230,85.937500
1231,85.937500
1232,85.937500
1233,85.937500
1234,85.937500
1235,85.937500
1236,89.843750
1237,89.843750
1238,89.843750
1239,89.843750
1240,89.843750
1241,89.843750
1242,89.843750
1243,89.843750
1244,89.843750
1245,89.843750
1246,89.843750
1247,89.843750
1248,89.843750
1249,89.843750
1250,93.750000
1251,93.750000
1252,93.750000
1253,93.750000
1254,93.750000
1255,93.750000
1256,93.750000
1257,93.750000
1258,93.750000
1259,93.750000
1260,93.750000
1261,93.750000
1262,93.750000
1263,93.750000
1264,93.750000
1265,93.750000
1266,93.750000
1267,97.656250
1268,93.750000
1269,97.656250
1270,97.656250
1271,97.656250
1272,97.656250
1273,97.656250
1274,97.656250
1275,97.656250
1276,97.656250
1277,97.656250
1278,97.656250
1279,97.656250
1280,97.656250
1281,97.656250
1282,97.656250
1283,97.656250
1284,97.656250
1285,97.656250
1286,97.656250
1287,101.562500
1288,97.656250
1289,97.656250
1290,97.656250
1291,97.656250
1292,97.656250
1293,97.656250
1294,97.656250
1295,101.562500
1296,101.562500
1297,101.562500
1298,97.656250
1299,101.562500
1300,97.656250
1301,97.656250
1302,97.656250
1303,101.562500
1304,101.562500
1305,101.562500
1306,101.562500
1307,101.562500
1308,97.656250
1309,101.562500
1310,101.562500
1311,101.562500
1312,101.562500
1313,101.562500
1314,101.562500
1315,101.562500
1316,97.656250
1317,101.562500
1318,101.562500
1319,101.562500
1320,101.562500
1321,101.562500
1322,97.656250
1323,101.562500
1324,97.656250
1325,97.656250
1326,97.656250
1327,101.562500
1328,101.562500
1329,101.562500
1330,101.562500
1331,101.562500
1332,97.656250
1333,97.656250
1334,97.656250
1335,97.656250
1336,97.656250
1337,101.562500
1338,97.656250
1339,101.562500
1340,97.656250
1341,97.656250
1342,97.656250
1343,97.656250
1344,97.656250
1345,101.562500
1346,97.656250
1347,97.656250
1348,97.656250
1349,97.656250
1350,97.656250
1351,97.656250
1352,97.656250
1353,97.656250
1354,97.656250
1355,97.656250
1356,97.656250
1357,97.656250
1358,97.656250
1359,97.656250
1360,97.656250
1361,97.656250
1362,93.750000
1363,97.656250
1364,93.750000
1365,93.750000
1366,93.750000
1367,93.750000
1368,93.750000
1369,93.750000
1370,93.750000
1371,93.750000
1372,93.750000
1373,93.750000
1374,93.750000
1375,93.750000
1376,93.750000
1377,93.750000
1378,93.750000
1379,93.750000
1380,93.750000
1381,89.843750
1382,89.843750
1383,89.843750
1384,89.843750
1385,89.843750
1386,89.843750
1387,89.843750
1388,89.843750
1389,89.843750
1390,89.843750
1391,89.843750
1392,89.843750
1393,89.843750
1394,89.843750
1395,89.843750
1396,85.937500
1397,89.843750
1398,85.937500
1399,85.937500
1400,85.937500
1401,85.937500
1402,85.937500
1403,85.937500
1404,85.937500
1405,85.937500
1406,85.937500
1407,85.937500
1408,82.031250
1409,85.937500
1410,82.031250
1411,82.031250
1412,82.031250
1413,82.031250
1414,82.031250
1415,82.031250
1416,82.031250
1417,82.031250
1418,82.031250
1419,78.125000
1420,78.125000
1421,78.125000
1422,78.125000
1423,78.125000
1424,78.125000
1425,78.125000
1426,78.125000
1427,78.125000
1428,78.125000
1429,74.218750
1430,74.218750
1431,74.218750
1432,74.218750
1433,74.218750
1434,74.218750
1435,74.218750
1436,74.218750
1437,74.218750
1438,70.312500
1439,70.312500
1440,70.312500
1441,70.312500
1442,70.312500
1443,70.312500
1444,66.406250
1445,66.406250
1446,66.406250
1447,66.406250
1448,66.406250
1449,66.406250
1450,66.406250
1451,66.406250
1452,62.500000
1453,62.500000
1454,62.500000
1455,62.500000
1456,62.500000
1457,62.500000
1458,62.500000
1459,62.500000
1460,58.593750
1461,58.593750
1462,58.593750
1463,58.593750
1464,58.593750
1465,58.593750
1466,54.687500
1467,54.687500
1468,54.687500
1469,54.687500
1470,54.687500
1471,54.687500
1472,54.687500
1473,50.781250
1474,50.781250
1475,50.781250
1476,50.781250
1477,50.781250
1478,50.781250
1479,50.781250
1480,50.781250
1481,46.875000
1482,46.875000
1483,46.875000
1484,46.875000
1485,46.875000
1486,46.875000
1487,42.968750
1488,42.968750
1489,42.968750
1490,42.968750
1491,42.968750
1492,42.968750
1493,42.968750
1494,39.062500
1495,39.062500
1496,39.062500
1497,39.062500
1498,39.062500
1499,35.156250
1500,35.156250
1501,35.156250
1502,35.156250
1503,35.156250
1504,35.156250
1505,31.250000
1506,31.250000
1507,31.250000
1508,31.250000
1509,31.250000
1510,31.250000
1511,31.250000
1512,27.343750
1513,27.343750
1514,27.343750
1515,27.343750
1516,27.343750
1517,23.437500
1518,23.437500
1519,23.437500
1520,23.437500
1521,23.437500
1522,19.531250
1523,19.531250
1524,19.531250
1525,19.531250
1526,19.531250
1527,19.531250
1528,15.625000
1529,15.625000
1530,15.625000
1531,15.625000
1532,11.718750
1533,11.718750
1534,11.718750
1535,11.718750
1536,11.718750
1537,11.718750
1538,7.812500
1539,11.718750
1540,7.812500
1541,7.812500
1542,7.812500
1543,7.812500
1544,7.812500
1545,3.906250
1546,3.906250
1547,3.906250
1548,3.906250
1549,0.000000
1550,0.000000
1551,0.000000
1552,0.000000
1553,0.000000
1554,-3.906250
1555,-3.906250
1556,-3.906250
1557,-3.906250
1558,-7.812500
1559,-7.812500
1560,-7.812500
1561,-7.812500
1562,-7.812500
1563,-11.718750
1564,-11.718750
1565,-11.718750
1566,-11.718750
1567,-11.718750
1568,-11.718750
1569,-15.625000
1570,-15.625000
1571,-15.625000
1572,-15.625000
1573,-15.625000
1574,-19.531250
1575,-19.531250
1576,-19.531250
1577,-19.531250
1578,-19.531250
1579,-23.437500
1580,-23.437500
1581,-23.437500
1582,-23.437500
1583,-27.343750
1584,-27.343750
1585,-27.343750
1586,-27.343750
1587,-27.343750
1588,-27.343750
1589,-31.250000
1590,-31.250000
1591,-31.250000
1592,-31.250000
1593,-31.250000
1594,-35.156250
1595,-35.156250
1596,-35.156250
1597,-35.156250
1598,-39.062500
1599,-39.062500
1600,-39.062500
1601,-39.062500
1602,-39.062500
1603,-39.062500
1604,-42.968750
1605,-42.968750
1606,-42.968750
1607,-42.968750
1608,-42.968750
1609,-46.875000
1610,-46.875000
1611,-46.875000
1612,-46.875000
1613,-46.875000
1614,-50.781250
1615,-50.781250
1616,-50.781250
1617,-50.781250
1618,-50.781250
1619,-54.687500
1620,-54.687500
1621,-54.687500
1622,-58.593750
1623,-58.593750
1624,-58.593750
1625,-58.593750
1626,-58.593750
1627,-58.593750
1628,-58.593750
1629,-58.593750
1630,-58.593750
1631,-62.500000
1632,-62.500000
1633,-62.500000
1634,-62.500000
1635,-62.500000
1636,-66.406250
1637,-66.406250
1638,-66.406250
1639,-66.406250
1640,-70.312500
1641,-70.312500
1642,-70.312500
1643,-70.312500
1644,-70.312500
1645,-70.312500
1646,-70.312500
1647,-74.218750
1648,-74.218750
1649,-74.218750
1650,-74.218750
1651,-74.218750
1652,-78.125000
1653,-78.125000
1654,-78.125000
1655,-78.125000
1656,-78.125000
1657,-78.125000
1658,-82.031250
1659,-82.031250
1660,-82.031250
1661,-82.031250
1662,-82.031250
1663,-82.031250
1664,-85.937500
1665,-85.937500
1666,-85.937500
1667,-85.937500
1668,-85.937500
1669,-85.937500
1670,-85.937500
1671,-89.843750
1672,-89.843750
1673,-89.843750
1674,-89.843750
1675,-89.843750
1676,-89.843750
1677,-93.750000
1678,-93.750000
1679,-93.750000
1680,-93.750000
1681,-93.750000
1682,-93.750000
1683,-97.656250
1684,-97.656250
1685,-97.656250
1686,-97.656250
1687,-97.656250
1688,-97.656250
1689,-97.656250
1690,-101.562500
1691,-101.562500
1692,-101.562500
1693,-101.562500
1694,-101.562500
1695,-101.562500
1696,-105.468750
1697,-105.468750
1698,-105.468750
1699,-105.468750
1700,-105.468750
1701,-105.468750
1702,-105.468750
1703,-109.375000
1704,-109.375000
1705,-109.375000
1706,-109.375000
1707,-109.375000
1708,-109.375000
1709,-113.281250
1710,-109.375000
1711,-113.281250
1712,-113.281250
1713,-113.281250
1714,-113.281250
1715,-113.281250
1716,-113.281250
1717,-113.281250
1718,-117.187500
1719,-117.187500
1720,-117.187500
1721,-117.187500
1722,-117.187500
1723,-117.187500
1724,-117.187500
1725,-117.187500
1726,-121.093750
1727,-121.093750
1728,-121.093750
1729,-121.093750
1730,-121.093750
1731,-121.093750
1732,-121.093750
1733,-121.093750
1734,-121.093750
1735,-121.093750
1736,-121.093750
1737,-121.093750
1738,-125.000000
1739,-125.000000
1740,-125.000000
1741,-125.000000
1742,-125.000000
1743,-125.000000
1744,-125.000000
1745,-125.000000
1746,-125.000000
1747,-125.000000
1748,-125.000000
1749,-125.000000
1750,-125.000000
1751,-128.906250
1752,-128.906250
1753,-128.906250
1754,-128.906250
1755,-128.906250
1756,-128.906250
1757,-128.906250
1758,-128.906250
1759,-128.906250
1760,-128.906250
1761,-128.906250
1762,-128.906250
1763,-128.906250
1764,-128.906250
1765,-128.906250
1766,-128.906250
1767,-132.812500
1768,-132.812500
1769,-132.812500
1770,-132.812500
1771,-132.812500
1772,-132.812500
1773,-132.812500
1774,-132.812500
1775,-132.812500
1776,-132.812500
1777,-132.812500
1778,-132.812500
1779,-132.812500
1780,-132.812500
1781,-132.812500
1782,-132.812500
1783,-132.812500
1784,-132.812500
1785,-132.812500
1786,-132.812500
1787,-132.812500
1788,-132.812500
1789,-132.812500
1790,-136.718750
1791,-136.718750
1792,-136.718750
1793,-136.718750
1794,-136.718750
1795,-136.718750
1796,-132.812500
1797,-136.718750
1798,-136.718750
1799,-132.812500
1800,-136.718750
1801,-136.718750
1802,-136.718750
1803,-136.718750
1804,-136.718750
1805,-136.718750
1806,-136.718750
1807,-136.718750
1808,-136.718750
1809,-136.718750
1810,-136.718750
1811,-136.718750
1812,-136.718750
1813,-136.718750
1814,-136.718750
1815,-132.812500
1816,-136.718750
1817,-136.718750
1818,-136.718750
1819,-136.718750
1820,-136.718750
1821,-132.812500
1822,-136.718750
1823,-132.812500
1824,-132.812500
1825,-132.812500
1826,-132.812500
1827,-132.812500
1828,-132.812500
1829,-132.812500
1830,-132.812500
1831,-132.812500
1832,-132.812500
1833,-132.812500
1834,-132.812500
1835,-132.812500
1836,-132.812500
1837,-132.812500
1838,-132.812500
1839,-132.812500
1840,-132.812500
1841,-132.812500
1842,-132.812500
1843,-132.812500
1844,-132.812500
1845,-132.812500
1846,-132.812500
1847,-132.812500
1848,-132.812500
1849,-128.906250
1850,-128.906250
1851,-128.906250
1852,-128.906250
1853,-128.906250
1854,-128.906250
1855,-128.906250
1856,-128.906250
1857,-128.906250
1858,-128.906250
1859,-128.906250
1860,-128.906250
1861,-125.000000
1862,-128.906250
1863,-125.000000
1864,-125.000000
1865,-125.000000
1866,-125.000000
1867,-125.000000
1868,-125.000000
1869,-125.000000
1870,-125.000000
1871,-125.000000
1872,-125.000000
1873,-125.000000
1874,-125.000000
1875,-121.093750
1876,-121.093750
1877,-121.093750
1878,-121.093750
1879,-121.093750
1880,-121.093750
1881,-121.093750
1882,-121.093750
1883,-121.093750
1884,-121.093750
1885,-117.187500
1886,-117.187500
1887,-117.187500
1888,-117.187500
1889,-117.187500
1890,-117.187500
1891,-117.187500
1892,-117.187500
1893,-117.187500
1894,-113.281250
1895,-113.281250
1896,-113.281250
1897,-113.281250
1898,-113.281250
1899,-113.281250
1900,-113.281250
1901,-113.281250
1902,-109.375000
1903,-109.375000
1904,-109.375000
1905,-109.375000
1906,-109.375000
1907,-109.375000
1908,-109.375000
1909,-109.375000
1910,-109.375000
1911,-105.468750
1912,-105.468750
1913,-105.468750
1914,-105.468750
1915,-105.468750
1916,-105.468750
1917,-105.468750
1918,-101.562500
1919,-101.562500
1920,-101.562500
1921,-101.562500
1922,-101.562500
1923,-97.656250
1924,-101.562500
1925,-97.656250
1926,-97.656250
1927,-97.656250
1928,-97.656250
1929,-97.656250
1930,-97.656250
1931,-93.750000
1932,-93.750000
1933,-93.750000
1934,-93.750000
1935,-93.750000
1936,-93.750000
1937,-89.843750
1938,-89.843750
1939,-89.843750
1940,-89.843750
1941,-89.843750
1942,-89.843750
1943,-89.843750
1944,-85.937500
1945,-85.937500
1946,-85.937500
1947,-85.937500
1948,-85.937500
1949,-82.031250
1950,-82.031250
1951,-82.031250
1952,-82.031250
1953,-82.031250
1954,-82.031250
1955,-82.031250
1956,-78.125000
1957,-78.125000
1958,-78.125000
1959,-78.125000
1960,-78.125000
1961,-78.125000
1962,-78.125000
1963,-74.218750
1964,-74.218750
1965,-74.218750
1966,-74.218750
1967,-70.312500
1968,-74.218750
1969,-70.312500
1970,-70.312500
1971,-70.312500
1972,-70.312500
1973,-66.406250
1974,-66.406250
1975,-66.406250
1976,-66.406250
1977,-66.406250
1978,-66.406250
1979,-66.406250
1980,-62.500000
1981,-62.500000
1982,-62.500000
1983,-62.500000
1984,-62.500000
1985,-58.593750
1986,-58.593750
1987,-58.593750
1988,-58.593750
1989,-58.593750
1990,-54.687500
1991,-54.687500
1992,-54.687500
1993,-54.687500
1994,-54.687500
1995,-50.781250
1996,-50.781250
1997,-50.781250
1998,-50.781250
1999,-50.781250
2000,-50.781250
2001,-46.875000
2002,-46.875000
2003,-46.875000
2004,-46.875000
2005,-46.875000
2006,-46.875000
2007,-42.968750
2008,-42.968750
2009,-42.968750
2010,-39.062500
2011,-39.062500
2012,-39.062500
2013,-39.062500
2014,-39.062500
2015,-39.062500
2016,-35.156250
2017,-35.156250
2018,-35.156250
2019,-35.156250
2020,-35.156250
2021,-31.250000
2022,-31.250000
2023,-31.250000
2024,-31.250000
2025,-31.250000
2026,-27.343750
2027,-27.343750
2028,-27.343750
2029,-27.343750
2030,-27.343750
2031,-27.343750
2032,-23.437500
2033,-23.437500
2034,-23.437500
2035,-23.437500
2036,-23.437500
2037,-19.531250
2038,-19.531250
2039,-19.531250
2040,-19.531250
2041,-19.531250
2042,-15.625000
2043,-15.625000
2044,-15.625000
2045,-15.625000
2046,-15.625000
2047,-11.718750
2048,-11.718750
2049,-11.718750
2050,-11.718750
2051,-11.718750
2052,-11.718750
2053,-7.812500
2054,-7.812500
2055,-7.812500
2056,-7.812500
2057,-7.812500
2058,-3.906250
2059,-3.906250
2060,-3.906250
2061,-3.906250
2062,0.000000
2063,0.000000
2064,0.000000
2065,0.000000
2066,0.000000
2067,0.000000
2068,3.906250
2069,3.906250
2070,3.906250
2071,3.906250
2072,3.906250
2073,7.812500
2074,7.812500
2075,7.812500
2076,7.812500
2077,7.812500
2078,7.812500
2079,11.718750
2080,11.718750
2081,11.718750
2082,11.718750
2083,11.718750
2084,11.718750
2085,15.625000
2086,15.625000
2087,15.625000
2088,15.625000
2089,19.531250
2090,19.531250
2091,19.531250
2092,19.531250
2093,19.531250
2094,19.531250
2095,23.437500
2096,23.437500
2097,23.437500
2098,23.437500
2099,23.437500
2100,23.437500
2101,23.437500
2102,27.343750
2103,27.343750
2104,27.343750
2105,27.343750
2106,27.343750
2107,31.250000
2108,31.250000
2109,31.250000
2110,31.250000
2111,31.250000
2112,31.250000
2113,31.250000
2114,35.156250
2115,35.156250
2116,35.156250
2117,35.156250
2118,35.156250
2119,35.156250
2120,39.062500
2121,39.062500
2122,39.062500
2123,39.062500
2124,39.062500
2125,39.062500
2126,42.968750
2127,42.968750
2128,42.968750
2129,42.968750
2130,42.968750
2131,42.968750
2132,46.875000
2133,46.875000
2134,46.875000
2135,46.875000
2136,46.875000
2137,46.875000
2138,50.781250
2139,50.781250
2140,50.781250
2141,50.781250
2142,50.781250
2143,50.781250
2144,50.781250
2145,50.781250
2146,54.687500
2147,54.687500
2148,54.687500
2149,54.687500
2150,54.687500
2151,58.593750
2152,58.593750
2153,58.593750
2154,58.593750
2155,58.593750
2156,58.593750
2157,58.593750
2158,58.593750
2159,58.593750
2160,62.500000
2161,62.500000
2162,62.500000
2163,62.500000
2164,62.500000
2165,62.500000
2166,62.500000
2167,66.406250
2168,66.406250
2169,66.406250
2170,66.406250
2171,66.406250
2172,66.406250
2173,66.406250
2174,66.406250
2175,70.312500
2176,70.312500
2177,70.312500
2178,70.312500
2179,70.312500
2180,70.312500
2181,70.312500
2182,70.312500
2183,70.312500
2184,74.218750
2185,74.218750
2186,74.218750
2187,74.218750
2188,74.218750
2189,74.218750
2190,74.218750
2191,74.218750
2192,74.218750
2193,78.125000
2194,78.125000
2195,78.125000
2196,78.125000
2197,78.125000
2198,78.125000
2199,78.125000
2200,78.125000
2201,78.125000
2202,82.031250
2203,82.031250
2204,82.031250
2205,82.031250
2206,82.031250
2207,82.031250
2208,82.031250
2209,82.031250
2210,82.031250
2211,82.031250
2212,82.031250
2213,82.031250
2214,85.937500
2215,85.937500
2216,85.937500
2217,85.937500
2218,85.937500
2219,85.937500
2220,85.937500
2221,85.937500
2222,85.937500
2223,85.937500
2224,85.937500
2225,89.843750
2226,89.843750
2227,89.843750
2228,89.843750
2229,89.843750
2230,89.843750
2231,89.843750
2232,89.843750
2233,89.843750
2234,89.843750
2235,89.843750
2236,89.843750
2237,89.843750
2238,89.843750
2239,89.843750
2240,89.843750
2241,93.750000
2242,93.750000
2243,93.750000
2244,93.750000
2245,93.750000
2246,93.750000
2247,93.750000
2248,93.750000
2249,93.750000
2250,93.750000
2251,93.750000
2252,93.750000
2253,93.750000
2254,93.750000
2255,93.750000
2256,93.750000
2257,93.750000
2258,93.750000
2259,93.750000
2260,97.656250
2261,97.656250
2262,97.656250
2263,97.656250
2264,97.656250
2265,97.656250
2266,97.656250
2267,97.656250
2268,97.656250
2269,97.656250
2270,97.656250
2271,97.656250
2272,97.656250
2273,97.656250
2274,97.656250
2275,97.656250
2276,97.656250
2277,97.656250
2278,97.656250
2279,97.656250
2280,97.656250
2281,97.656250
2282,97.656250
2283,97.656250
2284,97.656250
2285,97.656250
2286,101.562500
2287,97.656250
2288,97.656250
2289,101.562500
2290,97.656250
2291,97.656250
2292,101.562500
2293,97.656250
2294,97.656250
2295,101.562500
2296,101.562500
2297,101.562500
2298,101.562500
2299,101.562500
2300,101.562500
2301,101.562500
2302,101.562500
2303,101.562500
2304,101.562500
2305,101.562500
2306,101.562500
2307,101.562500
2308,101.562500
2309,97.656250
2310,101.562500
2311,101.562500
2312,101.562500
2313,101.562500
2314,97.656250
2315,101.562500
2316,101.562500
2317,101.562500
2318,101.562500
2319,101.562500
2320,101.562500
2321,101.562500
2322,101.562500
2323,97.656250
2324,97.656250
2325,97.656250
2326,97.656250
2327,97.656250
2328,97.656250
2329,97.656250
2330,97.656250
2331,97.656250
2332,97.656250
2333,97.656250
2334,97.656250
2335,97.656250
2336,97.656250
2337,97.656250
2338,97.656250
2339,97.656250
2340,97.656250
2341,97.656250
2342,97.656250
2343,97.656250
2344,97.656250
2345,97.656250
2346,97.656250
2347,97.656250
2348,97.656250
2349,97.656250
2350,93.750000
2351,97.656250
2352,93.750000
2353,93.750000
2354,93.750000
2355,93.750000
2356,93.750000
2357,93.750000
2358,93.750000
2359,93.750000
2360,93.750000
2361,93.750000
2362,93.750000
2363,93.750000
2364,93.750000
2365,93.750000
2366,93.750000
2367,93.750000
2368,89.843750
2369,93.750000
2370,89.843750
2371,89.843750
2372,89.843750
2373,89.843750
2374,89.843750
2375,89.843750
2376,89.843750
2377,89.843750
2378,89.843750
2379,89.843750
2380,89.843750
2381,89.843750
2382,85.937500
2383,89.843750
2384,85.937500
2385,85.937500
2386,85.937500
2387,85.937500
2388,85.937500
2389,85.937500
2390,85.937500
2391,85.937500
2392,85.937500
2393,85.937500
2394,85.937500
2395,85.937500
2396,82.031250
2397,82.031250
2398,82.031250
2399,82.031250
2400,82.031250
2401,82.031250
2402,82.031250
2403,82.031250
2404,82.031250
2405,82.031250
2406,78.125000
2407,78.125000
2408,78.125000
2409,78.125000
2410,78.125000
2411,78.125000
2412,78.125000
2413,78.125000
2414,78.125000
2415,78.125000
2416,74.218750
2417,74.218750
2418,74.218750
2419,74.218750
2420,74.218750
2421,74.218750
2422,74.218750
2423,74.218750
2424,74.218750
2425,74.218750
2426,70.312500
2427,70.312500
2428,70.312500
2429,70.312500
2430,70.312500
2431,70.312500
2432,70.312500
2433,70.312500
2434,66.406250
2435,66.406250
2436,66.406250
2437,66.406250
2438,66.406250
2439,66.406250
2440,66.406250
2441,62.500000
2442,62.500000
2443,62.500000
2444,62.500000
2445,62.500000
2446,62.500000
2447,62.500000
2448,62.500000
2449,58.593750
2450,58.593750
2451,58.593750
2452,58.593750
2453,58.593750
2454,58.593750
2455,58.593750
2456,54.687500
2457,54.687500
2458,54.687500
2459,54.687500
2460,54.687500
2461,54.687500
2462,50.781250
2463,54.687500
2464,50.781250
2465,50.781250
2466,50.781250
2467,50.781250
2468,46.875000
2469,46.875000
2470,46.875000
2471,46.875000
2472,46.875000
2473,46.875000
2474,46.875000
2475,46.875000
2476,42.968750
2477,42.968750
2478,42.968750
2479,42.968750
2480,42.968750
2481,39.062500
2482,39.062500
2483,39.062500
2484,39.062500
2485,39.062500
2486,39.062500
2487,39.062500
2488,35.156250
2489,35.156250
2490,35.156250
2491,35.156250
2492,35.156250
2493,35.156250
2494,31.250000
2495,31.250000
2496,31.250000
2497,31.250000
2498,27.343750
2499,27.343750
2500,27.343750
2501,27.343750
2502,27.343750
2503,27.343750
2504,23.437500
2505,23.437500
2506,23.437500
2507,23.437500
2508,23.437500
2509,19.531250
2510,19.531250
2511,19.531250
2512,19.531250
2513,19.531250
2514,19.531250
2515,19.531250
2516,15.625000
2517,15.625000
2518,15.625000
2519,15.625000
2520,11.718750
2521,15.625000
2522,11.718750
2523,11.718750
2524,11.718750
2525,11.718750
2526,11.718750
2527,7.812500
2528,7.812500
2529,7.812500
2530,7.812500
2531,7.812500
2532,7.812500
2533,3.906250
2534,3.906250
2535,3.906250
2536,3.906250
2537,0.000000
2538,0.000000
2539,0.000000
2540,0.000000
2541,0.000000
2542,-3.906250
2543,0.000000
2544,-3.906250
2545,-3.906250
2546,-3.906250
2547,-3.906250
2548,-3.906250
2549,-7.812500
2550,-7.812500
2551,-7.812500
2552,-7.812500
2553,-7.812500
2554,-11.718750
2555,-11.718750
2556,-11.718750
2557,-11.718750
2558,-15.625000
2559,-15.625000
2560,-15.625000
2561,-15.625000
2562,-15.625000
2563,-15.625000
2564,-19.531250
2565,-19.531250
2566,-19.531250
2567,-19.531250
2568,-19.531250
2569,-23.437500
2570,-23.437500
2571,-23.437500
2572,-23.437500
2573,-23.437500
2574,-27.343750
2575,-27.343750
2576,-27.343750
2577,-27.343750
2578,-31.250000
2579,-31.250000
2580,-31.250000
2581,-31.250000
2582,-31.250000
2583,-31.250000
2584,-35.156250
2585,-35.156250
2586,-35.156250
2587,-35.156250
2588,-35.156250
2589,-39.062500
2590,-39.062500
2591,-39.062500
2592,-39.062500
2593,-39.062500
2594,-42.968750
2595,-42.968750
2596,-42.968750
2597,-42.968750
2598,-42.968750
2599,-42.968750
2600,-46.875000
2601,-46.875000
2602,-46.875000
2603,-46.875000
2604,-46.875000
2605,-50.781250
2606,-50.781250
2607,-50.781250
2608,-50.781250
2609,-50.781250
2610,-54.687500
2611,-54.687500
2612,-54.687500
2613,-54.687500
2614,-54.687500
2615,-58.593750
2616,-58.593750
2617,-58.593750
2618,-58.593750
2619,-58.593750
2620,-62.500000
2621,-62.500000
2622,-62.500000
2623,-62.500000
2624,-62.500000
2625,-62.500000
2626,-66.406250
2627,-66.406250
2628,-66.406250
2629,-66.406250
2630,-66.406250
2631,-70.312500
2632,-70.312500
2633,-70.312500
2634,-70.312500
2635,-74.218750
2636,-70.312500
2637,-74.218750
2638,-74.218750
2639,-74.218750
2640,-74.218750
2641,-74.218750
2642,-78.125000
2643,-78.125000
2644,-78.125000
2645,-78.125000
2646,-82.031250
2647,-78.125000
2648,-82.031250
2649,-82.031250
2650,-82.031250
2651,-82.031250
2652,-85.937500
2653,-85.937500
2654,-85.937500
2655,-85.937500
2656,-85.937500
2657,-85.937500
2658,-85.937500
2659,-85.937500
2660,-89.843750
2661,-89.843750
2662,-89.843750
2663,-89.843750
2664,-89.843750
2665,-93.750000
2666,-93.750000
2667,-93.750000
2668,-93.750000
2669,-93.750000
2670,-93.750000
2671,-93.750000
2672,-97.656250
2673,-97.656250
2674,-97.656250
2675,-97.656250
2676,-97.656250
2677,-97.656250
2678,-97.656250
2679,-101.562500
2680,-101.562500
2681,-101.562500
2682,-101.562500
2683,-101.562500
2684,-101.562500
2685,-101.562500
2686,-105.468750
2687,-105.468750
2688,-105.468750
2689,-105.468750
2690,-105.468750
2691,-105.468750
2692,-105.468750
2693,-105.468750
2694,-109.375000
2695,-109.375000
2696,-109.375000
2697,-109.375000
2698,-109.375000
2699,-109.375000
2700,-113.281250
2701,-109.375000
2702,-109.375000
2703,-113.281250
2704,-113.281250
2705,-113.281250
2706,-113.281250
2707,-113.281250
2708,-113.281250
2709,-113.281250
2710,-117.187500
2711,-117.187500
2712,-117.187500
2713,-117.187500
2714,-117.187500
2715,-117.187500
2716,-117.187500
2717,-117.187500
2718,-117.187500
2719,-117.187500
2720,-121.093750
2721,-121.093750
2722,-121.093750
2723,-121.093750
2724,-121.093750
2725,-121.093750
2726,-121.093750
2727,-121.093750
2728,-121.093750
2729,-125.000000
2730,-121.093750
2731,-125.000000
2732,-125.000000
2733,-125.000000
2734,-125.000000
2735,-125.000000
2736,-125.000000
2737,-125.000000
2738,-125.000000
2739,-125.000000
2740,-128.906250
2741,-128.906250
2742,-128.906250
2743,-125.000000
2744,-128.906250
2745,-128.906250
2746,-128.906250
2747,-128.906250
2748,-128.906250
2749,-128.906250
2750,-128.906250
2751,-128.906250
2752,-128.906250
2753,-128.906250
2754,-128.906250
2755,-128.906250
2756,-128.906250
2757,-128.906250
2758,-132.812500
2759,-132.812500
2760,-132.812500
2761,-132.812500
2762,-132.812500
2763,-132.812500
2764,-132.812500
2765,-132.812500
2766,-132.812500
2767,-132.812500
2768,-132.812500
2769,-132.812500
2770,-132.812500
2771,-132.812500
2772,-132.812500
2773,-132.812500
2774,-132.812500
2775,-132.812500
2776,-132.812500
2777,-132.812500
2778,-132.812500
2779,-132.812500
2780,-132.812500
2781,-136.718750
2782,-136.718750
2783,-132.812500
2784,-132.812500
2785,-132.812500
2786,-132.812500
2787,-132.812500
2788,-136.718750
2789,-132.812500
2790,-136.718750
2791,-136.718750
2792,-132.812500
2793,-136.718750
2794,-136.718750
2795,-136.718750
2796,-132.812500
2797,-132.812500
2798,-132.812500
2799,-132.812500
2800,-136.718750
2801,-132.812500
2802,-132.812500
2803,-132.812500
2804,-136.718750
2805,-132.812500
2806,-132.812500
2807,-132.812500
2808,-132.812500
2809,-132.812500
2810,-132.812500
2811,-132.812500
2812,-132.812500
2813,-132.812500
2814,-132.812500
2815,-132.812500
2816,-132.812500
2817,-132.812500
2818,-132.812500
2819,-132.812500
2820,-132.812500
2821,-132.812500
2822,-132.812500
2823,-132.812500
2824,-132.812500
2825,-132.812500
2826,-132.812500
2827,-132.812500
2828,-132.812500
2829,-132.812500
2830,-128.906250
2831,-132.812500
2832,-132.812500
2833,-132.812500
2834,-132.812500
2835,-128.906250
2836,-132.812500
2837,-128.906250
2838,-128.906250
2839,-128.906250
2840,-128.906250
2841,-128.906250
2842,-128.906250
2843,-128.906250
2844,-128.906250
2845,-128.906250
2846,-128.906250
2847,-128.906250
2848,-128.906250
2849,-128.906250
2850,-125.000000
2851,-125.000000
2852,-125.000000
2853,-125.000000
2854,-125.000000
2855,-125.000000
2856,-125.000000
2857,-125.000000
2858,-125.000000
2859,-125.000000
2860,-125.000000
2861,-125.000000
2862,-125.000000
2863,-121.093750
2864,-121.093750
2865,-125.000000
2866,-125.000000
2867,-121.093750
2868,-121.093750
2869,-121.093750
2870,-121.093750
2871,-117.187500
2872,-121.093750
2873,-121.093750
2874,-117.187500
2875,-117.187500
2876,-117.187500
2877,-117.187500
2878,-117.187500
2879,-117.187500
2880,-117.187500
2881,-117.187500
2882,-117.187500
2883,-113.281250
2884,-113.281250
2885,-113.281250
2886,-113.281250
2887,-113.281250
2888,-113.281250
2889,-113.281250
2890,-113.281250
2891,-113.281250
2892,-113.281250
2893,-109.375000
2894,-109.375000
2895,-109.375000
2896,-109.375000
2897,-109.375000
2898,-109.375000
2899,-109.375000
2900,-109.375000
2901,-105.468750
2902,-105.468750
2903,-109.375000
2904,-105.468750
2905,-105.468750
2906,-101.562500
2907,-101.562500
2908,-101.562500
2909,-101.562500
2910,-101.562500
2911,-101.562500
2912,-101.562500
2913,-101.562500
2914,-101.562500
2915,-97.656250
2916,-97.656250
2917,-97.656250
2918,-97.656250
2919,-97.656250
2920,-97.656250
2921,-97.656250
2922,-93.750000
2923,-93.750000
2924,-93.750000
2925,-93.750000
2926,-93.750000
2927,-89.843750
2928,-89.843750
2929,-89.843750
2930,-89.843750
2931,-89.843750
2932,-89.843750
2933,-85.937500
2934,-85.937500
2935,-85.937500
2936,-85.937500
2937,-85.937500
2938,-85.937500
2939,-82.031250
2940,-82.031250
2941,-82.031250
2942,-82.031250
2943,-82.031250
2944,-82.031250
2945,-82.031250
2946,-78.125000
2947,-78.125000
2948,-78.125000
2949,-78.125000
2950,-78.125000
2951,-78.125000
2952,-74.218750
2953,-74.218750
2954,-74.218750
2955,-74.218750
2956,-74.218750
2957,-74.218750
2958,-70.312500
2959,-70.312500
2960,-70.312500
2961,-70.312500
2962,-70.312500
2963,-66.406250
2964,-66.406250
2965,-66.406250
2966,-66.406250
2967,-66.406250
2968,-66.406250
2969,-62.500000
2970,-62.500000
2971,-62.500000
2972,-62.500000
2973,-62.500000
2974,-58.593750
2975,-58.593750
2976,-58.593750
2977,-58.593750
2978,-58.593750
2979,-58.593750
2980,-54.687500
2981,-54.687500
2982,-54.687500
2983,-54.687500
2984,-54.687500
2985,-50.781250
2986,-50.781250
2987,-50.781250
2988,-50.781250
2989,-50.781250
2990,-46.875000
2991,-46.875000
2992,-46.875000
2993,-46.875000
2994,-46.875000
2995,-42.968750
2996,-42.968750
2997,-42.968750
2998,-42.968750
2999,-42.968750
3000,-42.968750
3001,-39.062500
3002,-39.062500
3003,-39.062500
3004,-39.062500
3005,-39.062500
3006,-35.156250
3007,-35.156250
3008,-35.156250
3009,-35.156250
3010,-35.156250
3011,-31.250000
3012,-31.250000
3013,-31.250000
3014,-31.250000
3015,-31.250000
3016,-31.250000
3017,-27.343750
3018,-27.343750
3019,-27.343750
3020,-27.343750
3021,-27.343750
3022,-23.437500
3023,-23.437500
3024,-23.437500
3025,-23.437500
3026,-23.437500
3027,-19.531250
3028,-19.531250
3029,-19.531250
3030,-19.531250
3031,-19.531250
3032,-15.625000
3033,-15.625000
3034,-15.625000
3035,-15.625000
3036,-15.625000
3037,-11.718750
3038,-11.718750
3039,-11.718750
3040,-11.718750
3041,-11.718750
3042,-11.718750
3043,-7.812500
3044,-7.812500
3045,-7.812500
3046,-7.812500
3047,-7.812500
3048,-3.906250
3049,-3.906250
3050,-3.906250
3051,-3.906250
3052,0.000000
3053,0.000000
3054,0.000000
3055,0.000000
3056,0.000000
3057,0.000000
3058,3.906250
3059,3.906250
3060,3.906250
3061,3.906250
3062,3.906250
3063,7.812500
3064,7.812500
3065,7.812500
3066,7.812500
3067,7.812500
3068,11.718750
3069,11.718750
3070,11.718750
3071,11.718750
3072,11.718750
3073,11.718750
3074,15.625000
3075,15.625000
3076,15.625000
3077,15.625000
3078,15.625000
3079,15.625000
3080,19.531250
3081,19.531250
3082,19.531250
3083,19.531250
3084,19.531250
3085,23.437500
3086,23.437500
3087,23.437500
3088,23.437500
3089,23.437500
3090,23.437500
3091,27.343750
3092,27.343750
3093,27.343750
3094,27.343750
3095,27.343750
3096,27.343750
3097,31.250000
3098,31.250000
3099,31.250000
3100,31.250000
3101,31.250000
3102,31.250000
3103,35.156250
3104,35.156250
3105,31.250000
3106,35.156250
3107,35.156250
3108,35.156250
3109,39.062500
3110,39.062500
3111,39.062500
3112,39.062500
3113,39.062500
3114,39.062500
3115,42.968750
3116,42.968750
3117,42.968750
3118,42.968750
3119,42.968750
3120,42.968750
3121,42.968750
3122,46.875000
3123,46.875000
3124,46.875000
3125,46.875000
3126,46.875000
3127,46.875000
3128,46.875000
3129,50.781250
3130,50.781250
3131,50.781250
3132,50.781250
3133,50.781250
3134,50.781250
3135,54.687500
3136,54.687500
3137,54.687500
3138,54.687500
3139,54.687500
3140,54.687500
3141,54.687500
3142,54.687500
3143,58.593750
3144,58.593750
3145,58.593750
3146,58.593750
3147,58.593750
3148,58.593750
3149,58.593750
3150,58.593750
3151,62.500000
3152,62.500000
3153,62.500000
3154,62.500000
3155,62.500000
3156,62.500000
3157,66.406250
3158,66.406250
3159,66.406250
3160,66.406250
3161,66.406250
3162,66.406250
3163,66.406250
3164,66.406250
3165,66.406250
3166,66.406250
3167,70.312500
3168,70.312500
3169,70.312500
3170,70.312500
3171,70.312500
3172,70.312500
3173,74.218750
3174,74.218750
3175,74.218750
3176,74.218750
3177,74.218750
3178,74.218750
3179,74.218750
3180,74.218750
3181,74.218750
3182,74.218750
3183,78.125000
3184,78.125000
3185,78.125000
3186,78.125000
3187,78.125000
3188,78.125000
3189,78.125000
3190,78.125000
3191,78.125000
3192,78.125000
3193,82.031250
3194,82.031250
3195,82.031250
3196,82.031250
3197,82.031250
3198,82.031250
3199,82.031250
3200,82.031250
3201,82.031250
3202,82.031250
3203,82.031250
3204,82.031250
3205,85.937500
3206,85.937500
3207,85.937500
3208,85.937500
3209,85.937500
3210,85.937500
3211,85.937500
3212,85.937500
3213,85.937500
3214,85.937500
3215,89.843750
3216,89.843750
3217,89.843750
3218,89.843750
3219,89.843750
3220,89.843750
3221,89.843750
3222,89.843750
3223,89.843750
3224,89.843750
3225,89.843750
3226,89.843750
3227,89.843750
3228,89.843750
3229,89.843750
3230,93.750000
3231,93.750000
3232,93.750000
3233,93.750000
3234,93.750000
3235,93.750000
3236,93.750000
3237,93.750000
3238,93.750000
3239,93.750000
3240,93.750000
3241,93.750000
3242,93.750000
3243,93.750000
3244,93.750000
3245,93.750000
3246,93.750000
3247,93.750000
3248,93.750000
3249,93.750000
3250,93.750000
3251,93.750000
3252,97.656250
3253,97.656250
3254,97.656250
3255,97.656250
3256,97.656250
3257,97.656250
3258,97.656250
3259,97.656250
3260,97.656250
3261,97.656250
3262,97.656250
3263,97.656250
3264,97.656250
3265,97.656250
3266,97.656250
3267,97.656250
3268,97.656250
3269,97.656250
3270,97.656250
3271,97.656250
3272,97.656250
3273,97.656250
3274,97.656250
3275,97.656250
3276,97.656250
3277,97.656250
3278,97.656250
3279,97.656250
3280,97.656250
3281,97.656250
3282,97.656250
3283,97.656250
3284,97.656250
3285,97.656250
3286,97.656250
3287,97.656250
3288,97.656250
3289,97.656250
3290,97.656250
3291,97.656250
3292,97.656250
3293,97.656250
3294,97.656250
3295,97.656250
3296,97.656250
3297,101.562500
3298,97.656250
3299,97.656250
3300,97.656250
3301,97.656250
3302,97.656250
3303,97.656250
3304,97.656250
3305,97.656250
3306,97.656250
3307,97.656250
3308,97.656250
3309,97.656250
3310,97.656250
3311,97.656250
3312,97.656250
3313,97.656250
3314,97.656250
3315,97.656250
3316,97.656250
3317,97.656250
3318,97.656250
3319,97.656250
3320,97.656250
3321,97.656250
3322,97.656250
3323,97.656250
3324,97.656250
3325,97.656250
3326,97.656250
3327,97.656250
3328,97.656250
3329,97.656250
3330,97.656250
3331,97.656250
3332,97.656250
3333,97.656250
3334,97.656250
3335,97.656250
3336,93.750000
3337,97.656250
3338,97.656250
3339,93.750000
3340,93.750000
3341,93.750000
3342,93.750000
3343,93.750000
3344,93.750000
3345,93.750000
3346,93.750000
3347,93.750000
3348,93.750000
3349,93.750000
3350,93.750000
3351,93.750000
3352,93.750000
3353,93.750000
3354,93.750000
3355,93.750000
3356,93.750000
3357,93.750000
3358,93.750000
3359,89.843750
3360,89.843750
3361,89.843750
3362,89.843750
3363,89.843750
3364,89.843750
3365,89.843750
3366,89.843750
3367,89.843750
3368,89.843750
3369,89.843750
3370,89.843750
3371,89.843750
3372,89.843750
3373,89.843750
3374,85.937500
3375,85.937500
3376,85.937500
3377,85.937500
3378,85.937500
3379,85.937500
3380,85.937500
3381,85.937500
3382,85.937500
3383,85.937500
3384,85.937500
3385,85.937500
3386,82.031250
3387,82.031250
3388,82.031250
3389,82.031250
3390,82.031250
3391,82.031250
3392,82.031250
3393,82.031250
3394,82.031250
3395,82.031250
3396,78.125000
3397,78.125000
3398,78.125000
3399,78.125000
3400,78.125000
3401,78.125000
3402,78.125000
3403,78.125000
3404,78.125000
3405,78.125000
3406,74.218750
3407,74.218750
3408,74.218750
3409,74.218750
3410,74.218750
3411,74.218750
3412,74.218750
3413,74.218750
3414,70.312500
3415,70.312500
3416,70.312500
3417,70.312500
3418,70.312500
3419,70.312500
3420,70.312500
3421,70.312500
3422,66.406250
3423,66.406250
3424,66.406250
3425,66.406250
3426,66.406250
3427,66.406250
3428,66.406250
3429,66.406250
3430,66.406250
3431,62.500000
3432,62.500000
3433,62.500000
3434,62.500000
3435,62.500000
3436,62.500000
3437,62.500000
3438,58.593750
3439,58.593750
3440,58.593750
3441,58.593750
3442,58.593750
3443,58.593750
3444,58.593750
3445,58.593750
3446,54.687500
3447,54.687500
3448,54.687500
3449,54.687500
3450,54.687500
3451,54.687500
3452,50.781250
3453,50.781250
3454,50.781250
3455,50.781250
3456,50.781250
3457,50.781250
3458,50.781250
3459,46.875000
3460,46.875000
3461,46.875000
3462,46.875000
3463,46.875000
3464,42.968750
3465,42.968750
3466,42.968750
3467,42.968750
3468,42.968750
3469,42.968750
3470,42.968750
3471,39.062500
3472,39.062500
3473,39.062500
3474,39.062500
3475,39.062500
3476,39.062500
3477,39.062500
3478,35.156250
3479,35.156250
3480,35.156250
3481,35.156250
3482,35.156250
3483,31.250000
3484,31.250000
3485,31.250000
3486,31.250000
3487,31.250000
3488,31.250000
3489,27.343750
3490,27.343750
3491,27.343750
3492,27.343750
3493,27.343750
3494,23.437500
3495,23.437500
3496,23.437500
3497,23.437500
3498,23.437500
3499,19.531250
3500,19.531250
3501,19.531250
3502,19.531250
3503,19.531250
3504,19.531250
3505,19.531250
3506,15.625000
3507,15.625000
3508,15.625000
3509,15.625000
3510,15.625000
3511,11.718750
3512,11.718750
3513,11.718750
3514,11.718750
3515,11.718750
3516,7.812500
3517,7.812500
3518,7.812500
3519,7.812500
3520,7.812500
3521,7.812500
3522,3.906250
3523,3.906250
3524,3.906250
3525,3.906250
3526,0.000000
3527,0.000000
3528,0.000000
3529,0.000000
3530,0.000000
3531,0.000000
3532,-3.906250
3533,-3.906250
3534,-3.906250
3535,-3.906250
3536,-3.906250
3537,-7.812500
3538,-7.812500
3539,-7.812500
3540,-7.812500
3541,-7.812500
3542,-11.718750
3543,-11.718750
3544,-11.718750
3545,-11.718750
3546,-11.718750
3547,-15.625000
3548,-15.625000
3549,-15.625000
3550,-15.625000
3551,-15.625000
3552,-15.625000
3553,-19.531250
3554,-19.531250
3555,-19.531250
3556,-19.531250
3557,-23.437500
3558,-23.437500
3559,-19.531250
3560,-23.437500
3561,-23.437500
3562,-23.437500
3563,-27.343750
3564,-27.343750
3565,-27.343750
3566,-31.250000
3567,-31.250000
3568,-31.250000
3569,-31.250000
3570,-31.250000
3571,-31.250000
3572,-35.156250
3573,-35.156250
3574,-35.156250
3575,-35.156250
3576,-35.156250
3577,-35.156250
3578,-39.062500
3579,-39.062500
3580,-39.062500
3581,-39.062500
3582,-39.062500
3583,-42.968750
3584,-42.968750
3585,-42.968750
3586,-42.968750
3587,-42.968750
3588,-42.968750
3589,-46.875000
3590,-46.875000
3591,-46.875000
3592,-46.875000
3593,-50.781250
3594,-50.781250
3595,-50.781250
3596,-50.781250
3597,-50.781250
3598,-50.781250
3599,-54.687500
3600,-54.687500
3601,-54.687500
3602,-54.687500
3603,-54.687500
3604,-54.687500
3605,-58.593750
3606,-58.593750
3607,-58.593750
3608,-58.593750
3609,-62.500000
3610,-62.500000
3611,-62.500000
3612,-62.500000
3613,-62.500000
3614,-62.500000
3615,-66.406250
3616,-66.406250
3617,-66.406250
3618,-66.406250
3619,-66.406250
3620,-70.312500
3621,-70.312500
3622,-70.312500
3623,-70.312500
3624,-70.312500
3625,-70.312500
3626,-74.218750
3627,-74.218750
3628,-74.218750
3629,-74.218750
3630,-74.218750
3631,-78.125000
3632,-78.125000
3633,-78.125000
3634,-78.125000
3635,-78.125000
3636,-78.125000
3637,-82.031250
3638,-82.031250
3639,-82.031250
3640,-82.031250
3641,-82.031250
3642,-85.937500
3643,-85.937500
3644,-85.937500
3645,-85.937500
3646,-85.937500
3647,-85.937500
3648,-89.843750
3649,-89.843750
3650,-89.843750
3651,-89.843750
3652,-89.843750
3653,-89.843750
3654,-93.750000
3655,-93.750000
3656,-93.750000
3657,-93.750000
3658,-93.750000
3659,-93.750000
3660,-97.656250
3661,-97.656250
3662,-97.656250
3663,-97.656250
3664,-97.656250
3665,-97.656250
3666,-97.656250
3667,-97.656250
3668,-101.562500
3669,-101.562500
3670,-101.562500
3671,-101.562500
3672,-101.562500
3673,-101.562500
3674,-101.562500
3675,-105.468750
3676,-105.468750
3677,-105.468750
3678,-105.468750
3679,-105.468750
3680,-105.468750
3681,-109.375000
3682,-105.468750
3683,-109.375000
3684,-109.375000
3685,-109.375000
3686,-109.375000
3687,-109.375000
3688,-109.375000
3689,-109.375000
3690,-113.281250
3691,-113.281250
3692,-113.281250
3693,-113.281250
3694,-113.281250
3695,-113.281250
3696,-113.281250
3697,-113.281250
3698,-113.281250
3699,-113.281250
3700,-113.281250
3701,-117.187500
3702,-117.187500
3703,-117.187500
3704,-117.187500
3705,-117.187500
3706,-117.187500
3707,-117.187500
3708,-121.093750
3709,-117.187500
3710,-121.093750
3711,-121.093750
3712,-121.093750
3713,-121.093750
3714,-121.093750
3715,-121.093750
3716,-121.093750
3717,-121.093750
3718,-125.000000
3719,-125.000000
3720,-125.000000
3721,-125.000000
3722,-125.000000
3723,-125.000000
3724,-125.000000
3725,-125.000000
3726,-125.000000
3727,-125.000000
3728,-125.000000
3729,-125.000000
3730,-128.906250
3731,-128.906250
3732,-128.906250
3733,-128.906250
3734,-128.906250
3735,-128.906250
3736,-128.906250
3737,-128.906250
3738,-128.906250
3739,-128.906250
3740,-128.906250
3741,-128.906250
3742,-132.812500
3743,-128.906250
3744,-128.906250
3745,-132.812500
3746,-128.906250
3747,-132.812500
3748,-132.812500
3749,-132.812500
3750,-132.812500
3751,-132.812500
3752,-132.812500
3753,-132.812500
3754,-132.812500
3755,-132.812500
3756,-132.812500
3757,-132.812500
3758,-132.812500
3759,-132.812500
3760,-132.812500
3761,-132.812500
3762,-132.812500
3763,-132.812500
3764,-132.812500
3765,-132.812500
3766,-132.812500
3767,-136.718750
3768,-132.812500
3769,-136.718750
3770,-136.718750
3771,-136.718750
3772,-132.812500
3773,-132.812500
3774,-136.718750
3775,-136.718750
3776,-136.718750
3777,-136.718750
3778,-136.718750
3779,-136.718750
3780,-136.718750
3781,-136.718750
3782,-136.718750
3783,-136.718750
3784,-136.718750
3785,-136.718750
3786,-136.718750
3787,-136.718750
3788,-136.718750
3789,-136.718750
3790,-136.718750
3791,-136.718750
3792,-136.718750
3793,-136.718750
3794,-136.718750
3795,-136.718750
3796,-136.718750
3797,-136.718750
3798,-136.718750
3799,-136.718750
3800,-136.718750
3801,-136.718750
3802,-136.718750
3803,-132.812500
3804,-132.812500
3805,-136.718750
3806,-136.718750
3807,-132.812500
3808,-132.812500
3809,-132.812500
3810,-132.812500
3811,-132.812500
3812,-132.812500
3813,-132.812500
3814,-132.812500
3815,-132.812500
3816,-132.812500
3817,-132.812500
3818,-132.812500
3819,-132.812500
3820,-132.812500
3821,-132.812500
3822,-132.812500
3823,-132.812500
3824,-132.812500
3825,-132.812500
3826,-132.812500
3827,-132.812500
3828,-132.812500
3829,-128.906250
3830,-128.906250
3831,-128.906250
3832,-128.906250
3833,-128.906250
3834,-128.906250
3835,-128.906250
3836,-128.906250
3837,-128.906250
3838,-128.906250
3839,-128.906250
3840,-128.906250
3841,-125.000000
3842,-125.000000
3843,-125.000000
3844,-125.000000
3845,-125.000000
3846,-125.000000
3847,-125.000000
3848,-125.000000
3849,-125.000000
3850,-125.000000
3851,-125.000000
3852,-125.000000
3853,-121.093750
3854,-121.093750
3855,-121.093750
3856,-121.093750
3857,-121.093750
3858,-121.093750
3859,-121.093750
3860,-121.093750
3861,-121.093750
3862,-121.093750
3863,-121.093750
3864,-117.187500
3865,-117.187500
3866,-117.187500
3867,-117.187500
3868,-117.187500
3869,-117.187500
3870,-117.187500
3871,-117.187500
3872,-117.187500
3873,-113.281250
3874,-113.281250
3875,-113.281250
3876,-113.281250
3877,-113.281250
3878,-113.281250
3879,-113.281250
3880,-113.281250
3881,-109.375000
3882,-109.375000
3883,-109.375000
3884,-109.375000
3885,-109.375000
3886,-109.375000
3887,-109.375000
3888,-109.375000
3889,-109.375000
3890,-105.468750
3891,-105.468750
3892,-105.468750
3893,-105.468750
3894,-105.468750
3895,-105.468750
3896,-105.468750
3897,-105.468750
3898,-101.562500
3899,-101.562500
3900,-101.562500
3901,-101.562500
3902,-101.562500
3903,-101.562500
3904,-97.656250
3905,-97.656250
3906,-97.656250
3907,-97.656250
3908,-97.656250
3909,-97.656250
3910,-97.656250
3911,-97.656250
3912,-93.750000
3913,-93.750000
3914,-93.750000
3915,-93.750000
3916,-93.750000
3917,-93.750000
3918,-89.843750
3919,-89.843750
3920,-89.843750
3921,-89.843750
3922,-89.843750
3923,-89.843750
3924,-89.843750
3925,-85.937500
3926,-85.937500
3927,-85.937500
3928,-85.937500
3929,-85.937500
3930,-82.031250
3931,-85.937500
3932,-82.031250
3933,-82.031250
3934,-82.031250
3935,-82.031250
3936,-78.125000
3937,-78.125000
3938,-78.125000
3939,-78.125000
3940,-78.125000
3941,-78.125000
3942,-74.218750
3943,-74.218750
3944,-74.218750
3945,-74.218750
3946,-74.218750
3947,-74.218750
3948,-70.312500
3949,-70.312500
3950,-70.312500
3951,-70.312500
3952,-70.312500
3953,-66.406250
3954,-66.406250
3955,-66.406250
3956,-66.406250
3957,-66.406250
3958,-66.406250
3959,-62.500000
3960,-62.500000
3961,-62.500000
3962,-62.500000
3963,-62.500000
3964,-62.500000
3965,-58.593750
3966,-58.593750
3967,-58.593750
3968,-58.593750
3969,-58.593750
3970,-54.687500
3971,-54.687500
3972,-54.687500
3973,-54.687500
3974,-50.781250
3975,-50.781250
3976,-50.781250
3977,-50.781250
3978,-50.781250
3979,-50.781250
3980,-46.875000
3981,-46.875000
3982,-46.875000
3983,-46.875000
3984,-46.875000
3985,-42.968750
3986,-42.968750
3987,-42.968750
3988,-42.968750
3989,-42.968750
3990,-42.968750
3991,-39.062500
3992,-39.062500
3993,-39.062500
3994,-39.062500
3995,-39.062500
3996,-35.156250
3997,-35.156250
3998,-35.156250
3999,-35.156250
4000,-35.156250
4001,-35.156250
4002,-31.250000
4003,-31.250000
4004,-31.250000
4005,-31.250000
4006,-27.343750
4007,-27.343750
4008,-27.343750
4009,-27.343750
4010,-27.343750
4011,-23.437500
4012,-23.437500
4013,-23.437500
4014,-23.437500
4015,-23.437500
4016,-23.437500
4017,-19.531250
4018,-19.531250
4019,-19.531250
4020,-19.531250
4021,-19.531250
4022,-15.625000
4023,-15.625000
4024,-15.625000
4025,-15.625000
4026,-15.625000
4027,-11.718750
4028,-11.718750
4029,-11.718750
4030,-11.718750
4031,-11.718750
4032,-7.812500
4033,-7.812500
4034,-7.812500
4035,-7.812500
4036,-7.812500
4037,-7.812500
4038,-3.906250
4039,-3.906250
4040,-3.906250
4041,-3.906250
4042,0.000000
4043,0.000000
4044,0.000000
4045,0.000000
4046,0.000000
4047,0.000000
4048,0.000000
4049,3.906250
4050,3.906250
4051,3.906250
4052,7.812500
4053,7.812500
4054,7.812500
4055,7.812500
4056,7.812500
4057,7.812500
4058,7.812500
4059,7.812500
4060,11.718750
4061,11.718750
4062,11.718750
4063,11.718750
4064,11.718750
4065,15.625000
4066,15.625000
4067,15.625000
4068,15.625000
4069,15.625000
4070,15.625000
4071,19.531250
4072,19.531250
4073,19.531250
4074,19.531250
4075,23.437500
4076,23.437500
4077,23.437500
4078,23.437500
4079,23.437500
4080,23.437500
4081,23.437500
4082,27.343750
4083,27.343750
4084,27.343750
4085,27.343750
4086,27.343750
4087,31.250000
4088,31.250000
4089,31.250000
4090,31.250000
4091,31.250000
4092,31.250000
4093,31.250000
4094,35.156250
4095,35.156250
4096,35.156250
4097,35.156250
4098,35.156250
4099,39.062500
4100,39.062500
4101,39.062500
4102,39.062500
4103,39.062500
4104,39.062500
4105,42.968750
4106,42.968750
4107,42.968750
4108,42.968750
4109,42.968750
4110,42.968750
4111,46.875000
4112,46.875000
4113,46.875000
4114,46.875000
4115,46.875000
4116,46.875000
4117,50.781250
4118,50.781250
4119,50.781250
4120,50.781250
4121,50.781250
4122,50.781250
4123,50.781250
4124,50.781250
4125,54.687500
4126,54.687500
4127,54.687500
4128,54.687500
4129,54.687500
4130,58.593750
4131,54.687500
4132,54.687500
4133,58.593750
4134,58.593750
4135,58.593750
4136,58.593750
4137,58.593750
4138,62.500000
4139,62.500000
4140,62.500000
4141,62.500000
4142,62.500000
4143,62.500000
4144,62.500000
4145,62.500000
4146,62.500000
4147,62.500000
4148,66.406250
4149,66.406250
4150,66.406250
4151,66.406250
4152,66.406250
4153,66.406250
4154,70.312500
4155,70.312500
4156,70.312500
4157,70.312500
4158,70.312500
4159,70.312500
4160,70.312500
4161,70.312500
4162,70.312500
4163,70.312500
4164,74.218750
4165,74.218750
4166,74.218750
4167,74.218750
4168,74.218750
4169,74.218750
4170,74.218750
4171,74.218750
4172,78.125000
4173,78.125000
4174,78.125000
4175,78.125000
4176,78.125000
4177,78.125000
4178,78.125000
4179,78.125000
4180,78.125000
4181,78.125000
4182,78.125000
4183,82.031250
4184,82.031250
4185,82.031250
4186,82.031250
4187,82.031250
4188,82.031250
4189,82.031250
4190,82.031250
4191,82.031250
4192,85.937500
4193,85.937500
4194,85.937500
4195,82.031250
4196,82.031250
4197,85.937500
4198,85.937500
4199,85.937500
4200,85.937500
4201,85.937500
4202,85.937500
4203,85.937500
4204,85.937500
4205,85.937500
4206,85.937500
4207,89.843750
4208,89.843750
4209,89.843750
4210,89.843750
4211,89.843750
4212,89.843750
4213,89.843750
4214,89.843750
4215,89.843750
4216,89.843750
4217,89.843750
4218,89.843750
4219,89.843750
4220,89.843750
4221,93.750000
4222,93.750000
4223,93.750000
4224,93.750000
4225,93.750000
4226,93.750000
4227,93.750000
4228,93.750000
4229,93.750000
4230,93.750000
4231,93.750000
4232,93.750000
4233,93.750000
4234,93.750000
4235,93.750000
4236,93.750000
4237,93.750000
4238,93.750000
4239,97.656250
4240,97.656250
4241,97.656250
4242,97.656250
4243,97.656250
4244,97.656250
4245,97.656250
4246,97.656250
4247,97.656250
4248,97.656250
4249,97.656250
4250,97.656250
4251,97.656250
4252,97.656250
4253,101.562500
4254,97.656250
4255,97.656250
4256,97.656250
4257,97.656250
4258,97.656250
4259,101.562500
4260,101.562500
4261,101.562500
4262,97.656250
4263,97.656250
4264,97.656250
4265,101.562500
4266,101.562500
4267,97.656250
4268,97.656250
4269,97.656250
4270,97.656250
4271,101.562500
4272,101.562500
4273,101.562500
4274,101.562500
4275,101.562500
4276,101.562500
4277,101.562500
4278,101.562500
4279,101.562500
4280,101.562500
4281,97.656250
4282,101.562500
4283,101.562500
4284,97.656250
4285,101.562500
4286,101.562500
4287,101.562500
4288,97.656250
4289,101.562500
4290,97.656250
4291,101.562500
4292,101.562500
4293,97.656250
4294,101.562500
4295,101.562500
4296,101.562500
4297,97.656250
4298,97.656250
4299,97.656250
4300,97.656250
4301,97.656250
4302,97.656250
4303,101.562500
4304,97.656250
4305,101.562500
4306,97.656250
4307,97.656250
4308,97.656250
4309,97.656250
4310,97.656250
4311,97.656250
4312,97.656250
4313,97.656250
4314,97.656250
4315,97.656250
4316,97.656250
4317,97.656250
4318,97.656250
4319,97.656250
4320,97.656250
4321,97.656250
4322,97.656250
4323,97.656250
4324,97.656250
4325,97.656250
4326,97.656250
4327,97.656250
4328,93.750000
4329,93.750000
4330,93.750000
4331,93.750000
4332,93.750000
4333,93.750000
4334,93.750000
4335,93.750000
4336,93.750000
4337,93.750000
4338,93.750000
4339,93.750000
4340,93.750000
4341,93.750000
4342,93.750000
4343,93.750000
4344,93.750000
4345,93.750000
4346,89.843750
4347,93.750000
4348,93.750000
4349,89.843750
4350,89.843750
4351,89.843750
4352,89.843750
4353,89.843750
4354,89.843750
4355,89.843750
4356,89.843750
4357,89.843750
4358,89.843750
4359,89.843750
4360,85.937500
4361,89.843750
4362,89.843750
4363,89.843750
4364,89.843750
4365,85.937500
4366,85.937500
4367,85.937500
4368,85.937500
4369,85.937500
4370,85.937500
4371,85.937500
4372,85.937500
4373,85.937500
4374,85.937500
4375,85.937500
4376,82.031250
4377,82.031250
4378,85.937500
4379,82.031250
4380,82.031250
4381,82.031250
4382,82.031250
4383,82.031250
4384,82.031250
4385,82.031250
4386,78.125000
4387,82.031250
4388,78.125000
4389,78.125000
4390,78.125000
4391,78.125000
4392,78.125000
4393,78.125000
4394,78.125000
4395,74.218750
4396,74.218750
4397,74.218750
4398,74.218750
4399,74.218750
4400,74.218750
4401,74.218750
4402,74.218750
4403,74.218750
4404,70.312500
4405,70.312500
4406,70.312500
4407,70.312500
4408,70.312500
4409,70.312500
4410,70.312500
4411,70.312500
4412,70.312500
4413,66.406250
4414,66.406250
4415,66.406250
4416,66.406250
4417,66.406250
4418,66.406250
4419,66.406250
4420,62.500000
4421,62.500000
4422,62.500000
4423,62.500000
4424,62.500000
4425,62.500000
4426,58.593750
4427,58.593750
4428,58.593750
4429,58.593750
4430,58.593750
4431,58.593750
4432,58.593750
4433,58.593750
4434,54.687500
4435,54.687500
4436,54.687500
4437,54.687500
4438,54.687500
4439,54.687500
4440,54.687500
4441,50.781250
4442,50.781250
4443,50.781250
4444,50.781250
4445,50.781250
4446,46.875000
4447,46.875000
4448,46.875000
4449,46.875000
4450,46.875000
4451,46.875000
4452,46.875000
4453,46.875000
4454,42.968750
4455,42.968750
4456,42.968750
4457,42.968750
4458,42.968750
4459,42.968750
4460,39.062500
4461,39.062500
4462,39.062500
4463,39.062500
4464,39.062500
4465,39.062500
4466,35.156250
4467,39.062500
4468,35.156250
4469,35.156250
4470,35.156250
4471,35.156250
4472,31.250000
4473,31.250000
4474,31.250000
4475,31.250000
4476,31.250000
4477,31.250000
4478,27.343750
4479,27.343750
4480,27.343750
4481,27.343750
4482,27.343750
4483,23.437500
4484,23.437500
4485,23.437500
4486,23.437500
4487,23.437500
4488,23.437500
4489,23.437500
4490,19.531250
4491,19.531250
4492,19.531250
4493,19.531250
4494,19.531250
4495,15.625000
4496,15.625000
4497,15.625000
4498,15.625000
4499,15.625000
4500,15.625000
4501,11.718750
4502,11.718750
4503,11.718750
4504,11.718750
4505,11.718750
4506,7.812500
4507,7.812500
4508,7.812500
4509,7.812500
4510,3.906250
4511,7.812500
4512,3.906250
4513,3.906250
4514,3.906250
4515,3.906250
4516,3.906250
4517,0.000000
4518,0.000000
4519,0.000000
4520,0.000000
4521,0.000000
4522,-3.906250
4523,-3.906250
4524,-3.906250
4525,-3.906250
4526,-3.906250
4527,-7.812500
4528,-7.812500
4529,-7.812500
4530,-7.812500
4531,-7.812500
4532,-11.718750
4533,-11.718750
4534,-11.718750
4535,-11.718750
4536,-11.718750
4537,-15.625000
4538,-15.625000
4539,-15.625000
4540,-15.625000
4541,-15.625000
4542,-15.625000
4543,-19.531250
4544,-19.531250
4545,-19.531250
4546,-19.531250
4547,-23.437500
4548,-23.437500
4549,-23.437500
4550,-23.437500
4551,-23.437500
4552,-23.437500
4553,-27.343750
4554,-27.343750
4555,-27.343750
4556,-31.250000
4557,-27.343750
4558,-31.250000
4559,-31.250000
4560,-31.250000
4561,-31.250000
4562,-35.156250
4563,-35.156250
4564,-35.156250
4565,-35.156250
4566,-35.156250
4567,-35.156250
4568,-39.062500
4569,-39.062500
4570,-39.062500
4571,-42.968750
4572,-42.968750
4573,-42.968750
4574,-42.968750
4575,-42.968750
4576,-42.968750
4577,-42.968750
4578,-46.875000
4579,-46.875000
4580,-46.875000
4581,-46.875000
4582,-50.781250
4583,-50.781250
4584,-50.781250
4585,-50.781250
4586,-50.781250
4587,-50.781250
4588,-50.781250
4589,-54.687500
4590,-54.687500
4591,-54.687500
4592,-54.687500
4593,-58.593750
4594,-58.593750
4595,-58.593750
4596,-58.593750
4597,-58.593750
4598,-62.500000
4599,-62.500000
4600,-62.500000
4601,-62.500000
4602,-62.500000
4603,-66.406250
4604,-66.406250
4605,-66.406250
4606,-66.406250
4607,-66.406250
4608,-70.312500
4609,-70.312500
4610,-70.312500
4611,-70.312500
4612,-70.312500
4613,-70.312500
4614,-70.312500
4615,-74.218750
4616,-74.218750
4617,-74.218750
4618,-74.218750
4619,-74.218750
4620,-74.218750
4621,-78.125000
4622,-78.125000
4623,-78.125000
4624,-82.031250
4625,-78.125000
4626,-82.031250
4627,-82.031250
4628,-82.031250
4629,-82.031250
4630,-82.031250
4631,-82.031250
4632,-85.937500
4633,-85.937500
4634,-85.937500
4635,-85.937500
4636,-85.937500
4637,-89.843750
4638,-85.937500
4639,-89.843750
4640,-89.843750
4641,-89.843750
4642,-89.843750
4643,-89.843750
4644,-93.750000
4645,-93.750000
4646,-93.750000
4647,-93.750000
4648,-93.750000
4649,-93.750000
4650,-93.750000
4651,-97.656250
4652,-97.656250
4653,-97.656250
4654,-97.656250
4655,-97.656250
4656,-97.656250
4657,-97.656250
4658,-101.562500
4659,-101.562500
4660,-101.562500
4661,-101.562500
4662,-101.562500
4663,-101.562500
4664,-101.562500
4665,-105.468750
4666,-105.468750
4667,-105.468750
4668,-105.468750
4669,-105.468750
4670,-105.468750
4671,-105.468750
4672,-109.375000
4673,-109.375000
4674,-109.375000
4675,-109.375000
4676,-109.375000
4677,-109.375000
4678,-109.375000
4679,-113.281250
4680,-113.281250
4681,-113.281250
4682,-113.281250
4683,-113.281250
4684,-113.281250
4685,-113.281250
4686,-113.281250
4687,-113.281250
4688,-117.187500
4689,-117.187500
4690,-117.187500
4691,-117.187500
4692,-117.187500
4693,-117.187500
4694,-117.187500
4695,-121.093750
4696,-121.093750
4697,-121.093750
4698,-121.093750
4699,-121.093750
4700,-121.093750
4701,-121.093750
4702,-121.093750
4703,-121.093750
4704,-121.093750
4705,-125.000000
4706,-121.093750
4707,-121.093750
4708,-125.000000
4709,-125.000000
4710,-125.000000
4711,-125.000000
4712,-125.000000
4713,-125.000000
4714,-125.000000
4715,-125.000000
4716,-125.000000
4717,-128.906250
4718,-125.000000
4719,-128.906250
4720,-128.906250
4721,-128.906250
4722,-128.906250
4723,-128.906250
4724,-128.906250
4725,-128.906250
4726,-132.812500
4727,-128.906250
4728,-128.906250
4729,-132.812500
4730,-128.906250
4731,-128.906250
4732,-128.906250
4733,-132.812500
4734,-132.812500
4735,-132.812500
4736,-128.906250
4737,-132.812500
4738,-132.812500
4739,-132.812500
4740,-132.812500
4741,-132.812500
4742,-132.812500
4743,-132.812500
4744,-132.812500
4745,-132.812500
4746,-132.812500
4747,-132.812500
4748,-132.812500
4749,-128.906250
4750,-132.812500
4751,-132.812500
4752,-132.812500
4753,-132.812500
4754,-132.812500
4755,-132.812500
4756,-132.812500
4757,-132.812500
4758,-132.812500
4759,-132.812500
4760,-132.812500
4761,-132.812500
4762,-136.718750
4763,-132.812500
4764,-132.812500
4765,-136.718750
4766,-132.812500
4767,-136.718750
4768,-136.718750
4769,-136.718750
4770,-136.718750
4771,-136.718750
4772,-132.812500
4773,-132.812500
4774,-136.718750
4775,-136.718750
4776,-132.812500
4777,-136.718750
4778,-136.718750
4779,-136.718750
4780,-136.718750
4781,-136.718750
4782,-132.812500
4783,-132.812500
4784,-136.718750
4785,-136.718750
4786,-132.812500
4787,-136.718750
4788,-136.718750
4789,-132.812500
4790,-132.812500
4791,-132.812500
4792,-132.812500
4793,-132.812500
4794,-132.812500
4795,-132.812500
4796,-132.812500
4797,-132.812500
4798,-132.812500
4799,-132.812500
4800,-132.812500
4801,-132.812500
4802,-132.812500
4803,-132.812500
4804,-132.812500
4805,-132.812500
4806,-132.812500
4807,-132.812500
4808,-132.812500
4809,-132.812500
4810,-132.812500
4811,-132.812500
4812,-132.812500
4813,-132.812500
4814,-128.906250
4815,-128.906250
4816,-128.906250
4817,-128.906250
4818,-132.812500
4819,-128.906250
4820,-128.906250
4821,-128.906250
4822,-128.906250
4823,-128.906250
4824,-128.906250
4825,-128.906250
4826,-128.906250
4827,-128.906250
4828,-128.906250
4829,-125.000000
4830,-128.906250
4831,-128.906250
4832,-125.000000
4833,-125.000000
4834,-125.000000
4835,-125.000000
4836,-125.000000
4837,-125.000000
4838,-125.000000
4839,-125.000000
4840,-125.000000
4841,-125.000000
4842,-125.000000
4843,-125.000000
4844,-121.093750
4845,-121.093750
4846,-121.093750
4847,-121.093750
4848,-121.093750
4849,-121.093750
4850,-121.093750
4851,-121.093750
4852,-121.093750
4853,-117.187500
4854,-117.187500
4855,-117.187500
4856,-117.187500
4857,-117.187500
4858,-117.187500
4859,-117.187500
4860,-117.187500
4861,-117.187500
4862,-113.281250
4863,-113.281250
4864,-113.281250
4865,-113.281250
4866,-113.281250
4867,-113.281250
4868,-113.281250
4869,-113.281250
4870,-113.281250
4871,-109.375000
4872,-109.375000
4873,-109.375000
4874,-109.375000
4875,-109.375000
4876,-109.375000
4877,-109.375000
4878,-109.375000
4879,-105.468750
4880,-105.468750
4881,-105.468750
4882,-105.468750
4883,-105.468750
4884,-105.468750
4885,-105.468750
4886,-105.468750
4887,-101.562500
4888,-101.562500
4889,-101.562500
4890,-101.562500
4891,-101.562500
4892,-101.562500
4893,-97.656250
4894,-97.656250
4895,-97.656250
4896,-97.656250
4897,-97.656250
4898,-97.656250
4899,-93.750000
4900,-93.750000
4901,-93.750000
4902,-93.750000
4903,-93.750000
4904,-93.750000
4905,-93.750000
4906,-89.843750
4907,-89.843750
4908,-89.843750
4909,-89.843750
4910,-89.843750
4911,-89.843750
4912,-89.843750
4913,-85.937500
4914,-85.937500
4915,-85.937500
4916,-85.937500
4917,-85.937500
4918,-85.937500
4919,-82.031250
4920,-82.031250
4921,-82.031250
4922,-82.031250
4923,-78.125000
4924,-82.031250
4925,-78.125000
4926,-78.125000
4927,-78.125000
4928,-78.125000
4929,-78.125000
4930,-74.218750
4931,-74.218750
4932,-74.218750
4933,-74.218750
4934,-74.218750
4935,-74.218750
4936,-70.312500
4937,-70.312500
4938,-70.312500
4939,-70.312500
4940,-70.312500
4941,-70.312500
4942,-70.312500
4943,-66.406250
4944,-66.406250
4945,-66.406250
4946,-62.500000
4947,-62.500000
4948,-62.500000
4949,-62.500000
4950,-62.500000
4951,-62.500000
4952,-62.500000
4953,-58.593750
4954,-58.593750
4955,-58.593750
4956,-58.593750
4957,-58.593750
4958,-54.687500
4959,-54.687500
4960,-54.687500
4961,-54.687500
4962,-54.687500
4963,-54.687500
4964,-50.781250
4965,-50.781250
4966,-50.781250
4967,-50.781250
4968,-46.875000
4969,-46.875000
4970,-46.875000
4971,-46.875000
4972,-46.875000
4973,-46.875000
4974,-42.968750
4975,-42.968750
4976,-42.968750
4977,-42.968750
4978,-42.968750
4979,-42.968750
4980,-39.062500
4981,-39.062500
4982,-39.062500
4983,-39.062500
4984,-35.156250
4985,-35.156250
4986,-35.156250
4987,-35.156250
4988,-35.156250
4989,-35.156250
4990,-31.250000
4991,-31.250000
4992,-31.250000
4993,-31.250000
4994,-31.250000
4995,-31.250000
4996,-27.343750
4997,-27.343750
4998,-27.343750
4999,-27.343750
5000,-23.437500
5001,-23.437500
5002,-23.437500
5003,-23.437500
5004,-23.437500
5005,-23.437500
5006,-19.531250
5007,-19.531250
5008,-19.531250
5009,-19.531250
5010,-15.625000
5011,-15.625000
5012,-15.625000
5013,-15.625000
5014,-15.625000
5015,-11.718750
5016,-11.718750
5017,-11.718750
5018,-11.718750
5019,-11.718750
5020,-11.718750
5021,-7.812500
5022,-7.812500
5023,-7.812500
5024,-7.812500
5025,-7.812500
5026,-7.812500
5027,-3.906250
5028,-3.906250
5029,-3.906250
5030,-3.906250
5031,0.000000
5032,0.000000
5033,0.000000
5034,0.000000
5035,0.000000
5036,3.906250
5037,3.906250
5038,3.906250
5039,3.906250
5040,3.906250
5041,7.812500
5042,7.812500
5043,7.812500
5044,7.812500
5045,7.812500
5046,7.812500
5047,11.718750
5048,11.718750
5049,11.718750
5050,11.718750
5051,11.718750
5052,11.718750
5053,15.625000
5054,15.625000
5055,15.625000
5056,15.625000
5057,15.625000
5058,19.531250
5059,19.531250
5060,19.531250
5061,19.531250
5062,19.531250
5063,19.531250
5064,19.531250
5065,23.437500
5066,23.437500
5067,23.437500
5068,23.437500
5069,23.437500
5070,27.343750
5071,27.343750
5072,27.343750
5073,27.343750
5074,27.343750
5075,31.250000
5076,31.250000
5077,31.250000
5078,31.250000
5079,31.250000
5080,31.250000
5081,35.156250
5082,35.156250
5083,35.156250
5084,35.156250
5085,35.156250
5086,35.156250
5087,35.156250
5088,39.062500
5089,39.062500
5090,39.062500
5091,39.062500
5092,39.062500
5093,39.062500
5094,39.062500
5095,42.968750
5096,42.968750
5097,42.968750
5098,42.968750
5099,42.968750
5100,46.875000
5101,46.875000
5102,46.875000
5103,46.875000
5104,46.875000
5105,46.875000
5106,46.875000
5107,46.875000
5108,50.781250
5109,50.781250
5110,50.781250
5111,50.781250
5112,50.781250
5113,54.687500
5114,54.687500
5115,54.687500
5116,54.687500
5117,54.687500
5118,54.687500
5119,54.687500
5120,58.593750
5121,58.593750
5122,58.593750
5123,58.593750
5124,58.593750
5125,58.593750
5126,58.593750
5127,58.593750
5128,62.500000
5129,62.500000
5130,62.500000
5131,62.500000
5132,62.500000
5133,62.500000
5134,62.500000
5135,62.500000
5136,66.406250
5137,66.406250
5138,66.406250
5139,66.406250
5140,66.406250
5141,66.406250
5142,70.312500
5143,70.312500
5144,70.312500
5145,70.312500
5146,70.312500
5147,70.312500
5148,70.312500
5149,70.312500
5150,74.218750
5151,70.312500
5152,70.312500
5153,74.218750
5154,74.218750
5155,74.218750
5156,74.218750
5157,74.218750
5158,74.218750
5159,74.218750
5160,74.218750
5161,78.125000
5162,78.125000
5163,78.125000
5164,78.125000
5165,78.125000
5166,78.125000
5167,78.125000
5168,78.125000
5169,78.125000
5170,82.031250
5171,82.031250
5172,82.031250
5173,82.031250
5174,82.031250
5175,82.031250
5176,82.031250
5177,82.031250
5178,82.031250
5179,85.937500
5180,85.937500
5181,85.937500
5182,85.937500
5183,85.937500
5184,85.937500
5185,85.937500
5186,85.937500
5187,85.937500
5188,85.937500
5189,85.937500
5190,85.937500
5191,85.937500
5192,85.937500
5193,89.843750
5194,89.843750
5195,89.843750
5196,89.843750
5197,89.843750
5198,89.843750
5199,89.843750
5200,89.843750
5201,89.843750
5202,89.843750
5203,89.843750
5204,89.843750
5205,89.843750
5206,89.843750
5207,89.843750
5208,89.843750
5209,93.750000
5210,93.750000
5211,93.750000
5212,93.750000
5213,93.750000
5214,93.750000
5215,93.750000
5216,93.750000
5217,93.750000
5218,93.750000
5219,93.750000
5220,93.750000
5221,93.750000
5222,93.750000
5223,97.656250
5224,93.750000
5225,93.750000
5226,93.750000
5227,93.750000
5228,93.750000
5229,97.656250
5230,97.656250
5231,97.656250
5232,97.656250
5233,97.656250
5234,97.656250
5235,97.656250
5236,97.656250
5237,97.656250
5238,97.656250
5239,97.656250
5240,97.656250
5241,97.656250
5242,97.656250
5243,97.656250
5244,97.656250
5245,97.656250
5246,97.656250
5247,97.656250
5248,97.656250
5249,97.656250
5250,97.656250
5251,97.656250
5252,97.656250
5253,97.656250
5254,97.656250
5255,97.656250
5256,97.656250
5257,97.656250
5258,97.656250
5259,97.656250
5260,101.562500
5261,101.562500
5262,97.656250
5263,101.562500
5264,97.656250
5265,101.562500
5266,101.562500
5267,101.562500
5268,101.562500
5269,101.562500
5270,97.656250
5271,101.562500
5272,97.656250
5273,101.562500
5274,101.562500
5275,101.562500
5276,101.562500
5277,101.562500
5278,97.656250
5279,101.562500
5280,101.562500
5281,101.562500
5282,101.562500
5283,101.562500
5284,97.656250
5285,97.656250
5286,97.656250
5287,101.562500
5288,101.562500
5289,101.562500
5290,97.656250
5291,97.656250
5292,97.656250
5293,101.562500
5294,97.656250
5295,97.656250
5296,97.656250
5297,97.656250
5298,97.656250
5299,97.656250
5300,97.656250
5301,97.656250
5302,97.656250
5303,97.656250
5304,97.656250
5305,97.656250
5306,97.656250
5307,97.656250
5308,97.656250
5309,97.656250
5310,97.656250
5311,97.656250
5312,97.656250
5313,97.656250
5314,97.656250
5315,97.656250
5316,97.656250
5317,97.656250
5318,97.656250
5319,97.656250
5320,97.656250
5321,97.656250
5322,93.750000
5323,93.750000
5324,93.750000
5325,93.750000
5326,93.750000
5327,93.750000
5328,93.750000
5329,93.750000
5330,93.750000
5331,93.750000
5332,93.750000
5333,93.750000
5334,93.750000
5335,93.750000
5336,93.750000
5337,89.843750
5338,89.843750
5339,93.750000
5340,93.750000
5341,89.843750
5342,89.843750
5343,89.843750
5344,89.843750
5345,89.843750
5346,89.843750
5347,89.843750
5348,89.843750
5349,89.843750
5350,89.843750
5351,89.843750
5352,85.937500
5353,85.937500
5354,85.937500
5355,85.937500
5356,85.937500
5357,85.937500
5358,85.937500
5359,85.937500
5360,85.937500
5361,85.937500
5362,85.937500
5363,85.937500
5364,82.031250
5365,82.031250
5366,82.031250
5367,82.031250
5368,82.031250
5369,82.031250
5370,82.031250
5371,82.031250
5372,82.031250
5373,82.031250
5374,82.031250
5375,78.125000
5376,78.125000
5377,78.125000
5378,78.125000
5379,78.125000
5380,78.125000
5381,78.125000
5382,78.125000
5383,78.125000
5384,74.218750
5385,74.218750
5386,74.218750
5387,74.218750
5388,74.218750
5389,74.218750
5390,74.218750
5391,74.218750
5392,74.218750
5393,74.218750
5394,70.312500
5395,70.312500
5396,70.312500
5397,70.312500
5398,70.312500
5399,70.312500
5400,70.312500
5401,70.312500
5402,70.312500
5403,66.406250
5404,66.406250
5405,66.406250
5406,66.406250
5407,66.406250
5408,66.406250
5409,66.406250
5410,62.500000
5411,62.500000
5412,62.500000
5413,62.500000
5414,62.500000
5415,62.500000
5416,62.500000
5417,62.500000
5418,58.593750
5419,58.593750
5420,58.593750
5421,58.593750
5422,58.593750
5423,58.593750
5424,54.687500
5425,54.687500
5426,54.687500
5427,54.687500
5428,54.687500
5429,54.687500
5430,54.687500
5431,50.781250
5432,50.781250
5433,50.781250
5434,50.781250
5435,50.781250
5436,50.781250
5437,50.781250
5438,46.875000
5439,46.875000
5440,46.875000
5441,46.875000
5442,46.875000
5443,46.875000
5444,42.968750
5445,42.968750
5446,42.968750
5447,42.968750
5448,42.968750
5449,42.968750
5450,39.062500
5451,39.062500
5452,39.062500
5453,39.062500
5454,39.062500
5455,39.062500
5456,35.156250
5457,35.156250
5458,35.156250
5459,35.156250
5460,35.156250
5461,31.250000
5462,31.250000
5463,31.250000
5464,31.250000
5465,31.250000
5466,31.250000
5467,27.343750
5468,27.343750
5469,27.343750
5470,27.343750
5471,27.343750
5472,27.343750
5473,23.437500
5474,23.437500
5475,23.437500
5476,23.437500
5477,23.437500
5478,23.437500
5479,19.531250
5480,19.531250
5481,19.531250
5482,19.531250
5483,19.531250
5484,15.625000
5485,15.625000
5486,15.625000
5487,15.625000
5488,15.625000
5489,11.718750
5490,11.718750
5491,11.718750
5492,11.718750
5493,11.718750
5494,11.718750
5495,7.812500
5496,7.812500
5497,7.812500
5498,7.812500
5499,3.906250
5500,3.906250
5501,3.906250
5502,3.906250
5503,3.906250
5504,3.906250
5505,0.000000
5506,0.000000
5507,0.000000
5508,0.000000
5509,0.000000
5510,0.000000
5511,-3.906250
5512,-3.906250
5513,-3.906250
5514,-3.906250
5515,-3.906250
5516,-7.812500
5517,-7.812500
5518,-7.812500
5519,-7.812500
5520,-11.718750
5521,-11.718750
5522,-11.718750
5523,-11.718750
5524,-11.718750
5525,-11.718750
5526,-15.625000
5527,-15.625000
5528,-15.625000
5529,-15.625000
5530,-15.625000
5531,-15.625000
5532,-19.531250
5533,-19.531250
5534,-19.531250
5535,-19.531250
5536,-23.437500
5537,-23.437500
5538,-23.437500
5539,-23.437500
5540,-23.437500
5541,-27.343750
5542,-27.343750
5543,-27.343750
5544,-27.343750
5545,-27.343750
5546,-27.343750
5547,-31.250000
5548,-31.250000
5549,-31.250000
5550,-31.250000
5551,-31.250000
5552,-31.250000
5553,-35.156250
5554,-35.156250
5555,-35.156250
5556,-35.156250
5557,-39.062500
5558,-39.062500
5559,-39.062500
5560,-39.062500
5561,-39.062500
5562,-42.968750
5563,-42.968750
5564,-42.968750
5565,-42.968750
5566,-42.968750
5567,-42.968750
5568,-46.875000
5569,-46.875000
5570,-46.875000
5571,-46.875000
5572,-50.781250
5573,-50.781250
5574,-50.781250
5575,-50.781250
5576,-50.781250
5577,-54.687500
5578,-54.687500
5579,-54.687500
5580,-54.687500
5581,-54.687500
5582,-58.593750
5583,-58.593750
5584,-58.593750
5585,-58.593750
5586,-58.593750
5587,-58.593750
5588,-62.500000
5589,-62.500000
5590,-62.500000
5591,-62.500000
5592,-62.500000
5593,-66.406250
5594,-66.406250
5595,-66.406250
5596,-66.406250
5597,-66.406250
5598,-70.312500
5599,-70.312500
5600,-70.312500
5601,-70.312500
5602,-70.312500
5603,-70.312500
5604,-70.312500
5605,-74.218750
5606,-74.218750
5607,-74.218750
5608,-74.218750
5609,-78.125000
5610,-78.125000
5611,-78.125000
5612,-78.125000
5613,-78.125000
5614,-82.031250
5615,-82.031250
5616,-82.031250
5617,-82.031250
5618,-82.031250
5619,-82.031250
5620,-85.937500
5621,-85.937500
5622,-85.937500
5623,-85.937500
5624,-85.937500
5625,-85.937500
5626,-85.937500
5627,-89.843750
5628,-89.843750
5629,-89.843750
5630,-89.843750
5631,-89.843750
5632,-89.843750
5633,-89.843750
5634,-93.750000
5635,-93.750000
5636,-93.750000
5637,-93.750000
5638,-93.750000
5639,-93.750000
5640,-97.656250
5641,-97.656250
5642,-97.656250
5643,-97.656250
5644,-101.562500
5645,-97.656250
5646,-101.562500
5647,-101.562500
5648,-101.562500
5649,-101.562500
5650,-101.562500
5651,-101.562500
5652,-101.562500
5653,-101.562500
5654,-105.468750
5655,-105.468750
5656,-105.468750
5657,-105.468750
5658,-105.468750
5659,-105.468750
5660,-109.375000
5661,-105.468750
5662,-109.375000
5663,-109.375000
5664,-109.375000
5665,-109.375000
5666,-109.375000
5667,-109.375000
5668,-109.375000
5669,-113.281250
5670,-113.281250
5671,-113.281250
5672,-113.281250
5673,-113.281250
5674,-113.281250
5675,-113.281250
5676,-113.281250
5677,-113.281250
5678,-117.187500
5679,-117.187500
5680,-117.187500
5681,-117.187500
5682,-117.187500
5683,-117.187500
5684,-117.187500
5685,-117.187500
5686,-121.093750
5687,-121.093750
5688,-121.093750
5689,-121.093750
5690,-121.093750
5691,-121.093750
5692,-121.093750
5693,-121.093750
5694,-121.093750
5695,-125.000000
5696,-125.000000
5697,-125.000000
5698,-125.000000
5699,-125.000000
5700,-125.000000
5701,-125.000000
5702,-125.000000
5703,-125.000000
5704,-125.000000
5705,-125.000000
5706,-125.000000
5707,-125.000000
5708,-128.906250
5709,-128.906250
5710,-128.906250
5711,-128.906250
5712,-128.906250
5713,-128.906250
5714,-128.906250
5715,-128.906250
5716,-128.906250
5717,-128.906250
5718,-128.906250
5719,-128.906250
5720,-128.906250
5721,-132.812500
5722,-132.812500
5723,-128.906250
5724,-132.812500
5725,-132.812500
5726,-132.812500
5727,-132.812500
5728,-132.812500
5729,-132.812500
5730,-132.812500
5731,-132.812500
5732,-132.812500
5733,-132.812500
5734,-132.812500
5735,-132.812500
5736,-132.812500
5737,-132.812500
5738,-132.812500
5739,-132.812500
5740,-132.812500
5741,-132.812500
5742,-132.812500
5743,-132.812500
5744,-132.812500
5745,-136.718750
5746,-136.718750
5747,-132.812500
5748,-136.718750
5749,-136.718750
5750,-136.718750
5751,-136.718750
5752,-136.718750
5753,-136.718750
5754,-136.718750
5755,-136.718750
5756,-136.718750
5757,-132.812500
5758,-136.718750
5759,-136.718750
5760,-136.718750
5761,-136.718750
5762,-136.718750
5763,-136.718750
5764,-136.718750
5765,-136.718750
5766,-136.718750
5767,-136.718750
5768,-136.718750
5769,-136.718750
5770,-132.812500
5771,-136.718750
5772,-132.812500
5773,-132.812500
5774,-136.718750
5775,-136.718750
5776,-136.718750
5777,-132.812500
5778,-132.812500
5779,-136.718750
5780,-132.812500
5781,-136.718750
5782,-132.812500
5783,-132.812500
5784,-132.812500
5785,-132.812500
5786,-132.812500
5787,-132.812500
5788,-132.812500
5789,-132.812500
5790,-132.812500
5791,-132.812500
5792,-132.812500
5793,-132.812500
5794,-132.812500
5795,-132.812500
5796,-132.812500
5797,-132.812500
5798,-132.812500
5799,-132.812500
5800,-132.812500
5801,-128.906250
5802,-128.906250
5803,-128.906250
5804,-128.906250
5805,-128.906250
5806,-128.906250
5807,-128.906250
5808,-128.906250
5809,-128.906250
5810,-128.906250
5811,-128.906250
5812,-128.906250
5813,-128.906250
5814,-125.000000
5815,-128.906250
5816,-128.906250
5817,-125.000000
5818,-125.000000
5819,-125.000000
5820,-125.000000
5821,-125.000000
5822,-125.000000
5823,-125.000000
5824,-125.000000
5825,-125.000000
5826,-125.000000
5827,-125.000000
5828,-125.000000
5829,-125.000000
5830,-125.000000
5831,-121.093750
5832,-121.093750
5833,-121.093750
5834,-121.093750
5835,-121.093750
5836,-121.093750
5837,-121.093750
5838,-121.093750
5839,-121.093750
5840,-121.093750
5841,-117.187500
5842,-117.187500
5843,-117.187500
5844,-117.187500
5845,-117.187500
5846,-117.187500
5847,-117.187500
5848,-117.187500
5849,-117.187500
5850,-113.281250
5851,-113.281250
5852,-113.281250
5853,-113.281250
5854,-113.281250
5855,-113.281250
5856,-113.281250
5857,-113.281250
5858,-113.281250
5859,-113.281250
5860,-109.375000
5861,-109.375000
5862,-109.375000
5863,-109.375000
5864,-109.375000
5865,-109.375000
5866,-109.375000
5867,-109.375000
5868,-105.468750
5869,-105.468750
5870,-105.468750
5871,-105.468750
5872,-105.468750
5873,-105.468750
5874,-105.468750
5875,-101.562500
5876,-101.562500
5877,-101.562500
5878,-101.562500
5879,-101.562500
5880,-101.562500
5881,-97.656250
5882,-97.656250
5883,-97.656250
5884,-97.656250
5885,-97.656250
5886,-97.656250
5887,-97.656250
5888,-97.656250
5889,-93.750000
5890,-93.750000
5891,-89.843750
5892,-93.750000
5893,-93.750000
5894,-89.843750
5895,-93.750000
5896,-89.843750
5897,-89.843750
5898,-89.843750
5899,-89.843750
5900,-85.937500
5901,-85.937500
5902,-85.937500
5903,-85.937500
5904,-85.937500
5905,-85.937500
5906,-82.031250
5907,-82.031250
5908,-82.031250
5909,-82.031250
5910,-82.031250
5911,-78.125000
5912,-85.937500
5913,-78.125000
5914,-78.125000
5915,-78.125000
5916,-78.125000
5917,-78.125000
5918,-78.125000
5919,-78.125000
5920,-74.218750
5921,-74.218750
5922,-74.218750
5923,-74.218750
5924,-74.218750
5925,-74.218750
5926,-70.312500
5927,-70.312500
5928,-70.312500
5929,-66.406250
5930,-66.406250
5931,-66.406250
5932,-66.406250
5933,-66.406250
5934,-66.406250
5935,-62.500000
5936,-62.500000
5937,-62.500000
5938,-62.500000
5939,-62.500000
5940,-62.500000
5941,-58.593750
5942,-58.593750
5943,-58.593750
5944,-58.593750
5945,-58.593750
5946,-58.593750
5947,-54.687500
5948,-54.687500
5949,-54.687500
5950,-54.687500
5951,-54.687500
5952,-50.781250
5953,-50.781250
5954,-50.781250
5955,-50.781250
5956,-50.781250
5957,-50.781250
5958,-46.875000
5959,-46.875000
5960,-46.875000
5961,-42.968750
5962,-46.875000
5963,-42.968750
5964,-42.968750
5965,-42.968750
5966,-42.968750
5967,-39.062500
5968,-42.968750
5969,-39.062500
5970,-39.062500
5971,-39.062500
5972,-39.062500
5973,-35.156250
5974,-39.062500
5975,-35.156250
5976,-35.156250
5977,-31.250000
5978,-35.156250
5979,-31.250000
5980,-31.250000
5981,-31.250000
5982,-31.250000
5983,-27.343750
5984,-27.343750
5985,-27.343750
5986,-27.343750
5987,-27.343750
5988,-23.437500
5989,-23.437500
5990,-23.437500
5991,-23.437500
5992,-23.437500
5993,-23.437500
5994,-23.437500
5995,-19.531250
5996,-19.531250
5997,-19.531250
5998,-19.531250
5999,-15.625000
6000,-19.531250
6001,-15.625000
6002,-15.625000
6003,-15.625000
6004,-15.625000
6005,-11.718750
6006,-11.718750
6007,-11.718750
6008,-11.718750
6009,-11.718750
6010,-7.812500
6011,-7.812500
6012,-7.812500
6013,-7.812500
6014,-3.906250
6015,-7.812500
6016,-3.906250
6017,-3.906250
6018,-3.906250
6019,-3.906250
6020,0.000000
6021,0.000000
6022,0.000000
6023,0.000000
6024,0.000000
6025,0.000000
6026,3.906250
6027,3.906250
6028,3.906250
6029,3.906250
6030,3.906250
6031,3.906250
6032,7.812500
6033,7.812500
6034,7.812500
6035,11.718750
6036,11.718750
6037,11.718750
6038,11.718750
6039,11.718750
6040,11.718750
6041,15.625000
6042,15.625000
6043,15.625000
6044,15.625000
6045,15.625000
6046,15.625000
6047,15.625000
6048,19.531250
6049,19.531250
6050,19.531250
6051,19.531250
6052,23.437500
6053,23.437500
6054,23.437500
6055,23.437500
6056,23.437500
6057,23.437500
6058,27.343750
6059,27.343750
6060,27.343750
6061,27.343750
6062,27.343750
6063,27.343750
6064,31.250000
6065,31.250000
6066,31.250000
6067,31.250000
6068,31.250000
6069,31.250000
6070,35.156250
6071,35.156250
6072,35.156250
6073,35.156250
6074,35.156250
6075,35.156250
6076,39.062500
6077,39.062500
6078,39.062500
6079,39.062500
6080,39.062500
6081,39.062500
6082,42.968750
6083,42.968750
6084,42.968750
6085,42.968750
6086,42.968750
6087,42.968750
6088,42.968750
6089,46.875000
6090,46.875000
6091,46.875000
6092,46.875000
6093,46.875000
6094,46.875000
6095,50.781250
6096,50.781250
6097,50.781250
6098,50.781250
6099,50.781250
6100,50.781250
6101,50.781250
6102,54.687500
6103,54.687500
6104,54.687500
6105,54.687500
6106,54.687500
6107,54.687500
6108,54.687500
6109,54.687500
6110,58.593750
6111,58.593750
6112,58.593750
6113,58.593750
6114,58.593750
6115,62.500000
6116,58.593750
6117,62.500000
6118,62.500000
6119,62.500000
6120,62.500000
6121,62.500000
6122,62.500000
6123,66.406250
6124,66.406250
6125,66.406250
6126,66.406250
6127,66.406250
6128,66.406250
6129,66.406250
6130,66.406250
6131,66.406250
6132,66.406250
6133,70.312500
6134,70.312500
6135,70.312500
6136,70.312500
6137,70.312500
6138,70.312500
6139,70.312500
6140,70.312500
6141,70.312500
6142,74.218750
6143,74.218750
6144,74.218750
6145,74.218750
6146,74.218750
6147,74.218750
6148,74.218750
6149,78.125000
6150,78.125000
6151,78.125000
6152,78.125000
6153,78.125000
6154,78.125000
6155,78.125000
6156,78.125000
6157,78.125000
6158,78.125000
6159,78.125000
6160,82.031250
6161,82.031250
6162,82.031250
6163,82.031250
6164,82.031250
6165,82.031250
6166,82.031250
6167,82.031250
6168,82.031250
6169,82.031250
6170,85.937500
6171,82.031250
6172,85.937500
6173,85.937500
6174,85.937500
6175,85.937500
6176,85.937500
6177,85.937500
6178,85.937500
6179,85.937500
6180,85.937500
6181,85.937500
6182,89.843750
6183,89.843750
6184,89.843750
6185,89.843750
6186,89.843750
6187,89.843750
6188,89.843750
6189,89.843750
6190,89.843750
6191,89.843750
6192,89.843750
6193,89.843750
6194,89.843750
6195,93.750000
6196,93.750000
6197,93.750000
6198,93.750000
6199,93.750000
6200,93.750000
6201,93.750000
6202,93.750000
6203,93.750000
6204,93.750000
6205,93.750000
6206,93.750000
6207,93.750000
6208,97.656250
6209,97.656250
6210,93.750000
6211,97.656250
6212,93.750000
6213,97.656250
6214,97.656250
6215,97.656250
6216,97.656250
6217,97.656250
6218,97.656250
6219,97.656250
6220,97.656250
6221,97.656250
6222,97.656250
6223,97.656250
6224,97.656250
6225,97.656250
6226,97.656250
6227,97.656250
6228,97.656250
6229,97.656250
6230,97.656250
6231,97.656250
6232,97.656250
6233,97.656250
6234,97.656250
6235,97.656250
6236,97.656250
6237,97.656250
6238,97.656250
6239,101.562500
6240,97.656250
6241,97.656250
6242,101.562500
6243,97.656250
6244,101.562500
6245,101.562500
6246,101.562500
6247,97.656250
6248,101.562500
6249,101.562500
6250,101.562500
6251,97.656250
6252,101.562500
6253,101.562500
6254,101.562500
6255,97.656250
6256,101.562500
6257,101.562500
6258,101.562500
6259,101.562500
6260,101.562500
6261,101.562500
6262,101.562500
6263,101.562500
6264,101.562500
6265,101.562500
6266,101.562500
6267,101.562500
6268,97.656250
6269,101.562500
6270,101.562500
6271,101.562500
6272,101.562500
6273,101.562500
6274,101.562500
6275,101.562500
6276,101.562500
6277,97.656250
6278,97.656250
6279,97.656250
6280,97.656250
6281,97.656250
6282,101.562500
6283,101.562500
6284,97.656250
6285,97.656250
6286,97.656250
6287,97.656250
6288,97.656250
6289,97.656250
6290,97.656250
6291,97.656250
6292,97.656250
6293,97.656250
6294,97.656250
6295,97.656250
6296,97.656250
6297,97.656250
6298,97.656250
6299,97.656250
6300,97.656250
6301,97.656250
6302,97.656250
6303,97.656250
6304,97.656250
6305,97.656250
6306,97.656250
6307,97.656250
6308,93.750000
6309,93.750000
6310,93.750000
6311,93.750000
6312,93.750000
6313,97.656250
6314,93.750000
6315,93.750000
6316,93.750000
6317,93.750000
6318,93.750000
6319,93.750000
6320,93.750000
6321,93.750000
6322,93.750000
6323,93.750000
6324,93.750000
6325,93.750000
6326,89.843750
6327,89.843750
6328,89.843750
6329,89.843750
6330,89.843750
6331,89.843750
6332,89.843750
6333,89.843750
6334,89.843750
6335,89.843750
6336,89.843750
6337,89.843750
6338,89.843750
6339,89.843750
6340,89.843750
6341,89.843750
6342,89.843750
6343,85.937500
6344,85.937500
6345,85.937500
6346,85.937500
6347,85.937500
6348,85.937500
6349,85.937500
6350,85.937500
6351,85.937500
6352,85.937500
6353,85.937500
6354,82.031250
6355,82.031250
6356,82.031250
6357,82.031250
6358,82.031250
6359,82.031250
6360,82.031250
6361,82.031250
6362,82.031250
6363,82.031250
6364,78.125000
6365,78.125000
6366,82.031250
6367,78.125000
6368,78.125000
6369,82.031250
6370,78.125000
6371,78.125000
6372,78.125000
6373,74.218750
6374,74.218750
6375,78.125000
6376,74.218750
6377,74.218750
6378,74.218750
6379,74.218750
6380,74.218750
6381,74.218750
6382,70.312500
6383,70.312500
6384,70.312500
6385,74.218750
6386,70.312500
6387,70.312500
6388,70.312500
6389,70.312500
6390,66.406250
6391,66.406250
6392,66.406250
6393,66.406250
6394,66.406250
6395,66.406250
6396,66.406250
6397,62.500000
6398,62.500000
6399,62.500000
6400,62.500000
6401,62.500000
6402,62.500000
6403,62.500000
6404,62.500000
6405,58.593750
6406,58.593750
6407,58.593750
6408,58.593750
6409,58.593750
6410,58.593750
6411,58.593750
6412,58.593750
6413,54.687500
6414,54.687500
6415,54.687500
6416,54.687500
6417,54.687500
6418,54.687500
6419,54.687500
6420,50.781250
6421,50.781250
6422,50.781250
6423,50.781250
6424,50.781250
6425,50.781250
6426,50.781250
6427,46.875000
6428,46.875000
6429,46.875000
6430,46.875000
6431,46.875000
6432,46.875000
6433,42.968750
6434,42.968750
6435,42.968750
6436,42.968750
6437,42.968750
6438,42.968750
6439,39.062500
6440,39.062500
6441,39.062500
6442,39.062500
6443,39.062500
6444,39.062500
6445,39.062500
6446,35.156250
6447,35.156250
6448,35.156250
6449,35.156250
6450,35.156250
6451,31.250000
6452,31.250000
6453,31.250000
6454,31.250000
6455,31.250000
6456,27.343750
6457,27.343750
6458,27.343750
6459,27.343750
6460,27.343750
6461,27.343750
6462,27.343750
6463,23.437500
6464,23.437500
6465,23.437500
6466,23.437500
6467,23.437500
6468,23.437500
6469,19.531250
6470,19.531250
6471,19.531250
6472,19.531250
6473,19.531250
6474,15.625000
6475,15.625000
6476,15.625000
6477,15.625000
6478,15.625000
6479,15.625000
6480,11.718750
6481,11.718750
6482,11.718750
6483,11.718750
6484,7.812500
6485,7.812500
6486,7.812500
6487,7.812500
6488,7.812500
6489,7.812500
6490,3.906250
6491,3.906250
6492,3.906250
6493,3.906250
6494,3.906250
6495,0.000000
6496,0.000000
6497,0.000000
6498,0.000000
6499,0.000000
6500,-3.906250
6501,-3.906250
6502,-3.906250
6503,-3.906250
6504,-3.906250
6505,-7.812500
6506,-7.812500
6507,-7.812500
6508,-7.812500
6509,-7.812500
6510,-7.812500
6511,-11.718750
6512,-11.718750
6513,-11.718750
6514,-11.718750
6515,-15.625000
6516,-15.625000
6517,-15.625000
6518,-15.625000
6519,-15.625000
6520,-19.531250
6521,-19.531250
6522,-19.531250
6523,-19.531250
6524,-19.531250
6525,-23.437500
6526,-23.437500
6527,-23.437500
6528,-23.437500
6529,-23.437500
6530,-27.343750
6531,-27.343750
6532,-27.343750
6533,-27.343750
6534,-27.343750
6535,-31.250000
6536,-31.250000
6537,-31.250000
6538,-31.250000
6539,-31.250000
6540,-35.156250
6541,-35.156250
6542,-35.156250
6543,-35.156250
6544,-35.156250
6545,-35.156250
6546,-39.062500
6547,-39.062500
6548,-39.062500
6549,-39.062500
6550,-39.062500
6551,-42.968750
6552,-42.968750
6553,-42.968750
6554,-42.968750
6555,-42.968750
6556,-46.875000
6557,-46.875000
6558,-46.875000
6559,-46.875000
6560,-50.781250
6561,-50.781250
6562,-50.781250
6563,-50.781250
6564,-50.781250
6565,-50.781250
6566,-54.687500
6567,-54.687500
6568,-54.687500
6569,-54.687500
6570,-54.687500
6571,-54.687500
6572,-58.593750
6573,-58.593750
6574,-58.593750
6575,-58.593750
6576,-62.500000
6577,-58.593750
6578,-62.500000
6579,-62.500000
6580,-62.500000
6581,-62.500000
6582,-66.406250
6583,-66.406250
6584,-66.406250
6585,-66.406250
6586,-66.406250
6587,-70.312500
6588,-70.312500
6589,-70.312500
6590,-70.312500
6591,-70.312500
6592,-70.312500
6593,-74.218750
6594,-74.218750
6595,-74.218750
6596,-74.218750
6597,-74.218750
6598,-74.218750
6599,-74.218750
6600,-78.125000
6601,-78.125000
6602,-78.125000
6603,-78.125000
6604,-78.125000
6605,-82.031250
6606,-82.031250
6607,-82.031250
6608,-82.031250
6609,-82.031250
6610,-85.937500
6611,-85.937500
6612,-85.937500
6613,-85.937500
6614,-85.937500
6615,-85.937500
6616,-85.937500
6617,-89.843750
6618,-89.843750
6619,-89.843750
6620,-89.843750
6621,-89.843750
6622,-89.843750
6623,-93.750000
6624,-93.750000
6625,-93.750000
6626,-93.750000
6627,-93.750000
6628,-93.750000
6629,-97.656250
6630,-97.656250
6631,-97.656250
6632,-97.656250
6633,-97.656250
6634,-97.656250
6635,-97.656250
6636,-101.562500
6637,-101.562500
6638,-101.562500
6639,-101.562500
6640,-101.562500
6641,-101.562500
6642,-105.468750
6643,-101.562500
6644,-105.468750
6645,-105.468750
6646,-105.468750
6647,-105.468750
6648,-105.468750
6649,-105.468750
6650,-109.375000
6651,-109.375000
6652,-109.375000
6653,-109.375000
6654,-109.375000
6655,-109.375000
6656,-109.375000
6657,-109.375000
6658,-113.281250
6659,-113.281250
6660,-113.281250
6661,-113.281250
6662,-113.281250
6663,-113.281250
6664,-113.281250
6665,-117.187500
6666,-117.187500
6667,-117.187500
6668,-117.187500
6669,-117.187500
6670,-117.187500
6671,-117.187500
6672,-117.187500
6673,-117.187500
6674,-121.093750
6675,-121.093750
6676,-117.187500
6677,-121.093750
6678,-121.093750
6679,-121.093750
6680,-121.093750
6681,-121.093750
6682,-121.093750
6683,-121.093750
6684,-125.000000
6685,-121.093750
6686,-125.000000
6687,-125.000000
6688,-125.000000
6689,-125.000000
6690,-125.000000
6691,-125.000000
6692,-125.000000
6693,-125.000000
6694,-125.000000
6695,-125.000000
6696,-125.000000
6697,-125.000000
6698,-128.906250
6699,-128.906250
6700,-128.906250
6701,-128.906250
6702,-128.906250
6703,-128.906250
6704,-128.906250
6705,-128.906250
6706,-128.906250
6707,-128.906250
6708,-128.906250
6709,-128.906250
6710,-128.906250
6711,-128.906250
6712,-128.906250
6713,-128.906250
6714,-128.906250
6715,-128.906250
6716,-132.812500
6717,-132.812500
6718,-132.812500
6719,-132.812500
6720,-132.812500
6721,-132.812500
6722,-132.812500
6723,-132.812500
6724,-132.812500
6725,-132.812500
6726,-132.812500
6727,-132.812500
6728,-132.812500
6729,-132.812500
6730,-132.812500
6731,-132.812500
6732,-132.812500
6733,-132.812500
6734,-132.812500
6735,-132.812500
6736,-136.718750
6737,-132.812500
6738,-132.812500
6739,-132.812500
6740,-132.812500
6741,-132.812500
6742,-132.812500
6743,-136.718750
6744,-136.718750
6745,-136.718750
6746,-136.718750
6747,-136.718750
6748,-136.718750
6749,-136.718750
6750,-136.718750
6751,-136.718750
6752,-136.718750
6753,-136.718750
6754,-136.718750
6755,-136.718750
6756,-136.718750
6757,-136.718750
6758,-136.718750
6759,-136.718750
6760,-136.718750
6761,-136.718750
6762,-132.812500
6763,-136.718750
6764,-132.812500
6765,-136.718750
6766,-136.718750
6767,-136.718750
6768,-132.812500
6769,-132.812500
6770,-132.812500
6771,-132.812500
6772,-136.718750
6773,-136.718750
6774,-132.812500
6775,-132.812500
6776,-132.812500
6777,-132.812500
6778,-132.812500
6779,-132.812500
6780,-132.812500
6781,-132.812500
6782,-132.812500
6783,-132.812500
6784,-132.812500
6785,-132.812500
6786,-132.812500
6787,-132.812500
6788,-132.812500
6789,-132.812500
6790,-132.812500
6791,-132.812500
6792,-132.812500
6793,-128.906250
6794,-128.906250
6795,-128.906250
6796,-128.906250
6797,-128.906250
6798,-128.906250
6799,-128.906250
6800,-128.906250
6801,-128.906250
6802,-128.906250
6803,-128.906250
6804,-128.906250
6805,-128.906250
6806,-128.906250
6807,-128.906250
6808,-128.906250
6809,-125.000000
6810,-125.000000
6811,-125.000000
6812,-125.000000
6813,-125.000000
6814,-125.000000
6815,-125.000000
6816,-125.000000
6817,-125.000000
6818,-125.000000
6819,-125.000000
6820,-121.093750
6821,-121.093750
6822,-121.093750
6823,-121.093750
6824,-121.093750
6825,-121.093750
6826,-121.093750
6827,-121.093750
6828,-121.093750
6829,-121.093750
6830,-117.187500
6831,-117.187500
6832,-117.187500
6833,-117.187500
6834,-117.187500
6835,-117.187500
6836,-117.187500
6837,-117.187500
6838,-117.187500
6839,-117.187500
6840,-113.281250
6841,-113.281250
6842,-113.281250
6843,-113.281250
6844,-113.281250
6845,-113.281250
6846,-113.281250
6847,-113.281250
6848,-113.281250
6849,-109.375000
6850,-109.375000
6851,-109.375000
6852,-109.375000
6853,-109.375000
6854,-109.375000
6855,-109.375000
6856,-109.375000
6857,-105.468750
6858,-105.468750
6859,-105.468750
6860,-105.468750
6861,-105.468750
6862,-105.468750
6863,-105.468750
6864,-101.562500
6865,-101.562500
6866,-101.562500
6867,-101.562500
6868,-101.562500
6869,-101.562500
6870,-101.562500
6871,-97.656250
6872,-97.656250
6873,-97.656250
6874,-97.656250
6875,-97.656250
6876,-97.656250
6877,-93.750000
6878,-93.750000
6879,-93.750000
6880,-93.750000
6881,-93.750000
6882,-93.750000
6883,-89.843750
6884,-89.843750
6885,-93.750000
6886,-89.843750
6887,-89.843750
6888,-89.843750
6889,-89.843750
6890,-89.843750
6891,-85.937500
6892,-85.937500
6893,-85.937500
6894,-85.937500
6895,-85.937500
6896,-85.937500
6897,-82.031250
6898,-82.031250
6899,-82.031250
6900,-82.031250
6901,-82.031250
6902,-82.031250
6903,-78.125000
6904,-78.125000
6905,-78.125000
6906,-78.125000
6907,-78.125000
6908,-78.125000
6909,-74.218750
6910,-74.218750
6911,-74.218750
6912,-74.218750
6913,-74.218750
6914,-74.218750
6915,-70.312500
6916,-70.312500
6917,-70.312500
6918,-70.312500
6919,-70.312500
6920,-66.406250
6921,-66.406250
6922,-66.406250
6923,-66.406250
6924,-66.406250
6925,-66.406250
6926,-62.500000
6927,-62.500000
6928,-62.500000
6929,-62.500000
6930,-62.500000
6931,-58.593750
6932,-58.593750
6933,-58.593750
6934,-58.593750
6935,-58.593750
6936,-58.593750
6937,-54.687500
6938,-54.687500
6939,-54.687500
6940,-50.781250
6941,-50.781250
6942,-50.781250
6943,-50.781250
6944,-50.781250
6945,-50.781250
6946,-50.781250
6947,-46.875000
6948,-46.875000
6949,-46.875000
6950,-46.875000
6951,-42.968750
6952,-42.968750
6953,-42.968750
6954,-42.968750
6955,-42.968750
6956,-42.968750
6957,-39.062500
6958,-39.062500
6959,-39.062500
6960,-39.062500
6961,-39.062500
6962,-35.156250
6963,-35.156250
6964,-35.156250
6965,-35.156250
6966,-35.156250
6967,-31.250000
6968,-31.250000
6969,-31.250000
6970,-31.250000
6971,-31.250000
6972,-31.250000
6973,-27.343750
6974,-27.343750
6975,-27.343750
6976,-27.343750
6977,-27.343750
6978,-23.437500
6979,-23.437500
6980,-23.437500
6981,-23.437500
6982,-23.437500
6983,-19.531250
6984,-19.531250
6985,-19.531250
6986,-19.531250
6987,-19.531250
6988,-15.625000
6989,-15.625000
6990,-15.625000
6991,-15.625000
6992,-15.625000
6993,-11.718750
6994,-11.718750
6995,-11.718750
6996,-11.718750
6997,-11.718750
6998,-11.718750
6999,-7.812500
7000,-7.812500
7001,-7.812500
7002,-7.812500
7003,-7.812500
7004,-3.906250
7005,-3.906250
7006,-3.906250
7007,-3.906250
7008,-3.906250
7009,-3.906250
7010,-3.906250
7011,0.000000
7012,0.000000
7013,0.000000
7014,0.000000
7015,3.906250
7016,3.906250
7017,3.906250
7018,3.906250
7019,3.906250
7020,3.906250
7021,7.812500
7022,7.812500
7023,7.812500
7024,7.812500
7025,7.812500
7026,7.812500
7027,11.718750
7028,11.718750
7029,11.718750
7030,11.718750
7031,15.625000
7032,15.625000
7033,15.625000
7034,15.625000
7035,15.625000
7036,15.625000
7037,15.625000
7038,19.531250
7039,19.531250
7040,19.531250
7041,19.531250
7042,19.531250
7043,19.531250
7044,23.437500
7045,23.437500
7046,23.437500
7047,23.437500
7048,23.437500
7049,27.343750
7050,27.343750
7051,27.343750
7052,27.343750
7053,27.343750
7054,27.343750
7055,31.250000
7056,31.250000
7057,31.250000
7058,31.250000
7059,31.250000
7060,35.156250
7061,35.156250
7062,35.156250
7063,35.156250
7064,35.156250
7065,35.156250
7066,35.156250
7067,39.062500
7068,39.062500
7069,39.062500
7070,39.062500
7071,39.062500
7072,39.062500
7073,42.968750
7074,42.968750
7075,42.968750
7076,42.968750
7077,42.968750
7078,42.968750
7079,46.875000
7080,46.875000
7081,46.875000
7082,46.875000
7083,46.875000
7084,46.875000
7085,46.875000
7086,46.875000
7087,50.781250
7088,50.781250
7089,50.781250
7090,50.781250
7091,50.781250
7092,54.687500
7093,54.687500
7094,54.687500
7095,54.687500
7096,54.687500
7097,54.687500
7098,54.687500
7099,58.593750
7100,58.593750
7101,58.593750
7102,58.593750
7103,58.593750
7104,58.593750
7105,58.593750
7106,58.593750
7107,62.500000
7108,62.500000
7109,62.500000
7110,62.500000
7111,62.500000
7112,62.500000
7113,62.500000
7114,66.406250
7115,66.406250
7116,66.406250
7117,66.406250
7118,66.406250
7119,66.406250
7120,66.406250
7121,66.406250
7122,70.312500
7123,70.312500
7124,70.312500
7125,70.312500
7126,70.312500
7127,70.312500
7128,70.312500
7129,70.312500
7130,70.312500
7131,74.218750
7132,74.218750
7133,74.218750
7134,74.218750
7135,74.218750
7136,74.218750
7137,74.218750
7138,74.218750
7139,78.125000
7140,78.125000
7141,78.125000
7142,78.125000
7143,78.125000
7144,78.125000
7145,78.125000
7146,78.125000
7147,78.125000
7148,78.125000
7149,78.125000
7150,78.125000
7151,82.031250
7152,78.125000
7153,82.031250
7154,82.031250
7155,82.031250
7156,82.031250
7157,82.031250
7158,82.031250
7159,82.031250
7160,82.031250
7161,82.031250
7162,85.937500
7163,85.937500
7164,85.937500
7165,85.937500
7166,85.937500
7167,85.937500
7168,85.937500
7169,85.937500
7170,85.937500
7171,85.937500
7172,85.937500
7173,85.937500
7174,89.843750
7175,89.843750
7176,89.843750
7177,89.843750
7178,89.843750
7179,89.843750
7180,89.843750
7181,89.843750
7182,89.843750
7183,89.843750
7184,89.843750
7185,89.843750
7186,89.843750
7187,89.843750
7188,93.750000
7189,93.750000
7190,89.843750
7191,93.750000
7192,93.750000
7193,93.750000
7194,93.750000
7195,93.750000
7196,93.750000
7197,93.750000
7198,93.750000
7199,93.750000
7200,93.750000
7201,93.750000
7202,93.750000
7203,93.750000
7204,93.750000
7205,97.656250
7206,93.750000
7207,97.656250
7208,93.750000
7209,97.656250
7210,97.656250
7211,97.656250
7212,97.656250
7213,97.656250
7214,97.656250
7215,97.656250
7216,97.656250
7217,97.656250
7218,97.656250
7219,97.656250
7220,97.656250
7221,97.656250
7222,97.656250
7223,97.656250
7224,97.656250
7225,97.656250
7226,97.656250
7227,97.656250
7228,97.656250
7229,97.656250
7230,97.656250
7231,97.656250
7232,97.656250
7233,97.656250
7234,97.656250
7235,97.656250
7236,101.562500
7237,101.562500
7238,97.656250
7239,101.562500
7240,97.656250
7241,97.656250
7242,97.656250
7243,101.562500
7244,97.656250
7245,101.562500
7246,101.562500
7247,101.562500
7248,97.656250
7249,97.656250
7250,97.656250
7251,101.562500
7252,101.562500
7253,97.656250
7254,101.562500
7255,97.656250
7256,97.656250
7257,97.656250
7258,101.562500
7259,101.562500
7260,97.656250
7261,97.656250
7262,97.656250
7263,97.656250
7264,97.656250
7265,97.656250
7266,97.656250
7267,97.656250
7268,97.656250
7269,97.656250
7270,97.656250
7271,97.656250
7272,97.656250
7273,97.656250
7274,97.656250
7275,97.656250
7276,97.656250
7277,97.656250
7278,97.656250
7279,97.656250
7280,97.656250
7281,97.656250
7282,97.656250
7283,97.656250
7284,97.656250
7285,97.656250
7286,97.656250
7287,97.656250
7288,97.656250
7289,97.656250
7290,97.656250
7291,97.656250
7292,97.656250
7293,97.656250
7294,93.750000
7295,97.656250
7296,93.750000
7297,97.656250
7298,97.656250
7299,93.750000
7300,93.750000
7301,93.750000
7302,93.750000
7303,93.750000
7304,93.750000
7305,93.750000
7306,93.750000
7307,93.750000
7308,93.750000
7309,93.750000
7310,93.750000
7311,93.750000
7312,93.750000
7313,93.750000
7314,89.843750
7315,93.750000
7316,89.843750
7317,89.843750
7318,89.843750
7319,89.843750
7320,89.843750
7321,89.843750
7322,89.843750
7323,89.843750
7324,89.843750
7325,89.843750
7326,89.843750
7327,89.843750
7328,89.843750
7329,89.843750
7330,85.937500
7331,85.937500
7332,85.937500
7333,85.937500
7334,85.937500
7335,85.937500
7336,85.937500
7337,85.937500
7338,85.937500
7339,85.937500
7340,85.937500
7341,85.937500
7342,85.937500
7343,82.031250
7344,82.031250
7345,82.031250
7346,82.031250
7347,82.031250
7348,82.031250
7349,82.031250
7350,82.031250
7351,78.125000
7352,82.031250
7353,78.125000
7354,78.125000
7355,78.125000
7356,78.125000
7357,78.125000
7358,78.125000
7359,78.125000
7360,78.125000
7361,78.125000
7362,78.125000
7363,78.125000
7364,74.218750
7365,74.218750
7366,74.218750
7367,74.218750
7368,74.218750
7369,74.218750
7370,74.218750
7371,74.218750
7372,74.218750
7373,70.312500
7374,70.312500
7375,70.312500
7376,70.312500
7377,70.312500
7378,70.312500
7379,70.312500
7380,70.312500
7381,66.406250
7382,66.406250
7383,66.406250
7384,66.406250
7385,66.406250
7386,66.406250
7387,66.406250
7388,62.500000
7389,62.500000
7390,62.500000
7391,62.500000
7392,62.500000
7393,62.500000
7394,62.500000
7395,62.500000
7396,58.593750
7397,58.593750
7398,58.593750
7399,58.593750
7400,58.593750
7401,58.593750
7402,58.593750
7403,54.687500
7404,54.687500
7405,54.687500
7406,54.687500
7407,54.687500
7408,50.781250
7409,54.687500
7410,50.781250
7411,50.781250
7412,50.781250
7413,50.781250
7414,50.781250
7415,50.781250
7416,46.875000
7417,46.875000
7418,46.875000
7419,46.875000
7420,46.875000
7421,46.875000
7422,46.875000
7423,42.968750
7424,42.968750
7425,42.968750
7426,42.968750
7427,42.968750
7428,39.062500
7429,39.062500
7430,39.062500
7431,39.062500
7432,39.062500
7433,39.062500
7434,35.156250
7435,35.156250
7436,35.156250
7437,35.156250
7438,35.156250
7439,31.250000
7440,31.250000
7441,31.250000
7442,31.250000
7443,31.250000
7444,31.250000
7445,31.250000
7446,27.343750
7447,27.343750
7448,27.343750
7449,27.343750
7450,27.343750
7451,27.343750
7452,23.437500
7453,23.437500
7454,23.437500
7455,23.437500
7456,19.531250
7457,23.437500
7458,19.531250
7459,19.531250
7460,19.531250
7461,19.531250
7462,19.531250
7463,15.625000
7464,15.625000
7465,15.625000
7466,15.625000
7467,15.625000
7468,11.718750
7469,11.718750
7470,11.718750
7471,11.718750
7472,11.718750
7473,7.812500
7474,7.812500
7475,11.718750
7476,7.812500
7477,7.812500
7478,7.812500
7479,3.906250
7480,3.906250
7481,3.906250
7482,3.906250
7483,0.000000
7484,3.906250
7485,3.906250
7486,-3.906250
7487,0.000000
7488,0.000000
7489,0.000000
7490,-3.906250
7491,-3.906250
7492,-3.906250
7493,-3.906250
7494,-3.906250
7495,-7.812500
7496,-7.812500
7497,-7.812500
7498,-7.812500
7499,-7.812500
7500,-11.718750
7501,-11.718750
7502,-11.718750
7503,-11.718750
7504,-11.718750
7505,-15.625000
7506,-15.625000
7507,-15.625000
7508,-15.625000
7509,-15.625000
7510,-19.531250
7511,-19.531250
7512,-19.531250
7513,-19.531250
7514,-23.437500
7515,-23.437500
7516,-23.437500
7517,-23.437500
7518,-23.437500
7519,-23.437500
7520,-27.343750
7521,-27.343750
7522,-27.343750
7523,-27.343750
7524,-27.343750
7525,-31.250000
7526,-31.250000
7527,-31.250000
7528,-31.250000
7529,-31.250000
7530,-35.156250
7531,-35.156250
7532,-35.156250
7533,-35.156250
7534,-35.156250
7535,-39.062500
7536,-39.062500
7537,-39.062500
7538,-39.062500
7539,-39.062500
7540,-39.062500
7541,-42.968750
7542,-42.968750
7543,-42.968750
7544,-42.968750
7545,-46.875000
7546,-46.875000
7547,-46.875000
7548,-46.875000
7549,-46.875000
7550,-46.875000
7551,-50.781250
7552,-50.781250
7553,-50.781250
7554,-50.781250
7555,-54.687500
7556,-54.687500
7557,-54.687500
7558,-54.687500
7559,-54.687500
7560,-54.687500
7561,-58.593750
7562,-58.593750
7563,-58.593750
7564,-58.593750
7565,-62.500000
7566,-62.500000
7567,-62.500000
7568,-62.500000
7569,-62.500000
7570,-62.500000
7571,-62.500000
7572,-66.406250
7573,-66.406250
7574,-66.406250
7575,-66.406250
7576,-66.406250
7577,-70.312500
7578,-70.312500
7579,-70.312500
7580,-70.312500
7581,-70.312500
7582,-70.312500
7583,-74.218750
7584,-74.218750
7585,-74.218750
7586,-74.218750
7587,-78.125000
7588,-78.125000
7589,-78.125000
7590,-78.125000
7591,-78.125000
7592,-78.125000
7593,-82.031250
7594,-82.031250
7595,-82.031250
7596,-82.031250
7597,-82.031250
7598,-82.031250
7599,-85.937500
7600,-85.937500
7601,-85.937500
7602,-85.937500
7603,-85.937500
7604,-85.937500
7605,-85.937500
7606,-89.843750
7607,-89.843750
7608,-89.843750
7609,-89.843750
7610,-89.843750
7611,-89.843750
7612,-93.750000
7613,-93.750000
7614,-93.750000
7615,-93.750000
7616,-93.750000
7617,-93.750000
7618,-93.750000
7619,-97.656250
7620,-97.656250
7621,-97.656250
7622,-97.656250
7623,-97.656250
7624,-97.656250
7625,-101.562500
7626,-101.562500
7627,-101.562500
7628,-101.562500
7629,-101.562500
7630,-101.562500
7631,-101.562500
7632,-105.468750
7633,-105.468750
7634,-105.468750
7635,-105.468750
7636,-105.468750
7637,-105.468750
7638,-105.468750
7639,-105.468750
7640,-109.375000
7641,-109.375000
7642,-109.375000
7643,-109.375000
7644,-109.375000
7645,-109.375000
7646,-109.375000
7647,-109.375000
7648,-113.281250
7649,-113.281250
7650,-113.281250
7651,-113.281250
7652,-113.281250
7653,-113.281250
7654,-113.281250
7655,-113.281250
7656,-117.187500
7657,-117.187500
7658,-117.187500
7659,-117.187500
7660,-117.187500
7661,-117.187500
7662,-117.187500
7663,-117.187500
7664,-121.093750
7665,-117.187500
7666,-121.093750
7667,-121.093750
7668,-121.093750
7669,-121.093750
7670,-121.093750
7671,-121.093750
7672,-125.000000
7673,-121.093750
7674,-121.093750
7675,-121.093750
7676,-125.000000
7677,-125.000000
7678,-125.000000
7679,-125.000000
7680,-125.000000
7681,-125.000000
7682,-125.000000
7683,-125.000000
7684,-128.906250
7685,-125.000000
7686,-125.000000
7687,-125.000000
7688,-128.906250
7689,-128.906250
7690,-128.906250
7691,-128.906250
7692,-128.906250
7693,-128.906250
7694,-128.906250
7695,-128.906250
7696,-128.906250
7697,-128.906250
7698,-128.906250
7699,-128.906250
7700,-132.812500
7701,-128.906250
7702,-132.812500
7703,-132.812500
7704,-132.812500
7705,-132.812500
7706,-132.812500
7707,-132.812500
7708,-132.812500
7709,-132.812500
7710,-132.812500
7711,-132.812500
7712,-132.812500
7713,-132.812500
7714,-132.812500
7715,-132.812500
7716,-132.812500
7717,-132.812500
7718,-132.812500
7719,-132.812500
7720,-132.812500
7721,-132.812500
7722,-136.718750
7723,-136.718750
7724,-136.718750
7725,-136.718750
7726,-132.812500
7727,-136.718750
7728,-136.718750
7729,-132.812500
7730,-136.718750
7731,-136.718750
7732,-136.718750
7733,-136.718750
7734,-136.718750
7735,-136.718750
7736,-136.718750
7737,-136.718750
7738,-136.718750
7739,-136.718750
7740,-136.718750
7741,-136.718750
7742,-136.718750
7743,-136.718750
7744,-136.718750
7745,-136.718750
7746,-136.718750
7747,-132.812500
7748,-136.718750
7749,-132.812500
7750,-132.812500
7751,-132.812500
7752,-132.812500
7753,-132.812500
7754,-136.718750
7755,-132.812500
7756,-136.718750
7757,-136.718750
7758,-132.812500
7759,-132.812500
7760,-132.812500
7761,-132.812500
7762,-132.812500
7763,-132.812500
7764,-132.812500
7765,-132.812500
7766,-132.812500
7767,-132.812500
7768,-132.812500
7769,-132.812500
7770,-132.812500
7771,-132.812500
7772,-132.812500
7773,-132.812500
7774,-132.812500
7775,-132.812500
7776,-132.812500
7777,-132.812500
7778,-132.812500
7779,-132.812500
7780,-128.906250
7781,-132.812500
7782,-132.812500
7783,-132.812500
7784,-132.812500
7785,-132.812500
7786,-132.812500
7787,-128.906250
7788,-128.906250
7789,-128.906250
7790,-128.906250
7791,-128.906250
7792,-128.906250
7793,-128.906250
7794,-128.906250
7795,-128.906250
7796,-128.906250
7797,-128.906250
7798,-128.906250
7799,-125.000000
7800,-125.000000
7801,-125.000000
7802,-125.000000
7803,-125.000000
7804,-125.000000
7805,-125.000000
7806,-125.000000
7807,-125.000000
7808,-125.000000
7809,-125.000000
7810,-125.000000
7811,-121.093750
7812,-121.093750
7813,-121.093750
7814,-121.093750
7815,-121.093750
7816,-121.093750
7817,-121.093750
7818,-121.093750
7819,-121.093750
7820,-121.093750
7821,-117.187500
7822,-117.187500
7823,-121.093750
7824,-117.187500
7825,-117.187500
7826,-117.187500
7827,-117.187500
7828,-117.187500
7829,-117.187500
7830,-117.187500
7831,-113.281250
7832,-113.281250
7833,-113.281250
7834,-113.281250
7835,-113.281250
7836,-113.281250
7837,-113.281250
7838,-113.281250
7839,-113.281250
7840,-109.375000
7841,-109.375000
7842,-109.375000
7843,-109.375000
7844,-109.375000
7845,-109.375000
7846,-109.375000
7847,-109.375000
7848,-105.468750
7849,-105.468750
7850,-105.468750
7851,-105.468750
7852,-105.468750
7853,-105.468750
7854,-101.562500
7855,-101.562500
7856,-109.375000
7857,-101.562500
7858,-101.562500
7859,-101.562500
7860,-101.562500
7861,-97.656250
7862,-97.656250
7863,-97.656250
7864,-97.656250
7865,-97.656250
7866,-97.656250
7867,-97.656250
7868,-97.656250
7869,-93.750000
7870,-93.750000
7871,-93.750000
7872,-93.750000
7873,-89.843750
7874,-89.843750
7875,-89.843750
7876,-89.843750
7877,-89.843750
7878,-89.843750
7879,-89.843750
7880,-89.843750
7881,-85.937500
7882,-85.937500
7883,-85.937500
7884,-85.937500
7885,-85.937500
7886,-85.937500
7887,-85.937500
7888,-82.031250
7889,-82.031250
7890,-82.031250
7891,-82.031250
7892,-78.125000
7893,-78.125000
7894,-78.125000
7895,-78.125000
7896,-78.125000
7897,-78.125000
7898,-78.125000
7899,-74.218750
7900,-74.218750
7901,-74.218750
7902,-74.218750
7903,-74.218750
7904,-74.218750
7905,-70.312500
7906,-70.312500
7907,-70.312500
7908,-70.312500
7909,-70.312500
7910,-70.312500
7911,-66.406250
7912,-66.406250
7913,-66.406250
7914,-66.406250
7915,-62.500000
7916,-62.500000
7917,-62.500000
7918,-62.500000
7919,-62.500000
7920,-62.500000
7921,-58.593750
7922,-58.593750
7923,-58.593750
7924,-58.593750
7925,-58.593750
7926,-54.687500
7927,-54.687500
7928,-54.687500
7929,-54.687500
7930,-54.687500
7931,-54.687500
7932,-50.781250
7933,-50.781250
7934,-50.781250
7935,-50.781250
7936,-50.781250
7937,-50.781250
7938,-46.875000
7939,-46.875000
7940,-46.875000
7941,-46.875000
7942,-46.875000
7943,-42.968750
7944,-42.968750
7945,-42.968750
7946,-42.968750
7947,-39.062500
7948,-42.968750
7949,-39.062500
7950,-39.062500
7951,-39.062500
7952,-39.062500
7953,-35.156250
7954,-35.156250
7955,-35.156250
7956,-35.156250
7957,-35.156250
7958,-31.250000
7959,-31.250000
7960,-31.250000
7961,-31.250000
7962,-31.250000
7963,-31.250000
7964,-27.343750
7965,-27.343750
7966,-27.343750
7967,-27.343750
7968,-27.343750
7969,-23.437500
7970,-23.437500
7971,-23.437500
7972,-23.437500
7973,-23.437500
7974,-19.531250
7975,-19.531250
7976,-19.531250
7977,-19.531250
7978,-19.531250
7979,-19.531250
7980,-15.625000
7981,-15.625000
7982,-15.625000
7983,-15.625000
7984,-15.625000
7985,-11.718750
7986,-11.718750
7987,-11.718750
7988,-11.718750
7989,-11.718750
7990,-7.812500
7991,-7.812500
7992,-7.812500
7993,-7.812500
7994,-7.812500
7995,-3.906250
7996,-3.906250
7997,-3.906250
7998,-3.906250
7999,-3.906250
8000,-3.906250
8001,0.000000
8002,0.000000
8003,0.000000
8004,0.000000
8005,3.906250
8006,3.906250
8007,3.906250
8008,3.906250
8009,3.906250
8010,3.906250
8011,7.812500
8012,7.812500
8013,7.812500
8014,7.812500
8015,11.718750
8016,11.718750
8017,11.718750
8018,11.718750
8019,11.718750
8020,11.718750
8021,15.625000
8022,15.625000
8023,15.625000
8024,15.625000
8025,15.625000
8026,19.531250
8027,19.531250
8028,19.531250
8029,19.531250
8030,19.531250
8031,19.531250
8032,19.531250
8033,23.437500
8034,23.437500
8035,23.437500
8036,23.437500
8037,23.437500
8038,23.437500
8039,27.343750
8040,27.343750
8041,27.343750
8042,27.343750
8043,27.343750
8044,31.250000
8045,31.250000
8046,31.250000
8047,31.250000
8048,31.250000
8049,31.250000
8050,35.156250
8051,35.156250
8052,35.156250
8053,35.156250
8054,35.156250
8055,35.156250
8056,39.062500
8057,39.062500
8058,39.062500
8059,39.062500
8060,39.062500
8061,39.062500
8062,39.062500
8063,42.968750
8064,42.968750
8065,42.968750
8066,42.968750
8067,42.968750
8068,42.968750
8069,46.875000
8070,46.875000
8071,46.875000
8072,46.875000
8073,46.875000
8074,46.875000
8075,50.781250
8076,50.781250
8077,50.781250
8078,50.781250
8079,50.781250
8080,50.781250
8081,50.781250
8082,50.781250
8083,50.781250
8084,54.687500
8085,54.687500
8086,54.687500
8087,54.687500
8088,54.687500
8089,54.687500
8090,54.687500
8091,58.593750
8092,58.593750
8093,58.593750
8094,58.593750
8095,58.593750
8096,58.593750
8097,62.500000
8098,62.500000
8099,62.500000
8100,62.500000
8101,62.500000
8102,62.500000
8103,62.500000
8104,62.500000
8105,66.406250
8106,66.406250
8107,66.406250
8108,66.406250
8109,66.406250
8110,66.406250
8111,66.406250
8112,66.406250
8113,66.406250
8114,70.312500
8115,70.312500
8116,70.312500
8117,70.312500
8118,70.312500
8119,70.312500
8120,70.312500
8121,74.218750
8122,70.312500
8123,74.218750
8124,74.218750
8125,74.218750
8126,74.218750
8127,74.218750
8128,74.218750
8129,78.125000
8130,78.125000
8131,74.218750
8132,78.125000
8133,78.125000
8134,78.125000
8135,78.125000
8136,78.125000
8137,78.125000
8138,78.125000
8139,78.125000
8140,82.031250
8141,82.031250
8142,82.031250
8143,82.031250
8144,82.031250
8145,82.031250
8146,82.031250
8147,82.031250
8148,85.937500
8149,85.937500
8150,82.031250
8151,85.937500
8152,85.937500
8153,85.937500
8154,85.937500
8155,85.937500
8156,85.937500
8157,85.937500
8158,85.937500
8159,85.937500
8160,85.937500
8161,89.843750
8162,89.843750
8163,89.843750
8164,89.843750
8165,89.843750
8166,89.843750
8167,89.843750
8168,89.843750
8169,89.843750
8170,89.843750
8171,89.843750
8172,89.843750
8173,89.843750
8174,89.843750
8175,93.750000
8176,93.750000
8177,93.750000
8178,93.750000
8179,93.750000
8180,93.750000
8181,93.750000
8182,93.750000
8183,93.750000
8184,93.750000
8185,93.750000
8186,93.750000
8187,93.750000
8188,93.750000
8189,93.750000
8190,93.750000
8191,93.750000
8192,93.750000
8193,93.750000
8194,97.656250
8195,97.656250
8196,97.656250
8197,97.656250
8198,97.656250
8199,97.656250
8200,97.656250
8201,97.656250
8202,97.656250
8203,97.656250
8204,97.656250
8205,97.656250
8206,97.656250
8207,97.656250
8208,97.656250
8209,97.656250
8210,97.656250
8211,97.656250
8212,97.656250
8213,97.656250
8214,97.656250
8215,97.656250
8216,97.656250
8217,97.656250
8218,97.656250
8219,97.656250
8220,97.656250
8221,97.656250
8222,97.656250
8223,97.656250
8224,97.656250
8225,101.562500
8226,97.656250
8227,101.562500
8228,101.562500
8229,97.656250
8230,101.562500
8231,97.656250
8232,101.562500
8233,101.562500
8234,101.562500
8235,101.562500
8236,101.562500
8237,101.562500
8238,101.562500
8239,97.656250
8240,97.656250
8241,101.562500
8242,101.562500
8243,101.562500
8244,101.562500
8245,101.562500
8246,101.562500
8247,101.562500
8248,97.656250
8249,97.656250
8250,97.656250
8251,101.562500
8252,101.562500
8253,101.562500
8254,101.562500
8255,101.562500
8256,101.562500
8257,101.562500
8258,101.562500
8259,97.656250
8260,97.656250
8261,97.656250
8262,97.656250
8263,101.562500
8264,97.656250
8265,97.656250
8266,97.656250
8267,97.656250
8268,97.656250
8269,97.656250
8270,97.656250
8271,97.656250
8272,97.656250
8273,97.656250
8274,97.656250
8275,97.656250
8276,97.656250
8277,97.656250
8278,97.656250
8279,97.656250
8280,97.656250
8281,97.656250
8282,97.656250
8283,97.656250
8284,97.656250
8285,97.656250
8286,97.656250
8287,97.656250
8288,93.750000
8289,93.750000
8290,97.656250
8291,93.750000
8292,93.750000
8293,93.750000
8294,93.750000
8295,93.750000
8296,93.750000
8297,93.750000
8298,93.750000
8299,93.750000
8300,93.750000
8301,93.750000
8302,93.750000
8303,93.750000
8304,93.750000
8305,93.750000
8306,89.843750
8307,89.843750
8308,89.843750
8309,89.843750
8310,89.843750
8311,89.843750
8312,89.843750
8313,89.843750
8314,89.843750
8315,89.843750
8316,89.843750
8317,89.843750
8318,89.843750
8319,89.843750
8320,89.843750
8321,85.937500
8322,85.937500
8323,85.937500
8324,85.937500
8325,85.937500
8326,85.937500
8327,85.937500
8328,85.937500
8329,85.937500
8330,85.937500
8331,85.937500
8332,82.031250
8333,82.031250
8334,82.031250
8335,82.031250
8336,82.031250
8337,82.031250
8338,82.031250
8339,82.031250
8340,82.031250
8341,82.031250
8342,78.125000
8343,78.125000
8344,82.031250
8345,78.125000
8346,78.125000
8347,78.125000
8348,78.125000
8349,78.125000
8350,78.125000
8351,78.125000
8352,78.125000
8353,78.125000
8354,74.218750
8355,74.218750
8356,74.218750
8357,74.218750
8358,74.218750
8359,74.218750
8360,74.218750
8361,74.218750
8362,70.312500
8363,70.312500
8364,70.312500
8365,70.312500
8366,70.312500
8367,70.312500
8368,70.312500
8369,70.312500
8370,70.312500
8371,66.406250
8372,66.406250
8373,66.406250
8374,66.406250
8375,66.406250
8376,66.406250
8377,66.406250
8378,62.500000
8379,62.500000
8380,62.500000
8381,62.500000
8382,62.500000
8383,62.500000
8384,58.593750
8385,58.593750
8386,58.593750
8387,58.593750
8388,58.593750
8389,58.593750
8390,58.593750
8391,58.593750
8392,58.593750
8393,58.593750
8394,54.687500
8395,54.687500
8396,54.687500
8397,54.687500
8398,54.687500
8399,54.687500
8400,50.781250
8401,50.781250
8402,50.781250
8403,50.781250
8404,50.781250
8405,50.781250
8406,46.875000
8407,46.875000
8408,46.875000
8409,46.875000
8410,46.875000
8411,46.875000
8412,42.968750
8413,42.968750
8414,42.968750
8415,42.968750
8416,42.968750
8417,42.968750
8418,42.968750
8419,39.062500
8420,39.062500
8421,39.062500
8422,39.062500
8423,39.062500
8424,39.062500
8425,39.062500
8426,35.156250
8427,35.156250
8428,35.156250
8429,35.156250
8430,31.250000
8431,31.250000
8432,31.250000
8433,31.250000
8434,31.250000
8435,31.250000
8436,31.250000
8437,31.250000
8438,27.343750
8439,27.343750
8440,27.343750
8441,27.343750
8442,27.343750
8443,23.437500
8444,23.437500
8445,23.437500
8446,23.437500
8447,23.437500
8448,19.531250
8449,19.531250
8450,19.531250
8451,19.531250
8452,19.531250
8453,19.531250
8454,15.625000
8455,15.625000
8456,15.625000
8457,15.625000
8458,15.625000
8459,11.718750
8460,11.718750
8461,11.718750
8462,11.718750
8463,11.718750
8464,7.812500
8465,7.812500
8466,7.812500
8467,7.812500
8468,7.812500
8469,3.906250
8470,3.906250
8471,3.906250
8472,3.906250
8473,3.906250
8474,3.906250
8475,0.000000
8476,0.000000
8477,0.000000
8478,0.000000
8479,0.000000
8480,-3.906250
8481,-3.906250
8482,-3.906250
8483,-3.906250
8484,-3.906250
8485,-7.812500
8486,-7.812500
8487,-7.812500
8488,-7.812500
8489,-7.812500
8490,-7.812500
8491,-11.718750
8492,-11.718750
8493,-11.718750
8494,-11.718750
8495,-15.625000
8496,-15.625000
8497,-15.625000
8498,-15.625000
8499,-15.625000
8500,-19.531250
8501,-19.531250
8502,-19.531250
8503,-19.531250
8504,-19.531250
8505,-19.531250
8506,-23.437500
8507,-23.437500
8508,-23.437500
8509,-23.437500
8510,-27.343750
8511,-27.343750
8512,-27.343750
8513,-27.343750
8514,-27.343750
8515,-27.343750
8516,-31.250000
8517,-31.250000
8518,-31.250000
8519,-31.250000
8520,-31.250000
8521,-35.156250
8522,-35.156250
8523,-35.156250
8524,-35.156250
8525,-35.156250
8526,-39.062500
8527,-39.062500
8528,-39.062500
8529,-39.062500
8530,-42.968750
8531,-42.968750
8532,-42.968750
8533,-42.968750
8534,-42.968750
8535,-42.968750
8536,-46.875000
8537,-46.875000
8538,-46.875000
8539,-46.875000
8540,-46.875000
8541,-50.781250
8542,-50.781250
8543,-50.781250
8544,-50.781250
8545,-50.781250
8546,-54.687500
8547,-54.687500
8548,-54.687500
8549,-54.687500
8550,-54.687500
8551,-54.687500
8552,-58.593750
8553,-58.593750
8554,-58.593750
8555,-58.593750
8556,-62.500000
8557,-62.500000
8558,-62.500000
8559,-62.500000
8560,-62.500000
8561,-62.500000
8562,-62.500000
8563,-66.406250
8564,-66.406250
8565,-66.406250
8566,-66.406250
8567,-66.406250
8568,-70.312500
8569,-70.312500
8570,-70.312500
8571,-70.312500
8572,-70.312500
8573,-74.218750
8574,-74.218750
8575,-74.218750
8576,-74.218750
8577,-74.218750
8578,-74.218750
8579,-78.125000
8580,-78.125000
8581,-78.125000
8582,-78.125000
8583,-78.125000
8584,-78.125000
8585,-82.031250
8586,-82.031250
8587,-82.031250
8588,-82.031250
8589,-82.031250
8590,-82.031250
8591,-85.937500
8592,-85.937500
8593,-85.937500
8594,-85.937500
8595,-85.937500
8596,-89.843750
8597,-89.843750
8598,-89.843750
8599,-89.843750
8600,-89.843750
8601,-89.843750
8602,-93.750000
8603,-93.750000
8604,-93.750000
8605,-93.750000
8606,-93.750000
8607,-93.750000
8608,-97.656250
8609,-97.656250
8610,-97.656250
8611,-97.656250
8612,-97.656250
8613,-97.656250
8614,-97.656250
8615,-101.562500
8616,-101.562500
8617,-101.562500
8618,-101.562500
8619,-101.562500
8620,-101.562500
8621,-101.562500
8622,-105.468750
8623,-105.468750
8624,-105.468750
8625,-105.468750
8626,-105.468750
8627,-105.468750
8628,-105.468750
8629,-105.468750
8630,-109.375000
8631,-109.375000
8632,-109.375000
8633,-109.375000
8634,-109.375000
8635,-109.375000
8636,-109.375000
8637,-109.375000
8638,-113.281250
8639,-113.281250
8640,-113.281250
8641,-113.281250
8642,-113.281250
8643,-113.281250
8644,-113.281250
8645,-113.281250
8646,-117.187500
8647,-113.281250
8648,-117.187500
8649,-117.187500
8650,-117.187500
8651,-117.187500
8652,-117.187500
8653,-117.187500
8654,-117.187500
8655,-121.093750
8656,-121.093750
8657,-121.093750
8658,-121.093750
8659,-121.093750
8660,-121.093750
8661,-121.093750
8662,-121.093750
8663,-121.093750
8664,-121.093750
8665,-121.093750
8666,-125.000000
8667,-125.000000
8668,-125.000000
8669,-125.000000
8670,-125.000000
8671,-125.000000
8672,-125.000000
8673,-125.000000
8674,-125.000000
8675,-125.000000
8676,-125.000000
8677,-128.906250
8678,-125.000000
8679,-128.906250
8680,-128.906250
8681,-128.906250
8682,-128.906250
8683,-128.906250
8684,-128.906250
8685,-128.906250
8686,-128.906250
8687,-128.906250
8688,-132.812500
8689,-128.906250
8690,-128.906250
8691,-128.906250
8692,-132.812500
8693,-132.812500
8694,-132.812500
8695,-132.812500
8696,-132.812500
8697,-132.812500
8698,-132.812500
8699,-132.812500
8700,-132.812500
8701,-132.812500
8702,-132.812500
8703,-132.812500
8704,-132.812500
8705,-132.812500
8706,-132.812500
8707,-132.812500
8708,-132.812500
8709,-132.812500
8710,-132.812500
8711,-132.812500
8712,-132.812500
8713,-136.718750
8714,-132.812500
8715,-132.812500
8716,-136.718750
8717,-136.718750
8718,-136.718750
8719,-136.718750
8720,-136.718750
8721,-136.718750
8722,-136.718750
8723,-136.718750
8724,-136.718750
8725,-136.718750
8726,-136.718750
8727,-136.718750
8728,-136.718750
8729,-136.718750
8730,-136.718750
8731,-136.718750
8732,-136.718750
8733,-136.718750
8734,-136.718750
8735,-136.718750
8736,-136.718750
8737,-136.718750
8738,-136.718750
8739,-136.718750
8740,-136.718750
8741,-136.718750
8742,-136.718750
8743,-136.718750
8744,-136.718750
8745,-136.718750
8746,-136.718750
8747,-136.718750
8748,-136.718750
8749,-132.812500
8750,-132.812500
8751,-136.718750
8752,-136.718750
8753,-132.812500
8754,-132.812500
8755,-136.718750
8756,-132.812500
8757,-132.812500
8758,-132.812500
8759,-132.812500
8760,-132.812500
8761,-132.812500
8762,-132.812500
8763,-132.812500
8764,-132.812500
8765,-132.812500
8766,-132.812500
8767,-132.812500
8768,-132.812500
8769,-132.812500
8770,-132.812500
8771,-132.812500
8772,-132.812500
8773,-132.812500
8774,-128.906250
8775,-128.906250
8776,-128.906250
8777,-128.906250
8778,-128.906250
8779,-128.906250
8780,-128.906250
8781,-128.906250
8782,-128.906250
8783,-128.906250
8784,-128.906250
8785,-128.906250
8786,-128.906250
8787,-128.906250
8788,-128.906250
8789,-125.000000
8790,-125.000000
8791,-125.000000
8792,-125.000000
8793,-125.000000
8794,-125.000000
8795,-125.000000
8796,-125.000000
8797,-125.000000
8798,-125.000000
8799,-125.000000
8800,-121.093750
8801,-121.093750
8802,-121.093750
8803,-121.093750
8804,-121.093750
8805,-121.093750
8806,-121.093750
8807,-121.093750
8808,-121.093750
8809,-117.187500
8810,-117.187500
8811,-117.187500
8812,-117.187500
8813,-117.187500
8814,-117.187500
8815,-117.187500
8816,-117.187500
8817,-117.187500
8818,-113.281250
8819,-117.187500
8820,-117.187500
8821,-113.281250
8822,-113.281250
8823,-113.281250
8824,-113.281250
8825,-113.281250
8826,-113.281250
8827,-113.281250
8828,-113.281250
8829,-109.375000
8830,-109.375000
8831,-109.375000
8832,-109.375000
8833,-109.375000
8834,-109.375000
8835,-109.375000
8836,-109.375000
8837,-105.468750
8838,-105.468750
8839,-105.468750
8840,-105.468750
8841,-105.468750
8842,-105.468750
8843,-101.562500
8844,-101.562500
8845,-101.562500
8846,-101.562500
8847,-101.562500
8848,-101.562500
8849,-101.562500
8850,-101.562500
8851,-97.656250
8852,-97.656250
8853,-97.656250
8854,-97.656250
8855,-97.656250
8856,-97.656250
8857,-97.656250
8858,-97.656250
8859,-93.750000
8860,-93.750000
8861,-93.750000
8862,-93.750000
8863,-93.750000
8864,-93.750000
8865,-89.843750
8866,-89.843750
8867,-89.843750
8868,-89.843750
8869,-89.843750
8870,-89.843750
8871,-85.937500
8872,-85.937500
8873,-85.937500
8874,-85.937500
8875,-85.937500
8876,-82.031250
8877,-82.031250
8878,-82.031250
8879,-82.031250
8880,-82.031250
8881,-82.031250
8882,-78.125000
8883,-78.125000
8884,-78.125000
8885,-78.125000
8886,-78.125000
8887,-78.125000
8888,-78.125000
8889,-74.218750
8890,-74.218750
8891,-74.218750
8892,-74.218750
8893,-74.218750
8894,-74.218750
8895,-70.312500
8896,-70.312500
8897,-70.312500
8898,-70.312500
8899,-66.406250
8900,-66.406250
8901,-66.406250
8902,-66.406250
8903,-66.406250
8904,-62.500000
8905,-62.500000
8906,-62.500000
8907,-62.500000
8908,-62.500000
8909,-62.500000
8910,-58.593750
8911,-58.593750
8912,-58.593750
8913,-58.593750
8914,-58.593750
8915,-54.687500
8916,-54.687500
8917,-54.687500
8918,-54.687500
8919,-54.687500
8920,-54.687500
8921,-50.781250
8922,-50.781250
8923,-50.781250
8924,-50.781250
8925,-50.781250
8926,-46.875000
8927,-46.875000
8928,-46.875000
8929,-46.875000
8930,-46.875000
8931,-42.968750
8932,-42.968750
8933,-42.968750
8934,-42.968750
8935,-42.968750
8936,-42.968750
8937,-39.062500
8938,-39.062500
8939,-39.062500
8940,-39.062500
8941,-39.062500
8942,-35.156250
8943,-35.156250
8944,-35.156250
8945,-35.156250
8946,-35.156250
8947,-35.156250
8948,-31.250000
8949,-31.250000
8950,-31.250000
8951,-31.250000
8952,-27.343750
8953,-27.343750
8954,-27.343750
8955,-27.343750
8956,-27.343750
8957,-27.343750
8958,-23.437500
8959,-23.437500
8960,-23.437500
8961,-23.437500
8962,-23.437500
8963,-19.531250
8964,-19.531250
8965,-19.531250
8966,-19.531250
8967,-15.625000
8968,-15.625000
8969,-15.625000
8970,-15.625000
8971,-15.625000
8972,-15.625000
8973,-11.718750
8974,-11.718750
8975,-11.718750
8976,-11.718750
8977,-11.718750
8978,-11.718750
8979,-7.812500
8980,-7.812500
8981,-7.812500
8982,-7.812500
8983,-3.906250
8984,-3.906250
8985,-3.906250
8986,-3.906250
8987,-3.906250
8988,-3.906250
8989,0.000000
8990,0.000000
8991,0.000000
8992,0.000000
8993,0.000000
8994,0.000000
8995,3.906250
8996,3.906250
8997,3.906250
8998,3.906250
8999,3.906250
9000,7.812500
9001,7.812500
9002,7.812500
9003,7.812500
9004,11.718750
9005,11.718750
9006,11.718750
9007,11.718750
9008,11.718750
9009,11.718750
9010,15.625000
9011,15.625000
9012,15.625000
9013,15.625000
9014,15.625000
9015,19.531250
9016,19.531250
9017,19.531250
9018,19.531250
9019,19.531250
9020,19.531250
9021,19.531250
9022,23.437500
9023,23.437500
9024,23.437500
9025,23.437500
9026,23.437500
9027,23.437500
9028,27.343750
9029,27.343750
9030,27.343750
9031,27.343750
9032,31.250000
9033,31.250000
9034,31.250000
9035,31.250000
9036,31.250000
9037,31.250000
9038,31.250000
9039,35.156250
9040,35.156250
9041,35.156250
9042,35.156250
9043,35.156250
9044,39.062500
9045,39.062500
9046,39.062500
9047,39.062500
9048,39.062500
9049,39.062500
9050,39.062500
9051,42.968750
9052,42.968750
9053,42.968750
9054,42.968750
9055,42.968750
9056,46.875000
9057,46.875000
9058,46.875000
9059,46.875000
9060,46.875000
9061,46.875000
9062,50.781250
9063,50.781250
9064,50.781250
9065,50.781250
9066,50.781250
9067,50.781250
9068,50.781250
9069,50.781250
9070,54.687500
9071,54.687500
9072,54.687500
9073,54.687500
9074,54.687500
9075,54.687500
9076,54.687500
9077,58.593750
9078,58.593750
9079,58.593750
9080,58.593750
9081,58.593750
9082,58.593750
9083,58.593750
9084,62.500000
9085,62.500000
9086,62.500000
9087,62.500000
9088,62.500000
9089,62.500000
9090,62.500000
9091,62.500000
9092,66.406250
9093,66.406250
9094,66.406250
9095,66.406250
9096,66.406250
9097,66.406250
9098,66.406250
9099,66.406250
9100,66.406250
9101,70.312500
9102,70.312500
9103,70.312500
9104,70.312500
9105,70.312500
9106,70.312500
9107,70.312500
9108,70.312500
9109,74.218750
9110,74.218750
9111,74.218750
9112,74.218750
9113,74.218750
9114,74.218750
9115,74.218750
9116,74.218750
9117,74.218750
9118,78.125000
9119,78.125000
9120,78.125000
9121,78.125000
9122,78.125000
9123,78.125000
9124,78.125000
9125,78.125000
9126,78.125000
9127,82.031250
9128,82.031250
9129,82.031250
9130,82.031250
9131,82.031250
9132,82.031250
9133,82.031250
9134,82.031250
9135,82.031250
9136,82.031250
9137,82.031250
9138,85.937500
9139,85.937500
9140,85.937500
9141,85.937500
9142,85.937500
9143,85.937500
9144,85.937500
9145,85.937500
9146,85.937500
9147,85.937500
9148,85.937500
9149,85.937500
9150,89.843750
9151,89.843750
9152,89.843750
9153,89.843750
9154,89.843750
9155,89.843750
9156,89.843750
9157,89.843750
9158,89.843750
9159,89.843750
9160,89.843750
9161,93.750000
9162,89.843750
9163,89.843750
9164,89.843750
9165,93.750000
9166,93.750000
9167,93.750000
9168,93.750000
9169,93.750000
9170,93.750000
9171,93.750000
9172,93.750000
9173,93.750000
9174,93.750000
9175,93.750000
9176,93.750000
9177,93.750000
9178,93.750000
9179,93.750000
9180,93.750000
9181,97.656250
9182,97.656250
9183,97.656250
9184,97.656250
9185,97.656250
9186,97.656250
9187,97.656250
9188,97.656250
9189,97.656250
9190,97.656250
9191,97.656250
9192,97.656250
9193,97.656250
9194,97.656250
9195,97.656250
9196,97.656250
9197,101.562500
9198,97.656250
9199,97.656250
9200,97.656250
9201,97.656250
9202,97.656250
9203,97.656250
9204,97.656250
9205,101.562500
9206,97.656250
9207,97.656250
9208,97.656250
9209,97.656250
9210,97.656250
9211,101.562500
9212,101.562500
9213,101.562500
9214,101.562500
9215,101.562500
9216,97.656250
9217,101.562500
9218,97.656250
9219,101.562500
9220,101.562500
9221,97.656250
9222,101.562500
9223,101.562500
9224,101.562500
9225,101.562500
9226,101.562500
9227,101.562500
9228,101.562500
9229,101.562500
9230,101.562500
9231,101.562500
9232,101.562500
9233,97.656250
9234,101.562500
9235,101.562500
9236,101.562500
9237,101.562500
9238,101.562500
9239,101.562500
9240,101.562500
9241,97.656250
9242,97.656250
9243,101.562500
9244,101.562500
9245,101.562500
9246,101.562500
9247,97.656250
9248,101.562500
9249,97.656250
9250,97.656250
9251,97.656250
9252,101.562500
9253,101.562500
9254,97.656250
9255,97.656250
9256,97.656250
9257,97.656250
9258,97.656250
9259,97.656250
9260,97.656250
9261,97.656250
9262,97.656250
9263,97.656250
9264,97.656250
9265,97.656250
9266,97.656250
9267,97.656250
9268,97.656250
9269,97.656250
9270,97.656250
9271,97.656250
9272,97.656250
9273,97.656250
9274,97.656250
9275,97.656250
9276,97.656250
9277,97.656250
9278,97.656250
9279,97.656250
9280,97.656250
9281,93.750000
9282,93.750000
9283,93.750000
9284,97.656250
9285,93.750000
9286,93.750000
9287,93.750000
9288,93.750000
9289,93.750000
9290,93.750000
9291,93.750000
9292,93.750000
9293,93.750000
9294,93.750000
9295,93.750000
9296,93.750000
9297,93.750000
9298,93.750000
9299,93.750000
9300,89.843750
9301,89.843750
9302,89.843750
9303,89.843750
9304,89.843750
9305,89.843750
9306,89.843750
9307,89.843750
9308,89.843750
9309,89.843750
9310,89.843750
9311,89.843750
9312,85.937500
9313,89.843750
9314,89.843750
9315,85.937500
9316,85.937500
9317,85.937500
9318,85.937500
9319,85.937500
9320,85.937500
9321,85.937500
9322,85.937500
9323,85.937500
9324,85.937500
9325,82.031250
9326,82.031250
9327,82.031250
9328,82.031250
9329,82.031250
9330,82.031250
9331,82.031250
9332,82.031250
9333,82.031250
9334,78.125000
9335,78.125000
9336,78.125000
9337,78.125000
9338,78.125000
9339,78.125000
9340,78.125000
9341,78.125000
9342,78.125000
9343,78.125000
9344,74.218750
9345,74.218750
9346,74.218750
9347,74.218750
9348,74.218750
9349,74.218750
9350,74.218750
9351,74.218750
9352,70.312500
9353,74.218750
9354,70.312500
9355,70.312500
9356,70.312500
9357,70.312500
9358,70.312500
9359,70.312500
9360,66.406250
9361,70.312500
9362,66.406250
9363,66.406250
9364,66.406250
9365,66.406250
9366,66.406250
9367,66.406250
9368,66.406250
9369,62.500000
9370,62.500000
9371,62.500000
9372,62.500000
9373,62.500000
9374,62.500000
9375,62.500000
9376,58.593750
9377,58.593750
9378,58.593750
9379,58.593750
9380,58.593750
9381,58.593750
9382,54.687500
9383,54.687500
9384,54.687500
9385,54.687500
9386,54.687500
9387,54.687500
9388,54.687500
9389,50.781250
9390,50.781250
9391,50.781250
9392,50.781250
9393,54.687500
9394,50.781250
9395,46.875000
9396,54.687500
9397,46.875000
9398,42.968750
9399,50.781250
9400,46.875000
9401,42.968750
9402,50.781250
9403,42.968750
9404,42.968750
9405,42.968750
9406,42.968750
9407,42.968750
9408,39.062500
9409,39.062500
9410,39.062500
9411,39.062500
9412,39.062500
9413,39.062500
9414,39.062500
9415,35.156250
9416,35.156250
9417,35.156250
9418,35.156250
9419,35.156250
9420,35.156250
9421,31.250000
9422,31.250000
9423,31.250000
9424,31.250000
9425,31.250000
9426,31.250000
9427,27.343750
9428,27.343750
9429,27.343750
9430,27.343750
9431,27.343750
9432,23.437500
9433,23.437500
9434,23.437500
9435,23.437500
9436,23.437500
9437,19.531250
9438,19.531250
9439,19.531250
9440,19.531250
9441,19.531250
9442,19.531250
9443,19.531250
9444,15.625000
9445,15.625000
9446,15.625000
9447,15.625000
9448,15.625000
9449,15.625000
9450,11.718750
9451,11.718750
9452,11.718750
9453,7.812500
9454,7.812500
9455,7.812500
9456,7.812500
9457,7.812500
9458,7.812500
9459,3.906250
9460,3.906250
9461,3.906250
9462,3.906250
9463,3.906250
9464,3.906250
9465,0.000000
9466,0.000000
9467,0.000000
9468,-3.906250
9469,-3.906250
9470,-3.906250
9471,-3.906250
9472,-3.906250
9473,-3.906250
9474,-3.906250
9475,-7.812500
9476,-7.812500
9477,-7.812500
9478,-7.812500
9479,-11.718750
9480,-11.718750
9481,-11.718750
9482,-11.718750
9483,-11.718750
9484,-15.625000
9485,-15.625000
9486,-15.625000
9487,-15.625000
9488,-15.625000
9489,-19.531250
9490,-19.531250
9491,-19.531250
9492,-19.531250
9493,-19.531250
9494,-23.437500
9495,-23.437500
9496,-23.437500
9497,-23.437500
9498,-23.437500
9499,-23.437500
9500,-27.343750
9501,-27.343750
9502,-27.343750
9503,-27.343750
9504,-27.343750
9505,-31.250000
9506,-31.250000
9507,-31.250000
9508,-31.250000
9509,-35.156250
9510,-35.156250
9511,-35.156250
9512,-35.156250
9513,-35.156250
9514,-35.156250
9515,-35.156250
9516,-39.062500
9517,-39.062500
9518,-39.062500
9519,-39.062500
9520,-42.968750
9521,-42.968750
9522,-42.968750
9523,-42.968750
9524,-42.968750
9525,-46.875000
9526,-46.875000
9527,-46.875000
9528,-46.875000
9529,-46.875000
9530,-50.781250
9531,-50.781250
9532,-50.781250
9533,-50.781250
9534,-50.781250
9535,-54.687500
9536,-54.687500
9537,-54.687500
9538,-54.687500
9539,-54.687500
9540,-54.687500
9541,-58.593750
9542,-58.593750
9543,-58.593750
9544,-58.593750
9545,-58.593750
9546,-62.500000
9547,-62.500000
9548,-62.500000
9549,-62.500000
9550,-62.500000
9551,-66.406250
9552,-66.406250
9553,-66.406250
9554,-66.406250
9555,-66.406250
9556,-70.312500
9557,-70.312500
9558,-70.312500
9559,-70.312500
9560,-70.312500
9561,-70.312500
9562,-70.312500
9563,-74.218750
9564,-74.218750
9565,-74.218750
9566,-74.218750
9567,-74.218750
9568,-78.125000
9569,-78.125000
9570,-78.125000
9571,-78.125000
9572,-78.125000
9573,-78.125000
9574,-82.031250
9575,-82.031250
9576,-82.031250
9577,-82.031250
9578,-82.031250
9579,-82.031250
9580,-85.937500
9581,-85.937500
9582,-85.937500
9583,-85.937500
9584,-85.937500
9585,-89.843750
9586,-89.843750
9587,-89.843750
9588,-89.843750
9589,-89.843750
9590,-89.843750
9591,-89.843750
9592,-93.750000
9593,-93.750000
9594,-93.750000
9595,-93.750000
9596,-93.750000
9597,-93.750000
9598,-97.656250
9599,-97.656250
9600,-97.656250
9601,-97.656250
9602,-97.656250
9603,-97.656250
9604,-97.656250
9605,-101.562500
9606,-101.562500
9607,-101.562500
9608,-101.562500
9609,-101.562500
9610,-101.562500
9611,-101.562500
9612,-105.468750
9613,-105.468750
9614,-105.468750
9615,-105.468750
9616,-105.468750
9617,-105.468750
9618,-109.375000
9619,-109.375000
9620,-109.375000
9621,-109.375000
9622,-109.375000
9623,-109.375000
9624,-109.375000
9625,-113.281250
9626,-113.281250
9627,-113.281250
9628,-113.281250
9629,-113.281250
9630,-113.281250
9631,-113.281250
9632,-113.281250
9633,-113.281250
9634,-117.187500
9635,-117.187500
9636,-117.187500
9637,-117.187500
9638,-117.187500
9639,-117.187500
9640,-117.187500
9641,-117.187500
9642,-121.093750
9643,-121.093750
9644,-121.093750
9645,-121.093750
9646,-121.093750
9647,-121.093750
9648,-121.093750
9649,-121.093750
9650,-121.093750
9651,-121.093750
9652,-121.093750
9653,-121.093750
9654,-125.000000
9655,-125.000000
9656,-125.000000
9657,-125.000000
9658,-125.000000
9659,-125.000000
9660,-125.000000
9661,-125.000000
9662,-125.000000
9663,-125.000000
9664,-128.906250
9665,-125.000000
9666,-128.906250
9667,-128.906250
9668,-128.906250
9669,-128.906250
9670,-128.906250
9671,-128.906250
9672,-128.906250
9673,-128.906250
9674,-128.906250
9675,-128.906250
9676,-128.906250
9677,-128.906250
9678,-128.906250
9679,-128.906250
9680,-128.906250
9681,-132.812500
9682,-132.812500
9683,-132.812500
9684,-132.812500
9685,-132.812500
9686,-132.812500
9687,-132.812500
9688,-132.812500
9689,-132.812500
9690,-132.812500
9691,-132.812500
9692,-132.812500
9693,-132.812500
9694,-132.812500
9695,-132.812500
9696,-132.812500
9697,-132.812500
9698,-132.812500
9699,-132.812500
9700,-132.812500
9701,-132.812500
9702,-132.812500
9703,-132.812500
9704,-132.812500
9705,-132.812500
9706,-136.718750
9707,-136.718750
9708,-136.718750
9709,-136.718750
9710,-136.718750
9711,-136.718750
9712,-136.718750
9713,-136.718750
9714,-136.718750
9715,-136.718750
9716,-136.718750
9717,-136.718750
9718,-136.718750
9719,-136.718750
9720,-136.718750
9721,-136.718750
9722,-136.718750
9723,-136.718750
9724,-136.718750
9725,-136.718750
9726,-136.718750
9727,-136.718750
9728,-136.718750
9729,-136.718750
9730,-136.718750
9731,-136.718750
9732,-136.718750
9733,-136.718750
9734,-136.718750
9735,-132.812500
9736,-136.718750
9737,-136.718750
9738,-136.718750
9739,-136.718750
9740,-136.718750
9741,-132.812500
9742,-132.812500
9743,-132.812500
9744,-132.812500
9745,-132.812500
9746,-132.812500
9747,-132.812500
9748,-132.812500
9749,-132.812500
9750,-132.812500
9751,-132.812500
9752,-132.812500
9753,-132.812500
9754,-132.812500
9755,-132.812500
9756,-132.812500
9757,-132.812500
9758,-132.812500
9759,-132.812500
9760,-132.812500
9761,-132.812500
9762,-132.812500
9763,-132.812500
9764,-132.812500
9765,-132.812500
9766,-128.906250
9767,-128.906250
9768,-128.906250
9769,-128.906250
9770,-128.906250
9771,-128.906250
9772,-128.906250
9773,-128.906250
9774,-128.906250
9775,-128.906250
9776,-128.906250
9777,-128.906250
9778,-128.906250
9779,-125.000000
9780,-128.906250
9781,-125.000000
9782,-125.000000
9783,-125.000000
9784,-125.000000
9785,-125.000000
9786,-125.000000
9787,-125.000000
9788,-125.000000
9789,-125.000000
9790,-125.000000
9791,-121.093750
9792,-121.093750
9793,-121.093750
9794,-121.093750
9795,-121.093750
9796,-121.093750
9797,-121.093750
9798,-121.093750
9799,-121.093750
9800,-117.187500
9801,-117.187500
9802,-117.187500
9803,-117.187500
9804,-117.187500
9805,-117.187500
9806,-117.187500
9807,-117.187500
9808,-117.187500
9809,-117.187500
9810,-113.281250
9811,-113.281250
9812,-113.281250
9813,-113.281250
9814,-113.281250
9815,-109.375000
9816,-113.281250
9817,-109.375000
9818,-109.375000
9819,-109.375000
9820,-109.375000
9821,-109.375000
9822,-109.375000
9823,-109.375000
9824,-109.375000
9825,-105.468750
9826,-105.468750
9827,-105.468750
9828,-105.468750
9829,-105.468750
9830,-105.468750
9831,-105.468750
9832,-101.562500
9833,-101.562500
9834,-101.562500
9835,-101.562500
9836,-101.562500
9837,-101.562500
9838,-101.562500
9839,-101.562500
9840,-101.562500
9841,-97.656250
9842,-97.656250
9843,-97.656250
9844,-97.656250
9845,-97.656250
9846,-97.656250
9847,-97.656250
9848,-93.750000
9849,-93.750000
9850,-93.750000
9851,-93.750000
9852,-93.750000
9853,-93.750000
9854,-89.843750
9855,-89.843750
9856,-89.843750
9857,-89.843750
9858,-89.843750
9859,-89.843750
9860,-85.937500
9861,-85.937500
9862,-85.937500
9863,-85.937500
9864,-85.937500
9865,-85.937500
9866,-82.031250
9867,-82.031250
9868,-82.031250
9869,-82.031250
9870,-82.031250
9871,-82.031250
9872,-78.125000
9873,-78.125000
9874,-78.125000
9875,-78.125000
9876,-78.125000
9877,-74.218750
9878,-74.218750
9879,-74.218750
9880,-74.218750
9881,-74.218750
9882,-74.218750
9883,-70.312500
9884,-70.312500
9885,-70.312500
9886,-70.312500
9887,-70.312500
9888,-70.312500
9889,-66.406250
9890,-66.406250
9891,-66.406250
9892,-66.406250
9893,-66.406250
9894,-66.406250
9895,-62.500000
9896,-62.500000
9897,-62.500000
9898,-62.500000
9899,-62.500000
9900,-58.593750
9901,-58.593750
9902,-58.593750
9903,-58.593750
9904,-58.593750
9905,-54.687500
9906,-54.687500
9907,-54.687500
9908,-54.687500
9909,-54.687500
9910,-54.687500
9911,-50.781250
9912,-50.781250
9913,-50.781250
9914,-50.781250
9915,-50.781250
9916,-46.875000
9917,-46.875000
9918,-46.875000
9919,-46.875000
9920,-46.875000
9921,-42.968750
9922,-42.968750
9923,-42.968750
9924,-42.968750
9925,-42.968750
9926,-42.968750
9927,-39.062500
9928,-39.062500
9929,-39.062500
9930,-39.062500
9931,-35.156250
9932,-35.156250
9933,-35.156250
9934,-35.156250
9935,-35.156250
9936,-35.156250
9937,-31.250000
9938,-31.250000
9939,-31.250000
9940,-31.250000
9941,-27.343750
9942,-27.343750
9943,-27.343750
9944,-27.343750
9945,-27.343750
9946,-27.343750
9947,-23.437500
9948,-23.437500
9949,-23.437500
9950,-23.437500
9951,-19.531250
9952,-19.531250
9953,-19.531250
9954,-19.531250
9955,-19.531250
9956,-19.531250
9957,-15.625000
9958,-15.625000
9959,-15.625000
9960,-15.625000
9961,-15.625000
9962,-11.718750
9963,-11.718750
9964,-11.718750
9965,-11.718750
9966,-11.718750
9967,-7.812500
9968,-7.812500
9969,-7.812500
9970,-7.812500
9971,-7.812500
9972,-3.906250
9973,-3.906250
9974,-3.906250
9975,-3.906250
9976,-3.906250
9977,0.000000
9978,0.000000
9979,0.000000
9980,0.000000
9981,0.000000
9982,0.000000
9983,3.906250
9984,3.906250
9985,3.906250
9986,3.906250
9987,3.906250
9988,3.906250
9989,3.906250
9990,7.812500
9991,7.812500
9992,7.812500
9993,11.718750
9994,11.718750
9995,11.718750
9996,11.718750
9997,11.718750
9998,11.718750
9999,11.718750
10000,15.625000
