Channel              :,CH1
Frequency            :,1.012kHz
Period               :,0.989ms
PK-PK                :,281.3mV
Probe attenuation    :,1X
Voltage per ADC value:,0.244141mV
Time interval        :,1.00000us

index,CH1_Voltage(mV)
1,-74.218750
2,-74.218750
3,-70.312500
4,-70.312500
5,-70.312500
6,-70.312500
7,-70.312500
8,-66.406250
9,-66.406250
10,-66.406250
11,-66.406250
12,-66.406250
13,-62.500000
14,-62.500000
15,-62.500000
16,-62.500000
17,-58.593750
18,-58.593750
19,-58.593750
20,-58.593750
21,-58.593750
22,-54.687500
23,-54.687500
24,-54.687500
25,-54.687500
26,-50.781250
27,-50.781250
28,-50.781250
29,-50.781250
30,-50.781250
31,-46.875000
32,-46.875000
33,-46.875000
34,-46.875000
35,-46.875000
36,-42.968750
37,-42.968750
38,-42.968750
39,-42.968750
40,-39.062500
41,-39.062500
42,-39.062500
43,-39.062500
44,-35.156250
45,-35.156250
46,-35.156250
47,-35.156250
48,-35.156250
49,-31.250000
50,-31.250000
51,-31.250000
52,-31.250000
53,-27.343750
54,-27.343750
55,-27.343750
56,-27.343750
57,-27.343750
58,-23.437500
59,-23.437500
60,-23.437500
61,-23.437500
62,-19.531250
63,-19.531250
64,-19.531250
65,-19.531250
66,-15.625000
67,-15.625000
68,-15.625000
69,-15.625000
70,-11.718750
71,-11.718750
72,-11.718750
73,-11.718750
74,-11.718750
75,-7.812500
76,-7.812500
77,-7.812500
78,-7.812500
79,-3.906250
80,-3.906250
81,-3.906250
82,-3.906250
83,-3.906250
84,0.000000
85,0.000000
86,0.000000
87,3.906250
88,0.000000
89,3.906250
90,3.906250
91,3.906250
92,7.812500
93,7.812500
94,7.812500
95,7.812500
96,7.812500
97,11.718750
98,11.718750
99,11.718750
100,11.718750
101,11.718750
102,15.625000
103,15.625000
104,15.625000
105,15.625000
106,15.625000
107,19.531250
108,19.531250
109,19.531250
110,23.437500
111,19.531250
112,23.437500
113,23.437500
114,23.437500
115,23.437500
116,27.343750
117,27.343750
118,27.343750
119,27.343750
120,27.343750
121,31.250000
122,31.250000
123,31.250000
124,31.250000
125,31.250000
126,31.250000
127,35.156250
128,35.156250
129,35.156250
130,35.156250
131,39.062500
132,39.062500
133,39.062500
134,39.062500
135,39.062500
136,39.062500
137,42.968750
138,42.968750
139,42.968750
140,42.968750
141,42.968750
142,46.875000
143,46.875000
144,46.875000
145,46.875000
146,46.875000
147,50.781250
148,50.781250
149,50.781250
150,50.781250
151,50.781250
152,54.687500
153,54.687500
154,54.687500
155,54.687500
156,54.687500
157,54.687500
158,54.687500
159,58.593750
160,58.593750
161,58.593750
162,58.593750
163,58.593750
164,58.593750
165,62.500000
166,62.500000
167,62.500000
168,62.500000
169,62.500000
170,66.406250
171,66.406250
172,66.406250
173,66.406250
174,66.406250
175,66.406250
176,66.406250
177,70.312500
178,70.312500
179,70.312500
180,70.312500
181,70.312500
182,70.312500
183,70.312500
184,74.218750
185,74.218750
186,74.218750
187,74.218750
188,74.218750
189,74.218750
190,74.218750
191,78.125000
192,78.125000
193,78.125000
194,78.125000
195,78.125000
196,78.125000
197,82.031250
198,82.031250
199,82.031250
200,82.031250
201,82.031250
202,82.031250
203,82.031250
204,82.031250
205,85.937500
206,85.937500
207,85.937500
208,85.937500
209,85.937500
210,85.937500
211,85.937500
212,85.937500
213,85.937500
214,89.843750
215,89.843750
216,89.843750
217,89.843750
218,89.843750
219,89.843750
220,93.750000
221,93.750000
222,93.750000
223,93.750000
224,93.750000
225,93.750000
226,93.750000
227,93.750000
228,93.750000
229,93.750000
230,97.656250
231,97.656250
232,97.656250
233,97.656250
234,97.656250
235,97.656250
236,97.656250
237,97.656250
238,97.656250
239,101.562500
240,101.562500
241,101.562500
242,101.562500
243,101.562500
244,101.562500
245,101.562500
246,101.562500
247,101.562500
248,101.562500
249,101.562500
250,105.468750
251,105.468750
252,101.562500
253,105.468750
254,105.468750
255,105.468750
256,105.468750
257,105.468750
258,105.468750
259,105.468750
260,105.468750
261,105.468750
262,105.468750
263,105.468750
264,109.375000
265,109.375000
266,109.375000
267,105.468750
268,109.375000
269,109.375000
270,109.375000
271,109.375000
272,109.375000
273,109.375000
274,109.375000
275,109.375000
276,109.375000
277,109.375000
278,109.375000
279,109.375000
280,109.375000
281,109.375000
282,113.281250
283,113.281250
284,113.281250
285,109.375000
286,113.281250
287,113.281250
288,113.281250
289,113.281250
290,113.281250
291,113.281250
292,113.281250
293,113.281250
294,113.281250
295,113.281250
296,113.281250
297,113.281250
298,113.281250
299,113.281250
300,113.281250
301,113.281250
302,113.281250
303,113.281250
304,113.281250
305,113.281250
306,113.281250
307,113.281250
308,113.281250
309,113.281250
310,113.281250
311,117.187500
312,113.281250
313,113.281250
314,113.281250
315,113.281250
316,113.281250
317,113.281250
318,117.187500
319,113.281250
320,117.187500
321,113.281250
322,113.281250
323,113.281250
324,113.281250
325,113.281250
326,117.187500
327,117.187500
328,117.187500
329,117.187500
330,117.187500
331,117.187500
332,113.281250
333,113.281250
334,113.281250
335,117.187500
336,117.187500
337,113.281250
338,117.187500
339,117.187500
340,117.187500
341,117.187500
342,113.281250
343,113.281250
344,113.281250
345,113.281250
346,113.281250
347,113.281250
348,113.281250
349,113.281250
350,113.281250
351,113.281250
352,113.281250
353,113.281250
354,113.281250
355,113.281250
356,113.281250
357,113.281250
358,113.281250
359,113.281250
360,113.281250
361,113.281250
362,113.281250
363,113.281250
364,113.281250
365,113.281250
366,113.281250
367,113.281250
368,109.375000
369,109.375000
370,113.281250
371,113.281250
372,113.281250
373,109.375000
374,109.375000
375,109.375000
376,109.375000
377,109.375000
378,109.375000
379,109.375000
380,109.375000
381,109.375000
382,109.375000
383,109.375000
384,109.375000
385,109.375000
386,109.375000
387,109.375000
388,109.375000
389,105.468750
390,105.468750
391,105.468750
392,105.468750
393,105.468750
394,105.468750
395,105.468750
396,105.468750
397,105.468750
398,105.468750
399,105.468750
400,101.562500
401,101.562500
402,101.562500
403,101.562500
404,101.562500
405,101.562500
406,101.562500
407,101.562500
408,101.562500
409,101.562500
410,101.562500
411,101.562500
412,101.562500
413,97.656250
414,97.656250
415,97.656250
416,97.656250
417,97.656250
418,97.656250
419,97.656250
420,97.656250
421,97.656250
422,97.656250
423,93.750000
424,93.750000
425,93.750000
426,93.750000
427,93.750000
428,93.750000
429,93.750000
430,93.750000
431,89.843750
432,89.843750
433,89.843750
434,89.843750
435,89.843750
436,89.843750
437,89.843750
438,89.843750
439,89.843750
440,85.937500
441,85.937500
442,85.937500
443,85.937500
444,85.937500
445,85.937500
446,85.937500
447,82.031250
448,82.031250
449,82.031250
450,82.031250
451,82.031250
452,82.031250
453,78.125000
454,78.125000
455,82.031250
456,78.125000
457,78.125000
458,78.125000
459,78.125000
460,78.125000
461,78.125000
462,74.218750
463,74.218750
464,74.218750
465,74.218750
466,74.218750
467,74.218750
468,70.312500
469,70.312500
470,70.312500
471,70.312500
472,70.312500
473,70.312500
474,70.312500
475,66.406250
476,66.406250
477,66.406250
478,66.406250
479,66.406250
480,62.500000
481,62.500000
482,62.500000
483,62.500000
484,62.500000
485,62.500000
486,62.500000
487,58.593750
488,58.593750
489,58.593750
490,58.593750
491,58.593750
492,54.687500
493,54.687500
494,54.687500
495,54.687500
496,54.687500
497,54.687500
498,50.781250
499,50.781250
500,50.781250
501,50.781250
502,50.781250
503,46.875000
504,46.875000
505,46.875000
506,46.875000
507,46.875000
508,42.968750
509,42.968750
510,42.968750
511,42.968750
512,42.968750
513,39.062500
514,39.062500
515,39.062500
516,39.062500
517,39.062500
518,39.062500
519,35.156250
520,35.156250
521,35.156250
522,35.156250
523,31.250000
524,31.250000
525,31.250000
526,31.250000
527,31.250000
528,31.250000
529,27.343750
530,27.343750
531,27.343750
532,23.437500
533,23.437500
534,23.437500
535,23.437500
536,19.531250
537,19.531250
538,19.531250
539,19.531250
540,19.531250
541,19.531250
542,15.625000
543,15.625000
544,15.625000
545,15.625000
546,15.625000
547,11.718750
548,11.718750
549,11.718750
550,11.718750
551,7.812500
552,7.812500
553,7.812500
554,7.812500
555,3.906250
556,3.906250
557,3.906250
558,3.906250
559,3.906250
560,3.906250
561,0.000000
562,0.000000
563,0.000000
564,-3.906250
565,-3.906250
566,-3.906250
567,-3.906250
568,-3.906250
569,-7.812500
570,-7.812500
571,-7.812500
572,-7.812500
573,-11.718750
574,-11.718750
575,-11.718750
576,-11.718750
577,-15.625000
578,-15.625000
579,-15.625000
580,-15.625000
581,-19.531250
582,-19.531250
583,-19.531250
584,-19.531250
585,-19.531250
586,-19.531250
587,-23.437500
588,-23.437500
589,-27.343750
590,-27.343750
591,-27.343750
592,-27.343750
593,-27.343750
594,-27.343750
595,-31.250000
596,-31.250000
597,-31.250000
598,-31.250000
599,-35.156250
600,-35.156250
601,-35.156250
602,-35.156250
603,-39.062500
604,-39.062500
605,-39.062500
606,-39.062500
607,-42.968750
608,-42.968750
609,-42.968750
610,-42.968750
611,-42.968750
612,-46.875000
613,-46.875000
614,-46.875000
615,-46.875000
616,-50.781250
617,-50.781250
618,-50.781250
619,-50.781250
620,-50.781250
621,-54.687500
622,-54.687500
623,-54.687500
624,-54.687500
625,-58.593750
626,-58.593750
627,-58.593750
628,-58.593750
629,-58.593750
630,-62.500000
631,-62.500000
632,-62.500000
633,-66.406250
634,-66.406250
635,-66.406250
636,-66.406250
637,-66.406250
638,-70.312500
639,-70.312500
640,-70.312500
641,-70.312500
642,-74.218750
643,-74.218750
644,-74.218750
645,-74.218750
646,-78.125000
647,-78.125000
648,-78.125000
649,-78.125000
650,-78.125000
651,-82.031250
652,-82.031250
653,-82.031250
654,-82.031250
655,-82.031250
656,-82.031250
657,-85.937500
658,-85.937500
659,-85.937500
660,-85.937500
661,-85.937500
662,-89.843750
663,-89.843750
664,-89.843750
665,-89.843750
666,-93.750000
667,-93.750000
668,-93.750000
669,-93.750000
670,-93.750000
671,-97.656250
672,-97.656250
673,-97.656250
674,-97.656250
675,-97.656250
676,-101.562500
677,-101.562500
678,-101.562500
679,-101.562500
680,-105.468750
681,-101.562500
682,-105.468750
683,-105.468750
684,-105.468750
685,-105.468750
686,-109.375000
687,-109.375000
688,-109.375000
689,-109.375000
690,-109.375000
691,-109.375000
692,-113.281250
693,-113.281250
694,-113.281250
695,-113.281250
696,-113.281250
697,-117.187500
698,-117.187500
699,-117.187500
700,-117.187500
701,-117.187500
702,-117.187500
703,-121.093750
704,-121.093750
705,-121.093750
706,-121.093750
707,-121.093750
708,-125.000000
709,-125.000000
710,-125.000000
711,-125.000000
712,-125.000000
713,-125.000000
714,-125.000000
715,-128.906250
716,-125.000000
717,-128.906250
718,-128.906250
719,-128.906250
720,-128.906250
721,-132.812500
722,-132.812500
723,-132.812500
724,-132.812500
725,-132.812500
726,-132.812500
727,-132.812500
728,-136.718750
729,-136.718750
730,-136.718750
731,-136.718750
732,-136.718750
733,-136.718750
734,-136.718750
735,-136.718750
736,-136.718750
737,-140.625000
738,-140.625000
739,-140.625000
740,-140.625000
741,-140.625000
742,-140.625000
743,-140.625000
744,-144.531250
745,-144.531250
746,-144.531250
747,-144.531250
748,-144.531250
749,-144.531250
750,-144.531250
751,-144.531250
752,-144.531250
753,-144.531250
754,-144.531250
755,-148.437500
756,-148.437500
757,-148.437500
758,-148.437500
759,-148.437500
760,-148.437500
761,-148.437500
762,-148.437500
763,-152.343750
764,-152.343750
765,-148.437500
766,-152.343750
767,-152.343750
768,-152.343750
769,-152.343750
770,-152.343750
771,-152.343750
772,-152.343750
773,-152.343750
774,-152.343750
775,-152.343750
776,-152.343750
777,-152.343750
778,-152.343750
779,-152.343750
780,-152.343750
781,-156.250000
782,-156.250000
783,-156.250000
784,-156.250000
785,-156.250000
786,-156.250000
787,-156.250000
788,-156.250000
789,-156.250000
790,-156.250000
791,-156.250000
792,-156.250000
793,-156.250000
794,-156.250000
795,-156.250000
796,-156.250000
797,-156.250000
798,-156.250000
799,-156.250000
800,-156.250000
801,-160.156250
802,-160.156250
803,-160.156250
804,-156.250000
805,-156.250000
806,-160.156250
807,-160.156250
808,-160.156250
809,-160.156250
810,-160.156250
811,-160.156250
812,-160.156250
813,-156.250000
814,-160.156250
815,-160.156250
816,-160.156250
817,-160.156250
818,-160.156250
819,-160.156250
820,-160.156250
821,-160.156250
822,-160.156250
823,-156.250000
824,-156.250000
825,-156.250000
826,-160.156250
827,-160.156250
828,-160.156250
829,-160.156250
830,-156.250000
831,-156.250000
832,-160.156250
833,-156.250000
834,-156.250000
835,-156.250000
836,-156.250000
837,-156.250000
838,-156.250000
839,-156.250000
840,-156.250000
841,-156.250000
842,-156.250000
843,-156.250000
844,-156.250000
845,-156.250000
846,-156.250000
847,-156.250000
848,-156.250000
849,-156.250000
850,-156.250000
851,-156.250000
852,-152.343750
853,-152.343750
854,-152.343750
855,-156.250000
856,-152.343750
857,-152.343750
858,-152.343750
859,-152.343750
860,-152.343750
861,-152.343750
862,-152.343750
863,-152.343750
864,-152.343750
865,-152.343750
866,-152.343750
867,-148.437500
868,-148.437500
869,-148.437500
870,-148.437500
871,-148.437500
872,-148.437500
873,-148.437500
874,-148.437500
875,-148.437500
876,-144.531250
877,-144.531250
878,-144.531250
879,-144.531250
880,-144.531250
881,-144.531250
882,-144.531250
883,-144.531250
884,-144.531250
885,-144.531250
886,-144.531250
887,-140.625000
888,-140.625000
889,-140.625000
890,-140.625000
891,-140.625000
892,-140.625000
893,-140.625000
894,-140.625000
895,-136.718750
896,-136.718750
897,-136.718750
898,-136.718750
899,-136.718750
900,-136.718750
901,-136.718750
902,-136.718750
903,-136.718750
904,-132.812500
905,-132.812500
906,-132.812500
907,-132.812500
908,-132.812500
909,-132.812500
910,-132.812500
911,-132.812500
912,-128.906250
913,-128.906250
914,-128.906250
915,-128.906250
916,-125.000000
917,-125.000000
918,-125.000000
919,-125.000000
920,-125.000000
921,-125.000000
922,-125.000000
923,-125.000000
924,-121.093750
925,-121.093750
926,-121.093750
927,-121.093750
928,-121.093750
929,-121.093750
930,-121.093750
931,-117.187500
932,-117.187500
933,-117.187500
934,-117.187500
935,-117.187500
936,-113.281250
937,-113.281250
938,-113.281250
939,-113.281250
940,-113.281250
941,-113.281250
942,-109.375000
943,-109.375000
944,-109.375000
945,-109.375000
946,-109.375000
947,-109.375000
948,-105.468750
949,-105.468750
950,-105.468750
951,-105.468750
952,-101.562500
953,-101.562500
954,-101.562500
955,-101.562500
956,-97.656250
957,-101.562500
958,-101.562500
959,-97.656250
960,-97.656250
961,-97.656250
962,-93.750000
963,-93.750000
964,-93.750000
965,-93.750000
966,-93.750000
967,-93.750000
968,-89.843750
969,-89.843750
970,-89.843750
971,-89.843750
972,-89.843750
973,-85.937500
974,-85.937500
975,-85.937500
976,-85.937500
977,-85.937500
978,-82.031250
979,-82.031250
980,-82.031250
981,-82.031250
982,-78.125000
983,-78.125000
984,-78.125000
985,-78.125000
986,-78.125000
987,-74.218750
988,-74.218750
989,-74.218750
990,-74.218750
991,-70.312500
992,-70.312500
993,-70.312500
994,-70.312500
995,-70.312500
996,-66.406250
997,-66.406250
998,-66.406250
999,-66.406250
1000,-62.500000
1001,-62.500000
1002,-62.500000
1003,-62.500000
1004,-62.500000
1005,-58.593750
1006,-58.593750
1007,-58.593750
1008,-58.593750
1009,-54.687500
1010,-54.687500
1011,-54.687500
1012,-54.687500
1013,-54.687500
1014,-50.781250
1015,-50.781250
1016,-50.781250
1017,-50.781250
1018,-46.875000
1019,-50.781250
1020,-46.875000
1021,-46.875000
1022,-42.968750
1023,-42.968750
1024,-42.968750
1025,-42.968750
1026,-42.968750
1027,-39.062500
1028,-39.062500
1029,-39.062500
1030,-39.062500
1031,-39.062500
1032,-35.156250
1033,-35.156250
1034,-35.156250
1035,-35.156250
1036,-31.250000
1037,-31.250000
1038,-31.250000
1039,-31.250000
1040,-27.343750
1041,-27.343750
1042,-27.343750
1043,-27.343750
1044,-27.343750
1045,-27.343750
1046,-23.437500
1047,-23.437500
1048,-19.531250
1049,-19.531250
1050,-19.531250
1051,-19.531250
1052,-19.531250
1053,-19.531250
1054,-15.625000
1055,-15.625000
1056,-15.625000
1057,-15.625000
1058,-11.718750
1059,-11.718750
1060,-11.718750
1061,-11.718750
1062,-11.718750
1063,-11.718750
1064,-7.812500
1065,-7.812500
1066,-7.812500
1067,-3.906250
1068,-3.906250
1069,-3.906250
1070,-3.906250
1071,-3.906250
1072,0.000000
1073,0.000000
1074,0.000000
1075,0.000000
1076,0.000000
1077,3.906250
1078,3.906250
1079,3.906250
1080,3.906250
1081,7.812500
1082,7.812500
1083,7.812500
1084,7.812500
1085,7.812500
1086,11.718750
1087,11.718750
1088,11.718750
1089,11.718750
1090,11.718750
1091,15.625000
1092,15.625000
1093,15.625000
1094,15.625000
1095,19.531250
1096,19.531250
1097,19.531250
1098,19.531250
1099,19.531250
1100,19.531250
1101,23.437500
1102,23.437500
1103,23.437500
1104,23.437500
1105,23.437500
1106,27.343750
1107,27.343750
1108,27.343750
1109,27.343750
1110,31.250000
1111,31.250000
1112,31.250000
1113,31.250000
1114,31.250000
1115,35.156250
1116,35.156250
1117,35.156250
1118,35.156250
1119,35.156250
1120,39.062500
1121,39.062500
1122,39.062500
1123,39.062500
1124,42.968750
1125,39.062500
1126,42.968750
1127,42.968750
1128,42.968750
1129,42.968750
1130,46.875000
1131,46.875000
1132,46.875000
1133,46.875000
1134,46.875000
1135,46.875000
1136,46.875000
1137,50.781250
1138,50.781250
1139,50.781250
1140,54.687500
1141,54.687500
1142,54.687500
1143,54.687500
1144,54.687500
1145,54.687500
1146,54.687500
1147,58.593750
1148,58.593750
1149,58.593750
1150,58.593750
1151,58.593750
1152,58.593750
1153,62.500000
1154,62.500000
1155,62.500000
1156,62.500000
1157,62.500000
1158,62.500000
1159,66.406250
1160,66.406250
1161,66.406250
1162,66.406250
1163,66.406250
1164,66.406250
1165,66.406250
1166,70.312500
1167,70.312500
1168,70.312500
1169,70.312500
1170,70.312500
1171,70.312500
1172,74.218750
1173,74.218750
1174,74.218750
1175,74.218750
1176,74.218750
1177,74.218750
1178,78.125000
1179,78.125000
1180,78.125000
1181,78.125000
1182,78.125000
1183,78.125000
1184,78.125000
1185,78.125000
1186,82.031250
1187,82.031250
1188,82.031250
1189,82.031250
1190,82.031250
1191,82.031250
1192,82.031250
1193,82.031250
1194,85.937500
1195,85.937500
1196,85.937500
1197,85.937500
1198,85.937500
1199,85.937500
1200,85.937500
1201,85.937500
1202,85.937500
1203,89.843750
1204,89.843750
1205,89.843750
1206,89.843750
1207,89.843750
1208,89.843750
1209,89.843750
1210,89.843750
1211,93.750000
1212,93.750000
1213,93.750000
1214,93.750000
1215,93.750000
1216,93.750000
1217,93.750000
1218,93.750000
1219,93.750000
1220,97.656250
1221,97.656250
1222,97.656250
1223,97.656250
1224,97.656250
1225,97.656250
1226,97.656250
1227,97.656250
1228,97.656250
1229,97.656250
1230,101.562500
1231,101.562500
1232,101.562500
1233,101.562500
1234,101.562500
1235,101.562500
1236,101.562500
1237,101.562500
1238,101.562500
1239,101.562500
1240,101.562500
1241,105.468750
1242,105.468750
1243,105.468750
1244,105.468750
1245,105.468750
1246,105.468750
1247,105.468750
1248,105.468750
1249,105.468750
1250,105.468750
1251,105.468750
1252,105.468750
1253,105.468750
1254,109.375000
1255,109.375000
1256,109.375000
1257,109.375000
1258,109.375000
1259,109.375000
1260,109.375000
1261,109.375000
1262,109.375000
1263,109.375000
1264,109.375000
1265,109.375000
1266,109.375000
1267,109.375000
1268,109.375000
1269,109.375000
1270,109.375000
1271,109.375000
1272,109.375000
1273,113.281250
1274,113.281250
1275,113.281250
1276,113.281250
1277,113.281250
1278,113.281250
1279,113.281250
1280,113.281250
1281,113.281250
1282,113.281250
1283,113.281250
1284,113.281250
1285,113.281250
1286,113.281250
1287,113.281250
1288,113.281250
1289,113.281250
1290,113.281250
1291,113.281250
1292,113.281250
1293,113.281250
1294,117.187500
1295,113.281250
1296,113.281250
1297,113.281250
1298,113.281250
1299,117.187500
1300,117.187500
1301,113.281250
1302,113.281250
1303,113.281250
1304,113.281250
1305,117.187500
1306,117.187500
1307,113.281250
1308,113.281250
1309,113.281250
1310,117.187500
1311,117.187500
1312,117.187500
1313,113.281250
1314,113.281250
1315,113.281250
1316,113.281250
1317,117.187500
1318,117.187500
1319,117.187500
1320,117.187500
1321,117.187500
1322,117.187500
1323,113.281250
1324,117.187500
1325,113.281250
1326,113.281250
1327,113.281250
1328,113.281250
1329,113.281250
1330,113.281250
1331,113.281250
1332,113.281250
1333,113.281250
1334,113.281250
1335,113.281250
1336,113.281250
1337,113.281250
1338,113.281250
1339,113.281250
1340,113.281250
1341,113.281250
1342,113.281250
1343,113.281250
1344,113.281250
1345,113.281250
1346,113.281250
1347,113.281250
1348,113.281250
1349,113.281250
1350,113.281250
1351,113.281250
1352,113.281250
1353,113.281250
1354,113.281250
1355,113.281250
1356,113.281250
1357,109.375000
1358,109.375000
1359,109.375000
1360,109.375000
1361,109.375000
1362,109.375000
1363,109.375000
1364,109.375000
1365,109.375000
1366,109.375000
1367,109.375000
1368,109.375000
1369,109.375000
1370,109.375000
1371,109.375000
1372,109.375000
1373,109.375000
1374,109.375000
1375,105.468750
1376,109.375000
1377,105.468750
1378,105.468750
1379,105.468750
1380,105.468750
1381,105.468750
1382,105.468750
1383,105.468750
1384,105.468750
1385,105.468750
1386,105.468750
1387,105.468750
1388,105.468750
1389,105.468750
1390,105.468750
1391,105.468750
1392,101.562500
1393,101.562500
1394,101.562500
1395,101.562500
1396,101.562500
1397,101.562500
1398,101.562500
1399,101.562500
1400,101.562500
1401,101.562500
1402,97.656250
1403,97.656250
1404,97.656250
1405,97.656250
1406,97.656250
1407,97.656250
1408,97.656250
1409,97.656250
1410,97.656250
1411,93.750000
1412,93.750000
1413,93.750000
1414,93.750000
1415,93.750000
1416,93.750000
1417,93.750000
1418,93.750000
1419,93.750000
1420,89.843750
1421,93.750000
1422,89.843750
1423,89.843750
1424,89.843750
1425,89.843750
1426,89.843750
1427,89.843750
1428,89.843750
1429,85.937500
1430,85.937500
1431,85.937500
1432,85.937500
1433,85.937500
1434,85.937500
1435,85.937500
1436,85.937500
1437,82.031250
1438,82.031250
1439,82.031250
1440,82.031250
1441,82.031250
1442,82.031250
1443,82.031250
1444,78.125000
1445,78.125000
1446,78.125000
1447,78.125000
1448,78.125000
1449,78.125000
1450,74.218750
1451,74.218750
1452,74.218750
1453,74.218750
1454,74.218750
1455,74.218750
1456,74.218750
1457,70.312500
1458,70.312500
1459,70.312500
1460,70.312500
1461,70.312500
1462,70.312500
1463,66.406250
1464,66.406250
1465,66.406250
1466,66.406250
1467,66.406250
1468,66.406250
1469,62.500000
1470,62.500000
1471,62.500000
1472,62.500000
1473,62.500000
1474,62.500000
1475,58.593750
1476,58.593750
1477,58.593750
1478,58.593750
1479,54.687500
1480,54.687500
1481,54.687500
1482,54.687500
1483,54.687500
1484,54.687500
1485,54.687500
1486,54.687500
1487,50.781250
1488,50.781250
1489,50.781250
1490,50.781250
1491,46.875000
1492,46.875000
1493,46.875000
1494,46.875000
1495,46.875000
1496,46.875000
1497,42.968750
1498,42.968750
1499,42.968750
1500,42.968750
1501,42.968750
1502,39.062500
1503,39.062500
1504,39.062500
1505,39.062500
1506,39.062500
1507,39.062500
1508,35.156250
1509,35.156250
1510,35.156250
1511,31.250000
1512,31.250000
1513,31.250000
1514,31.250000
1515,31.250000
1516,27.343750
1517,27.343750
1518,27.343750
1519,27.343750
1520,27.343750
1521,23.437500
1522,23.437500
1523,23.437500
1524,23.437500
1525,19.531250
1526,19.531250
1527,19.531250
1528,19.531250
1529,19.531250
1530,19.531250
1531,15.625000
1532,15.625000
1533,15.625000
1534,15.625000
1535,11.718750
1536,11.718750
1537,11.718750
1538,11.718750
1539,11.718750
1540,11.718750
1541,7.812500
1542,7.812500
1543,7.812500
1544,3.906250
1545,3.906250
1546,3.906250
1547,3.906250
1548,3.906250
1549,0.000000
1550,0.000000
1551,0.000000
1552,0.000000
1553,-3.906250
1554,-3.906250
1555,-3.906250
1556,-3.906250
1557,-7.812500
1558,-7.812500
1559,-7.812500
1560,-7.812500
1561,-7.812500
1562,-7.812500
1563,-11.718750
1564,-11.718750
1565,-11.718750
1566,-11.718750
1567,-15.625000
1568,-15.625000
1569,-15.625000
1570,-19.531250
1571,-19.531250
1572,-19.531250
1573,-19.531250
1574,-23.437500
1575,-23.437500
1576,-23.437500
1577,-23.437500
1578,-23.437500
1579,-27.343750
1580,-27.343750
1581,-27.343750
1582,-27.343750
1583,-31.250000
1584,-31.250000
1585,-31.250000
1586,-31.250000
1587,-31.250000
1588,-35.156250
1589,-35.156250
1590,-35.156250
1591,-35.156250
1592,-39.062500
1593,-39.062500
1594,-39.062500
1595,-42.968750
1596,-42.968750
1597,-42.968750
1598,-42.968750
1599,-42.968750
1600,-46.875000
1601,-42.968750
1602,-46.875000
1603,-46.875000
1604,-46.875000
1605,-50.781250
1606,-50.781250
1607,-50.781250
1608,-54.687500
1609,-54.687500
1610,-54.687500
1611,-54.687500
1612,-54.687500
1613,-58.593750
1614,-58.593750
1615,-58.593750
1616,-58.593750
1617,-58.593750
1618,-62.500000
1619,-62.500000
1620,-62.500000
1621,-66.406250
1622,-66.406250
1623,-66.406250
1624,-66.406250
1625,-66.406250
1626,-66.406250
1627,-70.312500
1628,-70.312500
1629,-70.312500
1630,-70.312500
1631,-74.218750
1632,-74.218750
1633,-74.218750
1634,-74.218750
1635,-74.218750
1636,-78.125000
1637,-78.125000
1638,-78.125000
1639,-78.125000
1640,-82.031250
1641,-82.031250
1642,-82.031250
1643,-82.031250
1644,-85.937500
1645,-85.937500
1646,-85.937500
1647,-85.937500
1648,-85.937500
1649,-85.937500
1650,-89.843750
1651,-89.843750
1652,-89.843750
1653,-89.843750
1654,-89.843750
1655,-93.750000
1656,-93.750000
1657,-93.750000
1658,-93.750000
1659,-93.750000
1660,-97.656250
1661,-97.656250
1662,-97.656250
1663,-97.656250
1664,-97.656250
1665,-101.562500
1666,-101.562500
1667,-101.562500
1668,-101.562500
1669,-101.562500
1670,-105.468750
1671,-105.468750
1672,-105.468750
1673,-105.468750
1674,-105.468750
1675,-105.468750
1676,-109.375000
1677,-109.375000
1678,-109.375000
1679,-109.375000
1680,-109.375000
1681,-113.281250
1682,-113.281250
1683,-113.281250
1684,-113.281250
1685,-113.281250
1686,-117.187500
1687,-117.187500
1688,-117.187500
1689,-117.187500
1690,-117.187500
1691,-117.187500
1692,-117.187500
1693,-121.093750
1694,-121.093750
1695,-121.093750
1696,-121.093750
1697,-125.000000
1698,-121.093750
1699,-125.000000
1700,-125.000000
1701,-125.000000
1702,-125.000000
1703,-125.000000
1704,-128.906250
1705,-128.906250
1706,-128.906250
1707,-128.906250
1708,-128.906250
1709,-128.906250
1710,-132.812500
1711,-132.812500
1712,-132.812500
1713,-132.812500
1714,-132.812500
1715,-132.812500
1716,-136.718750
1717,-136.718750
1718,-136.718750
1719,-136.718750
1720,-136.718750
1721,-136.718750
1722,-136.718750
1723,-136.718750
1724,-136.718750
1725,-136.718750
1726,-140.625000
1727,-140.625000
1728,-140.625000
1729,-140.625000
1730,-140.625000
1731,-140.625000
1732,-140.625000
1733,-144.531250
1734,-144.531250
1735,-144.531250
1736,-144.531250
1737,-144.531250
1738,-144.531250
1739,-144.531250
1740,-144.531250
1741,-144.531250
1742,-148.437500
1743,-148.437500
1744,-148.437500
1745,-148.437500
1746,-148.437500
1747,-148.437500
1748,-148.437500
1749,-148.437500
1750,-148.437500
1751,-148.437500
1752,-148.437500
1753,-148.437500
1754,-152.343750
1755,-152.343750
1756,-152.343750
1757,-152.343750
1758,-152.343750
1759,-152.343750
1760,-152.343750
1761,-152.343750
1762,-152.343750
1763,-152.343750
1764,-152.343750
1765,-156.250000
1766,-156.250000
1767,-152.343750
1768,-156.250000
1769,-156.250000
1770,-156.250000
1771,-156.250000
1772,-156.250000
1773,-156.250000
1774,-156.250000
1775,-156.250000
1776,-156.250000
1777,-156.250000
1778,-156.250000
1779,-156.250000
1780,-156.250000
1781,-156.250000
1782,-156.250000
1783,-156.250000
1784,-156.250000
1785,-156.250000
1786,-156.250000
1787,-156.250000
1788,-156.250000
1789,-156.250000
1790,-156.250000
1791,-156.250000
1792,-156.250000
1793,-156.250000
1794,-156.250000
1795,-156.250000
1796,-156.250000
1797,-156.250000
1798,-160.156250
1799,-160.156250
1800,-160.156250
1801,-156.250000
1802,-156.250000
1803,-160.156250
1804,-160.156250
1805,-160.156250
1806,-160.156250
1807,-156.250000
1808,-156.250000
1809,-156.250000
1810,-156.250000
1811,-156.250000
1812,-156.250000
1813,-156.250000
1814,-156.250000
1815,-156.250000
1816,-156.250000
1817,-156.250000
1818,-156.250000
1819,-156.250000
1820,-156.250000
1821,-156.250000
1822,-156.250000
1823,-156.250000
1824,-156.250000
1825,-156.250000
1826,-156.250000
1827,-156.250000
1828,-156.250000
1829,-156.250000
1830,-156.250000
1831,-156.250000
1832,-156.250000
1833,-156.250000
1834,-156.250000
1835,-156.250000
1836,-156.250000
1837,-156.250000
1838,-156.250000
1839,-156.250000
1840,-156.250000
1841,-152.343750
1842,-152.343750
1843,-152.343750
1844,-152.343750
1845,-152.343750
1846,-152.343750
1847,-152.343750
1848,-152.343750
1849,-152.343750
1850,-152.343750
1851,-152.343750
1852,-152.343750
1853,-152.343750
1854,-152.343750
1855,-148.437500
1856,-148.437500
1857,-148.437500
1858,-148.437500
1859,-148.437500
1860,-148.437500
1861,-148.437500
1862,-148.437500
1863,-148.437500
1864,-148.437500
1865,-148.437500
1866,-148.437500
1867,-144.531250
1868,-144.531250
1869,-144.531250
1870,-144.531250
1871,-144.531250
1872,-144.531250
1873,-144.531250
1874,-144.531250
1875,-144.531250
1876,-140.625000
1877,-140.625000
1878,-140.625000
1879,-140.625000
1880,-140.625000
1881,-140.625000
1882,-140.625000
1883,-140.625000
1884,-136.718750
1885,-136.718750
1886,-136.718750
1887,-136.718750
1888,-136.718750
1889,-136.718750
1890,-136.718750
1891,-136.718750
1892,-132.812500
1893,-132.812500
1894,-132.812500
1895,-132.812500
1896,-132.812500
1897,-132.812500
1898,-128.906250
1899,-128.906250
1900,-128.906250
1901,-128.906250
1902,-128.906250
1903,-128.906250
1904,-128.906250
1905,-128.906250
1906,-125.000000
1907,-125.000000
1908,-125.000000
1909,-125.000000
1910,-125.000000
1911,-125.000000
1912,-121.093750
1913,-121.093750
1914,-121.093750
1915,-121.093750
1916,-121.093750
1917,-117.187500
1918,-117.187500
1919,-117.187500
1920,-117.187500
1921,-117.187500
1922,-117.187500
1923,-117.187500
1924,-117.187500
1925,-113.281250
1926,-113.281250
1927,-113.281250
1928,-113.281250
1929,-113.281250
1930,-109.375000
1931,-109.375000
1932,-109.375000
1933,-109.375000
1934,-109.375000
1935,-105.468750
1936,-105.468750
1937,-105.468750
1938,-105.468750
1939,-105.468750
1940,-105.468750
1941,-101.562500
1942,-101.562500
1943,-101.562500
1944,-101.562500
1945,-101.562500
1946,-97.656250
1947,-97.656250
1948,-97.656250
1949,-97.656250
1950,-97.656250
1951,-93.750000
1952,-93.750000
1953,-93.750000
1954,-93.750000
1955,-89.843750
1956,-89.843750
1957,-89.843750
1958,-89.843750
1959,-89.843750
1960,-89.843750
1961,-89.843750
1962,-85.937500
1963,-89.843750
1964,-85.937500
1965,-85.937500
1966,-82.031250
1967,-82.031250
1968,-82.031250
1969,-82.031250
1970,-82.031250
1971,-78.125000
1972,-78.125000
1973,-78.125000
1974,-78.125000
1975,-78.125000
1976,-74.218750
1977,-74.218750
1978,-74.218750
1979,-74.218750
1980,-74.218750
1981,-70.312500
1982,-70.312500
1983,-70.312500
1984,-70.312500
1985,-66.406250
1986,-66.406250
1987,-66.406250
1988,-66.406250
1989,-66.406250
1990,-62.500000
1991,-62.500000
1992,-62.500000
1993,-62.500000
1994,-58.593750
1995,-58.593750
1996,-58.593750
1997,-58.593750
1998,-58.593750
1999,-58.593750
2000,-54.687500
2001,-54.687500
2002,-54.687500
2003,-50.781250
2004,-50.781250
2005,-50.781250
2006,-50.781250
2007,-50.781250
2008,-46.875000
2009,-46.875000
2010,-46.875000
2011,-46.875000
2012,-46.875000
2013,-42.968750
2014,-42.968750
2015,-42.968750
2016,-42.968750
2017,-39.062500
2018,-39.062500
2019,-39.062500
2020,-39.062500
2021,-35.156250
2022,-35.156250
2023,-35.156250
2024,-35.156250
2025,-31.250000
2026,-31.250000
2027,-31.250000
2028,-31.250000
2029,-31.250000
2030,-27.343750
2031,-27.343750
2032,-27.343750
2033,-27.343750
2034,-23.437500
2035,-23.437500
2036,-23.437500
2037,-23.437500
2038,-19.531250
2039,-19.531250
2040,-19.531250
2041,-19.531250
2042,-19.531250
2043,-15.625000
2044,-15.625000
2045,-15.625000
2046,-15.625000
2047,-11.718750
2048,-11.718750
2049,-11.718750
2050,-11.718750
2051,-11.718750
2052,-7.812500
2053,-7.812500
2054,-7.812500
2055,-7.812500
2056,-7.812500
2057,-3.906250
2058,-3.906250
2059,-3.906250
2060,-3.906250
2061,0.000000
2062,0.000000
2063,0.000000
2064,0.000000
2065,0.000000
2066,3.906250
2067,3.906250
2068,3.906250
2069,3.906250
2070,7.812500
2071,7.812500
2072,7.812500
2073,7.812500
2074,11.718750
2075,11.718750
2076,11.718750
2077,11.718750
2078,11.718750
2079,15.625000
2080,15.625000
2081,15.625000
2082,15.625000
2083,15.625000
2084,19.531250
2085,19.531250
2086,19.531250
2087,19.531250
2088,19.531250
2089,23.437500
2090,23.437500
2091,23.437500
2092,23.437500
2093,27.343750
2094,27.343750
2095,27.343750
2096,27.343750
2097,27.343750
2098,31.250000
2099,31.250000
2100,31.250000
2101,31.250000
2102,31.250000
2103,31.250000
2104,35.156250
2105,35.156250
2106,35.156250
2107,35.156250
2108,35.156250
2109,39.062500
2110,39.062500
2111,39.062500
2112,39.062500
2113,39.062500
2114,39.062500
2115,42.968750
2116,42.968750
2117,42.968750
2118,42.968750
2119,42.968750
2120,42.968750
2121,46.875000
2122,46.875000
2123,46.875000
2124,46.875000
2125,46.875000
2126,46.875000
2127,50.781250
2128,50.781250
2129,50.781250
2130,50.781250
2131,54.687500
2132,54.687500
2133,54.687500
2134,54.687500
2135,54.687500
2136,54.687500
2137,58.593750
2138,58.593750
2139,58.593750
2140,58.593750
2141,58.593750
2142,62.500000
2143,62.500000
2144,62.500000
2145,62.500000
2146,62.500000
2147,62.500000
2148,62.500000
2149,66.406250
2150,66.406250
2151,66.406250
2152,66.406250
2153,66.406250
2154,66.406250
2155,66.406250
2156,70.312500
2157,70.312500
2158,70.312500
2159,70.312500
2160,70.312500
2161,74.218750
2162,74.218750
2163,74.218750
2164,74.218750
2165,74.218750
2166,74.218750
2167,74.218750
2168,78.125000
2169,78.125000
2170,78.125000
2171,78.125000
2172,78.125000
2173,78.125000
2174,78.125000
2175,82.031250
2176,82.031250
2177,82.031250
2178,82.031250
2179,82.031250
2180,82.031250
2181,82.031250
2182,85.937500
2183,85.937500
2184,85.937500
2185,85.937500
2186,85.937500
2187,85.937500
2188,85.937500
2189,85.937500
2190,85.937500
2191,89.843750
2192,89.843750
2193,89.843750
2194,89.843750
2195,89.843750
2196,89.843750
2197,93.750000
2198,89.843750
2199,89.843750
2200,93.750000
2201,93.750000
2202,93.750000
2203,93.750000
2204,93.750000
2205,93.750000
2206,93.750000
2207,97.656250
2208,97.656250
2209,97.656250
2210,93.750000
2211,97.656250
2212,97.656250
2213,97.656250
2214,97.656250
2215,97.656250
2216,97.656250
2217,101.562500
2218,97.656250
2219,97.656250
2220,101.562500
2221,101.562500
2222,101.562500
2223,101.562500
2224,101.562500
2225,101.562500
2226,101.562500
2227,101.562500
2228,105.468750
2229,105.468750
2230,101.562500
2231,101.562500
2232,105.468750
2233,105.468750
2234,105.468750
2235,105.468750
2236,105.468750
2237,105.468750
2238,105.468750
2239,105.468750
2240,105.468750
2241,105.468750
2242,105.468750
2243,105.468750
2244,105.468750
2245,105.468750
2246,109.375000
2247,109.375000
2248,109.375000
2249,109.375000
2250,109.375000
2251,109.375000
2252,109.375000
2253,109.375000
2254,109.375000
2255,109.375000
2256,109.375000
2257,109.375000
2258,109.375000
2259,109.375000
2260,109.375000
2261,109.375000
2262,109.375000
2263,109.375000
2264,113.281250
2265,113.281250
2266,113.281250
2267,113.281250
2268,113.281250
2269,113.281250
2270,113.281250
2271,113.281250
2272,113.281250
2273,113.281250
2274,113.281250
2275,113.281250
2276,113.281250
2277,113.281250
2278,113.281250
2279,113.281250
2280,113.281250
2281,113.281250
2282,113.281250
2283,113.281250
2284,113.281250
2285,113.281250
2286,113.281250
2287,113.281250
2288,113.281250
2289,113.281250
2290,113.281250
2291,113.281250
2292,113.281250
2293,113.281250
2294,117.187500
2295,113.281250
2296,113.281250
2297,113.281250
2298,117.187500
2299,113.281250
2300,113.281250
2301,117.187500
2302,117.187500
2303,117.187500
2304,117.187500
2305,113.281250
2306,117.187500
2307,113.281250
2308,113.281250
2309,113.281250
2310,117.187500
2311,113.281250
2312,113.281250
2313,117.187500
2314,113.281250
2315,113.281250
2316,113.281250
2317,117.187500
2318,117.187500
2319,113.281250
2320,113.281250
2321,113.281250
2322,113.281250
2323,113.281250
2324,113.281250
2325,113.281250
2326,113.281250
2327,113.281250
2328,113.281250
2329,113.281250
2330,113.281250
2331,113.281250
2332,113.281250
2333,113.281250
2334,113.281250
2335,113.281250
2336,113.281250
2337,113.281250
2338,113.281250
2339,113.281250
2340,113.281250
2341,113.281250
2342,113.281250
2343,113.281250
2344,113.281250
2345,113.281250
2346,113.281250
2347,109.375000
2348,109.375000
2349,109.375000
2350,109.375000
2351,109.375000
2352,109.375000
2353,109.375000
2354,109.375000
2355,109.375000
2356,109.375000
2357,109.375000
2358,109.375000
2359,109.375000
2360,109.375000
2361,109.375000
2362,109.375000
2363,105.468750
2364,105.468750
2365,109.375000
2366,105.468750
2367,105.468750
2368,105.468750
2369,105.468750
2370,105.468750
2371,105.468750
2372,105.468750
2373,105.468750
2374,105.468750
2375,105.468750
2376,105.468750
2377,101.562500
2378,105.468750
2379,101.562500
2380,101.562500
2381,101.562500
2382,101.562500
2383,101.562500
2384,101.562500
2385,101.562500
2386,101.562500
2387,101.562500
2388,97.656250
2389,97.656250
2390,97.656250
2391,97.656250
2392,97.656250
2393,97.656250
2394,97.656250
2395,97.656250
2396,97.656250
2397,97.656250
2398,97.656250
2399,93.750000
2400,93.750000
2401,93.750000
2402,93.750000
2403,93.750000
2404,93.750000
2405,93.750000
2406,93.750000
2407,93.750000
2408,89.843750
2409,89.843750
2410,89.843750
2411,89.843750
2412,89.843750
2413,89.843750
2414,89.843750
2415,89.843750
2416,89.843750
2417,85.937500
2418,85.937500
2419,85.937500
2420,85.937500
2421,85.937500
2422,85.937500
2423,85.937500
2424,82.031250
2425,82.031250
2426,82.031250
2427,82.031250
2428,82.031250
2429,82.031250
2430,82.031250
2431,82.031250
2432,78.125000
2433,78.125000
2434,78.125000
2435,78.125000
2436,78.125000
2437,78.125000
2438,78.125000
2439,74.218750
2440,74.218750
2441,74.218750
2442,74.218750
2443,74.218750
2444,74.218750
2445,74.218750
2446,70.312500
2447,70.312500
2448,70.312500
2449,70.312500
2450,70.312500
2451,70.312500
2452,70.312500
2453,66.406250
2454,66.406250
2455,66.406250
2456,66.406250
2457,66.406250
2458,62.500000
2459,62.500000
2460,62.500000
2461,62.500000
2462,62.500000
2463,58.593750
2464,58.593750
2465,58.593750
2466,58.593750
2467,58.593750
2468,58.593750
2469,58.593750
2470,54.687500
2471,54.687500
2472,54.687500
2473,54.687500
2474,50.781250
2475,50.781250
2476,50.781250
2477,50.781250
2478,50.781250
2479,50.781250
2480,50.781250
2481,46.875000
2482,46.875000
2483,46.875000
2484,46.875000
2485,46.875000
2486,42.968750
2487,42.968750
2488,42.968750
2489,42.968750
2490,39.062500
2491,39.062500
2492,39.062500
2493,39.062500
2494,39.062500
2495,35.156250
2496,35.156250
2497,35.156250
2498,35.156250
2499,35.156250
2500,35.156250
2501,31.250000
2502,31.250000
2503,31.250000
2504,31.250000
2505,31.250000
2506,27.343750
2507,27.343750
2508,27.343750
2509,27.343750
2510,23.437500
2511,23.437500
2512,23.437500
2513,23.437500
2514,23.437500
2515,23.437500
2516,19.531250
2517,19.531250
2518,19.531250
2519,19.531250
2520,15.625000
2521,15.625000
2522,15.625000
2523,15.625000
2524,11.718750
2525,11.718750
2526,11.718750
2527,11.718750
2528,11.718750
2529,7.812500
2530,7.812500
2531,7.812500
2532,7.812500
2533,3.906250
2534,3.906250
2535,3.906250
2536,3.906250
2537,3.906250
2538,0.000000
2539,0.000000
2540,0.000000
2541,0.000000
2542,-3.906250
2543,-3.906250
2544,-3.906250
2545,-3.906250
2546,-7.812500
2547,-7.812500
2548,-7.812500
2549,-7.812500
2550,-11.718750
2551,-7.812500
2552,-11.718750
2553,-11.718750
2554,-11.718750
2555,-15.625000
2556,-15.625000
2557,-15.625000
2558,-15.625000
2559,-15.625000
2560,-19.531250
2561,-19.531250
2562,-19.531250
2563,-23.437500
2564,-23.437500
2565,-23.437500
2566,-23.437500
2567,-23.437500
2568,-27.343750
2569,-27.343750
2570,-27.343750
2571,-27.343750
2572,-27.343750
2573,-31.250000
2574,-31.250000
2575,-31.250000
2576,-35.156250
2577,-35.156250
2578,-35.156250
2579,-35.156250
2580,-35.156250
2581,-39.062500
2582,-39.062500
2583,-39.062500
2584,-42.968750
2585,-42.968750
2586,-42.968750
2587,-42.968750
2588,-42.968750
2589,-42.968750
2590,-42.968750
2591,-46.875000
2592,-46.875000
2593,-46.875000
2594,-50.781250
2595,-50.781250
2596,-50.781250
2597,-50.781250
2598,-54.687500
2599,-54.687500
2600,-54.687500
2601,-54.687500
2602,-54.687500
2603,-58.593750
2604,-58.593750
2605,-58.593750
2606,-58.593750
2607,-62.500000
2608,-62.500000
2609,-62.500000
2610,-62.500000
2611,-66.406250
2612,-66.406250
2613,-66.406250
2614,-66.406250
2615,-70.312500
2616,-70.312500
2617,-70.312500
2618,-70.312500
2619,-70.312500
2620,-74.218750
2621,-74.218750
2622,-74.218750
2623,-74.218750
2624,-74.218750
2625,-78.125000
2626,-78.125000
2627,-78.125000
2628,-78.125000
2629,-82.031250
2630,-82.031250
2631,-82.031250
2632,-82.031250
2633,-82.031250
2634,-85.937500
2635,-85.937500
2636,-85.937500
2637,-85.937500
2638,-85.937500
2639,-89.843750
2640,-89.843750
2641,-89.843750
2642,-89.843750
2643,-93.750000
2644,-93.750000
2645,-93.750000
2646,-93.750000
2647,-93.750000
2648,-93.750000
2649,-97.656250
2650,-97.656250
2651,-97.656250
2652,-97.656250
2653,-97.656250
2654,-101.562500
2655,-101.562500
2656,-101.562500
2657,-101.562500
2658,-101.562500
2659,-105.468750
2660,-105.468750
2661,-105.468750
2662,-105.468750
2663,-105.468750
2664,-109.375000
2665,-109.375000
2666,-109.375000
2667,-109.375000
2668,-109.375000
2669,-109.375000
2670,-113.281250
2671,-113.281250
2672,-113.281250
2673,-113.281250
2674,-113.281250
2675,-113.281250
2676,-117.187500
2677,-117.187500
2678,-117.187500
2679,-117.187500
2680,-117.187500
2681,-121.093750
2682,-121.093750
2683,-121.093750
2684,-121.093750
2685,-121.093750
2686,-121.093750
2687,-121.093750
2688,-125.000000
2689,-125.000000
2690,-125.000000
2691,-125.000000
2692,-125.000000
2693,-125.000000
2694,-128.906250
2695,-128.906250
2696,-128.906250
2697,-128.906250
2698,-128.906250
2699,-128.906250
2700,-132.812500
2701,-132.812500
2702,-132.812500
2703,-132.812500
2704,-132.812500
2705,-132.812500
2706,-132.812500
2707,-136.718750
2708,-136.718750
2709,-136.718750
2710,-136.718750
2711,-136.718750
2712,-136.718750
2713,-136.718750
2714,-136.718750
2715,-140.625000
2716,-140.625000
2717,-140.625000
2718,-140.625000
2719,-140.625000
2720,-140.625000
2721,-140.625000
2722,-140.625000
2723,-144.531250
2724,-144.531250
2725,-144.531250
2726,-144.531250
2727,-144.531250
2728,-144.531250
2729,-144.531250
2730,-144.531250
2731,-144.531250
2732,-144.531250
2733,-148.437500
2734,-148.437500
2735,-148.437500
2736,-148.437500
2737,-148.437500
2738,-148.437500
2739,-148.437500
2740,-148.437500
2741,-148.437500
2742,-148.437500
2743,-148.437500
2744,-152.343750
2745,-152.343750
2746,-152.343750
2747,-152.343750
2748,-152.343750
2749,-152.343750
2750,-152.343750
2751,-152.343750
2752,-152.343750
2753,-152.343750
2754,-152.343750
2755,-152.343750
2756,-156.250000
2757,-156.250000
2758,-156.250000
2759,-156.250000
2760,-156.250000
2761,-156.250000
2762,-156.250000
2763,-156.250000
2764,-156.250000
2765,-156.250000
2766,-156.250000
2767,-156.250000
2768,-156.250000
2769,-156.250000
2770,-156.250000
2771,-156.250000
2772,-156.250000
2773,-156.250000
2774,-156.250000
2775,-156.250000
2776,-156.250000
2777,-156.250000
2778,-160.156250
2779,-156.250000
2780,-160.156250
2781,-156.250000
2782,-156.250000
2783,-160.156250
2784,-160.156250
2785,-160.156250
2786,-160.156250
2787,-156.250000
2788,-160.156250
2789,-160.156250
2790,-160.156250
2791,-160.156250
2792,-160.156250
2793,-160.156250
2794,-160.156250
2795,-160.156250
2796,-160.156250
2797,-160.156250
2798,-160.156250
2799,-160.156250
2800,-156.250000
2801,-160.156250
2802,-156.250000
2803,-160.156250
2804,-160.156250
2805,-160.156250
2806,-156.250000
2807,-156.250000
2808,-156.250000
2809,-160.156250
2810,-156.250000
2811,-156.250000
2812,-156.250000
2813,-156.250000
2814,-156.250000
2815,-156.250000
2816,-156.250000
2817,-156.250000
2818,-156.250000
2819,-156.250000
2820,-156.250000
2821,-156.250000
2822,-156.250000
2823,-156.250000
2824,-156.250000
2825,-156.250000
2826,-156.250000
2827,-156.250000
2828,-156.250000
2829,-156.250000
2830,-152.343750
2831,-152.343750
2832,-152.343750
2833,-152.343750
2834,-152.343750
2835,-152.343750
2836,-152.343750
2837,-152.343750
2838,-152.343750
2839,-152.343750
2840,-152.343750
2841,-152.343750
2842,-152.343750
2843,-152.343750
2844,-152.343750
2845,-148.437500
2846,-148.437500
2847,-148.437500
2848,-148.437500
2849,-148.437500
2850,-148.437500
2851,-148.437500
2852,-148.437500
2853,-144.531250
2854,-148.437500
2855,-144.531250
2856,-144.531250
2857,-144.531250
2858,-144.531250
2859,-144.531250
2860,-144.531250
2861,-144.531250
2862,-144.531250
2863,-144.531250
2864,-144.531250
2865,-140.625000
2866,-140.625000
2867,-140.625000
2868,-140.625000
2869,-140.625000
2870,-140.625000
2871,-140.625000
2872,-140.625000
2873,-140.625000
2874,-136.718750
2875,-136.718750
2876,-136.718750
2877,-136.718750
2878,-136.718750
2879,-136.718750
2880,-136.718750
2881,-132.812500
2882,-132.812500
2883,-132.812500
2884,-132.812500
2885,-132.812500
2886,-132.812500
2887,-132.812500
2888,-128.906250
2889,-128.906250
2890,-128.906250
2891,-128.906250
2892,-128.906250
2893,-128.906250
2894,-128.906250
2895,-128.906250
2896,-125.000000
2897,-125.000000
2898,-125.000000
2899,-125.000000
2900,-125.000000
2901,-121.093750
2902,-125.000000
2903,-121.093750
2904,-121.093750
2905,-121.093750
2906,-121.093750
2907,-121.093750
2908,-117.187500
2909,-117.187500
2910,-117.187500
2911,-117.187500
2912,-117.187500
2913,-113.281250
2914,-117.187500
2915,-113.281250
2916,-113.281250
2917,-113.281250
2918,-109.375000
2919,-109.375000
2920,-109.375000
2921,-109.375000
2922,-109.375000
2923,-109.375000
2924,-105.468750
2925,-105.468750
2926,-105.468750
2927,-105.468750
2928,-105.468750
2929,-105.468750
2930,-101.562500
2931,-101.562500
2932,-101.562500
2933,-101.562500
2934,-101.562500
2935,-97.656250
2936,-97.656250
2937,-97.656250
2938,-97.656250
2939,-97.656250
2940,-93.750000
2941,-93.750000
2942,-93.750000
2943,-93.750000
2944,-93.750000
2945,-89.843750
2946,-89.843750
2947,-89.843750
2948,-89.843750
2949,-89.843750
2950,-85.937500
2951,-85.937500
2952,-85.937500
2953,-85.937500
2954,-85.937500
2955,-82.031250
2956,-82.031250
2957,-82.031250
2958,-82.031250
2959,-78.125000
2960,-78.125000
2961,-78.125000
2962,-78.125000
2963,-78.125000
2964,-74.218750
2965,-74.218750
2966,-74.218750
2967,-74.218750
2968,-74.218750
2969,-70.312500
2970,-70.312500
2971,-70.312500
2972,-70.312500
2973,-70.312500
2974,-66.406250
2975,-66.406250
2976,-66.406250
2977,-66.406250
2978,-62.500000
2979,-62.500000
2980,-62.500000
2981,-62.500000
2982,-62.500000
2983,-62.500000
2984,-58.593750
2985,-58.593750
2986,-58.593750
2987,-54.687500
2988,-54.687500
2989,-54.687500
2990,-54.687500
2991,-54.687500
2992,-50.781250
2993,-50.781250
2994,-50.781250
2995,-50.781250
2996,-50.781250
2997,-46.875000
2998,-46.875000
2999,-46.875000
3000,-46.875000
3001,-42.968750
3002,-42.968750
3003,-42.968750
3004,-42.968750
3005,-39.062500
3006,-39.062500
3007,-39.062500
3008,-39.062500
3009,-39.062500
3010,-35.156250
3011,-35.156250
3012,-35.156250
3013,-35.156250
3014,-31.250000
3015,-31.250000
3016,-31.250000
3017,-31.250000
3018,-31.250000
3019,-27.343750
3020,-27.343750
3021,-27.343750
3022,-27.343750
3023,-23.437500
3024,-23.437500
3025,-23.437500
3026,-23.437500
3027,-19.531250
3028,-19.531250
3029,-19.531250
3030,-19.531250
3031,-19.531250
3032,-19.531250
3033,-15.625000
3034,-15.625000
3035,-15.625000
3036,-11.718750
3037,-11.718750
3038,-11.718750
3039,-11.718750
3040,-11.718750
3041,-7.812500
3042,-7.812500
3043,-7.812500
3044,-3.906250
3045,-3.906250
3046,-3.906250
3047,-3.906250
3048,-3.906250
3049,-3.906250
3050,0.000000
3051,0.000000
3052,0.000000
3053,0.000000
3054,0.000000
3055,3.906250
3056,3.906250
3057,3.906250
3058,3.906250
3059,7.812500
3060,7.812500
3061,7.812500
3062,7.812500
3063,7.812500
3064,11.718750
3065,11.718750
3066,11.718750
3067,11.718750
3068,15.625000
3069,15.625000
3070,15.625000
3071,15.625000
3072,15.625000
3073,19.531250
3074,19.531250
3075,19.531250
3076,19.531250
3077,19.531250
3078,23.437500
3079,23.437500
3080,23.437500
3081,23.437500
3082,23.437500
3083,27.343750
3084,27.343750
3085,27.343750
3086,27.343750
3087,31.250000
3088,31.250000
3089,31.250000
3090,31.250000
3091,31.250000
3092,31.250000
3093,35.156250
3094,35.156250
3095,35.156250
3096,35.156250
3097,39.062500
3098,39.062500
3099,39.062500
3100,39.062500
3101,39.062500
3102,39.062500
3103,42.968750
3104,42.968750
3105,42.968750
3106,42.968750
3107,42.968750
3108,46.875000
3109,46.875000
3110,46.875000
3111,46.875000
3112,46.875000
3113,46.875000
3114,50.781250
3115,50.781250
3116,50.781250
3117,50.781250
3118,50.781250
3119,50.781250
3120,54.687500
3121,54.687500
3122,54.687500
3123,54.687500
3124,54.687500
3125,58.593750
3126,58.593750
3127,58.593750
3128,58.593750
3129,58.593750
3130,62.500000
3131,58.593750
3132,62.500000
3133,62.500000
3134,62.500000
3135,62.500000
3136,62.500000
3137,62.500000
3138,66.406250
3139,66.406250
3140,66.406250
3141,66.406250
3142,66.406250
3143,70.312500
3144,70.312500
3145,70.312500
3146,70.312500
3147,70.312500
3148,70.312500
3149,70.312500
3150,70.312500
3151,74.218750
3152,74.218750
3153,74.218750
3154,74.218750
3155,74.218750
3156,74.218750
3157,78.125000
3158,78.125000
3159,78.125000
3160,78.125000
3161,78.125000
3162,78.125000
3163,78.125000
3164,82.031250
3165,82.031250
3166,82.031250
3167,82.031250
3168,82.031250
3169,82.031250
3170,82.031250
3171,82.031250
3172,85.937500
3173,85.937500
3174,85.937500
3175,82.031250
3176,85.937500
3177,85.937500
3178,85.937500
3179,85.937500
3180,85.937500
3181,89.843750
3182,89.843750
3183,89.843750
3184,89.843750
3185,89.843750
3186,89.843750
3187,89.843750
3188,89.843750
3189,93.750000
3190,93.750000
3191,93.750000
3192,93.750000
3193,93.750000
3194,93.750000
3195,93.750000
3196,93.750000
3197,93.750000
3198,97.656250
3199,97.656250
3200,97.656250
3201,97.656250
3202,97.656250
3203,97.656250
3204,97.656250
3205,97.656250
3206,97.656250
3207,101.562500
3208,101.562500
3209,101.562500
3210,97.656250
3211,101.562500
3212,101.562500
3213,101.562500
3214,101.562500
3215,101.562500
3216,101.562500
3217,101.562500
3218,101.562500
3219,101.562500
3220,105.468750
3221,105.468750
3222,105.468750
3223,105.468750
3224,105.468750
3225,105.468750
3226,105.468750
3227,105.468750
3228,105.468750
3229,105.468750
3230,105.468750
3231,109.375000
3232,109.375000
3233,109.375000
3234,109.375000
3235,109.375000
3236,109.375000
3237,109.375000
3238,109.375000
3239,109.375000
3240,109.375000
3241,109.375000
3242,109.375000
3243,109.375000
3244,113.281250
3245,109.375000
3246,109.375000
3247,109.375000
3248,109.375000
3249,113.281250
3250,113.281250
3251,113.281250
3252,113.281250
3253,113.281250
3254,113.281250
3255,113.281250
3256,113.281250
3257,113.281250
3258,113.281250
3259,113.281250
3260,113.281250
3261,113.281250
3262,113.281250
3263,113.281250
3264,113.281250
3265,113.281250
3266,113.281250
3267,113.281250
3268,113.281250
3269,113.281250
3270,113.281250
3271,113.281250
3272,113.281250
3273,113.281250
3274,113.281250
3275,113.281250
3276,113.281250
3277,117.187500
3278,113.281250
3279,113.281250
3280,113.281250
3281,113.281250
3282,113.281250
3283,117.187500
3284,113.281250
3285,113.281250
3286,117.187500
3287,113.281250
3288,117.187500
3289,113.281250
3290,117.187500
3291,113.281250
3292,113.281250
3293,113.281250
3294,113.281250
3295,113.281250
3296,113.281250
3297,113.281250
3298,113.281250
3299,117.187500
3300,113.281250
3301,117.187500
3302,113.281250
3303,113.281250
3304,113.281250
3305,117.187500
3306,113.281250
3307,113.281250
3308,113.281250
3309,113.281250
3310,113.281250
3311,113.281250
3312,113.281250
3313,113.281250
3314,113.281250
3315,113.281250
3316,113.281250
3317,113.281250
3318,113.281250
3319,113.281250
3320,113.281250
3321,113.281250
3322,113.281250
3323,113.281250
3324,113.281250
3325,113.281250
3326,113.281250
3327,113.281250
3328,113.281250
3329,113.281250
3330,113.281250
3331,113.281250
3332,113.281250
3333,113.281250
3334,113.281250
3335,113.281250
3336,109.375000
3337,113.281250
3338,109.375000
3339,113.281250
3340,113.281250
3341,109.375000
3342,109.375000
3343,109.375000
3344,109.375000
3345,109.375000
3346,109.375000
3347,109.375000
3348,109.375000
3349,109.375000
3350,109.375000
3351,109.375000
3352,109.375000
3353,109.375000
3354,109.375000
3355,105.468750
3356,105.468750
3357,105.468750
3358,105.468750
3359,105.468750
3360,105.468750
3361,105.468750
3362,105.468750
3363,105.468750
3364,105.468750
3365,105.468750
3366,105.468750
3367,101.562500
3368,105.468750
3369,105.468750
3370,101.562500
3371,101.562500
3372,101.562500
3373,101.562500
3374,101.562500
3375,101.562500
3376,101.562500
3377,101.562500
3378,97.656250
3379,101.562500
3380,97.656250
3381,97.656250
3382,97.656250
3383,97.656250
3384,97.656250
3385,97.656250
3386,97.656250
3387,97.656250
3388,97.656250
3389,93.750000
3390,93.750000
3391,93.750000
3392,93.750000
3393,93.750000
3394,93.750000
3395,93.750000
3396,93.750000
3397,93.750000
3398,93.750000
3399,89.843750
3400,89.843750
3401,89.843750
3402,89.843750
3403,89.843750
3404,89.843750
3405,89.843750
3406,89.843750
3407,85.937500
3408,85.937500
3409,85.937500
3410,85.937500
3411,85.937500
3412,85.937500
3413,85.937500
3414,82.031250
3415,82.031250
3416,82.031250
3417,82.031250
3418,82.031250
3419,82.031250
3420,82.031250
3421,78.125000
3422,78.125000
3423,78.125000
3424,78.125000
3425,78.125000
3426,78.125000
3427,78.125000
3428,74.218750
3429,74.218750
3430,78.125000
3431,74.218750
3432,74.218750
3433,74.218750
3434,74.218750
3435,70.312500
3436,70.312500
3437,70.312500
3438,70.312500
3439,70.312500
3440,70.312500
3441,66.406250
3442,66.406250
3443,66.406250
3444,66.406250
3445,62.500000
3446,62.500000
3447,66.406250
3448,62.500000
3449,62.500000
3450,62.500000
3451,62.500000
3452,62.500000
3453,58.593750
3454,58.593750
3455,58.593750
3456,58.593750
3457,58.593750
3458,54.687500
3459,54.687500
3460,54.687500
3461,54.687500
3462,54.687500
3463,54.687500
3464,50.781250
3465,50.781250
3466,50.781250
3467,50.781250
3468,50.781250
3469,46.875000
3470,46.875000
3471,46.875000
3472,46.875000
3473,46.875000
3474,46.875000
3475,42.968750
3476,42.968750
3477,42.968750
3478,42.968750
3479,42.968750
3480,39.062500
3481,39.062500
3482,39.062500
3483,39.062500
3484,39.062500
3485,39.062500
3486,35.156250
3487,35.156250
3488,35.156250
3489,35.156250
3490,31.250000
3491,31.250000
3492,31.250000
3493,31.250000
3494,27.343750
3495,27.343750
3496,27.343750
3497,27.343750
3498,27.343750
3499,23.437500
3500,23.437500
3501,23.437500
3502,23.437500
3503,23.437500
3504,19.531250
3505,19.531250
3506,19.531250
3507,19.531250
3508,19.531250
3509,15.625000
3510,15.625000
3511,15.625000
3512,15.625000
3513,15.625000
3514,11.718750
3515,11.718750
3516,11.718750
3517,7.812500
3518,7.812500
3519,7.812500
3520,7.812500
3521,7.812500
3522,3.906250
3523,3.906250
3524,3.906250
3525,3.906250
3526,0.000000
3527,0.000000
3528,0.000000
3529,0.000000
3530,0.000000
3531,-3.906250
3532,-3.906250
3533,-3.906250
3534,-3.906250
3535,-7.812500
3536,-7.812500
3537,-7.812500
3538,-7.812500
3539,-7.812500
3540,-11.718750
3541,-11.718750
3542,-11.718750
3543,-15.625000
3544,-11.718750
3545,-15.625000
3546,-15.625000
3547,-15.625000
3548,-19.531250
3549,-19.531250
3550,-19.531250
3551,-19.531250
3552,-23.437500
3553,-23.437500
3554,-23.437500
3555,-23.437500
3556,-23.437500
3557,-27.343750
3558,-27.343750
3559,-27.343750
3560,-27.343750
3561,-31.250000
3562,-31.250000
3563,-31.250000
3564,-31.250000
3565,-31.250000
3566,-35.156250
3567,-35.156250
3568,-35.156250
3569,-35.156250
3570,-39.062500
3571,-39.062500
3572,-39.062500
3573,-39.062500
3574,-42.968750
3575,-42.968750
3576,-42.968750
3577,-46.875000
3578,-46.875000
3579,-46.875000
3580,-46.875000
3581,-46.875000
3582,-50.781250
3583,-50.781250
3584,-50.781250
3585,-50.781250
3586,-50.781250
3587,-50.781250
3588,-54.687500
3589,-54.687500
3590,-54.687500
3591,-54.687500
3592,-58.593750
3593,-58.593750
3594,-58.593750
3595,-58.593750
3596,-62.500000
3597,-62.500000
3598,-62.500000
3599,-62.500000
3600,-66.406250
3601,-66.406250
3602,-66.406250
3603,-66.406250
3604,-70.312500
3605,-70.312500
3606,-70.312500
3607,-70.312500
3608,-70.312500
3609,-70.312500
3610,-74.218750
3611,-74.218750
3612,-74.218750
3613,-78.125000
3614,-78.125000
3615,-78.125000
3616,-78.125000
3617,-78.125000
3618,-78.125000
3619,-82.031250
3620,-82.031250
3621,-82.031250
3622,-82.031250
3623,-85.937500
3624,-85.937500
3625,-85.937500
3626,-85.937500
3627,-89.843750
3628,-89.843750
3629,-89.843750
3630,-89.843750
3631,-89.843750
3632,-93.750000
3633,-93.750000
3634,-93.750000
3635,-93.750000
3636,-93.750000
3637,-93.750000
3638,-97.656250
3639,-97.656250
3640,-97.656250
3641,-97.656250
3642,-97.656250
3643,-101.562500
3644,-101.562500
3645,-101.562500
3646,-101.562500
3647,-101.562500
3648,-105.468750
3649,-105.468750
3650,-105.468750
3651,-105.468750
3652,-105.468750
3653,-109.375000
3654,-109.375000
3655,-109.375000
3656,-109.375000
3657,-109.375000
3658,-113.281250
3659,-113.281250
3660,-113.281250
3661,-113.281250
3662,-113.281250
3663,-113.281250
3664,-117.187500
3665,-117.187500
3666,-117.187500
3667,-117.187500
3668,-117.187500
3669,-121.093750
3670,-121.093750
3671,-121.093750
3672,-121.093750
3673,-121.093750
3674,-121.093750
3675,-125.000000
3676,-125.000000
3677,-125.000000
3678,-125.000000
3679,-125.000000
3680,-125.000000
3681,-125.000000
3682,-128.906250
3683,-128.906250
3684,-128.906250
3685,-128.906250
3686,-128.906250
3687,-128.906250
3688,-132.812500
3689,-132.812500
3690,-132.812500
3691,-132.812500
3692,-132.812500
3693,-132.812500
3694,-132.812500
3695,-136.718750
3696,-136.718750
3697,-136.718750
3698,-136.718750
3699,-136.718750
3700,-136.718750
3701,-136.718750
3702,-136.718750
3703,-140.625000
3704,-140.625000
3705,-140.625000
3706,-140.625000
3707,-140.625000
3708,-140.625000
3709,-140.625000
3710,-140.625000
3711,-140.625000
3712,-140.625000
3713,-144.531250
3714,-144.531250
3715,-144.531250
3716,-144.531250
3717,-144.531250
3718,-144.531250
3719,-144.531250
3720,-144.531250
3721,-144.531250
3722,-148.437500
3723,-148.437500
3724,-148.437500
3725,-148.437500
3726,-148.437500
3727,-148.437500
3728,-148.437500
3729,-148.437500
3730,-148.437500
3731,-148.437500
3732,-152.343750
3733,-152.343750
3734,-152.343750
3735,-152.343750
3736,-152.343750
3737,-152.343750
3738,-152.343750
3739,-152.343750
3740,-152.343750
3741,-152.343750
3742,-152.343750
3743,-152.343750
3744,-152.343750
3745,-156.250000
3746,-156.250000
3747,-156.250000
3748,-156.250000
3749,-156.250000
3750,-156.250000
3751,-156.250000
3752,-156.250000
3753,-156.250000
3754,-156.250000
3755,-156.250000
3756,-156.250000
3757,-156.250000
3758,-156.250000
3759,-156.250000
3760,-156.250000
3761,-156.250000
3762,-156.250000
3763,-156.250000
3764,-156.250000
3765,-156.250000
3766,-156.250000
3767,-156.250000
3768,-156.250000
3769,-160.156250
3770,-160.156250
3771,-156.250000
3772,-156.250000
3773,-160.156250
3774,-160.156250
3775,-160.156250
3776,-160.156250
3777,-160.156250
3778,-160.156250
3779,-160.156250
3780,-160.156250
3781,-160.156250
3782,-160.156250
3783,-160.156250
3784,-160.156250
3785,-160.156250
3786,-160.156250
3787,-160.156250
3788,-160.156250
3789,-160.156250
3790,-160.156250
3791,-160.156250
3792,-156.250000
3793,-160.156250
3794,-156.250000
3795,-156.250000
3796,-156.250000
3797,-160.156250
3798,-156.250000
3799,-156.250000
3800,-156.250000
3801,-156.250000
3802,-156.250000
3803,-156.250000
3804,-156.250000
3805,-156.250000
3806,-156.250000
3807,-156.250000
3808,-156.250000
3809,-156.250000
3810,-156.250000
3811,-156.250000
3812,-156.250000
3813,-156.250000
3814,-156.250000
3815,-156.250000
3816,-156.250000
3817,-156.250000
3818,-156.250000
3819,-156.250000
3820,-152.343750
3821,-152.343750
3822,-156.250000
3823,-156.250000
3824,-152.343750
3825,-152.343750
3826,-152.343750
3827,-152.343750
3828,-152.343750
3829,-156.250000
3830,-152.343750
3831,-152.343750
3832,-152.343750
3833,-152.343750
3834,-152.343750
3835,-148.437500
3836,-148.437500
3837,-148.437500
3838,-148.437500
3839,-148.437500
3840,-148.437500
3841,-148.437500
3842,-148.437500
3843,-148.437500
3844,-148.437500
3845,-144.531250
3846,-144.531250
3847,-144.531250
3848,-144.531250
3849,-144.531250
3850,-144.531250
3851,-144.531250
3852,-144.531250
3853,-140.625000
3854,-144.531250
3855,-140.625000
3856,-140.625000
3857,-140.625000
3858,-140.625000
3859,-140.625000
3860,-140.625000
3861,-136.718750
3862,-136.718750
3863,-136.718750
3864,-136.718750
3865,-136.718750
3866,-136.718750
3867,-136.718750
3868,-136.718750
3869,-136.718750
3870,-132.812500
3871,-132.812500
3872,-132.812500
3873,-132.812500
3874,-132.812500
3875,-132.812500
3876,-132.812500
3877,-132.812500
3878,-128.906250
3879,-128.906250
3880,-128.906250
3881,-128.906250
3882,-128.906250
3883,-128.906250
3884,-128.906250
3885,-125.000000
3886,-125.000000
3887,-125.000000
3888,-125.000000
3889,-125.000000
3890,-121.093750
3891,-121.093750
3892,-121.093750
3893,-121.093750
3894,-121.093750
3895,-121.093750
3896,-121.093750
3897,-117.187500
3898,-117.187500
3899,-117.187500
3900,-117.187500
3901,-117.187500
3902,-117.187500
3903,-113.281250
3904,-113.281250
3905,-113.281250
3906,-113.281250
3907,-113.281250
3908,-113.281250
3909,-109.375000
3910,-109.375000
3911,-109.375000
3912,-109.375000
3913,-109.375000
3914,-109.375000
3915,-105.468750
3916,-105.468750
3917,-105.468750
3918,-105.468750
3919,-105.468750
3920,-101.562500
3921,-101.562500
3922,-101.562500
3923,-101.562500
3924,-97.656250
3925,-97.656250
3926,-97.656250
3927,-97.656250
3928,-97.656250
3929,-97.656250
3930,-93.750000
3931,-93.750000
3932,-93.750000
3933,-89.843750
3934,-93.750000
3935,-93.750000
3936,-89.843750
3937,-89.843750
3938,-89.843750
3939,-89.843750
3940,-85.937500
3941,-85.937500
3942,-85.937500
3943,-85.937500
3944,-85.937500
3945,-82.031250
3946,-82.031250
3947,-82.031250
3948,-82.031250
3949,-78.125000
3950,-78.125000
3951,-78.125000
3952,-78.125000
3953,-74.218750
3954,-74.218750
3955,-74.218750
3956,-74.218750
3957,-74.218750
3958,-74.218750
3959,-70.312500
3960,-70.312500
3961,-70.312500
3962,-70.312500
3963,-70.312500
3964,-66.406250
3965,-66.406250
3966,-62.500000
3967,-66.406250
3968,-62.500000
3969,-62.500000
3970,-62.500000
3971,-62.500000
3972,-58.593750
3973,-58.593750
3974,-58.593750
3975,-58.593750
3976,-54.687500
3977,-54.687500
3978,-54.687500
3979,-54.687500
3980,-54.687500
3981,-50.781250
3982,-50.781250
3983,-50.781250
3984,-50.781250
3985,-46.875000
3986,-46.875000
3987,-46.875000
3988,-46.875000
3989,-42.968750
3990,-42.968750
3991,-42.968750
3992,-42.968750
3993,-42.968750
3994,-39.062500
3995,-39.062500
3996,-39.062500
3997,-39.062500
3998,-35.156250
3999,-35.156250
4000,-35.156250
4001,-35.156250
4002,-35.156250
4003,-31.250000
4004,-31.250000
4005,-31.250000
4006,-31.250000
4007,-27.343750
4008,-27.343750
4009,-27.343750
4010,-27.343750
4011,-27.343750
4012,-23.437500
4013,-23.437500
4014,-23.437500
4015,-23.437500
4016,-19.531250
4017,-19.531250
4018,-19.531250
4019,-19.531250
4020,-19.531250
4021,-15.625000
4022,-15.625000
4023,-15.625000
4024,-15.625000
4025,-11.718750
4026,-11.718750
4027,-11.718750
4028,-11.718750
4029,-11.718750
4030,-7.812500
4031,-7.812500
4032,-7.812500
4033,-7.812500
4034,-7.812500
4035,-3.906250
4036,-3.906250
4037,-3.906250
4038,-3.906250
4039,0.000000
4040,0.000000
4041,0.000000
4042,0.000000
4043,3.906250
4044,3.906250
4045,3.906250
4046,3.906250
4047,3.906250
4048,7.812500
4049,7.812500
4050,7.812500
4051,7.812500
4052,11.718750
4053,11.718750
4054,11.718750
4055,11.718750
4056,11.718750
4057,15.625000
4058,15.625000
4059,15.625000
4060,15.625000
4061,15.625000
4062,19.531250
4063,19.531250
4064,19.531250
4065,19.531250
4066,19.531250
4067,23.437500
4068,23.437500
4069,23.437500
4070,23.437500
4071,23.437500
4072,27.343750
4073,27.343750
4074,27.343750
4075,27.343750
4076,27.343750
4077,31.250000
4078,31.250000
4079,31.250000
4080,31.250000
4081,31.250000
4082,35.156250
4083,35.156250
4084,35.156250
4085,35.156250
4086,35.156250
4087,39.062500
4088,39.062500
4089,39.062500
4090,39.062500
4091,39.062500
4092,42.968750
4093,42.968750
4094,42.968750
4095,42.968750
4096,42.968750
4097,46.875000
4098,46.875000
4099,46.875000
4100,46.875000
4101,46.875000
4102,50.781250
4103,50.781250
4104,50.781250
4105,50.781250
4106,50.781250
4107,50.781250
4108,54.687500
4109,54.687500
4110,54.687500
4111,54.687500
4112,58.593750
4113,58.593750
4114,58.593750
4115,58.593750
4116,58.593750
4117,58.593750
4118,58.593750
4119,62.500000
4120,62.500000
4121,62.500000
4122,62.500000
4123,62.500000
4124,62.500000
4125,66.406250
4126,66.406250
4127,66.406250
4128,66.406250
4129,66.406250
4130,70.312500
4131,70.312500
4132,70.312500
4133,70.312500
4134,70.312500
4135,70.312500
4136,70.312500
4137,74.218750
4138,74.218750
4139,74.218750
4140,74.218750
4141,74.218750
4142,78.125000
4143,74.218750
4144,78.125000
4145,78.125000
4146,78.125000
4147,78.125000
4148,78.125000
4149,78.125000
4150,78.125000
4151,78.125000
4152,82.031250
4153,82.031250
4154,82.031250
4155,82.031250
4156,82.031250
4157,82.031250
4158,85.937500
4159,85.937500
4160,85.937500
4161,85.937500
4162,85.937500
4163,85.937500
4164,85.937500
4165,85.937500
4166,89.843750
4167,89.843750
4168,89.843750
4169,89.843750
4170,89.843750
4171,89.843750
4172,89.843750
4173,89.843750
4174,89.843750
4175,89.843750
4176,93.750000
4177,89.843750
4178,93.750000
4179,93.750000
4180,93.750000
4181,93.750000
4182,93.750000
4183,93.750000
4184,93.750000
4185,97.656250
4186,97.656250
4187,97.656250
4188,97.656250
4189,97.656250
4190,97.656250
4191,97.656250
4192,97.656250
4193,97.656250
4194,97.656250
4195,97.656250
4196,101.562500
4197,101.562500
4198,101.562500
4199,101.562500
4200,101.562500
4201,101.562500
4202,101.562500
4203,101.562500
4204,101.562500
4205,101.562500
4206,101.562500
4207,101.562500
4208,105.468750
4209,105.468750
4210,105.468750
4211,105.468750
4212,105.468750
4213,105.468750
4214,105.468750
4215,105.468750
4216,105.468750
4217,105.468750
4218,105.468750
4219,105.468750
4220,109.375000
4221,109.375000
4222,109.375000
4223,109.375000
4224,109.375000
4225,109.375000
4226,109.375000
4227,109.375000
4228,109.375000
4229,109.375000
4230,109.375000
4231,109.375000
4232,109.375000
4233,109.375000
4234,109.375000
4235,109.375000
4236,113.281250
4237,109.375000
4238,113.281250
4239,113.281250
4240,113.281250
4241,113.281250
4242,113.281250
4243,113.281250
4244,113.281250
4245,113.281250
4246,113.281250
4247,113.281250
4248,113.281250
4249,113.281250
4250,113.281250
4251,113.281250
4252,113.281250
4253,113.281250
4254,113.281250
4255,113.281250
4256,113.281250
4257,113.281250
4258,113.281250
4259,113.281250
4260,113.281250
4261,113.281250
4262,117.187500
4263,117.187500
4264,117.187500
4265,117.187500
4266,117.187500
4267,113.281250
4268,117.187500
4269,113.281250
4270,117.187500
4271,117.187500
4272,117.187500
4273,117.187500
4274,117.187500
4275,117.187500
4276,117.187500
4277,117.187500
4278,117.187500
4279,113.281250
4280,117.187500
4281,117.187500
4282,117.187500
4283,117.187500
4284,117.187500
4285,117.187500
4286,117.187500
4287,117.187500
4288,117.187500
4289,117.187500
4290,117.187500
4291,117.187500
4292,117.187500
4293,117.187500
4294,117.187500
4295,117.187500
4296,117.187500
4297,117.187500
4298,117.187500
4299,113.281250
4300,113.281250
4301,113.281250
4302,113.281250
4303,117.187500
4304,113.281250
4305,113.281250
4306,113.281250
4307,113.281250
4308,113.281250
4309,113.281250
4310,113.281250
4311,113.281250
4312,113.281250
4313,113.281250
4314,113.281250
4315,113.281250
4316,113.281250
4317,113.281250
4318,113.281250
4319,113.281250
4320,113.281250
4321,113.281250
4322,113.281250
4323,113.281250
4324,113.281250
4325,109.375000
4326,109.375000
4327,109.375000
4328,109.375000
4329,109.375000
4330,109.375000
4331,109.375000
4332,109.375000
4333,109.375000
4334,109.375000
4335,109.375000
4336,109.375000
4337,109.375000
4338,109.375000
4339,109.375000
4340,109.375000
4341,109.375000
4342,109.375000
4343,109.375000
4344,105.468750
4345,105.468750
4346,105.468750
4347,105.468750
4348,105.468750
4349,105.468750
4350,105.468750
4351,105.468750
4352,105.468750
4353,105.468750
4354,105.468750
4355,105.468750
4356,105.468750
4357,101.562500
4358,105.468750
4359,101.562500
4360,101.562500
4361,101.562500
4362,101.562500
4363,101.562500
4364,101.562500
4365,101.562500
4366,101.562500
4367,101.562500
4368,101.562500
4369,101.562500
4370,97.656250
4371,97.656250
4372,97.656250
4373,97.656250
4374,97.656250
4375,97.656250
4376,97.656250
4377,97.656250
4378,97.656250
4379,93.750000
4380,93.750000
4381,93.750000
4382,93.750000
4383,93.750000
4384,93.750000
4385,93.750000
4386,93.750000
4387,93.750000
4388,89.843750
4389,89.843750
4390,89.843750
4391,89.843750
4392,89.843750
4393,89.843750
4394,89.843750
4395,89.843750
4396,89.843750
4397,85.937500
4398,85.937500
4399,85.937500
4400,85.937500
4401,85.937500
4402,85.937500
4403,85.937500
4404,82.031250
4405,82.031250
4406,82.031250
4407,82.031250
4408,82.031250
4409,82.031250
4410,82.031250
4411,82.031250
4412,78.125000
4413,78.125000
4414,78.125000
4415,78.125000
4416,78.125000
4417,78.125000
4418,74.218750
4419,74.218750
4420,74.218750
4421,74.218750
4422,74.218750
4423,74.218750
4424,70.312500
4425,70.312500
4426,70.312500
4427,70.312500
4428,70.312500
4429,70.312500
4430,66.406250
4431,66.406250
4432,66.406250
4433,66.406250
4434,66.406250
4435,62.500000
4436,62.500000
4437,62.500000
4438,62.500000
4439,62.500000
4440,62.500000
4441,62.500000
4442,58.593750
4443,58.593750
4444,58.593750
4445,58.593750
4446,58.593750
4447,54.687500
4448,54.687500
4449,54.687500
4450,54.687500
4451,50.781250
4452,50.781250
4453,50.781250
4454,50.781250
4455,50.781250
4456,50.781250
4457,46.875000
4458,46.875000
4459,46.875000
4460,46.875000
4461,46.875000
4462,46.875000
4463,42.968750
4464,42.968750
4465,42.968750
4466,42.968750
4467,42.968750
4468,42.968750
4469,39.062500
4470,39.062500
4471,39.062500
4472,39.062500
4473,35.156250
4474,35.156250
4475,35.156250
4476,35.156250
4477,35.156250
4478,35.156250
4479,31.250000
4480,31.250000
4481,31.250000
4482,31.250000
4483,27.343750
4484,27.343750
4485,27.343750
4486,27.343750
4487,27.343750
4488,23.437500
4489,23.437500
4490,23.437500
4491,19.531250
4492,23.437500
4493,19.531250
4494,19.531250
4495,19.531250
4496,19.531250
4497,15.625000
4498,15.625000
4499,15.625000
4500,15.625000
4501,15.625000
4502,11.718750
4503,11.718750
4504,11.718750
4505,11.718750
4506,7.812500
4507,7.812500
4508,7.812500
4509,7.812500
4510,7.812500
4511,3.906250
4512,3.906250
4513,3.906250
4514,3.906250
4515,3.906250
4516,0.000000
4517,0.000000
4518,0.000000
4519,-3.906250
4520,-3.906250
4521,-3.906250
4522,-3.906250
4523,-3.906250
4524,-7.812500
4525,-7.812500
4526,-7.812500
4527,-7.812500
4528,-11.718750
4529,-11.718750
4530,-11.718750
4531,-11.718750
4532,-11.718750
4533,-15.625000
4534,-15.625000
4535,-15.625000
4536,-15.625000
4537,-19.531250
4538,-19.531250
4539,-19.531250
4540,-19.531250
4541,-23.437500
4542,-23.437500
4543,-23.437500
4544,-23.437500
4545,-27.343750
4546,-27.343750
4547,-27.343750
4548,-27.343750
4549,-31.250000
4550,-31.250000
4551,-31.250000
4552,-31.250000
4553,-35.156250
4554,-35.156250
4555,-35.156250
4556,-35.156250
4557,-35.156250
4558,-39.062500
4559,-39.062500
4560,-39.062500
4561,-39.062500
4562,-42.968750
4563,-42.968750
4564,-42.968750
4565,-42.968750
4566,-46.875000
4567,-46.875000
4568,-46.875000
4569,-46.875000
4570,-46.875000
4571,-50.781250
4572,-50.781250
4573,-50.781250
4574,-50.781250
4575,-54.687500
4576,-54.687500
4577,-54.687500
4578,-54.687500
4579,-58.593750
4580,-58.593750
4581,-58.593750
4582,-58.593750
4583,-62.500000
4584,-62.500000
4585,-62.500000
4586,-62.500000
4587,-62.500000
4588,-66.406250
4589,-66.406250
4590,-66.406250
4591,-66.406250
4592,-66.406250
4593,-70.312500
4594,-70.312500
4595,-70.312500
4596,-70.312500
4597,-74.218750
4598,-74.218750
4599,-74.218750
4600,-74.218750
4601,-78.125000
4602,-78.125000
4603,-78.125000
4604,-78.125000
4605,-78.125000
4606,-78.125000
4607,-82.031250
4608,-82.031250
4609,-82.031250
4610,-82.031250
4611,-85.937500
4612,-85.937500
4613,-85.937500
4614,-85.937500
4615,-89.843750
4616,-89.843750
4617,-89.843750
4618,-89.843750
4619,-89.843750
4620,-93.750000
4621,-93.750000
4622,-93.750000
4623,-93.750000
4624,-93.750000
4625,-93.750000
4626,-97.656250
4627,-97.656250
4628,-97.656250
4629,-97.656250
4630,-101.562500
4631,-101.562500
4632,-101.562500
4633,-101.562500
4634,-101.562500
4635,-105.468750
4636,-105.468750
4637,-105.468750
4638,-105.468750
4639,-105.468750
4640,-105.468750
4641,-109.375000
4642,-109.375000
4643,-109.375000
4644,-109.375000
4645,-109.375000
4646,-113.281250
4647,-113.281250
4648,-113.281250
4649,-113.281250
4650,-113.281250
4651,-113.281250
4652,-117.187500
4653,-117.187500
4654,-117.187500
4655,-117.187500
4656,-117.187500
4657,-117.187500
4658,-121.093750
4659,-121.093750
4660,-121.093750
4661,-121.093750
4662,-121.093750
4663,-121.093750
4664,-121.093750
4665,-125.000000
4666,-125.000000
4667,-125.000000
4668,-125.000000
4669,-128.906250
4670,-125.000000
4671,-128.906250
4672,-128.906250
4673,-128.906250
4674,-128.906250
4675,-132.812500
4676,-132.812500
4677,-132.812500
4678,-132.812500
4679,-132.812500
4680,-132.812500
4681,-132.812500
4682,-132.812500
4683,-136.718750
4684,-136.718750
4685,-136.718750
4686,-136.718750
4687,-136.718750
4688,-136.718750
4689,-136.718750
4690,-136.718750
4691,-140.625000
4692,-140.625000
4693,-140.625000
4694,-140.625000
4695,-140.625000
4696,-140.625000
4697,-140.625000
4698,-140.625000
4699,-144.531250
4700,-144.531250
4701,-144.531250
4702,-144.531250
4703,-144.531250
4704,-144.531250
4705,-148.437500
4706,-144.531250
4707,-148.437500
4708,-148.437500
4709,-148.437500
4710,-148.437500
4711,-148.437500
4712,-148.437500
4713,-148.437500
4714,-148.437500
4715,-148.437500
4716,-152.343750
4717,-152.343750
4718,-152.343750
4719,-152.343750
4720,-152.343750
4721,-152.343750
4722,-152.343750
4723,-152.343750
4724,-152.343750
4725,-152.343750
4726,-152.343750
4727,-152.343750
4728,-152.343750
4729,-156.250000
4730,-152.343750
4731,-156.250000
4732,-156.250000
4733,-156.250000
4734,-156.250000
4735,-156.250000
4736,-156.250000
4737,-156.250000
4738,-156.250000
4739,-156.250000
4740,-156.250000
4741,-156.250000
4742,-156.250000
4743,-156.250000
4744,-156.250000
4745,-156.250000
4746,-156.250000
4747,-156.250000
4748,-156.250000
4749,-156.250000
4750,-160.156250
4751,-160.156250
4752,-160.156250
4753,-160.156250
4754,-160.156250
4755,-160.156250
4756,-160.156250
4757,-160.156250
4758,-160.156250
4759,-160.156250
4760,-160.156250
4761,-160.156250
4762,-160.156250
4763,-160.156250
4764,-160.156250
4765,-160.156250
4766,-160.156250
4767,-160.156250
4768,-160.156250
4769,-160.156250
4770,-160.156250
4771,-160.156250
4772,-160.156250
4773,-160.156250
4774,-160.156250
4775,-160.156250
4776,-160.156250
4777,-160.156250
4778,-160.156250
4779,-160.156250
4780,-160.156250
4781,-160.156250
4782,-160.156250
4783,-160.156250
4784,-160.156250
4785,-160.156250
4786,-160.156250
4787,-156.250000
4788,-160.156250
4789,-156.250000
4790,-156.250000
4791,-156.250000
4792,-156.250000
4793,-156.250000
4794,-156.250000
4795,-156.250000
4796,-156.250000
4797,-156.250000
4798,-156.250000
4799,-156.250000
4800,-156.250000
4801,-156.250000
4802,-156.250000
4803,-156.250000
4804,-156.250000
4805,-156.250000
4806,-156.250000
4807,-156.250000
4808,-156.250000
4809,-152.343750
4810,-156.250000
4811,-156.250000
4812,-156.250000
4813,-152.343750
4814,-152.343750
4815,-152.343750
4816,-152.343750
4817,-152.343750
4818,-152.343750
4819,-152.343750
4820,-152.343750
4821,-152.343750
4822,-152.343750
4823,-152.343750
4824,-152.343750
4825,-148.437500
4826,-148.437500
4827,-148.437500
4828,-148.437500
4829,-148.437500
4830,-148.437500
4831,-148.437500
4832,-148.437500
4833,-148.437500
4834,-148.437500
4835,-148.437500
4836,-148.437500
4837,-144.531250
4838,-144.531250
4839,-144.531250
4840,-144.531250
4841,-144.531250
4842,-144.531250
4843,-144.531250
4844,-144.531250
4845,-140.625000
4846,-140.625000
4847,-140.625000
4848,-140.625000
4849,-140.625000
4850,-140.625000
4851,-140.625000
4852,-140.625000
4853,-136.718750
4854,-136.718750
4855,-136.718750
4856,-136.718750
4857,-136.718750
4858,-136.718750
4859,-136.718750
4860,-136.718750
4861,-132.812500
4862,-132.812500
4863,-132.812500
4864,-132.812500
4865,-132.812500
4866,-128.906250
4867,-128.906250
4868,-128.906250
4869,-128.906250
4870,-128.906250
4871,-128.906250
4872,-128.906250
4873,-125.000000
4874,-125.000000
4875,-125.000000
4876,-125.000000
4877,-125.000000
4878,-125.000000
4879,-121.093750
4880,-121.093750
4881,-121.093750
4882,-121.093750
4883,-121.093750
4884,-121.093750
4885,-117.187500
4886,-117.187500
4887,-117.187500
4888,-117.187500
4889,-117.187500
4890,-117.187500
4891,-113.281250
4892,-113.281250
4893,-113.281250
4894,-113.281250
4895,-113.281250
4896,-109.375000
4897,-109.375000
4898,-109.375000
4899,-109.375000
4900,-109.375000
4901,-109.375000
4902,-105.468750
4903,-105.468750
4904,-105.468750
4905,-105.468750
4906,-105.468750
4907,-105.468750
4908,-101.562500
4909,-101.562500
4910,-101.562500
4911,-101.562500
4912,-101.562500
4913,-97.656250
4914,-97.656250
4915,-97.656250
4916,-97.656250
4917,-93.750000
4918,-93.750000
4919,-93.750000
4920,-93.750000
4921,-93.750000
4922,-89.843750
4923,-93.750000
4924,-89.843750
4925,-89.843750
4926,-89.843750
4927,-89.843750
4928,-85.937500
4929,-85.937500
4930,-85.937500
4931,-82.031250
4932,-82.031250
4933,-82.031250
4934,-82.031250
4935,-82.031250
4936,-82.031250
4937,-78.125000
4938,-78.125000
4939,-78.125000
4940,-78.125000
4941,-78.125000
4942,-74.218750
4943,-74.218750
4944,-74.218750
4945,-74.218750
4946,-74.218750
4947,-70.312500
4948,-70.312500
4949,-70.312500
4950,-70.312500
4951,-70.312500
4952,-66.406250
4953,-66.406250
4954,-62.500000
4955,-66.406250
4956,-62.500000
4957,-62.500000
4958,-62.500000
4959,-62.500000
4960,-58.593750
4961,-58.593750
4962,-58.593750
4963,-58.593750
4964,-58.593750
4965,-54.687500
4966,-54.687500
4967,-54.687500
4968,-54.687500
4969,-54.687500
4970,-50.781250
4971,-50.781250
4972,-50.781250
4973,-50.781250
4974,-50.781250
4975,-46.875000
4976,-46.875000
4977,-46.875000
4978,-46.875000
4979,-42.968750
4980,-42.968750
4981,-42.968750
4982,-42.968750
4983,-39.062500
4984,-39.062500
4985,-39.062500
4986,-39.062500
4987,-35.156250
4988,-35.156250
4989,-35.156250
4990,-35.156250
4991,-35.156250
4992,-31.250000
4993,-27.343750
4994,-31.250000
4995,-27.343750
4996,-23.437500
4997,-27.343750
4998,-27.343750
4999,-27.343750
5000,-23.437500
5001,-23.437500
5002,-23.437500
5003,-23.437500
5004,-23.437500
5005,-19.531250
5006,-19.531250
5007,-19.531250
5008,-19.531250
5009,-15.625000
5010,-15.625000
5011,-15.625000
5012,-15.625000
5013,-11.718750
5014,-11.718750
5015,-11.718750
5016,-11.718750
5017,-11.718750
5018,-7.812500
5019,-7.812500
5020,-7.812500
5021,-7.812500
5022,-7.812500
5023,-3.906250
5024,-3.906250
5025,-3.906250
5026,0.000000
5027,0.000000
5028,0.000000
5029,0.000000
5030,0.000000
5031,3.906250
5032,3.906250
5033,3.906250
5034,3.906250
5035,3.906250
5036,7.812500
5037,7.812500
5038,7.812500
5039,7.812500
5040,7.812500
5041,11.718750
5042,11.718750
5043,11.718750
5044,15.625000
5045,15.625000
5046,15.625000
5047,15.625000
5048,15.625000
5049,15.625000
5050,19.531250
5051,19.531250
5052,19.531250
5053,19.531250
5054,19.531250
5055,23.437500
5056,23.437500
5057,23.437500
5058,23.437500
5059,23.437500
5060,27.343750
5061,27.343750
5062,27.343750
5063,27.343750
5064,27.343750
5065,31.250000
5066,31.250000
5067,31.250000
5068,31.250000
5069,31.250000
5070,35.156250
5071,35.156250
5072,35.156250
5073,35.156250
5074,35.156250
5075,35.156250
5076,39.062500
5077,39.062500
5078,39.062500
5079,39.062500
5080,42.968750
5081,42.968750
5082,42.968750
5083,42.968750
5084,46.875000
5085,42.968750
5086,46.875000
5087,46.875000
5088,46.875000
5089,46.875000
5090,50.781250
5091,50.781250
5092,50.781250
5093,50.781250
5094,50.781250
5095,50.781250
5096,54.687500
5097,54.687500
5098,54.687500
5099,54.687500
5100,54.687500
5101,54.687500
5102,58.593750
5103,58.593750
5104,58.593750
5105,58.593750
5106,58.593750
5107,58.593750
5108,62.500000
5109,62.500000
5110,62.500000
5111,62.500000
5112,62.500000
5113,62.500000
5114,66.406250
5115,66.406250
5116,66.406250
5117,66.406250
5118,66.406250
5119,66.406250
5120,70.312500
5121,66.406250
5122,70.312500
5123,70.312500
5124,70.312500
5125,70.312500
5126,70.312500
5127,74.218750
5128,74.218750
5129,74.218750
5130,74.218750
5131,74.218750
5132,74.218750
5133,74.218750
5134,78.125000
5135,78.125000
5136,78.125000
5137,78.125000
5138,78.125000
5139,78.125000
5140,82.031250
5141,82.031250
5142,82.031250
5143,82.031250
5144,82.031250
5145,82.031250
5146,85.937500
5147,82.031250
5148,82.031250
5149,85.937500
5150,85.937500
5151,85.937500
5152,85.937500
5153,85.937500
5154,85.937500
5155,89.843750
5156,89.843750
5157,89.843750
5158,89.843750
5159,89.843750
5160,89.843750
5161,89.843750
5162,93.750000
5163,89.843750
5164,89.843750
5165,89.843750
5166,93.750000
5167,93.750000
5168,93.750000
5169,93.750000
5170,93.750000
5171,93.750000
5172,93.750000
5173,97.656250
5174,97.656250
5175,97.656250
5176,97.656250
5177,97.656250
5178,97.656250
5179,97.656250
5180,97.656250
5181,97.656250
5182,97.656250
5183,101.562500
5184,101.562500
5185,101.562500
5186,101.562500
5187,101.562500
5188,101.562500
5189,101.562500
5190,101.562500
5191,101.562500
5192,105.468750
5193,105.468750
5194,101.562500
5195,105.468750
5196,105.468750
5197,105.468750
5198,105.468750
5199,105.468750
5200,105.468750
5201,105.468750
5202,105.468750
5203,105.468750
5204,105.468750
5205,109.375000
5206,105.468750
5207,105.468750
5208,109.375000
5209,109.375000
5210,109.375000
5211,109.375000
5212,109.375000
5213,109.375000
5214,109.375000
5215,109.375000
5216,109.375000
5217,109.375000
5218,109.375000
5219,109.375000
5220,109.375000
5221,109.375000
5222,113.281250
5223,109.375000
5224,109.375000
5225,109.375000
5226,113.281250
5227,113.281250
5228,113.281250
5229,113.281250
5230,113.281250
5231,113.281250
5232,113.281250
5233,113.281250
5234,113.281250
5235,113.281250
5236,113.281250
5237,113.281250
5238,113.281250
5239,113.281250
5240,113.281250
5241,113.281250
5242,113.281250
5243,113.281250
5244,113.281250
5245,113.281250
5246,113.281250
5247,113.281250
5248,113.281250
5249,113.281250
5250,113.281250
5251,113.281250
5252,113.281250
5253,113.281250
5254,113.281250
5255,113.281250
5256,113.281250
5257,117.187500
5258,117.187500
5259,117.187500
5260,117.187500
5261,117.187500
5262,117.187500
5263,117.187500
5264,117.187500
5265,117.187500
5266,117.187500
5267,117.187500
5268,117.187500
5269,117.187500
5270,117.187500
5271,117.187500
5272,117.187500
5273,117.187500
5274,117.187500
5275,117.187500
5276,117.187500
5277,117.187500
5278,117.187500
5279,117.187500
5280,117.187500
5281,117.187500
5282,117.187500
5283,117.187500
5284,117.187500
5285,117.187500
5286,117.187500
5287,117.187500
5288,113.281250
5289,117.187500
5290,113.281250
5291,113.281250
5292,113.281250
5293,113.281250
5294,113.281250
5295,113.281250
5296,113.281250
5297,113.281250
5298,113.281250
5299,113.281250
5300,113.281250
5301,113.281250
5302,113.281250
5303,113.281250
5304,113.281250
5305,113.281250
5306,113.281250
5307,113.281250
5308,113.281250
5309,113.281250
5310,113.281250
5311,113.281250
5312,113.281250
5313,113.281250
5314,113.281250
5315,113.281250
5316,113.281250
5317,109.375000
5318,109.375000
5319,109.375000
5320,109.375000
5321,109.375000
5322,109.375000
5323,109.375000
5324,109.375000
5325,109.375000
5326,109.375000
5327,109.375000
5328,109.375000
5329,109.375000
5330,109.375000
5331,109.375000
5332,109.375000
5333,105.468750
5334,105.468750
5335,105.468750
5336,105.468750
5337,105.468750
5338,105.468750
5339,105.468750
5340,105.468750
5341,105.468750
5342,105.468750
5343,105.468750
5344,105.468750
5345,105.468750
5346,101.562500
5347,101.562500
5348,105.468750
5349,101.562500
5350,101.562500
5351,101.562500
5352,101.562500
5353,101.562500
5354,101.562500
5355,101.562500
5356,101.562500
5357,97.656250
5358,97.656250
5359,97.656250
5360,97.656250
5361,97.656250
5362,97.656250
5363,97.656250
5364,97.656250
5365,97.656250
5366,97.656250
5367,93.750000
5368,93.750000
5369,93.750000
5370,93.750000
5371,93.750000
5372,93.750000
5373,93.750000
5374,93.750000
5375,89.843750
5376,89.843750
5377,89.843750
5378,89.843750
5379,89.843750
5380,89.843750
5381,89.843750
5382,89.843750
5383,85.937500
5384,85.937500
5385,85.937500
5386,85.937500
5387,85.937500
5388,85.937500
5389,85.937500
5390,85.937500
5391,85.937500
5392,82.031250
5393,82.031250
5394,82.031250
5395,82.031250
5396,82.031250
5397,82.031250
5398,78.125000
5399,78.125000
5400,78.125000
5401,78.125000
5402,78.125000
5403,78.125000
5404,78.125000
5405,74.218750
5406,74.218750
5407,74.218750
5408,74.218750
5409,74.218750
5410,74.218750
5411,70.312500
5412,70.312500
5413,70.312500
5414,70.312500
5415,70.312500
5416,70.312500
5417,70.312500
5418,66.406250
5419,66.406250
5420,66.406250
5421,66.406250
5422,66.406250
5423,66.406250
5424,62.500000
5425,62.500000
5426,62.500000
5427,62.500000
5428,62.500000
5429,62.500000
5430,58.593750
5431,58.593750
5432,58.593750
5433,58.593750
5434,58.593750
5435,54.687500
5436,54.687500
5437,54.687500
5438,54.687500
5439,54.687500
5440,54.687500
5441,50.781250
5442,50.781250
5443,50.781250
5444,50.781250
5445,50.781250
5446,46.875000
5447,46.875000
5448,46.875000
5449,46.875000
5450,46.875000
5451,46.875000
5452,42.968750
5453,42.968750
5454,42.968750
5455,42.968750
5456,42.968750
5457,39.062500
5458,39.062500
5459,39.062500
5460,39.062500
5461,39.062500
5462,35.156250
5463,35.156250
5464,35.156250
5465,35.156250
5466,35.156250
5467,31.250000
5468,31.250000
5469,31.250000
5470,27.343750
5471,27.343750
5472,27.343750
5473,27.343750
5474,27.343750
5475,23.437500
5476,23.437500
5477,23.437500
5478,23.437500
5479,23.437500
5480,19.531250
5481,19.531250
5482,19.531250
5483,19.531250
5484,19.531250
5485,15.625000
5486,15.625000
5487,15.625000
5488,15.625000
5489,11.718750
5490,11.718750
5491,11.718750
5492,11.718750
5493,7.812500
5494,11.718750
5495,7.812500
5496,7.812500
5497,7.812500
5498,3.906250
5499,3.906250
5500,3.906250
5501,3.906250
5502,3.906250
5503,0.000000
5504,0.000000
5505,0.000000
5506,0.000000
5507,-3.906250
5508,-3.906250
5509,-3.906250
5510,-3.906250
5511,-3.906250
5512,-7.812500
5513,-7.812500
5514,-7.812500
5515,-11.718750
5516,-11.718750
5517,-11.718750
5518,-11.718750
5519,-15.625000
5520,-11.718750
5521,-15.625000
5522,-15.625000
5523,-15.625000
5524,-19.531250
5525,-19.531250
5526,-19.531250
5527,-19.531250
5528,-23.437500
5529,-23.437500
5530,-23.437500
5531,-23.437500
5532,-23.437500
5533,-27.343750
5534,-27.343750
5535,-27.343750
5536,-27.343750
5537,-27.343750
5538,-31.250000
5539,-31.250000
5540,-31.250000
5541,-31.250000
5542,-35.156250
5543,-35.156250
5544,-35.156250
5545,-35.156250
5546,-39.062500
5547,-39.062500
5548,-39.062500
5549,-39.062500
5550,-42.968750
5551,-42.968750
5552,-42.968750
5553,-42.968750
5554,-46.875000
5555,-46.875000
5556,-46.875000
5557,-46.875000
5558,-46.875000
5559,-50.781250
5560,-50.781250
5561,-50.781250
5562,-50.781250
5563,-54.687500
5564,-54.687500
5565,-54.687500
5566,-54.687500
5567,-54.687500
5568,-58.593750
5569,-58.593750
5570,-58.593750
5571,-58.593750
5572,-62.500000
5573,-62.500000
5574,-62.500000
5575,-66.406250
5576,-66.406250
5577,-66.406250
5578,-66.406250
5579,-66.406250
5580,-70.312500
5581,-70.312500
5582,-70.312500
5583,-70.312500
5584,-70.312500
5585,-74.218750
5586,-74.218750
5587,-74.218750
5588,-74.218750
5589,-78.125000
5590,-78.125000
5591,-78.125000
5592,-78.125000
5593,-78.125000
5594,-82.031250
5595,-82.031250
5596,-82.031250
5597,-82.031250
5598,-85.937500
5599,-85.937500
5600,-85.937500
5601,-85.937500
5602,-85.937500
5603,-89.843750
5604,-89.843750
5605,-89.843750
5606,-89.843750
5607,-89.843750
5608,-93.750000
5609,-93.750000
5610,-93.750000
5611,-93.750000
5612,-97.656250
5613,-97.656250
5614,-97.656250
5615,-97.656250
5616,-101.562500
5617,-97.656250
5618,-101.562500
5619,-101.562500
5620,-101.562500
5621,-101.562500
5622,-101.562500
5623,-105.468750
5624,-105.468750
5625,-105.468750
5626,-105.468750
5627,-105.468750
5628,-109.375000
5629,-109.375000
5630,-109.375000
5631,-109.375000
5632,-109.375000
5633,-109.375000
5634,-113.281250
5635,-113.281250
5636,-113.281250
5637,-117.187500
5638,-117.187500
5639,-113.281250
5640,-117.187500
5641,-117.187500
5642,-117.187500
5643,-117.187500
5644,-121.093750
5645,-121.093750
5646,-121.093750
5647,-121.093750
5648,-121.093750
5649,-125.000000
5650,-121.093750
5651,-125.000000
5652,-125.000000
5653,-125.000000
5654,-125.000000
5655,-125.000000
5656,-125.000000
5657,-125.000000
5658,-128.906250
5659,-128.906250
5660,-128.906250
5661,-128.906250
5662,-128.906250
5663,-128.906250
5664,-132.812500
5665,-132.812500
5666,-132.812500
5667,-132.812500
5668,-132.812500
5669,-132.812500
5670,-136.718750
5671,-136.718750
5672,-136.718750
5673,-136.718750
5674,-136.718750
5675,-136.718750
5676,-136.718750
5677,-136.718750
5678,-140.625000
5679,-140.625000
5680,-140.625000
5681,-140.625000
5682,-140.625000
5683,-140.625000
5684,-140.625000
5685,-140.625000
5686,-140.625000
5687,-144.531250
5688,-144.531250
5689,-144.531250
5690,-144.531250
5691,-144.531250
5692,-144.531250
5693,-144.531250
5694,-144.531250
5695,-144.531250
5696,-144.531250
5697,-148.437500
5698,-148.437500
5699,-148.437500
5700,-148.437500
5701,-148.437500
5702,-148.437500
5703,-148.437500
5704,-148.437500
5705,-148.437500
5706,-148.437500
5707,-152.343750
5708,-152.343750
5709,-152.343750
5710,-152.343750
5711,-152.343750
5712,-152.343750
5713,-152.343750
5714,-152.343750
5715,-152.343750
5716,-152.343750
5717,-152.343750
5718,-152.343750
5719,-156.250000
5720,-156.250000
5721,-156.250000
5722,-156.250000
5723,-156.250000
5724,-156.250000
5725,-156.250000
5726,-156.250000
5727,-156.250000
5728,-156.250000
5729,-156.250000
5730,-156.250000
5731,-156.250000
5732,-156.250000
5733,-156.250000
5734,-156.250000
5735,-156.250000
5736,-156.250000
5737,-156.250000
5738,-156.250000
5739,-156.250000
5740,-160.156250
5741,-160.156250
5742,-160.156250
5743,-160.156250
5744,-160.156250
5745,-160.156250
5746,-160.156250
5747,-160.156250
5748,-160.156250
5749,-160.156250
5750,-160.156250
5751,-160.156250
5752,-160.156250
5753,-160.156250
5754,-160.156250
5755,-160.156250
5756,-160.156250
5757,-160.156250
5758,-160.156250
5759,-160.156250
5760,-160.156250
5761,-160.156250
5762,-160.156250
5763,-160.156250
5764,-160.156250
5765,-160.156250
5766,-160.156250
5767,-160.156250
5768,-160.156250
5769,-160.156250
5770,-160.156250
5771,-160.156250
5772,-160.156250
5773,-160.156250
5774,-160.156250
5775,-160.156250
5776,-156.250000
5777,-160.156250
5778,-160.156250
5779,-156.250000
5780,-160.156250
5781,-156.250000
5782,-160.156250
5783,-156.250000
5784,-156.250000
5785,-156.250000
5786,-156.250000
5787,-156.250000
5788,-156.250000
5789,-156.250000
5790,-156.250000
5791,-156.250000
5792,-156.250000
5793,-156.250000
5794,-156.250000
5795,-156.250000
5796,-156.250000
5797,-152.343750
5798,-152.343750
5799,-156.250000
5800,-152.343750
5801,-152.343750
5802,-152.343750
5803,-152.343750
5804,-152.343750
5805,-152.343750
5806,-152.343750
5807,-152.343750
5808,-152.343750
5809,-152.343750
5810,-152.343750
5811,-148.437500
5812,-148.437500
5813,-148.437500
5814,-148.437500
5815,-148.437500
5816,-148.437500
5817,-148.437500
5818,-148.437500
5819,-148.437500
5820,-148.437500
5821,-148.437500
5822,-144.531250
5823,-144.531250
5824,-144.531250
5825,-144.531250
5826,-144.531250
5827,-144.531250
5828,-144.531250
5829,-144.531250
5830,-144.531250
5831,-140.625000
5832,-140.625000
5833,-140.625000
5834,-140.625000
5835,-140.625000
5836,-140.625000
5837,-140.625000
5838,-140.625000
5839,-140.625000
5840,-136.718750
5841,-136.718750
5842,-136.718750
5843,-136.718750
5844,-136.718750
5845,-136.718750
5846,-136.718750
5847,-132.812500
5848,-132.812500
5849,-132.812500
5850,-132.812500
5851,-132.812500
5852,-132.812500
5853,-132.812500
5854,-128.906250
5855,-128.906250
5856,-128.906250
5857,-128.906250
5858,-128.906250
5859,-128.906250
5860,-128.906250
5861,-128.906250
5862,-125.000000
5863,-125.000000
5864,-125.000000
5865,-125.000000
5866,-125.000000
5867,-125.000000
5868,-125.000000
5869,-121.093750
5870,-121.093750
5871,-121.093750
5872,-121.093750
5873,-121.093750
5874,-117.187500
5875,-117.187500
5876,-117.187500
5877,-117.187500
5878,-117.187500
5879,-117.187500
5880,-113.281250
5881,-113.281250
5882,-113.281250
5883,-113.281250
5884,-113.281250
5885,-113.281250
5886,-109.375000
5887,-109.375000
5888,-109.375000
5889,-109.375000
5890,-109.375000
5891,-105.468750
5892,-105.468750
5893,-105.468750
5894,-105.468750
5895,-105.468750
5896,-101.562500
5897,-101.562500
5898,-101.562500
5899,-101.562500
5900,-101.562500
5901,-97.656250
5902,-97.656250
5903,-97.656250
5904,-97.656250
5905,-97.656250
5906,-93.750000
5907,-93.750000
5908,-93.750000
5909,-93.750000
5910,-93.750000
5911,-89.843750
5912,-89.843750
5913,-89.843750
5914,-89.843750
5915,-89.843750
5916,-89.843750
5917,-85.937500
5918,-85.937500
5919,-85.937500
5920,-85.937500
5921,-82.031250
5922,-82.031250
5923,-82.031250
5924,-82.031250
5925,-78.125000
5926,-78.125000
5927,-78.125000
5928,-78.125000
5929,-78.125000
5930,-74.218750
5931,-74.218750
5932,-74.218750
5933,-74.218750
5934,-70.312500
5935,-70.312500
5936,-70.312500
5937,-70.312500
5938,-70.312500
5939,-66.406250
5940,-66.406250
5941,-66.406250
5942,-66.406250
5943,-66.406250
5944,-62.500000
5945,-62.500000
5946,-62.500000
5947,-62.500000
5948,-58.593750
5949,-58.593750
5950,-58.593750
5951,-58.593750
5952,-58.593750
5953,-54.687500
5954,-54.687500
5955,-54.687500
5956,-54.687500
5957,-50.781250
5958,-50.781250
5959,-50.781250
5960,-50.781250
5961,-46.875000
5962,-46.875000
5963,-46.875000
5964,-46.875000
5965,-46.875000
5966,-46.875000
5967,-42.968750
5968,-42.968750
5969,-42.968750
5970,-39.062500
5971,-39.062500
5972,-39.062500
5973,-39.062500
5974,-39.062500
5975,-35.156250
5976,-35.156250
5977,-35.156250
5978,-35.156250
5979,-35.156250
5980,-31.250000
5981,-31.250000
5982,-31.250000
5983,-31.250000
5984,-27.343750
5985,-27.343750
5986,-27.343750
5987,-23.437500
5988,-23.437500
5989,-23.437500
5990,-23.437500
5991,-23.437500
5992,-19.531250
5993,-19.531250
5994,-19.531250
5995,-19.531250
5996,-15.625000
5997,-15.625000
5998,-15.625000
5999,-15.625000
6000,-15.625000
6001,-15.625000
6002,-11.718750
6003,-11.718750
6004,-11.718750
6005,-11.718750
6006,-7.812500
6007,-7.812500
6008,-7.812500
6009,-7.812500
6010,-3.906250
6011,-3.906250
6012,-3.906250
6013,-3.906250
6014,-3.906250
6015,0.000000
6016,0.000000
6017,0.000000
6018,0.000000
6019,0.000000
6020,3.906250
6021,3.906250
6022,3.906250
6023,3.906250
6024,3.906250
6025,7.812500
6026,7.812500
6027,7.812500
6028,11.718750
6029,11.718750
6030,11.718750
6031,11.718750
6032,11.718750
6033,15.625000
6034,15.625000
6035,15.625000
6036,15.625000
6037,15.625000
6038,19.531250
6039,19.531250
6040,19.531250
6041,19.531250
6042,19.531250
6043,23.437500
6044,23.437500
6045,23.437500
6046,23.437500
6047,27.343750
6048,27.343750
6049,27.343750
6050,27.343750
6051,27.343750
6052,31.250000
6053,31.250000
6054,31.250000
6055,31.250000
6056,31.250000
6057,35.156250
6058,35.156250
6059,35.156250
6060,35.156250
6061,35.156250
6062,35.156250
6063,39.062500
6064,39.062500
6065,39.062500
6066,39.062500
6067,39.062500
6068,42.968750
6069,42.968750
6070,42.968750
6071,42.968750
6072,46.875000
6073,46.875000
6074,46.875000
6075,46.875000
6076,46.875000
6077,46.875000
6078,50.781250
6079,50.781250
6080,50.781250
6081,50.781250
6082,50.781250
6083,54.687500
6084,54.687500
6085,54.687500
6086,54.687500
6087,54.687500
6088,54.687500
6089,58.593750
6090,58.593750
6091,58.593750
6092,58.593750
6093,58.593750
6094,58.593750
6095,58.593750
6096,62.500000
6097,62.500000
6098,62.500000
6099,62.500000
6100,62.500000
6101,62.500000
6102,62.500000
6103,66.406250
6104,66.406250
6105,66.406250
6106,66.406250
6107,66.406250
6108,66.406250
6109,70.312500
6110,70.312500
6111,70.312500
6112,70.312500
6113,70.312500
6114,74.218750
6115,74.218750
6116,74.218750
6117,74.218750
6118,74.218750
6119,74.218750
6120,74.218750
6121,74.218750
6122,78.125000
6123,78.125000
6124,78.125000
6125,78.125000
6126,78.125000
6127,78.125000
6128,78.125000
6129,82.031250
6130,82.031250
6131,82.031250
6132,82.031250
6133,82.031250
6134,82.031250
6135,82.031250
6136,85.937500
6137,85.937500
6138,85.937500
6139,85.937500
6140,85.937500
6141,85.937500
6142,85.937500
6143,85.937500
6144,89.843750
6145,89.843750
6146,89.843750
6147,89.843750
6148,89.843750
6149,89.843750
6150,89.843750
6151,89.843750
6152,89.843750
6153,93.750000
6154,93.750000
6155,93.750000
6156,93.750000
6157,93.750000
6158,93.750000
6159,93.750000
6160,93.750000
6161,93.750000
6162,97.656250
6163,97.656250
6164,97.656250
6165,97.656250
6166,97.656250
6167,97.656250
6168,97.656250
6169,97.656250
6170,101.562500
6171,101.562500
6172,97.656250
6173,101.562500
6174,101.562500
6175,97.656250
6176,101.562500
6177,101.562500
6178,101.562500
6179,101.562500
6180,101.562500
6181,101.562500
6182,101.562500
6183,101.562500
6184,105.468750
6185,105.468750
6186,105.468750
6187,105.468750
6188,105.468750
6189,105.468750
6190,105.468750
6191,105.468750
6192,105.468750
6193,105.468750
6194,109.375000
6195,105.468750
6196,105.468750
6197,105.468750
6198,109.375000
6199,109.375000
6200,109.375000
6201,109.375000
6202,109.375000
6203,109.375000
6204,109.375000
6205,109.375000
6206,109.375000
6207,109.375000
6208,109.375000
6209,109.375000
6210,109.375000
6211,109.375000
6212,109.375000
6213,113.281250
6214,113.281250
6215,113.281250
6216,113.281250
6217,113.281250
6218,113.281250
6219,113.281250
6220,113.281250
6221,113.281250
6222,113.281250
6223,113.281250
6224,113.281250
6225,113.281250
6226,113.281250
6227,113.281250
6228,113.281250
6229,113.281250
6230,113.281250
6231,113.281250
6232,113.281250
6233,113.281250
6234,113.281250
6235,113.281250
6236,113.281250
6237,113.281250
6238,113.281250
6239,113.281250
6240,113.281250
6241,113.281250
6242,113.281250
6243,113.281250
6244,113.281250
6245,113.281250
6246,113.281250
6247,113.281250
6248,113.281250
6249,113.281250
6250,113.281250
6251,117.187500
6252,117.187500
6253,117.187500
6254,113.281250
6255,117.187500
6256,113.281250
6257,117.187500
6258,117.187500
6259,113.281250
6260,113.281250
6261,113.281250
6262,117.187500
6263,117.187500
6264,113.281250
6265,117.187500
6266,117.187500
6267,117.187500
6268,117.187500
6269,113.281250
6270,113.281250
6271,113.281250
6272,113.281250
6273,113.281250
6274,113.281250
6275,113.281250
6276,113.281250
6277,113.281250
6278,113.281250
6279,113.281250
6280,113.281250
6281,113.281250
6282,113.281250
6283,113.281250
6284,113.281250
6285,113.281250
6286,113.281250
6287,113.281250
6288,113.281250
6289,113.281250
6290,113.281250
6291,113.281250
6292,113.281250
6293,113.281250
6294,113.281250
6295,113.281250
6296,113.281250
6297,113.281250
6298,113.281250
6299,113.281250
6300,113.281250
6301,113.281250
6302,109.375000
6303,109.375000
6304,113.281250
6305,109.375000
6306,109.375000
6307,109.375000
6308,109.375000
6309,109.375000
6310,109.375000
6311,109.375000
6312,109.375000
6313,109.375000
6314,109.375000
6315,109.375000
6316,109.375000
6317,109.375000
6318,105.468750
6319,109.375000
6320,109.375000
6321,109.375000
6322,105.468750
6323,109.375000
6324,105.468750
6325,105.468750
6326,105.468750
6327,105.468750
6328,105.468750
6329,105.468750
6330,105.468750
6331,105.468750
6332,105.468750
6333,105.468750
6334,101.562500
6335,101.562500
6336,101.562500
6337,101.562500
6338,101.562500
6339,101.562500
6340,101.562500
6341,101.562500
6342,101.562500
6343,101.562500
6344,101.562500
6345,101.562500
6346,101.562500
6347,97.656250
6348,97.656250
6349,97.656250
6350,97.656250
6351,97.656250
6352,97.656250
6353,97.656250
6354,93.750000
6355,93.750000
6356,93.750000
6357,93.750000
6358,93.750000
6359,93.750000
6360,93.750000
6361,93.750000
6362,89.843750
6363,89.843750
6364,89.843750
6365,89.843750
6366,89.843750
6367,89.843750
6368,89.843750
6369,89.843750
6370,89.843750
6371,85.937500
6372,85.937500
6373,85.937500
6374,85.937500
6375,85.937500
6376,85.937500
6377,85.937500
6378,82.031250
6379,82.031250
6380,82.031250
6381,82.031250
6382,82.031250
6383,82.031250
6384,82.031250
6385,78.125000
6386,78.125000
6387,78.125000
6388,78.125000
6389,78.125000
6390,78.125000
6391,78.125000
6392,78.125000
6393,74.218750
6394,74.218750
6395,74.218750
6396,74.218750
6397,74.218750
6398,74.218750
6399,70.312500
6400,70.312500
6401,70.312500
6402,70.312500
6403,70.312500
6404,70.312500
6405,70.312500
6406,70.312500
6407,66.406250
6408,66.406250
6409,66.406250
6410,66.406250
6411,62.500000
6412,62.500000
6413,62.500000
6414,62.500000
6415,62.500000
6416,62.500000
6417,58.593750
6418,58.593750
6419,58.593750
6420,58.593750
6421,58.593750
6422,58.593750
6423,54.687500
6424,54.687500
6425,54.687500
6426,54.687500
6427,54.687500
6428,50.781250
6429,50.781250
6430,50.781250
6431,50.781250
6432,50.781250
6433,50.781250
6434,46.875000
6435,46.875000
6436,46.875000
6437,46.875000
6438,46.875000
6439,42.968750
6440,42.968750
6441,42.968750
6442,42.968750
6443,42.968750
6444,39.062500
6445,39.062500
6446,39.062500
6447,39.062500
6448,39.062500
6449,39.062500
6450,35.156250
6451,35.156250
6452,35.156250
6453,35.156250
6454,35.156250
6455,35.156250
6456,31.250000
6457,31.250000
6458,31.250000
6459,31.250000
6460,27.343750
6461,27.343750
6462,27.343750
6463,27.343750
6464,23.437500
6465,23.437500
6466,23.437500
6467,23.437500
6468,19.531250
6469,19.531250
6470,19.531250
6471,19.531250
6472,19.531250
6473,15.625000
6474,15.625000
6475,15.625000
6476,15.625000
6477,15.625000
6478,11.718750
6479,11.718750
6480,11.718750
6481,11.718750
6482,11.718750
6483,7.812500
6484,7.812500
6485,7.812500
6486,7.812500
6487,3.906250
6488,3.906250
6489,3.906250
6490,3.906250
6491,3.906250
6492,0.000000
6493,0.000000
6494,0.000000
6495,0.000000
6496,-3.906250
6497,-3.906250
6498,-3.906250
6499,-3.906250
6500,-3.906250
6501,-7.812500
6502,-7.812500
6503,-7.812500
6504,-11.718750
6505,-11.718750
6506,-11.718750
6507,-11.718750
6508,-11.718750
6509,-15.625000
6510,-15.625000
6511,-15.625000
6512,-15.625000
6513,-19.531250
6514,-19.531250
6515,-19.531250
6516,-19.531250
6517,-23.437500
6518,-23.437500
6519,-23.437500
6520,-23.437500
6521,-27.343750
6522,-27.343750
6523,-27.343750
6524,-27.343750
6525,-27.343750
6526,-31.250000
6527,-31.250000
6528,-31.250000
6529,-31.250000
6530,-35.156250
6531,-35.156250
6532,-35.156250
6533,-35.156250
6534,-39.062500
6535,-39.062500
6536,-39.062500
6537,-42.968750
6538,-42.968750
6539,-42.968750
6540,-42.968750
6541,-42.968750
6542,-42.968750
6543,-46.875000
6544,-46.875000
6545,-46.875000
6546,-46.875000
6547,-50.781250
6548,-50.781250
6549,-50.781250
6550,-50.781250
6551,-54.687500
6552,-54.687500
6553,-58.593750
6554,-54.687500
6555,-58.593750
6556,-58.593750
6557,-58.593750
6558,-58.593750
6559,-58.593750
6560,-62.500000
6561,-62.500000
6562,-62.500000
6563,-62.500000
6564,-66.406250
6565,-66.406250
6566,-66.406250
6567,-66.406250
6568,-66.406250
6569,-66.406250
6570,-70.312500
6571,-70.312500
6572,-70.312500
6573,-70.312500
6574,-74.218750
6575,-74.218750
6576,-74.218750
6577,-74.218750
6578,-74.218750
6579,-78.125000
6580,-78.125000
6581,-78.125000
6582,-82.031250
6583,-82.031250
6584,-82.031250
6585,-82.031250
6586,-82.031250
6587,-82.031250
6588,-85.937500
6589,-85.937500
6590,-85.937500
6591,-85.937500
6592,-89.843750
6593,-89.843750
6594,-89.843750
6595,-89.843750
6596,-89.843750
6597,-93.750000
6598,-93.750000
6599,-93.750000
6600,-93.750000
6601,-93.750000
6602,-97.656250
6603,-97.656250
6604,-97.656250
6605,-97.656250
6606,-97.656250
6607,-101.562500
6608,-101.562500
6609,-101.562500
6610,-97.656250
6611,-101.562500
6612,-105.468750
6613,-105.468750
6614,-105.468750
6615,-105.468750
6616,-105.468750
6617,-109.375000
6618,-109.375000
6619,-109.375000
6620,-109.375000
6621,-109.375000
6622,-109.375000
6623,-113.281250
6624,-113.281250
6625,-113.281250
6626,-113.281250
6627,-113.281250
6628,-117.187500
6629,-117.187500
6630,-117.187500
6631,-117.187500
6632,-117.187500
6633,-117.187500
6634,-117.187500
6635,-121.093750
6636,-125.000000
6637,-121.093750
6638,-121.093750
6639,-125.000000
6640,-125.000000
6641,-125.000000
6642,-121.093750
6643,-125.000000
6644,-125.000000
6645,-128.906250
6646,-128.906250
6647,-128.906250
6648,-128.906250
6649,-128.906250
6650,-128.906250
6651,-128.906250
6652,-132.812500
6653,-132.812500
6654,-132.812500
6655,-132.812500
6656,-132.812500
6657,-132.812500
6658,-136.718750
6659,-136.718750
6660,-136.718750
6661,-136.718750
6662,-136.718750
6663,-136.718750
6664,-136.718750
6665,-136.718750
6666,-140.625000
6667,-140.625000
6668,-140.625000
6669,-140.625000
6670,-140.625000
6671,-140.625000
6672,-140.625000
6673,-140.625000
6674,-144.531250
6675,-144.531250
6676,-144.531250
6677,-144.531250
6678,-144.531250
6679,-144.531250
6680,-144.531250
6681,-144.531250
6682,-144.531250
6683,-148.437500
6684,-148.437500
6685,-148.437500
6686,-148.437500
6687,-148.437500
6688,-148.437500
6689,-148.437500
6690,-148.437500
6691,-148.437500
6692,-148.437500
6693,-152.343750
6694,-152.343750
6695,-152.343750
6696,-152.343750
6697,-152.343750
6698,-152.343750
6699,-152.343750
6700,-152.343750
6701,-152.343750
6702,-152.343750
6703,-152.343750
6704,-152.343750
6705,-152.343750
6706,-152.343750
6707,-152.343750
6708,-152.343750
6709,-152.343750
6710,-156.250000
6711,-156.250000
6712,-156.250000
6713,-156.250000
6714,-156.250000
6715,-156.250000
6716,-156.250000
6717,-156.250000
6718,-156.250000
6719,-156.250000
6720,-156.250000
6721,-156.250000
6722,-156.250000
6723,-156.250000
6724,-156.250000
6725,-156.250000
6726,-156.250000
6727,-156.250000
6728,-160.156250
6729,-160.156250
6730,-160.156250
6731,-156.250000
6732,-160.156250
6733,-160.156250
6734,-160.156250
6735,-160.156250
6736,-160.156250
6737,-160.156250
6738,-160.156250
6739,-160.156250
6740,-160.156250
6741,-160.156250
6742,-160.156250
6743,-156.250000
6744,-160.156250
6745,-160.156250
6746,-160.156250
6747,-160.156250
6748,-160.156250
6749,-160.156250
6750,-160.156250
6751,-160.156250
6752,-160.156250
6753,-160.156250
6754,-160.156250
6755,-160.156250
6756,-160.156250
6757,-160.156250
6758,-160.156250
6759,-160.156250
6760,-160.156250
6761,-160.156250
6762,-160.156250
6763,-160.156250
6764,-160.156250
6765,-156.250000
6766,-160.156250
6767,-156.250000
6768,-156.250000
6769,-156.250000
6770,-156.250000
6771,-156.250000
6772,-156.250000
6773,-156.250000
6774,-156.250000
6775,-156.250000
6776,-156.250000
6777,-156.250000
6778,-156.250000
6779,-156.250000
6780,-156.250000
6781,-156.250000
6782,-156.250000
6783,-156.250000
6784,-156.250000
6785,-156.250000
6786,-156.250000
6787,-156.250000
6788,-152.343750
6789,-156.250000
6790,-152.343750
6791,-152.343750
6792,-152.343750
6793,-152.343750
6794,-152.343750
6795,-152.343750
6796,-152.343750
6797,-152.343750
6798,-152.343750
6799,-152.343750
6800,-152.343750
6801,-152.343750
6802,-148.437500
6803,-148.437500
6804,-148.437500
6805,-148.437500
6806,-148.437500
6807,-148.437500
6808,-148.437500
6809,-148.437500
6810,-144.531250
6811,-148.437500
6812,-144.531250
6813,-144.531250
6814,-144.531250
6815,-144.531250
6816,-144.531250
6817,-144.531250
6818,-144.531250
6819,-140.625000
6820,-140.625000
6821,-140.625000
6822,-140.625000
6823,-140.625000
6824,-140.625000
6825,-140.625000
6826,-140.625000
6827,-140.625000
6828,-140.625000
6829,-136.718750
6830,-136.718750
6831,-136.718750
6832,-136.718750
6833,-136.718750
6834,-136.718750
6835,-132.812500
6836,-132.812500
6837,-132.812500
6838,-132.812500
6839,-132.812500
6840,-132.812500
6841,-132.812500
6842,-132.812500
6843,-128.906250
6844,-128.906250
6845,-128.906250
6846,-128.906250
6847,-128.906250
6848,-128.906250
6849,-128.906250
6850,-125.000000
6851,-125.000000
6852,-125.000000
6853,-125.000000
6854,-125.000000
6855,-125.000000
6856,-121.093750
6857,-121.093750
6858,-121.093750
6859,-121.093750
6860,-121.093750
6861,-121.093750
6862,-117.187500
6863,-117.187500
6864,-117.187500
6865,-117.187500
6866,-117.187500
6867,-113.281250
6868,-113.281250
6869,-113.281250
6870,-113.281250
6871,-113.281250
6872,-113.281250
6873,-113.281250
6874,-109.375000
6875,-109.375000
6876,-109.375000
6877,-109.375000
6878,-109.375000
6879,-105.468750
6880,-105.468750
6881,-105.468750
6882,-105.468750
6883,-105.468750
6884,-101.562500
6885,-101.562500
6886,-101.562500
6887,-97.656250
6888,-101.562500
6889,-97.656250
6890,-97.656250
6891,-97.656250
6892,-97.656250
6893,-97.656250
6894,-97.656250
6895,-93.750000
6896,-93.750000
6897,-93.750000
6898,-93.750000
6899,-93.750000
6900,-89.843750
6901,-89.843750
6902,-89.843750
6903,-89.843750
6904,-85.937500
6905,-85.937500
6906,-85.937500
6907,-85.937500
6908,-85.937500
6909,-85.937500
6910,-82.031250
6911,-82.031250
6912,-82.031250
6913,-82.031250
6914,-78.125000
6915,-78.125000
6916,-78.125000
6917,-78.125000
6918,-78.125000
6919,-74.218750
6920,-74.218750
6921,-74.218750
6922,-74.218750
6923,-74.218750
6924,-70.312500
6925,-70.312500
6926,-66.406250
6927,-70.312500
6928,-66.406250
6929,-66.406250
6930,-66.406250
6931,-66.406250
6932,-62.500000
6933,-62.500000
6934,-62.500000
6935,-62.500000
6936,-62.500000
6937,-58.593750
6938,-58.593750
6939,-58.593750
6940,-58.593750
6941,-54.687500
6942,-54.687500
6943,-54.687500
6944,-54.687500
6945,-54.687500
6946,-50.781250
6947,-50.781250
6948,-50.781250
6949,-50.781250
6950,-46.875000
6951,-46.875000
6952,-50.781250
6953,-46.875000
6954,-46.875000
6955,-42.968750
6956,-42.968750
6957,-42.968750
6958,-42.968750
6959,-42.968750
6960,-39.062500
6961,-39.062500
6962,-39.062500
6963,-35.156250
6964,-35.156250
6965,-35.156250
6966,-35.156250
6967,-31.250000
6968,-31.250000
6969,-31.250000
6970,-31.250000
6971,-31.250000
6972,-27.343750
6973,-27.343750
6974,-27.343750
6975,-27.343750
6976,-27.343750
6977,-23.437500
6978,-23.437500
6979,-23.437500
6980,-23.437500
6981,-19.531250
6982,-19.531250
6983,-19.531250
6984,-19.531250
6985,-15.625000
6986,-15.625000
6987,-15.625000
6988,-15.625000
6989,-15.625000
6990,-11.718750
6991,-11.718750
6992,-11.718750
6993,-11.718750
6994,-7.812500
6995,-7.812500
6996,-7.812500
6997,-7.812500
6998,-3.906250
6999,-3.906250
7000,-3.906250
7001,-3.906250
7002,-3.906250
7003,0.000000
7004,0.000000
7005,0.000000
7006,0.000000
7007,0.000000
7008,3.906250
7009,3.906250
7010,3.906250
7011,3.906250
7012,7.812500
7013,7.812500
7014,7.812500
7015,7.812500
7016,7.812500
7017,11.718750
7018,11.718750
7019,11.718750
7020,11.718750
7021,11.718750
7022,15.625000
7023,15.625000
7024,15.625000
7025,15.625000
7026,15.625000
7027,19.531250
7028,19.531250
7029,19.531250
7030,19.531250
7031,19.531250
7032,23.437500
7033,23.437500
7034,23.437500
7035,23.437500
7036,23.437500
7037,27.343750
7038,27.343750
7039,27.343750
7040,27.343750
7041,31.250000
7042,31.250000
7043,31.250000
7044,31.250000
7045,31.250000
7046,31.250000
7047,35.156250
7048,35.156250
7049,35.156250
7050,35.156250
7051,35.156250
7052,39.062500
7053,39.062500
7054,39.062500
7055,39.062500
7056,39.062500
7057,39.062500
7058,42.968750
7059,42.968750
7060,42.968750
7061,42.968750
7062,46.875000
7063,46.875000
7064,46.875000
7065,46.875000
7066,46.875000
7067,50.781250
7068,50.781250
7069,50.781250
7070,50.781250
7071,50.781250
7072,50.781250
7073,50.781250
7074,54.687500
7075,54.687500
7076,54.687500
7077,54.687500
7078,54.687500
7079,58.593750
7080,58.593750
7081,58.593750
7082,58.593750
7083,58.593750
7084,62.500000
7085,62.500000
7086,62.500000
7087,62.500000
7088,62.500000
7089,62.500000
7090,66.406250
7091,66.406250
7092,66.406250
7093,66.406250
7094,66.406250
7095,66.406250
7096,66.406250
7097,70.312500
7098,70.312500
7099,70.312500
7100,70.312500
7101,70.312500
7102,74.218750
7103,74.218750
7104,74.218750
7105,74.218750
7106,74.218750
7107,74.218750
7108,74.218750
7109,74.218750
7110,74.218750
7111,78.125000
7112,78.125000
7113,78.125000
7114,78.125000
7115,78.125000
7116,78.125000
7117,82.031250
7118,82.031250
7119,82.031250
7120,82.031250
7121,82.031250
7122,82.031250
7123,85.937500
7124,85.937500
7125,85.937500
7126,85.937500
7127,85.937500
7128,85.937500
7129,85.937500
7130,85.937500
7131,85.937500
7132,85.937500
7133,89.843750
7134,89.843750
7135,89.843750
7136,89.843750
7137,89.843750
7138,89.843750
7139,89.843750
7140,93.750000
7141,93.750000
7142,93.750000
7143,93.750000
7144,93.750000
7145,93.750000
7146,93.750000
7147,93.750000
7148,93.750000
7149,93.750000
7150,97.656250
7151,97.656250
7152,97.656250
7153,97.656250
7154,97.656250
7155,97.656250
7156,97.656250
7157,97.656250
7158,97.656250
7159,97.656250
7160,101.562500
7161,101.562500
7162,101.562500
7163,101.562500
7164,101.562500
7165,101.562500
7166,101.562500
7167,101.562500
7168,101.562500
7169,101.562500
7170,105.468750
7171,105.468750
7172,105.468750
7173,101.562500
7174,105.468750
7175,105.468750
7176,105.468750
7177,105.468750
7178,105.468750
7179,105.468750
7180,105.468750
7181,105.468750
7182,105.468750
7183,105.468750
7184,105.468750
7185,105.468750
7186,109.375000
7187,109.375000
7188,109.375000
7189,105.468750
7190,109.375000
7191,109.375000
7192,109.375000
7193,109.375000
7194,109.375000
7195,109.375000
7196,109.375000
7197,109.375000
7198,109.375000
7199,109.375000
7200,109.375000
7201,109.375000
7202,109.375000
7203,109.375000
7204,109.375000
7205,109.375000
7206,113.281250
7207,113.281250
7208,113.281250
7209,113.281250
7210,113.281250
7211,113.281250
7212,113.281250
7213,113.281250
7214,113.281250
7215,113.281250
7216,113.281250
7217,113.281250
7218,113.281250
7219,113.281250
7220,113.281250
7221,113.281250
7222,117.187500
7223,113.281250
7224,113.281250
7225,113.281250
7226,113.281250
7227,113.281250
7228,113.281250
7229,113.281250
7230,113.281250
7231,113.281250
7232,117.187500
7233,117.187500
7234,117.187500
7235,117.187500
7236,117.187500
7237,117.187500
7238,117.187500
7239,117.187500
7240,117.187500
7241,117.187500
7242,117.187500
7243,117.187500
7244,117.187500
7245,113.281250
7246,113.281250
7247,117.187500
7248,117.187500
7249,117.187500
7250,117.187500
7251,117.187500
7252,117.187500
7253,117.187500
7254,117.187500
7255,117.187500
7256,113.281250
7257,117.187500
7258,117.187500
7259,117.187500
7260,117.187500
7261,113.281250
7262,113.281250
7263,117.187500
7264,113.281250
7265,113.281250
7266,113.281250
7267,113.281250
7268,117.187500
7269,113.281250
7270,113.281250
7271,113.281250
7272,113.281250
7273,113.281250
7274,113.281250
7275,113.281250
7276,113.281250
7277,113.281250
7278,113.281250
7279,113.281250
7280,113.281250
7281,113.281250
7282,113.281250
7283,113.281250
7284,113.281250
7285,113.281250
7286,113.281250
7287,109.375000
7288,113.281250
7289,113.281250
7290,109.375000
7291,109.375000
7292,109.375000
7293,113.281250
7294,109.375000
7295,109.375000
7296,109.375000
7297,109.375000
7298,109.375000
7299,109.375000
7300,109.375000
7301,109.375000
7302,109.375000
7303,109.375000
7304,109.375000
7305,109.375000
7306,109.375000
7307,105.468750
7308,105.468750
7309,105.468750
7310,105.468750
7311,105.468750
7312,105.468750
7313,105.468750
7314,105.468750
7315,105.468750
7316,105.468750
7317,105.468750
7318,105.468750
7319,105.468750
7320,101.562500
7321,101.562500
7322,101.562500
7323,101.562500
7324,101.562500
7325,101.562500
7326,101.562500
7327,101.562500
7328,101.562500
7329,101.562500
7330,101.562500
7331,97.656250
7332,97.656250
7333,97.656250
7334,97.656250
7335,97.656250
7336,97.656250
7337,97.656250
7338,97.656250
7339,97.656250
7340,97.656250
7341,97.656250
7342,97.656250
7343,93.750000
7344,93.750000
7345,93.750000
7346,93.750000
7347,93.750000
7348,93.750000
7349,93.750000
7350,93.750000
7351,93.750000
7352,89.843750
7353,89.843750
7354,89.843750
7355,89.843750
7356,89.843750
7357,89.843750
7358,89.843750
7359,85.937500
7360,85.937500
7361,85.937500
7362,85.937500
7363,85.937500
7364,85.937500
7365,85.937500
7366,85.937500
7367,82.031250
7368,82.031250
7369,82.031250
7370,82.031250
7371,82.031250
7372,82.031250
7373,82.031250
7374,82.031250
7375,78.125000
7376,78.125000
7377,78.125000
7378,78.125000
7379,78.125000
7380,78.125000
7381,74.218750
7382,74.218750
7383,74.218750
7384,74.218750
7385,74.218750
7386,74.218750
7387,74.218750
7388,70.312500
7389,70.312500
7390,70.312500
7391,70.312500
7392,70.312500
7393,70.312500
7394,66.406250
7395,66.406250
7396,66.406250
7397,66.406250
7398,66.406250
7399,66.406250
7400,66.406250
7401,62.500000
7402,62.500000
7403,62.500000
7404,62.500000
7405,62.500000
7406,58.593750
7407,58.593750
7408,58.593750
7409,58.593750
7410,58.593750
7411,58.593750
7412,54.687500
7413,54.687500
7414,54.687500
7415,54.687500
7416,54.687500
7417,50.781250
7418,50.781250
7419,50.781250
7420,50.781250
7421,50.781250
7422,50.781250
7423,46.875000
7424,46.875000
7425,46.875000
7426,46.875000
7427,42.968750
7428,42.968750
7429,42.968750
7430,42.968750
7431,42.968750
7432,39.062500
7433,39.062500
7434,39.062500
7435,39.062500
7436,39.062500
7437,39.062500
7438,35.156250
7439,35.156250
7440,35.156250
7441,35.156250
7442,31.250000
7443,31.250000
7444,31.250000
7445,31.250000
7446,27.343750
7447,27.343750
7448,27.343750
7449,27.343750
7450,27.343750
7451,27.343750
7452,23.437500
7453,23.437500
7454,23.437500
7455,23.437500
7456,23.437500
7457,19.531250
7458,19.531250
7459,19.531250
7460,19.531250
7461,19.531250
7462,15.625000
7463,15.625000
7464,15.625000
7465,15.625000
7466,11.718750
7467,11.718750
7468,11.718750
7469,11.718750
7470,7.812500
7471,7.812500
7472,7.812500
7473,7.812500
7474,7.812500
7475,3.906250
7476,3.906250
7477,3.906250
7478,3.906250
7479,3.906250
7480,0.000000
7481,0.000000
7482,0.000000
7483,-3.906250
7484,-3.906250
7485,-3.906250
7486,-3.906250
7487,-3.906250
7488,-3.906250
7489,-7.812500
7490,-7.812500
7491,-7.812500
7492,-11.718750
7493,-11.718750
7494,-11.718750
7495,-11.718750
7496,-11.718750
7497,-15.625000
7498,-15.625000
7499,-15.625000
7500,-15.625000
7501,-15.625000
7502,-19.531250
7503,-19.531250
7504,-19.531250
7505,-19.531250
7506,-23.437500
7507,-23.437500
7508,-23.437500
7509,-23.437500
7510,-27.343750
7511,-27.343750
7512,-27.343750
7513,-27.343750
7514,-27.343750
7515,-31.250000
7516,-31.250000
7517,-31.250000
7518,-31.250000
7519,-35.156250
7520,-35.156250
7521,-35.156250
7522,-35.156250
7523,-35.156250
7524,-39.062500
7525,-39.062500
7526,-39.062500
7527,-42.968750
7528,-42.968750
7529,-42.968750
7530,-42.968750
7531,-46.875000
7532,-42.968750
7533,-46.875000
7534,-46.875000
7535,-46.875000
7536,-50.781250
7537,-50.781250
7538,-50.781250
7539,-50.781250
7540,-54.687500
7541,-54.687500
7542,-54.687500
7543,-54.687500
7544,-54.687500
7545,-58.593750
7546,-58.593750
7547,-58.593750
7548,-58.593750
7549,-62.500000
7550,-62.500000
7551,-62.500000
7552,-62.500000
7553,-66.406250
7554,-66.406250
7555,-66.406250
7556,-66.406250
7557,-70.312500
7558,-70.312500
7559,-70.312500
7560,-70.312500
7561,-70.312500
7562,-74.218750
7563,-74.218750
7564,-74.218750
7565,-74.218750
7566,-78.125000
7567,-78.125000
7568,-78.125000
7569,-78.125000
7570,-78.125000
7571,-82.031250
7572,-82.031250
7573,-82.031250
7574,-82.031250
7575,-82.031250
7576,-85.937500
7577,-85.937500
7578,-85.937500
7579,-85.937500
7580,-85.937500
7581,-89.843750
7582,-89.843750
7583,-89.843750
7584,-89.843750
7585,-93.750000
7586,-93.750000
7587,-93.750000
7588,-93.750000
7589,-93.750000
7590,-97.656250
7591,-97.656250
7592,-97.656250
7593,-97.656250
7594,-97.656250
7595,-101.562500
7596,-101.562500
7597,-101.562500
7598,-101.562500
7599,-101.562500
7600,-101.562500
7601,-105.468750
7602,-105.468750
7603,-105.468750
7604,-105.468750
7605,-105.468750
7606,-109.375000
7607,-109.375000
7608,-109.375000
7609,-109.375000
7610,-109.375000
7611,-109.375000
7612,-113.281250
7613,-113.281250
7614,-113.281250
7615,-113.281250
7616,-113.281250
7617,-113.281250
7618,-117.187500
7619,-117.187500
7620,-117.187500
7621,-117.187500
7622,-117.187500
7623,-117.187500
7624,-121.093750
7625,-121.093750
7626,-121.093750
7627,-121.093750
7628,-121.093750
7629,-125.000000
7630,-125.000000
7631,-125.000000
7632,-125.000000
7633,-125.000000
7634,-125.000000
7635,-125.000000
7636,-128.906250
7637,-128.906250
7638,-128.906250
7639,-128.906250
7640,-128.906250
7641,-128.906250
7642,-132.812500
7643,-132.812500
7644,-132.812500
7645,-132.812500
7646,-132.812500
7647,-132.812500
7648,-132.812500
7649,-132.812500
7650,-132.812500
7651,-136.718750
7652,-136.718750
7653,-136.718750
7654,-136.718750
7655,-136.718750
7656,-136.718750
7657,-140.625000
7658,-140.625000
7659,-140.625000
7660,-140.625000
7661,-140.625000
7662,-140.625000
7663,-140.625000
7664,-144.531250
7665,-144.531250
7666,-144.531250
7667,-144.531250
7668,-144.531250
7669,-144.531250
7670,-144.531250
7671,-144.531250
7672,-144.531250
7673,-144.531250
7674,-148.437500
7675,-148.437500
7676,-148.437500
7677,-148.437500
7678,-148.437500
7679,-148.437500
7680,-148.437500
7681,-148.437500
7682,-148.437500
7683,-148.437500
7684,-148.437500
7685,-152.343750
7686,-152.343750
7687,-152.343750
7688,-152.343750
7689,-152.343750
7690,-152.343750
7691,-152.343750
7692,-152.343750
7693,-152.343750
7694,-152.343750
7695,-152.343750
7696,-152.343750
7697,-152.343750
7698,-152.343750
7699,-152.343750
7700,-156.250000
7701,-156.250000
7702,-156.250000
7703,-156.250000
7704,-156.250000
7705,-156.250000
7706,-156.250000
7707,-156.250000
7708,-156.250000
7709,-156.250000
7710,-156.250000
7711,-156.250000
7712,-156.250000
7713,-156.250000
7714,-156.250000
7715,-156.250000
7716,-160.156250
7717,-160.156250
7718,-160.156250
7719,-156.250000
7720,-156.250000
7721,-156.250000
7722,-156.250000
7723,-160.156250
7724,-160.156250
7725,-160.156250
7726,-160.156250
7727,-160.156250
7728,-160.156250
7729,-160.156250
7730,-160.156250
7731,-160.156250
7732,-160.156250
7733,-160.156250
7734,-160.156250
7735,-160.156250
7736,-160.156250
7737,-160.156250
7738,-160.156250
7739,-160.156250
7740,-160.156250
7741,-160.156250
7742,-160.156250
7743,-160.156250
7744,-160.156250
7745,-160.156250
7746,-160.156250
7747,-156.250000
7748,-160.156250
7749,-156.250000
7750,-160.156250
7751,-156.250000
7752,-156.250000
7753,-160.156250
7754,-156.250000
7755,-156.250000
7756,-160.156250
7757,-156.250000
7758,-156.250000
7759,-156.250000
7760,-156.250000
7761,-156.250000
7762,-156.250000
7763,-156.250000
7764,-156.250000
7765,-156.250000
7766,-156.250000
7767,-156.250000
7768,-156.250000
7769,-156.250000
7770,-156.250000
7771,-152.343750
7772,-152.343750
7773,-152.343750
7774,-152.343750
7775,-152.343750
7776,-152.343750
7777,-152.343750
7778,-152.343750
7779,-152.343750
7780,-152.343750
7781,-152.343750
7782,-152.343750
7783,-152.343750
7784,-152.343750
7785,-148.437500
7786,-152.343750
7787,-148.437500
7788,-152.343750
7789,-148.437500
7790,-148.437500
7791,-148.437500
7792,-148.437500
7793,-148.437500
7794,-148.437500
7795,-148.437500
7796,-148.437500
7797,-148.437500
7798,-148.437500
7799,-144.531250
7800,-144.531250
7801,-144.531250
7802,-144.531250
7803,-144.531250
7804,-144.531250
7805,-144.531250
7806,-144.531250
7807,-144.531250
7808,-140.625000
7809,-140.625000
7810,-140.625000
7811,-140.625000
7812,-140.625000
7813,-140.625000
7814,-140.625000
7815,-140.625000
7816,-140.625000
7817,-136.718750
7818,-140.625000
7819,-136.718750
7820,-136.718750
7821,-136.718750
7822,-136.718750
7823,-136.718750
7824,-136.718750
7825,-132.812500
7826,-132.812500
7827,-132.812500
7828,-132.812500
7829,-132.812500
7830,-132.812500
7831,-132.812500
7832,-128.906250
7833,-128.906250
7834,-128.906250
7835,-128.906250
7836,-128.906250
7837,-125.000000
7838,-125.000000
7839,-125.000000
7840,-125.000000
7841,-125.000000
7842,-125.000000
7843,-125.000000
7844,-121.093750
7845,-121.093750
7846,-121.093750
7847,-121.093750
7848,-121.093750
7849,-121.093750
7850,-121.093750
7851,-117.187500
7852,-117.187500
7853,-117.187500
7854,-117.187500
7855,-117.187500
7856,-113.281250
7857,-113.281250
7858,-113.281250
7859,-113.281250
7860,-113.281250
7861,-113.281250
7862,-109.375000
7863,-109.375000
7864,-109.375000
7865,-109.375000
7866,-109.375000
7867,-105.468750
7868,-105.468750
7869,-105.468750
7870,-105.468750
7871,-105.468750
7872,-105.468750
7873,-101.562500
7874,-101.562500
7875,-101.562500
7876,-101.562500
7877,-101.562500
7878,-97.656250
7879,-97.656250
7880,-97.656250
7881,-97.656250
7882,-93.750000
7883,-93.750000
7884,-93.750000
7885,-93.750000
7886,-93.750000
7887,-93.750000
7888,-89.843750
7889,-89.843750
7890,-89.843750
7891,-89.843750
7892,-85.937500
7893,-85.937500
7894,-85.937500
7895,-85.937500
7896,-85.937500
7897,-82.031250
7898,-82.031250
7899,-82.031250
7900,-82.031250
7901,-82.031250
7902,-78.125000
7903,-78.125000
7904,-78.125000
7905,-78.125000
7906,-78.125000
7907,-78.125000
7908,-74.218750
7909,-74.218750
7910,-74.218750
7911,-70.312500
7912,-70.312500
7913,-70.312500
7914,-70.312500
7915,-70.312500
7916,-66.406250
7917,-66.406250
7918,-66.406250
7919,-66.406250
7920,-66.406250
7921,-62.500000
7922,-62.500000
7923,-62.500000
7924,-62.500000
7925,-62.500000
7926,-58.593750
7927,-58.593750
7928,-58.593750
7929,-58.593750
7930,-58.593750
7931,-54.687500
7932,-54.687500
7933,-54.687500
7934,-54.687500
7935,-50.781250
7936,-50.781250
7937,-50.781250
7938,-50.781250
7939,-50.781250
7940,-46.875000
7941,-46.875000
7942,-46.875000
7943,-46.875000
7944,-42.968750
7945,-42.968750
7946,-42.968750
7947,-42.968750
7948,-39.062500
7949,-39.062500
7950,-39.062500
7951,-39.062500
7952,-35.156250
7953,-35.156250
7954,-35.156250
7955,-35.156250
7956,-35.156250
7957,-31.250000
7958,-31.250000
7959,-31.250000
7960,-31.250000
7961,-27.343750
7962,-27.343750
7963,-27.343750
7964,-27.343750
7965,-27.343750
7966,-23.437500
7967,-23.437500
7968,-23.437500
7969,-23.437500
7970,-19.531250
7971,-19.531250
7972,-19.531250
7973,-19.531250
7974,-19.531250
7975,-15.625000
7976,-15.625000
7977,-15.625000
7978,-15.625000
7979,-15.625000
7980,-11.718750
7981,-11.718750
7982,-11.718750
7983,-7.812500
7984,-7.812500
7985,-7.812500
7986,-7.812500
7987,-3.906250
7988,-3.906250
7989,-3.906250
7990,-3.906250
7991,-3.906250
7992,0.000000
7993,0.000000
7994,0.000000
7995,0.000000
7996,0.000000
7997,3.906250
7998,3.906250
7999,3.906250
8000,3.906250
8001,7.812500
8002,7.812500
8003,7.812500
8004,7.812500
8005,11.718750
8006,11.718750
8007,11.718750
8008,11.718750
8009,11.718750
8010,15.625000
8011,15.625000
8012,15.625000
8013,15.625000
8014,15.625000
8015,19.531250
8016,19.531250
8017,19.531250
8018,19.531250
8019,19.531250
8020,23.437500
8021,23.437500
8022,23.437500
8023,23.437500
8024,23.437500
8025,27.343750
8026,27.343750
8027,27.343750
8028,27.343750
8029,27.343750
8030,31.250000
8031,31.250000
8032,31.250000
8033,31.250000
8034,31.250000
8035,35.156250
8036,35.156250
8037,35.156250
8038,35.156250
8039,35.156250
8040,39.062500
8041,39.062500
8042,39.062500
8043,39.062500
8044,39.062500
8045,42.968750
8046,42.968750
8047,42.968750
8048,42.968750
8049,42.968750
8050,46.875000
8051,46.875000
8052,46.875000
8053,46.875000
8054,46.875000
8055,46.875000
8056,50.781250
8057,50.781250
8058,50.781250
8059,50.781250
8060,50.781250
8061,50.781250
8062,54.687500
8063,54.687500
8064,54.687500
8065,54.687500
8066,54.687500
8067,58.593750
8068,58.593750
8069,58.593750
8070,58.593750
8071,58.593750
8072,58.593750
8073,62.500000
8074,62.500000
8075,62.500000
8076,62.500000
8077,62.500000
8078,62.500000
8079,62.500000
8080,66.406250
8081,66.406250
8082,66.406250
8083,66.406250
8084,66.406250
8085,66.406250
8086,66.406250
8087,70.312500
8088,70.312500
8089,70.312500
8090,70.312500
8091,70.312500
8092,74.218750
8093,74.218750
8094,74.218750
8095,74.218750
8096,74.218750
8097,74.218750
8098,74.218750
8099,78.125000
8100,78.125000
8101,78.125000
8102,78.125000
8103,78.125000
8104,78.125000
8105,78.125000
8106,82.031250
8107,82.031250
8108,82.031250
8109,82.031250
8110,82.031250
8111,82.031250
8112,82.031250
8113,82.031250
8114,85.937500
8115,85.937500
8116,85.937500
8117,85.937500
8118,85.937500
8119,85.937500
8120,85.937500
8121,89.843750
8122,89.843750
8123,89.843750
8124,89.843750
8125,89.843750
8126,89.843750
8127,89.843750
8128,89.843750
8129,89.843750
8130,89.843750
8131,93.750000
8132,93.750000
8133,93.750000
8134,93.750000
8135,93.750000
8136,93.750000
8137,93.750000
8138,93.750000
8139,93.750000
8140,97.656250
8141,97.656250
8142,97.656250
8143,97.656250
8144,97.656250
8145,97.656250
8146,97.656250
8147,97.656250
8148,97.656250
8149,97.656250
8150,101.562500
8151,101.562500
8152,101.562500
8153,101.562500
8154,101.562500
8155,101.562500
8156,101.562500
8157,101.562500
8158,101.562500
8159,101.562500
8160,101.562500
8161,105.468750
8162,105.468750
8163,105.468750
8164,105.468750
8165,105.468750
8166,105.468750
8167,105.468750
8168,105.468750
8169,105.468750
8170,105.468750
8171,105.468750
8172,105.468750
8173,105.468750
8174,105.468750
8175,105.468750
8176,109.375000
8177,109.375000
8178,109.375000
8179,109.375000
8180,109.375000
8181,109.375000
8182,109.375000
8183,109.375000
8184,109.375000
8185,113.281250
8186,109.375000
8187,109.375000
8188,113.281250
8189,109.375000
8190,109.375000
8191,109.375000
8192,109.375000
8193,113.281250
8194,113.281250
8195,113.281250
8196,113.281250
8197,113.281250
8198,113.281250
8199,113.281250
8200,113.281250
8201,113.281250
8202,113.281250
8203,113.281250
8204,113.281250
8205,113.281250
8206,113.281250
8207,113.281250
8208,113.281250
8209,113.281250
8210,113.281250
8211,113.281250
8212,113.281250
8213,113.281250
8214,113.281250
8215,113.281250
8216,113.281250
8217,113.281250
8218,113.281250
8219,113.281250
8220,113.281250
8221,113.281250
8222,113.281250
8223,117.187500
8224,113.281250
8225,113.281250
8226,113.281250
8227,113.281250
8228,113.281250
8229,113.281250
8230,113.281250
8231,113.281250
8232,113.281250
8233,117.187500
8234,113.281250
8235,113.281250
8236,113.281250
8237,117.187500
8238,117.187500
8239,117.187500
8240,117.187500
8241,113.281250
8242,113.281250
8243,113.281250
8244,113.281250
8245,113.281250
8246,113.281250
8247,113.281250
8248,113.281250
8249,117.187500
8250,113.281250
8251,113.281250
8252,113.281250
8253,113.281250
8254,113.281250
8255,113.281250
8256,113.281250
8257,113.281250
8258,113.281250
8259,113.281250
8260,113.281250
8261,113.281250
8262,113.281250
8263,113.281250
8264,113.281250
8265,113.281250
8266,113.281250
8267,113.281250
8268,113.281250
8269,113.281250
8270,113.281250
8271,113.281250
8272,113.281250
8273,113.281250
8274,113.281250
8275,113.281250
8276,113.281250
8277,109.375000
8278,113.281250
8279,113.281250
8280,113.281250
8281,109.375000
8282,109.375000
8283,109.375000
8284,109.375000
8285,109.375000
8286,109.375000
8287,109.375000
8288,109.375000
8289,109.375000
8290,109.375000
8291,109.375000
8292,109.375000
8293,109.375000
8294,109.375000
8295,109.375000
8296,105.468750
8297,105.468750
8298,105.468750
8299,105.468750
8300,105.468750
8301,105.468750
8302,105.468750
8303,105.468750
8304,105.468750
8305,105.468750
8306,105.468750
8307,105.468750
8308,101.562500
8309,105.468750
8310,101.562500
8311,101.562500
8312,101.562500
8313,101.562500
8314,101.562500
8315,101.562500
8316,101.562500
8317,101.562500
8318,101.562500
8319,101.562500
8320,101.562500
8321,97.656250
8322,97.656250
8323,97.656250
8324,97.656250
8325,97.656250
8326,97.656250
8327,97.656250
8328,97.656250
8329,97.656250
8330,93.750000
8331,93.750000
8332,93.750000
8333,93.750000
8334,93.750000
8335,93.750000
8336,93.750000
8337,93.750000
8338,93.750000
8339,93.750000
8340,89.843750
8341,89.843750
8342,89.843750
8343,89.843750
8344,89.843750
8345,89.843750
8346,89.843750
8347,85.937500
8348,85.937500
8349,85.937500
8350,85.937500
8351,85.937500
8352,85.937500
8353,85.937500
8354,85.937500
8355,85.937500
8356,85.937500
8357,82.031250
8358,82.031250
8359,82.031250
8360,82.031250
8361,82.031250
8362,82.031250
8363,78.125000
8364,78.125000
8365,78.125000
8366,78.125000
8367,78.125000
8368,78.125000
8369,74.218750
8370,78.125000
8371,74.218750
8372,74.218750
8373,74.218750
8374,74.218750
8375,74.218750
8376,70.312500
8377,70.312500
8378,70.312500
8379,70.312500
8380,70.312500
8381,70.312500
8382,66.406250
8383,66.406250
8384,66.406250
8385,66.406250
8386,66.406250
8387,66.406250
8388,62.500000
8389,62.500000
8390,62.500000
8391,62.500000
8392,62.500000
8393,62.500000
8394,62.500000
8395,58.593750
8396,58.593750
8397,58.593750
8398,58.593750
8399,58.593750
8400,58.593750
8401,54.687500
8402,54.687500
8403,54.687500
8404,54.687500
8405,54.687500
8406,50.781250
8407,50.781250
8408,50.781250
8409,50.781250
8410,50.781250
8411,46.875000
8412,50.781250
8413,46.875000
8414,46.875000
8415,46.875000
8416,46.875000
8417,42.968750
8418,42.968750
8419,42.968750
8420,42.968750
8421,39.062500
8422,39.062500
8423,39.062500
8424,39.062500
8425,39.062500
8426,39.062500
8427,35.156250
8428,35.156250
8429,35.156250
8430,35.156250
8431,31.250000
8432,31.250000
8433,31.250000
8434,31.250000
8435,31.250000
8436,27.343750
8437,27.343750
8438,27.343750
8439,27.343750
8440,23.437500
8441,23.437500
8442,23.437500
8443,23.437500
8444,23.437500
8445,23.437500
8446,19.531250
8447,19.531250
8448,19.531250
8449,19.531250
8450,15.625000
8451,15.625000
8452,15.625000
8453,15.625000
8454,15.625000
8455,11.718750
8456,11.718750
8457,11.718750
8458,11.718750
8459,7.812500
8460,7.812500
8461,7.812500
8462,7.812500
8463,7.812500
8464,3.906250
8465,3.906250
8466,3.906250
8467,3.906250
8468,3.906250
8469,0.000000
8470,0.000000
8471,0.000000
8472,0.000000
8473,-3.906250
8474,-3.906250
8475,-3.906250
8476,-3.906250
8477,-7.812500
8478,-7.812500
8479,-7.812500
8480,-7.812500
8481,-11.718750
8482,-11.718750
8483,-11.718750
8484,-11.718750
8485,-15.625000
8486,-15.625000
8487,-15.625000
8488,-15.625000
8489,-15.625000
8490,-19.531250
8491,-19.531250
8492,-19.531250
8493,-19.531250
8494,-19.531250
8495,-23.437500
8496,-23.437500
8497,-23.437500
8498,-23.437500
8499,-27.343750
8500,-27.343750
8501,-27.343750
8502,-27.343750
8503,-31.250000
8504,-31.250000
8505,-31.250000
8506,-31.250000
8507,-31.250000
8508,-35.156250
8509,-35.156250
8510,-35.156250
8511,-35.156250
8512,-39.062500
8513,-39.062500
8514,-39.062500
8515,-39.062500
8516,-42.968750
8517,-42.968750
8518,-42.968750
8519,-42.968750
8520,-46.875000
8521,-46.875000
8522,-46.875000
8523,-46.875000
8524,-46.875000
8525,-50.781250
8526,-50.781250
8527,-50.781250
8528,-50.781250
8529,-54.687500
8530,-54.687500
8531,-54.687500
8532,-54.687500
8533,-54.687500
8534,-58.593750
8535,-58.593750
8536,-58.593750
8537,-62.500000
8538,-62.500000
8539,-62.500000
8540,-62.500000
8541,-62.500000
8542,-66.406250
8543,-66.406250
8544,-66.406250
8545,-66.406250
8546,-66.406250
8547,-66.406250
8548,-70.312500
8549,-70.312500
8550,-70.312500
8551,-74.218750
8552,-74.218750
8553,-74.218750
8554,-74.218750
8555,-78.125000
8556,-78.125000
8557,-78.125000
8558,-78.125000
8559,-78.125000
8560,-82.031250
8561,-82.031250
8562,-82.031250
8563,-82.031250
8564,-82.031250
8565,-85.937500
8566,-85.937500
8567,-85.937500
8568,-85.937500
8569,-85.937500
8570,-89.843750
8571,-89.843750
8572,-89.843750
8573,-93.750000
8574,-93.750000
8575,-93.750000
8576,-93.750000
8577,-93.750000
8578,-93.750000
8579,-97.656250
8580,-97.656250
8581,-97.656250
8582,-97.656250
8583,-97.656250
8584,-101.562500
8585,-101.562500
8586,-101.562500
8587,-101.562500
8588,-101.562500
8589,-105.468750
8590,-105.468750
8591,-105.468750
8592,-105.468750
8593,-105.468750
8594,-105.468750
8595,-109.375000
8596,-109.375000
8597,-109.375000
8598,-109.375000
8599,-109.375000
8600,-113.281250
8601,-113.281250
8602,-113.281250
8603,-113.281250
8604,-113.281250
8605,-117.187500
8606,-117.187500
8607,-117.187500
8608,-117.187500
8609,-117.187500
8610,-117.187500
8611,-121.093750
8612,-121.093750
8613,-121.093750
8614,-121.093750
8615,-121.093750
8616,-121.093750
8617,-121.093750
8618,-125.000000
8619,-125.000000
8620,-125.000000
8621,-125.000000
8622,-125.000000
8623,-125.000000
8624,-128.906250
8625,-128.906250
8626,-128.906250
8627,-128.906250
8628,-128.906250
8629,-128.906250
8630,-132.812500
8631,-128.906250
8632,-132.812500
8633,-132.812500
8634,-132.812500
8635,-132.812500
8636,-132.812500
8637,-132.812500
8638,-136.718750
8639,-136.718750
8640,-136.718750
8641,-136.718750
8642,-136.718750
8643,-136.718750
8644,-136.718750
8645,-136.718750
8646,-136.718750
8647,-140.625000
8648,-140.625000
8649,-140.625000
8650,-140.625000
8651,-140.625000
8652,-140.625000
8653,-144.531250
8654,-140.625000
8655,-144.531250
8656,-144.531250
8657,-144.531250
8658,-144.531250
8659,-144.531250
8660,-144.531250
8661,-144.531250
8662,-144.531250
8663,-144.531250
8664,-148.437500
8665,-148.437500
8666,-148.437500
8667,-148.437500
8668,-148.437500
8669,-148.437500
8670,-148.437500
8671,-148.437500
8672,-148.437500
8673,-148.437500
8674,-148.437500
8675,-152.343750
8676,-152.343750
8677,-152.343750
8678,-152.343750
8679,-152.343750
8680,-152.343750
8681,-152.343750
8682,-152.343750
8683,-152.343750
8684,-152.343750
8685,-152.343750
8686,-152.343750
8687,-152.343750
8688,-152.343750
8689,-156.250000
8690,-156.250000
8691,-156.250000
8692,-156.250000
8693,-156.250000
8694,-156.250000
8695,-156.250000
8696,-156.250000
8697,-156.250000
8698,-156.250000
8699,-156.250000
8700,-156.250000
8701,-156.250000
8702,-156.250000
8703,-156.250000
8704,-156.250000
8705,-156.250000
8706,-156.250000
8707,-156.250000
8708,-160.156250
8709,-160.156250
8710,-160.156250
8711,-156.250000
8712,-156.250000
8713,-160.156250
8714,-160.156250
8715,-160.156250
8716,-160.156250
8717,-160.156250
8718,-160.156250
8719,-160.156250
8720,-160.156250
8721,-160.156250
8722,-160.156250
8723,-160.156250
8724,-160.156250
8725,-160.156250
8726,-160.156250
8727,-160.156250
8728,-160.156250
8729,-160.156250
8730,-160.156250
8731,-160.156250
8732,-160.156250
8733,-160.156250
8734,-160.156250
8735,-160.156250
8736,-160.156250
8737,-160.156250
8738,-160.156250
8739,-160.156250
8740,-156.250000
8741,-160.156250
8742,-156.250000
8743,-160.156250
8744,-160.156250
8745,-160.156250
8746,-156.250000
8747,-156.250000
8748,-156.250000
8749,-156.250000
8750,-156.250000
8751,-156.250000
8752,-156.250000
8753,-156.250000
8754,-156.250000
8755,-156.250000
8756,-156.250000
8757,-156.250000
8758,-156.250000
8759,-156.250000
8760,-156.250000
8761,-156.250000
8762,-156.250000
8763,-156.250000
8764,-156.250000
8765,-156.250000
8766,-152.343750
8767,-152.343750
8768,-152.343750
8769,-152.343750
8770,-152.343750
8771,-152.343750
8772,-152.343750
8773,-152.343750
8774,-152.343750
8775,-152.343750
8776,-148.437500
8777,-148.437500
8778,-148.437500
8779,-152.343750
8780,-148.437500
8781,-148.437500
8782,-148.437500
8783,-148.437500
8784,-148.437500
8785,-148.437500
8786,-148.437500
8787,-148.437500
8788,-144.531250
8789,-144.531250
8790,-144.531250
8791,-144.531250
8792,-144.531250
8793,-144.531250
8794,-144.531250
8795,-144.531250
8796,-144.531250
8797,-140.625000
8798,-140.625000
8799,-140.625000
8800,-140.625000
8801,-140.625000
8802,-140.625000
8803,-140.625000
8804,-140.625000
8805,-136.718750
8806,-136.718750
8807,-136.718750
8808,-136.718750
8809,-136.718750
8810,-136.718750
8811,-136.718750
8812,-136.718750
8813,-132.812500
8814,-132.812500
8815,-132.812500
8816,-132.812500
8817,-132.812500
8818,-132.812500
8819,-132.812500
8820,-132.812500
8821,-132.812500
8822,-128.906250
8823,-128.906250
8824,-128.906250
8825,-128.906250
8826,-128.906250
8827,-125.000000
8828,-125.000000
8829,-125.000000
8830,-125.000000
8831,-125.000000
8832,-125.000000
8833,-121.093750
8834,-121.093750
8835,-121.093750
8836,-121.093750
8837,-121.093750
8838,-121.093750
8839,-121.093750
8840,-117.187500
8841,-117.187500
8842,-117.187500
8843,-117.187500
8844,-117.187500
8845,-113.281250
8846,-113.281250
8847,-113.281250
8848,-113.281250
8849,-113.281250
8850,-109.375000
8851,-109.375000
8852,-109.375000
8853,-109.375000
8854,-109.375000
8855,-109.375000
8856,-109.375000
8857,-105.468750
8858,-105.468750
8859,-105.468750
8860,-105.468750
8861,-105.468750
8862,-101.562500
8863,-101.562500
8864,-101.562500
8865,-101.562500
8866,-101.562500
8867,-101.562500
8868,-97.656250
8869,-97.656250
8870,-97.656250
8871,-97.656250
8872,-93.750000
8873,-93.750000
8874,-93.750000
8875,-93.750000
8876,-93.750000
8877,-89.843750
8878,-89.843750
8879,-89.843750
8880,-89.843750
8881,-89.843750
8882,-85.937500
8883,-85.937500
8884,-85.937500
8885,-85.937500
8886,-85.937500
8887,-82.031250
8888,-82.031250
8889,-82.031250
8890,-82.031250
8891,-82.031250
8892,-78.125000
8893,-78.125000
8894,-78.125000
8895,-78.125000
8896,-74.218750
8897,-74.218750
8898,-74.218750
8899,-74.218750
8900,-70.312500
8901,-74.218750
8902,-70.312500
8903,-70.312500
8904,-70.312500
8905,-70.312500
8906,-66.406250
8907,-66.406250
8908,-66.406250
8909,-66.406250
8910,-66.406250
8911,-62.500000
8912,-62.500000
8913,-62.500000
8914,-58.593750
8915,-58.593750
8916,-58.593750
8917,-58.593750
8918,-58.593750
8919,-54.687500
8920,-54.687500
8921,-54.687500
8922,-54.687500
8923,-54.687500
8924,-50.781250
8925,-50.781250
8926,-50.781250
8927,-50.781250
8928,-46.875000
8929,-46.875000
8930,-46.875000
8931,-46.875000
8932,-46.875000
8933,-42.968750
8934,-42.968750
8935,-42.968750
8936,-42.968750
8937,-39.062500
8938,-39.062500
8939,-35.156250
8940,-39.062500
8941,-35.156250
8942,-35.156250
8943,-35.156250
8944,-35.156250
8945,-31.250000
8946,-31.250000
8947,-31.250000
8948,-31.250000
8949,-31.250000
8950,-31.250000
8951,-27.343750
8952,-27.343750
8953,-27.343750
8954,-23.437500
8955,-23.437500
8956,-23.437500
8957,-23.437500
8958,-23.437500
8959,-19.531250
8960,-19.531250
8961,-19.531250
8962,-19.531250
8963,-15.625000
8964,-15.625000
8965,-15.625000
8966,-15.625000
8967,-15.625000
8968,-11.718750
8969,-11.718750
8970,-11.718750
8971,-11.718750
8972,-11.718750
8973,-7.812500
8974,-7.812500
8975,-7.812500
8976,-7.812500
8977,-3.906250
8978,-3.906250
8979,-3.906250
8980,-3.906250
8981,0.000000
8982,0.000000
8983,0.000000
8984,0.000000
8985,0.000000
8986,3.906250
8987,3.906250
8988,3.906250
8989,3.906250
8990,3.906250
8991,3.906250
8992,7.812500
8993,7.812500
8994,7.812500
8995,11.718750
8996,11.718750
8997,11.718750
8998,11.718750
8999,11.718750
9000,11.718750
9001,15.625000
9002,15.625000
9003,15.625000
9004,15.625000
9005,15.625000
9006,19.531250
9007,19.531250
9008,19.531250
9009,19.531250
9010,23.437500
9011,23.437500
9012,23.437500
9013,23.437500
9014,27.343750
9015,23.437500
9016,27.343750
9017,27.343750
9018,27.343750
9019,31.250000
9020,31.250000
9021,31.250000
9022,31.250000
9023,31.250000
9024,31.250000
9025,35.156250
9026,35.156250
9027,35.156250
9028,35.156250
9029,35.156250
9030,39.062500
9031,39.062500
9032,39.062500
9033,39.062500
9034,39.062500
9035,42.968750
9036,42.968750
9037,42.968750
9038,42.968750
9039,42.968750
9040,46.875000
9041,46.875000
9042,46.875000
9043,46.875000
9044,46.875000
9045,50.781250
9046,50.781250
9047,50.781250
9048,50.781250
9049,50.781250
9050,50.781250
9051,54.687500
9052,54.687500
9053,54.687500
9054,54.687500
9055,54.687500
9056,58.593750
9057,58.593750
9058,58.593750
9059,58.593750
9060,58.593750
9061,58.593750
9062,62.500000
9063,62.500000
9064,62.500000
9065,62.500000
9066,62.500000
9067,66.406250
9068,66.406250
9069,66.406250
9070,66.406250
9071,66.406250
9072,66.406250
9073,66.406250
9074,70.312500
9075,70.312500
9076,70.312500
9077,70.312500
9078,70.312500
9079,70.312500
9080,70.312500
9081,74.218750
9082,74.218750
9083,74.218750
9084,74.218750
9085,74.218750
9086,74.218750
9087,74.218750
9088,78.125000
9089,78.125000
9090,78.125000
9091,78.125000
9092,78.125000
9093,78.125000
9094,78.125000
9095,78.125000
9096,82.031250
9097,82.031250
9098,82.031250
9099,82.031250
9100,82.031250
9101,82.031250
9102,82.031250
9103,85.937500
9104,85.937500
9105,85.937500
9106,85.937500
9107,85.937500
9108,85.937500
9109,85.937500
9110,89.843750
9111,89.843750
9112,89.843750
9113,89.843750
9114,89.843750
9115,89.843750
9116,89.843750
9117,89.843750
9118,89.843750
9119,89.843750
9120,93.750000
9121,93.750000
9122,93.750000
9123,93.750000
9124,93.750000
9125,93.750000
9126,93.750000
9127,93.750000
9128,93.750000
9129,97.656250
9130,97.656250
9131,97.656250
9132,97.656250
9133,97.656250
9134,97.656250
9135,97.656250
9136,97.656250
9137,97.656250
9138,101.562500
9139,101.562500
9140,97.656250
9141,101.562500
9142,101.562500
9143,101.562500
9144,101.562500
9145,101.562500
9146,101.562500
9147,101.562500
9148,101.562500
9149,101.562500
9150,105.468750
9151,105.468750
9152,105.468750
9153,105.468750
9154,105.468750
9155,105.468750
9156,105.468750
9157,105.468750
9158,105.468750
9159,105.468750
9160,105.468750
9161,105.468750
9162,105.468750
9163,109.375000
9164,109.375000
9165,109.375000
9166,109.375000
9167,109.375000
9168,109.375000
9169,109.375000
9170,109.375000
9171,109.375000
9172,109.375000
9173,109.375000
9174,109.375000
9175,109.375000
9176,109.375000
9177,109.375000
9178,109.375000
9179,113.281250
9180,113.281250
9181,113.281250
9182,113.281250
9183,113.281250
9184,113.281250
9185,113.281250
9186,113.281250
9187,113.281250
9188,113.281250
9189,113.281250
9190,113.281250
9191,113.281250
9192,113.281250
9193,113.281250
9194,113.281250
9195,113.281250
9196,113.281250
9197,113.281250
9198,113.281250
9199,113.281250
9200,113.281250
9201,117.187500
9202,113.281250
9203,113.281250
9204,117.187500
9205,113.281250
9206,113.281250
9207,113.281250
9208,117.187500
9209,113.281250
9210,113.281250
9211,113.281250
9212,117.187500
9213,117.187500
9214,113.281250
9215,117.187500
9216,117.187500
9217,117.187500
9218,117.187500
9219,117.187500
9220,117.187500
9221,117.187500
9222,117.187500
9223,113.281250
9224,117.187500
9225,113.281250
9226,117.187500
9227,117.187500
9228,117.187500
9229,113.281250
9230,117.187500
9231,117.187500
9232,117.187500
9233,113.281250
9234,113.281250
9235,113.281250
9236,113.281250
9237,113.281250
9238,113.281250
9239,113.281250
9240,117.187500
9241,113.281250
9242,117.187500
9243,113.281250
9244,113.281250
9245,113.281250
9246,113.281250
9247,113.281250
9248,113.281250
9249,113.281250
9250,113.281250
9251,113.281250
9252,113.281250
9253,113.281250
9254,113.281250
9255,113.281250
9256,113.281250
9257,113.281250
9258,113.281250
9259,113.281250
9260,113.281250
9261,113.281250
9262,113.281250
9263,113.281250
9264,113.281250
9265,113.281250
9266,109.375000
9267,109.375000
9268,109.375000
9269,109.375000
9270,109.375000
9271,109.375000
9272,109.375000
9273,109.375000
9274,109.375000
9275,109.375000
9276,109.375000
9277,109.375000
9278,109.375000
9279,109.375000
9280,109.375000
9281,109.375000
9282,109.375000
9283,109.375000
9284,109.375000
9285,105.468750
9286,105.468750
9287,105.468750
9288,105.468750
9289,105.468750
9290,105.468750
9291,105.468750
9292,105.468750
9293,105.468750
9294,105.468750
9295,105.468750
9296,105.468750
9297,101.562500
9298,101.562500
9299,101.562500
9300,101.562500
9301,101.562500
9302,101.562500
9303,101.562500
9304,101.562500
9305,101.562500
9306,101.562500
9307,101.562500
9308,101.562500
9309,101.562500
9310,97.656250
9311,97.656250
9312,97.656250
9313,97.656250
9314,97.656250
9315,97.656250
9316,97.656250
9317,97.656250
9318,97.656250
9319,93.750000
9320,97.656250
9321,93.750000
9322,93.750000
9323,93.750000
9324,93.750000
9325,93.750000
9326,93.750000
9327,93.750000
9328,93.750000
9329,93.750000
9330,89.843750
9331,89.843750
9332,89.843750
9333,89.843750
9334,89.843750
9335,89.843750
9336,89.843750
9337,89.843750
9338,85.937500
9339,85.937500
9340,85.937500
9341,85.937500
9342,85.937500
9343,85.937500
9344,85.937500
9345,82.031250
9346,82.031250
9347,82.031250
9348,82.031250
9349,82.031250
9350,82.031250
9351,78.125000
9352,78.125000
9353,78.125000
9354,78.125000
9355,78.125000
9356,78.125000
9357,78.125000
9358,78.125000
9359,74.218750
9360,74.218750
9361,74.218750
9362,74.218750
9363,74.218750
9364,74.218750
9365,70.312500
9366,70.312500
9367,70.312500
9368,70.312500
9369,70.312500
9370,70.312500
9371,66.406250
9372,66.406250
9373,66.406250
9374,66.406250
9375,66.406250
9376,66.406250
9377,62.500000
9378,62.500000
9379,62.500000
9380,62.500000
9381,62.500000
9382,62.500000
9383,58.593750
9384,58.593750
9385,58.593750
9386,58.593750
9387,58.593750
9388,58.593750
9389,54.687500
9390,54.687500
9391,54.687500
9392,54.687500
9393,54.687500
9394,54.687500
9395,50.781250
9396,50.781250
9397,50.781250
9398,50.781250
9399,46.875000
9400,46.875000
9401,46.875000
9402,46.875000
9403,46.875000
9404,46.875000
9405,42.968750
9406,42.968750
9407,42.968750
9408,42.968750
9409,42.968750
9410,42.968750
9411,39.062500
9412,39.062500
9413,39.062500
9414,39.062500
9415,35.156250
9416,35.156250
9417,35.156250
9418,35.156250
9419,35.156250
9420,35.156250
9421,31.250000
9422,31.250000
9423,31.250000
9424,31.250000
9425,31.250000
9426,27.343750
9427,27.343750
9428,27.343750
9429,27.343750
9430,23.437500
9431,23.437500
9432,23.437500
9433,23.437500
9434,23.437500
9435,19.531250
9436,19.531250
9437,19.531250
9438,19.531250
9439,15.625000
9440,15.625000
9441,15.625000
9442,15.625000
9443,11.718750
9444,11.718750
9445,11.718750
9446,11.718750
9447,11.718750
9448,11.718750
9449,7.812500
9450,7.812500
9451,7.812500
9452,7.812500
9453,3.906250
9454,3.906250
9455,3.906250
9456,3.906250
9457,0.000000
9458,0.000000
9459,0.000000
9460,0.000000
9461,0.000000
9462,-3.906250
9463,-3.906250
9464,-3.906250
9465,-3.906250
9466,-7.812500
9467,-7.812500
9468,-7.812500
9469,-7.812500
9470,-7.812500
9471,-11.718750
9472,-11.718750
9473,-11.718750
9474,-15.625000
9475,-15.625000
9476,-15.625000
9477,-15.625000
9478,-15.625000
9479,-19.531250
9480,-19.531250
9481,-19.531250
9482,-19.531250
9483,-23.437500
9484,-23.437500
9485,-23.437500
9486,-23.437500
9487,-27.343750
9488,-27.343750
9489,-27.343750
9490,-27.343750
9491,-31.250000
9492,-27.343750
9493,-31.250000
9494,-31.250000
9495,-31.250000
9496,-35.156250
9497,-35.156250
9498,-35.156250
9499,-35.156250
9500,-39.062500
9501,-39.062500
9502,-39.062500
9503,-39.062500
9504,-39.062500
9505,-42.968750
9506,-42.968750
9507,-42.968750
9508,-42.968750
9509,-46.875000
9510,-46.875000
9511,-46.875000
9512,-46.875000
9513,-50.781250
9514,-50.781250
9515,-50.781250
9516,-50.781250
9517,-54.687500
9518,-54.687500
9519,-54.687500
9520,-54.687500
9521,-58.593750
9522,-58.593750
9523,-58.593750
9524,-58.593750
9525,-58.593750
9526,-62.500000
9527,-62.500000
9528,-62.500000
9529,-62.500000
9530,-66.406250
9531,-66.406250
9532,-66.406250
9533,-66.406250
9534,-66.406250
9535,-70.312500
9536,-70.312500
9537,-70.312500
9538,-70.312500
9539,-74.218750
9540,-74.218750
9541,-74.218750
9542,-74.218750
9543,-74.218750
9544,-78.125000
9545,-78.125000
9546,-78.125000
9547,-78.125000
9548,-78.125000
9549,-82.031250
9550,-82.031250
9551,-82.031250
9552,-82.031250
9553,-85.937500
9554,-85.937500
9555,-85.937500
9556,-85.937500
9557,-85.937500
9558,-85.937500
9559,-89.843750
9560,-89.843750
9561,-89.843750
9562,-89.843750
9563,-93.750000
9564,-93.750000
9565,-93.750000
9566,-93.750000
9567,-93.750000
9568,-93.750000
9569,-97.656250
9570,-97.656250
9571,-97.656250
9572,-97.656250
9573,-97.656250
9574,-101.562500
9575,-101.562500
9576,-101.562500
9577,-101.562500
9578,-105.468750
9579,-105.468750
9580,-105.468750
9581,-105.468750
9582,-105.468750
9583,-109.375000
9584,-109.375000
9585,-109.375000
9586,-109.375000
9587,-109.375000
9588,-109.375000
9589,-113.281250
9590,-113.281250
9591,-113.281250
9592,-113.281250
9593,-113.281250
9594,-113.281250
9595,-117.187500
9596,-117.187500
9597,-117.187500
9598,-117.187500
9599,-117.187500
9600,-117.187500
9601,-121.093750
9602,-121.093750
9603,-121.093750
9604,-121.093750
9605,-121.093750
9606,-121.093750
9607,-125.000000
9608,-125.000000
9609,-125.000000
9610,-125.000000
9611,-125.000000
9612,-128.906250
9613,-128.906250
9614,-128.906250
9615,-128.906250
9616,-128.906250
9617,-128.906250
9618,-132.812500
9619,-132.812500
9620,-132.812500
9621,-132.812500
9622,-132.812500
9623,-132.812500
9624,-132.812500
9625,-136.718750
9626,-136.718750
9627,-136.718750
9628,-136.718750
9629,-136.718750
9630,-136.718750
9631,-136.718750
9632,-140.625000
9633,-140.625000
9634,-136.718750
9635,-140.625000
9636,-140.625000
9637,-140.625000
9638,-140.625000
9639,-140.625000
9640,-140.625000
9641,-140.625000
9642,-144.531250
9643,-144.531250
9644,-144.531250
9645,-144.531250
9646,-144.531250
9647,-144.531250
9648,-144.531250
9649,-144.531250
9650,-144.531250
9651,-144.531250
9652,-148.437500
9653,-148.437500
9654,-148.437500
9655,-148.437500
9656,-148.437500
9657,-148.437500
9658,-148.437500
9659,-148.437500
9660,-152.343750
9661,-152.343750
9662,-148.437500
9663,-152.343750
9664,-152.343750
9665,-152.343750
9666,-152.343750
9667,-152.343750
9668,-152.343750
9669,-152.343750
9670,-152.343750
9671,-148.437500
9672,-152.343750
9673,-152.343750
9674,-152.343750
9675,-152.343750
9676,-156.250000
9677,-156.250000
9678,-156.250000
9679,-156.250000
9680,-156.250000
9681,-156.250000
9682,-156.250000
9683,-156.250000
9684,-156.250000
9685,-156.250000
9686,-156.250000
9687,-156.250000
9688,-156.250000
9689,-156.250000
9690,-156.250000
9691,-156.250000
9692,-156.250000
9693,-156.250000
9694,-156.250000
9695,-156.250000
9696,-156.250000
9697,-156.250000
9698,-156.250000
9699,-156.250000
9700,-156.250000
9701,-156.250000
9702,-160.156250
9703,-160.156250
9704,-156.250000
9705,-156.250000
9706,-160.156250
9707,-160.156250
9708,-160.156250
9709,-160.156250
9710,-160.156250
9711,-160.156250
9712,-160.156250
9713,-160.156250
9714,-160.156250
9715,-160.156250
9716,-160.156250
9717,-160.156250
9718,-160.156250
9719,-156.250000
9720,-156.250000
9721,-160.156250
9722,-160.156250
9723,-156.250000
9724,-156.250000
9725,-160.156250
9726,-156.250000
9727,-160.156250
9728,-160.156250
9729,-160.156250
9730,-160.156250
9731,-156.250000
9732,-156.250000
9733,-156.250000
9734,-156.250000
9735,-156.250000
9736,-156.250000
9737,-156.250000
9738,-156.250000
9739,-156.250000
9740,-156.250000
9741,-156.250000
9742,-156.250000
9743,-156.250000
9744,-156.250000
9745,-156.250000
9746,-156.250000
9747,-156.250000
9748,-156.250000
9749,-156.250000
9750,-156.250000
9751,-156.250000
9752,-152.343750
9753,-152.343750
9754,-152.343750
9755,-152.343750
9756,-152.343750
9757,-152.343750
9758,-152.343750
9759,-152.343750
9760,-152.343750
9761,-152.343750
9762,-152.343750
9763,-148.437500
9764,-152.343750
9765,-152.343750
9766,-152.343750
9767,-152.343750
9768,-148.437500
9769,-148.437500
9770,-148.437500
9771,-148.437500
9772,-148.437500
9773,-148.437500
9774,-148.437500
9775,-148.437500
9776,-148.437500
9777,-148.437500
9778,-144.531250
9779,-144.531250
9780,-144.531250
9781,-144.531250
9782,-144.531250
9783,-144.531250
9784,-144.531250
9785,-144.531250
9786,-144.531250
9787,-140.625000
9788,-140.625000
9789,-140.625000
9790,-140.625000
9791,-140.625000
9792,-140.625000
9793,-140.625000
9794,-136.718750
9795,-136.718750
9796,-136.718750
9797,-136.718750
9798,-136.718750
9799,-136.718750
9800,-136.718750
9801,-136.718750
9802,-132.812500
9803,-132.812500
9804,-132.812500
9805,-132.812500
9806,-132.812500
9807,-132.812500
9808,-132.812500
9809,-132.812500
9810,-128.906250
9811,-128.906250
9812,-128.906250
9813,-128.906250
9814,-128.906250
9815,-128.906250
9816,-125.000000
9817,-125.000000
9818,-125.000000
9819,-125.000000
9820,-125.000000
9821,-125.000000
9822,-125.000000
9823,-121.093750
9824,-121.093750
9825,-121.093750
9826,-121.093750
9827,-117.187500
9828,-117.187500
9829,-117.187500
9830,-117.187500
9831,-117.187500
9832,-117.187500
9833,-117.187500
9834,-113.281250
9835,-113.281250
9836,-113.281250
9837,-113.281250
9838,-113.281250
9839,-113.281250
9840,-109.375000
9841,-109.375000
9842,-109.375000
9843,-109.375000
9844,-109.375000
9845,-105.468750
9846,-105.468750
9847,-105.468750
9848,-105.468750
9849,-105.468750
9850,-101.562500
9851,-101.562500
9852,-101.562500
9853,-101.562500
9854,-101.562500
9855,-97.656250
9856,-97.656250
9857,-97.656250
9858,-97.656250
9859,-97.656250
9860,-97.656250
9861,-93.750000
9862,-93.750000
9863,-93.750000
9864,-93.750000
9865,-93.750000
9866,-89.843750
9867,-89.843750
9868,-89.843750
9869,-89.843750
9870,-85.937500
9871,-85.937500
9872,-85.937500
9873,-85.937500
9874,-85.937500
9875,-82.031250
9876,-82.031250
9877,-82.031250
9878,-82.031250
9879,-82.031250
9880,-82.031250
9881,-78.125000
9882,-78.125000
9883,-78.125000
9884,-78.125000
9885,-78.125000
9886,-74.218750
9887,-74.218750
9888,-74.218750
9889,-74.218750
9890,-70.312500
9891,-70.312500
9892,-70.312500
9893,-70.312500
9894,-70.312500
9895,-66.406250
9896,-66.406250
9897,-66.406250
9898,-62.500000
9899,-62.500000
9900,-62.500000
9901,-62.500000
9902,-58.593750
9903,-58.593750
9904,-58.593750
9905,-58.593750
9906,-58.593750
9907,-58.593750
9908,-58.593750
9909,-54.687500
9910,-54.687500
9911,-54.687500
9912,-54.687500
9913,-50.781250
9914,-50.781250
9915,-50.781250
9916,-50.781250
9917,-46.875000
9918,-46.875000
9919,-46.875000
9920,-46.875000
9921,-46.875000
9922,-42.968750
9923,-42.968750
9924,-42.968750
9925,-42.968750
9926,-39.062500
9927,-39.062500
9928,-39.062500
9929,-39.062500
9930,-35.156250
9931,-35.156250
9932,-35.156250
9933,-35.156250
9934,-35.156250
9935,-31.250000
9936,-31.250000
9937,-31.250000
9938,-27.343750
9939,-27.343750
9940,-27.343750
9941,-27.343750
9942,-27.343750
9943,-23.437500
9944,-23.437500
9945,-23.437500
9946,-23.437500
9947,-19.531250
9948,-19.531250
9949,-19.531250
9950,-19.531250
9951,-19.531250
9952,-15.625000
9953,-15.625000
9954,-15.625000
9955,-11.718750
9956,-11.718750
9957,-11.718750
9958,-11.718750
9959,-11.718750
9960,-7.812500
9961,-7.812500
9962,-7.812500
9963,-7.812500
9964,-3.906250
9965,-3.906250
9966,-3.906250
9967,-3.906250
9968,0.000000
9969,-3.906250
9970,0.000000
9971,0.000000
9972,0.000000
9973,0.000000
9974,3.906250
9975,3.906250
9976,3.906250
9977,3.906250
9978,7.812500
9979,7.812500
9980,7.812500
9981,7.812500
9982,7.812500
9983,11.718750
9984,11.718750
9985,11.718750
9986,11.718750
9987,11.718750
9988,15.625000
9989,15.625000
9990,15.625000
9991,15.625000
9992,19.531250
9993,19.531250
9994,19.531250
9995,19.531250
9996,19.531250
9997,23.437500
9998,23.437500
9999,23.437500
10000,23.437500
