Channel              :,CH1
Frequency            :,1.771kHz
Period               :,0.565ms
PK-PK                :,42.97mV
Probe attenuation    :,1X
Voltage per ADC value:,0.122070mV
Time interval        :,2.00000us

index,CH1_Voltage(mV)
1,13.671875
2,13.671875
3,11.718750
4,13.671875
5,13.671875
6,13.671875
7,13.671875
8,13.671875
9,13.671875
10,13.671875
11,13.671875
12,13.671875
13,11.718750
14,13.671875
15,13.671875
16,11.718750
17,11.718750
18,11.718750
19,11.718750
20,11.718750
21,11.718750
22,11.718750
23,11.718750
24,11.718750
25,11.718750
26,11.718750
27,11.718750
28,11.718750
29,9.765625
30,11.718750
31,9.765625
32,9.765625
33,9.765625
34,9.765625
35,9.765625
36,9.765625
37,9.765625
38,7.812500
39,7.812500
40,7.812500
41,7.812500
42,7.812500
43,7.812500
44,7.812500
45,7.812500
46,5.859375
47,7.812500
48,5.859375
49,5.859375
50,5.859375
51,5.859375
52,3.906250
53,3.906250
54,3.906250
55,3.906250
56,3.906250
57,3.906250
58,3.906250
59,1.953125
60,1.953125
61,1.953125
62,1.953125
63,0.000000
64,0.000000
65,0.000000
66,0.000000
67,0.000000
68,-1.953125
69,-1.953125
70,-1.953125
71,-1.953125
72,-1.953125
73,-3.906250
74,-3.906250
75,-3.906250
76,-3.906250
77,-5.859375
78,-5.859375
79,-5.859375
80,-5.859375
81,-5.859375
82,-5.859375
83,-7.812500
84,-7.812500
85,-7.812500
86,-9.765625
87,-9.765625
88,-9.765625
89,-9.765625
90,-9.765625
91,-9.765625
92,-11.718750
93,-11.718750
94,-11.718750
95,-11.718750
96,-13.671875
97,-13.671875
98,-13.671875
99,-13.671875
100,-15.625000
101,-15.625000
102,-15.625000
103,-15.625000
104,-15.625000
105,-17.578125
106,-17.578125
107,-17.578125
108,-17.578125
109,-17.578125
110,-17.578125
111,-19.531250
112,-19.531250
113,-19.531250
114,-19.531250
115,-21.484375
116,-19.531250
117,-21.484375
118,-21.484375
119,-21.484375
120,-21.484375
121,-21.484375
122,-21.484375
123,-23.437500
124,-23.437500
125,-21.484375
126,-23.437500
127,-23.437500
128,-23.437500
129,-23.437500
130,-23.437500
131,-23.437500
132,-23.437500
133,-25.390625
134,-23.437500
135,-25.390625
136,-25.390625
137,-25.390625
138,-25.390625
139,-25.390625
140,-25.390625
141,-25.390625
142,-25.390625
143,-25.390625
144,-25.390625
145,-25.390625
146,-27.343750
147,-25.390625
148,-27.343750
149,-25.390625
150,-25.390625
151,-25.390625
152,-25.390625
153,-25.390625
154,-25.390625
155,-27.343750
156,-25.390625
157,-25.390625
158,-25.390625
159,-25.390625
160,-25.390625
161,-27.343750
162,-25.390625
163,-25.390625
164,-25.390625
165,-25.390625
166,-25.390625
167,-25.390625
168,-25.390625
169,-25.390625
170,-23.437500
171,-25.390625
172,-21.484375
173,-23.437500
174,-23.437500
175,-23.437500
176,-23.437500
177,-23.437500
178,-21.484375
179,-21.484375
180,-21.484375
181,-21.484375
182,-21.484375
183,-21.484375
184,-21.484375
185,-19.531250
186,-19.531250
187,-19.531250
188,-19.531250
189,-19.531250
190,-19.531250
191,-17.578125
192,-17.578125
193,-17.578125
194,-17.578125
195,-15.625000
196,-17.578125
197,-15.625000
198,-15.625000
199,-15.625000
200,-15.625000
201,-13.671875
202,-13.671875
203,-13.671875
204,-13.671875
205,-13.671875
206,-13.671875
207,-11.718750
208,-11.718750
209,-11.718750
210,-11.718750
211,-9.765625
212,-11.718750
213,-9.765625
214,-7.812500
215,-9.765625
216,-9.765625
217,-7.812500
218,-7.812500
219,-7.812500
220,-5.859375
221,-5.859375
222,-5.859375
223,-5.859375
224,-5.859375
225,-5.859375
226,-3.906250
227,-3.906250
228,-3.906250
229,-3.906250
230,-1.953125
231,-1.953125
232,-1.953125
233,0.000000
234,-1.953125
235,0.000000
236,0.000000
237,0.000000
238,1.953125
239,1.953125
240,1.953125
241,1.953125
242,1.953125
243,1.953125
244,3.906250
245,3.906250
246,3.906250
247,3.906250
248,3.906250
249,5.859375
250,5.859375
251,5.859375
252,5.859375
253,5.859375
254,7.812500
255,7.812500
256,7.812500
257,7.812500
258,7.812500
259,7.812500
260,7.812500
261,9.765625
262,9.765625
263,9.765625
264,9.765625
265,9.765625
266,9.765625
267,9.765625
268,11.718750
269,11.718750
270,9.765625
271,11.718750
272,11.718750
273,11.718750
274,11.718750
275,11.718750
276,11.718750
277,11.718750
278,11.718750
279,11.718750
280,11.718750
281,11.718750
282,11.718750
283,11.718750
284,11.718750
285,13.671875
286,11.718750
287,11.718750
288,11.718750
289,11.718750
290,11.718750
291,13.671875
292,11.718750
293,11.718750
294,13.671875
295,11.718750
296,11.718750
297,13.671875
298,11.718750
299,11.718750
300,11.718750
301,11.718750
302,11.718750
303,11.718750
304,11.718750
305,11.718750
306,11.718750
307,11.718750
308,11.718750
309,11.718750
310,11.718750
311,11.718750
312,11.718750
313,11.718750
314,11.718750
315,9.765625
316,9.765625
317,9.765625
318,9.765625
319,9.765625
320,9.765625
321,9.765625
322,7.812500
323,9.765625
324,9.765625
325,7.812500
326,7.812500
327,7.812500
328,7.812500
329,7.812500
330,7.812500
331,5.859375
332,5.859375
333,5.859375
334,5.859375
335,5.859375
336,3.906250
337,3.906250
338,3.906250
339,3.906250
340,3.906250
341,1.953125
342,1.953125
343,1.953125
344,1.953125
345,0.000000
346,0.000000
347,0.000000
348,0.000000
349,0.000000
350,0.000000
351,0.000000
352,-1.953125
353,-1.953125
354,-1.953125
355,-3.906250
356,-3.906250
357,-3.906250
358,-3.906250
359,-3.906250
360,-5.859375
361,-5.859375
362,-5.859375
363,-5.859375
364,-5.859375
365,-7.812500
366,-7.812500
367,-7.812500
368,-7.812500
369,-9.765625
370,-9.765625
371,-9.765625
372,-9.765625
373,-9.765625
374,-11.718750
375,-11.718750
376,-11.718750
377,-11.718750
378,-11.718750
379,-13.671875
380,-13.671875
381,-13.671875
382,-13.671875
383,-13.671875
384,-13.671875
385,-15.625000
386,-15.625000
387,-15.625000
388,-15.625000
389,-17.578125
390,-17.578125
391,-17.578125
392,-17.578125
393,-17.578125
394,-17.578125
395,-17.578125
396,-19.531250
397,-19.531250
398,-19.531250
399,-19.531250
400,-19.531250
401,-21.484375
402,-21.484375
403,-21.484375
404,-21.484375
405,-21.484375
406,-21.484375
407,-23.437500
408,-23.437500
409,-23.437500
410,-23.437500
411,-23.437500
412,-23.437500
413,-23.437500
414,-25.390625
415,-25.390625
416,-25.390625
417,-25.390625
418,-25.390625
419,-25.390625
420,-25.390625
421,-25.390625
422,-27.343750
423,-25.390625
424,-27.343750
425,-25.390625
426,-25.390625
427,-27.343750
428,-25.390625
429,-27.343750
430,-27.343750
431,-27.343750
432,-25.390625
433,-25.390625
434,-27.343750
435,-25.390625
436,-25.390625
437,-27.343750
438,-27.343750
439,-25.390625
440,-25.390625
441,-27.343750
442,-25.390625
443,-25.390625
444,-25.390625
445,-25.390625
446,-25.390625
447,-25.390625
448,-25.390625
449,-25.390625
450,-25.390625
451,-25.390625
452,-23.437500
453,-23.437500
454,-23.437500
455,-23.437500
456,-23.437500
457,-23.437500
458,-23.437500
459,-23.437500
460,-23.437500
461,-21.484375
462,-21.484375
463,-21.484375
464,-21.484375
465,-21.484375
466,-21.484375
467,-21.484375
468,-21.484375
469,-19.531250
470,-19.531250
471,-19.531250
472,-19.531250
473,-19.531250
474,-17.578125
475,-17.578125
476,-17.578125
477,-17.578125
478,-17.578125
479,-17.578125
480,-15.625000
481,-15.625000
482,-15.625000
483,-15.625000
484,-13.671875
485,-13.671875
486,-13.671875
487,-13.671875
488,-13.671875
489,-11.718750
490,-11.718750
491,-11.718750
492,-11.718750
493,-11.718750
494,-11.718750
495,-9.765625
496,-9.765625
497,-9.765625
498,-9.765625
499,-7.812500
500,-7.812500
501,-7.812500
502,-5.859375
503,-5.859375
504,-5.859375
505,-5.859375
506,-5.859375
507,-3.906250
508,-3.906250
509,-3.906250
510,-3.906250
511,-1.953125
512,-1.953125
513,-1.953125
514,-1.953125
515,0.000000
516,0.000000
517,0.000000
518,0.000000
519,0.000000
520,1.953125
521,1.953125
522,1.953125
523,3.906250
524,1.953125
525,1.953125
526,3.906250
527,1.953125
528,3.906250
529,3.906250
530,3.906250
531,5.859375
532,5.859375
533,5.859375
534,5.859375
535,5.859375
536,7.812500
537,7.812500
538,7.812500
539,7.812500
540,7.812500
541,7.812500
542,7.812500
543,7.812500
544,9.765625
545,9.765625
546,9.765625
547,9.765625
548,9.765625
549,9.765625
550,9.765625
551,9.765625
552,9.765625
553,9.765625
554,11.718750
555,11.718750
556,11.718750
557,11.718750
558,11.718750
559,11.718750
560,11.718750
561,13.671875
562,11.718750
563,11.718750
564,11.718750
565,11.718750
566,11.718750
567,13.671875
568,13.671875
569,13.671875
570,13.671875
571,13.671875
572,13.671875
573,13.671875
574,13.671875
575,13.671875
576,13.671875
577,13.671875
578,11.718750
579,13.671875
580,13.671875
581,11.718750
582,11.718750
583,11.718750
584,13.671875
585,11.718750
586,11.718750
587,11.718750
588,11.718750
589,11.718750
590,11.718750
591,11.718750
592,11.718750
593,11.718750
594,11.718750
595,9.765625
596,11.718750
597,9.765625
598,9.765625
599,9.765625
600,9.765625
601,9.765625
602,9.765625
603,9.765625
604,9.765625
605,7.812500
606,7.812500
607,7.812500
608,7.812500
609,7.812500
610,7.812500
611,5.859375
612,5.859375
613,5.859375
614,5.859375
615,5.859375
616,5.859375
617,5.859375
618,5.859375
619,3.906250
620,3.906250
621,3.906250
622,3.906250
623,3.906250
624,1.953125
625,1.953125
626,1.953125
627,1.953125
628,0.000000
629,0.000000
630,0.000000
631,0.000000
632,0.000000
633,-1.953125
634,-1.953125
635,-1.953125
636,-1.953125
637,-1.953125
638,-1.953125
639,-3.906250
640,-3.906250
641,-3.906250
642,-5.859375
643,-5.859375
644,-5.859375
645,-5.859375
646,-5.859375
647,-7.812500
648,-7.812500
649,-5.859375
650,-7.812500
651,-7.812500
652,-9.765625
653,-9.765625
654,-9.765625
655,-9.765625
656,-11.718750
657,-11.718750
658,-11.718750
659,-11.718750
660,-13.671875
661,-13.671875
662,-13.671875
663,-13.671875
664,-13.671875
665,-15.625000
666,-15.625000
667,-15.625000
668,-15.625000
669,-15.625000
670,-15.625000
671,-17.578125
672,-17.578125
673,-17.578125
674,-17.578125
675,-17.578125
676,-19.531250
677,-19.531250
678,-19.531250
679,-19.531250
680,-19.531250
681,-21.484375
682,-21.484375
683,-19.531250
684,-21.484375
685,-21.484375
686,-21.484375
687,-23.437500
688,-21.484375
689,-23.437500
690,-23.437500
691,-23.437500
692,-23.437500
693,-23.437500
694,-23.437500
695,-23.437500
696,-25.390625
697,-23.437500
698,-23.437500
699,-23.437500
700,-25.390625
701,-25.390625
702,-25.390625
703,-25.390625
704,-25.390625
705,-25.390625
706,-25.390625
707,-25.390625
708,-25.390625
709,-25.390625
710,-25.390625
711,-25.390625
712,-25.390625
713,-25.390625
714,-25.390625
715,-25.390625
716,-25.390625
717,-25.390625
718,-25.390625
719,-25.390625
720,-25.390625
721,-25.390625
722,-25.390625
723,-25.390625
724,-25.390625
725,-25.390625
726,-25.390625
727,-25.390625
728,-25.390625
729,-25.390625
730,-25.390625
731,-25.390625
732,-25.390625
733,-23.437500
734,-25.390625
735,-25.390625
736,-23.437500
737,-23.437500
738,-23.437500
739,-23.437500
740,-23.437500
741,-23.437500
742,-23.437500
743,-21.484375
744,-21.484375
745,-21.484375
746,-21.484375
747,-21.484375
748,-21.484375
749,-19.531250
750,-19.531250
751,-19.531250
752,-19.531250
753,-19.531250
754,-19.531250
755,-19.531250
756,-19.531250
757,-17.578125
758,-17.578125
759,-17.578125
760,-17.578125
761,-17.578125
762,-15.625000
763,-15.625000
764,-15.625000
765,-15.625000
766,-15.625000
767,-13.671875
768,-13.671875
769,-13.671875
770,-13.671875
771,-13.671875
772,-11.718750
773,-11.718750
774,-11.718750
775,-9.765625
776,-9.765625
777,-9.765625
778,-9.765625
779,-7.812500
780,-7.812500
781,-7.812500
782,-7.812500
783,-7.812500
784,-5.859375
785,-5.859375
786,-5.859375
787,-5.859375
788,-5.859375
789,-3.906250
790,-3.906250
791,-3.906250
792,-3.906250
793,-3.906250
794,-1.953125
795,-1.953125
796,-1.953125
797,-1.953125
798,-1.953125
799,0.000000
800,0.000000
801,0.000000
802,0.000000
803,0.000000
804,1.953125
805,1.953125
806,1.953125
807,1.953125
808,1.953125
809,1.953125
810,3.906250
811,3.906250
812,3.906250
813,3.906250
814,3.906250
815,5.859375
816,5.859375
817,5.859375
818,5.859375
819,7.812500
820,5.859375
821,5.859375
822,7.812500
823,7.812500
824,9.765625
825,7.812500
826,7.812500
827,9.765625
828,9.765625
829,9.765625
830,9.765625
831,9.765625
832,9.765625
833,9.765625
834,9.765625
835,11.718750
836,11.718750
837,11.718750
838,11.718750
839,11.718750
840,11.718750
841,11.718750
842,11.718750
843,11.718750
844,11.718750
845,11.718750
846,13.671875
847,11.718750
848,11.718750
849,11.718750
850,13.671875
851,11.718750
852,13.671875
853,13.671875
854,11.718750
855,13.671875
856,11.718750
857,13.671875
858,13.671875
859,13.671875
860,11.718750
861,11.718750
862,11.718750
863,11.718750
864,11.718750
865,13.671875
866,13.671875
867,11.718750
868,11.718750
869,11.718750
870,11.718750
871,11.718750
872,11.718750
873,11.718750
874,11.718750
875,11.718750
876,11.718750
877,11.718750
878,11.718750
879,9.765625
880,9.765625
881,9.765625
882,9.765625
883,9.765625
884,9.765625
885,9.765625
886,7.812500
887,9.765625
888,7.812500
889,7.812500
890,7.812500
891,7.812500
892,7.812500
893,7.812500
894,7.812500
895,7.812500
896,5.859375
897,5.859375
898,5.859375
899,5.859375
900,5.859375
901,3.906250
902,3.906250
903,3.906250
904,3.906250
905,3.906250
906,3.906250
907,1.953125
908,1.953125
909,1.953125
910,1.953125
911,1.953125
912,0.000000
913,0.000000
914,0.000000
915,0.000000
916,-1.953125
917,0.000000
918,-1.953125
919,-1.953125
920,-1.953125
921,-3.906250
922,-3.906250
923,-3.906250
924,-3.906250
925,-5.859375
926,-5.859375
927,-5.859375
928,-5.859375
929,-7.812500
930,-7.812500
931,-7.812500
932,-7.812500
933,-9.765625
934,-7.812500
935,-9.765625
936,-9.765625
937,-9.765625
938,-11.718750
939,-11.718750
940,-11.718750
941,-11.718750
942,-11.718750
943,-11.718750
944,-13.671875
945,-13.671875
946,-13.671875
947,-13.671875
948,-15.625000
949,-15.625000
950,-15.625000
951,-15.625000
952,-17.578125
953,-17.578125
954,-17.578125
955,-17.578125
956,-17.578125
957,-17.578125
958,-19.531250
959,-19.531250
960,-19.531250
961,-19.531250
962,-19.531250
963,-19.531250
964,-19.531250
965,-21.484375
966,-21.484375
967,-21.484375
968,-21.484375
969,-21.484375
970,-21.484375
971,-21.484375
972,-23.437500
973,-23.437500
974,-23.437500
975,-23.437500
976,-23.437500
977,-23.437500
978,-23.437500
979,-23.437500
980,-23.437500
981,-25.390625
982,-25.390625
983,-25.390625
984,-25.390625
985,-25.390625
986,-25.390625
987,-25.390625
988,-25.390625
989,-25.390625
990,-25.390625
991,-25.390625
992,-25.390625
993,-25.390625
994,-25.390625
995,-27.343750
996,-25.390625
997,-25.390625
998,-25.390625
999,-25.390625
1000,-27.343750
1001,-27.343750
1002,-27.343750
1003,-25.390625
1004,-25.390625
1005,-25.390625
1006,-25.390625
1007,-25.390625
1008,-25.390625
1009,-25.390625
1010,-25.390625
1011,-25.390625
1012,-25.390625
1013,-25.390625
1014,-25.390625
1015,-25.390625
1016,-25.390625
1017,-25.390625
1018,-23.437500
1019,-23.437500
1020,-23.437500
1021,-23.437500
1022,-23.437500
1023,-23.437500
1024,-21.484375
1025,-23.437500
1026,-21.484375
1027,-21.484375
1028,-21.484375
1029,-21.484375
1030,-21.484375
1031,-19.531250
1032,-21.484375
1033,-19.531250
1034,-19.531250
1035,-19.531250
1036,-17.578125
1037,-17.578125
1038,-17.578125
1039,-17.578125
1040,-17.578125
1041,-17.578125
1042,-17.578125
1043,-15.625000
1044,-15.625000
1045,-15.625000
1046,-15.625000
1047,-15.625000
1048,-13.671875
1049,-13.671875
1050,-13.671875
1051,-13.671875
1052,-11.718750
1053,-11.718750
1054,-13.671875
1055,-11.718750
1056,-11.718750
1057,-11.718750
1058,-11.718750
1059,-9.765625
1060,-9.765625
1061,-9.765625
1062,-9.765625
1063,-7.812500
1064,-7.812500
1065,-7.812500
1066,-7.812500
1067,-5.859375
1068,-5.859375
1069,-5.859375
1070,-5.859375
1071,-5.859375
1072,-3.906250
1073,-3.906250
1074,-3.906250
1075,-1.953125
1076,-1.953125
1077,-1.953125
1078,-1.953125
1079,-1.953125
1080,0.000000
1081,0.000000
1082,0.000000
1083,0.000000
1084,0.000000
1085,0.000000
1086,1.953125
1087,1.953125
1088,1.953125
1089,1.953125
1090,3.906250
1091,3.906250
1092,3.906250
1093,3.906250
1094,3.906250
1095,5.859375
1096,5.859375
1097,5.859375
1098,5.859375
1099,5.859375
1100,5.859375
1101,7.812500
1102,7.812500
1103,7.812500
1104,7.812500
1105,7.812500
1106,9.765625
1107,9.765625
1108,9.765625
1109,9.765625
1110,9.765625
1111,9.765625
1112,9.765625
1113,9.765625
1114,9.765625
1115,11.718750
1116,11.718750
1117,11.718750
1118,11.718750
1119,11.718750
1120,11.718750
1121,9.765625
1122,11.718750
1123,11.718750
1124,11.718750
1125,11.718750
1126,11.718750
1127,11.718750
1128,11.718750
1129,11.718750
1130,11.718750
1131,11.718750
1132,13.671875
1133,13.671875
1134,11.718750
1135,11.718750
1136,13.671875
1137,11.718750
1138,13.671875
1139,13.671875
1140,13.671875
1141,11.718750
1142,11.718750
1143,13.671875
1144,11.718750
1145,11.718750
1146,13.671875
1147,13.671875
1148,11.718750
1149,11.718750
1150,11.718750
1151,11.718750
1152,11.718750
1153,11.718750
1154,11.718750
1155,11.718750
1156,11.718750
1157,11.718750
1158,11.718750
1159,11.718750
1160,11.718750
1161,11.718750
1162,9.765625
1163,9.765625
1164,9.765625
1165,9.765625
1166,9.765625
1167,9.765625
1168,9.765625
1169,9.765625
1170,7.812500
1171,7.812500
1172,7.812500
1173,7.812500
1174,7.812500
1175,7.812500
1176,7.812500
1177,7.812500
1178,5.859375
1179,5.859375
1180,5.859375
1181,5.859375
1182,3.906250
1183,3.906250
1184,3.906250
1185,3.906250
1186,3.906250
1187,3.906250
1188,1.953125
1189,3.906250
1190,1.953125
1191,1.953125
1192,1.953125
1193,0.000000
1194,0.000000
1195,0.000000
1196,0.000000
1197,0.000000
1198,-1.953125
1199,-1.953125
1200,-1.953125
1201,-1.953125
1202,-3.906250
1203,-3.906250
1204,-3.906250
1205,-3.906250
1206,-3.906250
1207,-3.906250
1208,-5.859375
1209,-5.859375
1210,-5.859375
1211,-5.859375
1212,-5.859375
1213,-7.812500
1214,-7.812500
1215,-7.812500
1216,-7.812500
1217,-9.765625
1218,-9.765625
1219,-9.765625
1220,-11.718750
1221,-11.718750
1222,-11.718750
1223,-11.718750
1224,-11.718750
1225,-11.718750
1226,-13.671875
1227,-13.671875
1228,-13.671875
1229,-13.671875
1230,-13.671875
1231,-15.625000
1232,-15.625000
1233,-15.625000
1234,-15.625000
1235,-17.578125
1236,-15.625000
1237,-17.578125
1238,-17.578125
1239,-17.578125
1240,-17.578125
1241,-17.578125
1242,-19.531250
1243,-19.531250
1244,-19.531250
1245,-19.531250
1246,-21.484375
1247,-21.484375
1248,-21.484375
1249,-21.484375
1250,-21.484375
1251,-21.484375
1252,-21.484375
1253,-23.437500
1254,-23.437500
1255,-23.437500
1256,-23.437500
1257,-23.437500
1258,-23.437500
1259,-23.437500
1260,-23.437500
1261,-23.437500
1262,-25.390625
1263,-25.390625
1264,-25.390625
1265,-25.390625
1266,-25.390625
1267,-25.390625
1268,-25.390625
1269,-25.390625
1270,-25.390625
1271,-25.390625
1272,-25.390625
1273,-25.390625
1274,-25.390625
1275,-25.390625
1276,-27.343750
1277,-27.343750
1278,-25.390625
1279,-25.390625
1280,-25.390625
1281,-25.390625
1282,-25.390625
1283,-25.390625
1284,-25.390625
1285,-25.390625
1286,-25.390625
1287,-25.390625
1288,-25.390625
1289,-25.390625
1290,-25.390625
1291,-25.390625
1292,-25.390625
1293,-25.390625
1294,-25.390625
1295,-25.390625
1296,-25.390625
1297,-25.390625
1298,-23.437500
1299,-23.437500
1300,-23.437500
1301,-23.437500
1302,-23.437500
1303,-23.437500
1304,-23.437500
1305,-23.437500
1306,-21.484375
1307,-23.437500
1308,-23.437500
1309,-21.484375
1310,-21.484375
1311,-21.484375
1312,-21.484375
1313,-21.484375
1314,-21.484375
1315,-19.531250
1316,-19.531250
1317,-19.531250
1318,-19.531250
1319,-19.531250
1320,-17.578125
1321,-17.578125
1322,-17.578125
1323,-17.578125
1324,-17.578125
1325,-15.625000
1326,-15.625000
1327,-15.625000
1328,-15.625000
1329,-15.625000
1330,-15.625000
1331,-13.671875
1332,-13.671875
1333,-13.671875
1334,-13.671875
1335,-13.671875
1336,-11.718750
1337,-11.718750
1338,-11.718750
1339,-11.718750
1340,-9.765625
1341,-9.765625
1342,-9.765625
1343,-9.765625
1344,-9.765625
1345,-7.812500
1346,-7.812500
1347,-7.812500
1348,-7.812500
1349,-5.859375
1350,-5.859375
1351,-5.859375
1352,-5.859375
1353,-3.906250
1354,-3.906250
1355,-3.906250
1356,-3.906250
1357,-3.906250
1358,-1.953125
1359,-1.953125
1360,-1.953125
1361,-1.953125
1362,-1.953125
1363,0.000000
1364,0.000000
1365,0.000000
1366,0.000000
1367,1.953125
1368,1.953125
1369,1.953125
1370,1.953125
1371,1.953125
1372,1.953125
1373,3.906250
1374,3.906250
1375,3.906250
1376,3.906250
1377,3.906250
1378,3.906250
1379,5.859375
1380,5.859375
1381,5.859375
1382,5.859375
1383,9.765625
1384,5.859375
1385,7.812500
1386,7.812500
1387,7.812500
1388,7.812500
1389,7.812500
1390,7.812500
1391,7.812500
1392,9.765625
1393,9.765625
1394,9.765625
1395,9.765625
1396,9.765625
1397,9.765625
1398,9.765625
1399,9.765625
1400,11.718750
1401,11.718750
1402,11.718750
1403,11.718750
1404,11.718750
1405,11.718750
1406,11.718750
1407,11.718750
1408,11.718750
1409,13.671875
1410,11.718750
1411,13.671875
1412,11.718750
1413,11.718750
1414,11.718750
1415,11.718750
1416,11.718750
1417,11.718750
1418,13.671875
1419,13.671875
1420,13.671875
1421,13.671875
1422,13.671875
1423,13.671875
1424,13.671875
1425,13.671875
1426,13.671875
1427,13.671875
1428,13.671875
1429,13.671875
1430,13.671875
1431,13.671875
1432,11.718750
1433,11.718750
1434,11.718750
1435,11.718750
1436,11.718750
1437,11.718750
1438,11.718750
1439,11.718750
1440,11.718750
1441,11.718750
1442,9.765625
1443,11.718750
1444,11.718750
1445,9.765625
1446,9.765625
1447,9.765625
1448,9.765625
1449,9.765625
1450,9.765625
1451,9.765625
1452,9.765625
1453,7.812500
1454,7.812500
1455,7.812500
1456,7.812500
1457,7.812500
1458,7.812500
1459,5.859375
1460,5.859375
1461,5.859375
1462,5.859375
1463,5.859375
1464,5.859375
1465,5.859375
1466,5.859375
1467,3.906250
1468,3.906250
1469,3.906250
1470,1.953125
1471,1.953125
1472,1.953125
1473,1.953125
1474,1.953125
1475,1.953125
1476,1.953125
1477,0.000000
1478,0.000000
1479,0.000000
1480,0.000000
1481,-1.953125
1482,-1.953125
1483,-1.953125
1484,-1.953125
1485,-3.906250
1486,-3.906250
1487,-3.906250
1488,-3.906250
1489,-3.906250
1490,-3.906250
1491,-5.859375
1492,-5.859375
1493,-5.859375
1494,-7.812500
1495,-7.812500
1496,-7.812500
1497,-7.812500
1498,-7.812500
1499,-9.765625
1500,-9.765625
1501,-9.765625
1502,-9.765625
1503,-9.765625
1504,-11.718750
1505,-11.718750
1506,-11.718750
1507,-11.718750
1508,-13.671875
1509,-13.671875
1510,-13.671875
1511,-13.671875
1512,-13.671875
1513,-15.625000
1514,-15.625000
1515,-15.625000
1516,-15.625000
1517,-15.625000
1518,-17.578125
1519,-17.578125
1520,-17.578125
1521,-19.531250
1522,-17.578125
1523,-17.578125
1524,-17.578125
1525,-19.531250
1526,-19.531250
1527,-19.531250
1528,-19.531250
1529,-19.531250
1530,-21.484375
1531,-21.484375
1532,-21.484375
1533,-25.390625
1534,-21.484375
1535,-23.437500
1536,-23.437500
1537,-23.437500
1538,-23.437500
1539,-23.437500
1540,-23.437500
1541,-23.437500
1542,-23.437500
1543,-25.390625
1544,-23.437500
1545,-25.390625
1546,-25.390625
1547,-25.390625
1548,-25.390625
1549,-25.390625
1550,-25.390625
1551,-23.437500
1552,-25.390625
1553,-25.390625
1554,-25.390625
1555,-25.390625
1556,-25.390625
1557,-25.390625
1558,-25.390625
1559,-25.390625
1560,-25.390625
1561,-25.390625
1562,-27.343750
1563,-25.390625
1564,-25.390625
1565,-27.343750
1566,-25.390625
1567,-23.437500
1568,-25.390625
1569,-25.390625
1570,-25.390625
1571,-27.343750
1572,-25.390625
1573,-25.390625
1574,-25.390625
1575,-25.390625
1576,-25.390625
1577,-25.390625
1578,-25.390625
1579,-25.390625
1580,-25.390625
1581,-25.390625
1582,-23.437500
1583,-23.437500
1584,-23.437500
1585,-25.390625
1586,-23.437500
1587,-23.437500
1588,-23.437500
1589,-23.437500
1590,-21.484375
1591,-21.484375
1592,-21.484375
1593,-21.484375
1594,-21.484375
1595,-21.484375
1596,-21.484375
1597,-21.484375
1598,-19.531250
1599,-19.531250
1600,-19.531250
1601,-19.531250
1602,-17.578125
1603,-17.578125
1604,-17.578125
1605,-17.578125
1606,-17.578125
1607,-15.625000
1608,-15.625000
1609,-15.625000
1610,-15.625000
1611,-15.625000
1612,-15.625000
1613,-13.671875
1614,-13.671875
1615,-13.671875
1616,-13.671875
1617,-11.718750
1618,-11.718750
1619,-11.718750
1620,-11.718750
1621,-11.718750
1622,-11.718750
1623,-9.765625
1624,-9.765625
1625,-9.765625
1626,-7.812500
1627,-7.812500
1628,-7.812500
1629,-7.812500
1630,-7.812500
1631,-7.812500
1632,-5.859375
1633,-7.812500
1634,-5.859375
1635,-5.859375
1636,-5.859375
1637,-3.906250
1638,-3.906250
1639,-3.906250
1640,-3.906250
1641,-1.953125
1642,-1.953125
1643,-1.953125
1644,-1.953125
1645,0.000000
1646,0.000000
1647,0.000000
1648,0.000000
1649,0.000000
1650,0.000000
1651,1.953125
1652,1.953125
1653,1.953125
1654,3.906250
1655,1.953125
1656,3.906250
1657,3.906250
1658,3.906250
1659,3.906250
1660,3.906250
1661,3.906250
1662,5.859375
1663,5.859375
1664,5.859375
1665,5.859375
1666,7.812500
1667,7.812500
1668,7.812500
1669,7.812500
1670,7.812500
1671,7.812500
1672,7.812500
1673,7.812500
1674,9.765625
1675,9.765625
1676,9.765625
1677,9.765625
1678,9.765625
1679,9.765625
1680,11.718750
1681,11.718750
1682,11.718750
1683,11.718750
1684,11.718750
1685,11.718750
1686,11.718750
1687,11.718750
1688,11.718750
1689,11.718750
1690,11.718750
1691,11.718750
1692,11.718750
1693,13.671875
1694,11.718750
1695,13.671875
1696,13.671875
1697,11.718750
1698,13.671875
1699,13.671875
1700,13.671875
1701,11.718750
1702,11.718750
1703,11.718750
1704,11.718750
1705,13.671875
1706,11.718750
1707,11.718750
1708,11.718750
1709,13.671875
1710,13.671875
1711,11.718750
1712,11.718750
1713,13.671875
1714,11.718750
1715,11.718750
1716,11.718750
1717,11.718750
1718,11.718750
1719,11.718750
1720,11.718750
1721,11.718750
1722,11.718750
1723,11.718750
1724,11.718750
1725,11.718750
1726,9.765625
1727,9.765625
1728,11.718750
1729,9.765625
1730,9.765625
1731,9.765625
1732,9.765625
1733,7.812500
1734,11.718750
1735,7.812500
1736,7.812500
1737,7.812500
1738,7.812500
1739,7.812500
1740,7.812500
1741,7.812500
1742,5.859375
1743,5.859375
1744,5.859375
1745,5.859375
1746,5.859375
1747,3.906250
1748,3.906250
1749,3.906250
1750,3.906250
1751,3.906250
1752,3.906250
1753,3.906250
1754,1.953125
1755,1.953125
1756,1.953125
1757,0.000000
1758,0.000000
1759,0.000000
1760,0.000000
1761,0.000000
1762,0.000000
1763,-1.953125
1764,-1.953125
1765,-1.953125
1766,-1.953125
1767,-3.906250
1768,-3.906250
1769,-3.906250
1770,-3.906250
1771,-3.906250
1772,-5.859375
1773,-5.859375
1774,-5.859375
1775,-5.859375
1776,-5.859375
1777,-7.812500
1778,-7.812500
1779,-7.812500
1780,-9.765625
1781,-9.765625
1782,-9.765625
1783,-9.765625
1784,-9.765625
1785,-11.718750
1786,-11.718750
1787,-11.718750
1788,-11.718750
1789,-11.718750
1790,-11.718750
1791,-13.671875
1792,-13.671875
1793,-13.671875
1794,-13.671875
1795,-15.625000
1796,-15.625000
1797,-15.625000
1798,-15.625000
1799,-17.578125
1800,-15.625000
1801,-17.578125
1802,-17.578125
1803,-17.578125
1804,-17.578125
1805,-17.578125
1806,-19.531250
1807,-19.531250
1808,-19.531250
1809,-19.531250
1810,-19.531250
1811,-21.484375
1812,-21.484375
1813,-21.484375
1814,-21.484375
1815,-21.484375
1816,-21.484375
1817,-21.484375
1818,-21.484375
1819,-23.437500
1820,-23.437500
1821,-21.484375
1822,-23.437500
1823,-23.437500
1824,-23.437500
1825,-23.437500
1826,-25.390625
1827,-25.390625
1828,-25.390625
1829,-25.390625
1830,-25.390625
1831,-25.390625
1832,-25.390625
1833,-25.390625
1834,-25.390625
1835,-25.390625
1836,-25.390625
1837,-25.390625
1838,-27.343750
1839,-25.390625
1840,-27.343750
1841,-27.343750
1842,-25.390625
1843,-25.390625
1844,-25.390625
1845,-25.390625
1846,-25.390625
1847,-25.390625
1848,-25.390625
1849,-25.390625
1850,-25.390625
1851,-25.390625
1852,-25.390625
1853,-25.390625
1854,-25.390625
1855,-25.390625
1856,-25.390625
1857,-25.390625
1858,-25.390625
1859,-25.390625
1860,-25.390625
1861,-23.437500
1862,-25.390625
1863,-23.437500
1864,-23.437500
1865,-23.437500
1866,-23.437500
1867,-23.437500
1868,-23.437500
1869,-23.437500
1870,-23.437500
1871,-21.484375
1872,-21.484375
1873,-21.484375
1874,-21.484375
1875,-21.484375
1876,-21.484375
1877,-21.484375
1878,-21.484375
1879,-19.531250
1880,-19.531250
1881,-19.531250
1882,-19.531250
1883,-19.531250
1884,-17.578125
1885,-17.578125
1886,-17.578125
1887,-17.578125
1888,-17.578125
1889,-17.578125
1890,-15.625000
1891,-15.625000
1892,-15.625000
1893,-15.625000
1894,-15.625000
1895,-13.671875
1896,-13.671875
1897,-13.671875
1898,-13.671875
1899,-13.671875
1900,-11.718750
1901,-11.718750
1902,-11.718750
1903,-11.718750
1904,-11.718750
1905,-9.765625
1906,-9.765625
1907,-9.765625
1908,-9.765625
1909,-9.765625
1910,-7.812500
1911,-7.812500
1912,-7.812500
1913,-7.812500
1914,-7.812500
1915,-5.859375
1916,-5.859375
1917,-5.859375
1918,-5.859375
1919,-5.859375
1920,-3.906250
1921,-3.906250
1922,-3.906250
1923,-1.953125
1924,-1.953125
1925,-1.953125
1926,-1.953125
1927,-1.953125
1928,0.000000
1929,0.000000
1930,0.000000
1931,0.000000
1932,0.000000
1933,1.953125
1934,1.953125
1935,1.953125
1936,1.953125
1937,3.906250
1938,3.906250
1939,3.906250
1940,3.906250
1941,5.859375
1942,3.906250
1943,5.859375
1944,5.859375
1945,5.859375
1946,5.859375
1947,5.859375
1948,5.859375
1949,7.812500
1950,7.812500
1951,7.812500
1952,7.812500
1953,7.812500
1954,7.812500
1955,7.812500
1956,9.765625
1957,9.765625
1958,9.765625
1959,9.765625
1960,9.765625
1961,9.765625
1962,9.765625
1963,9.765625
1964,11.718750
1965,9.765625
1966,11.718750
1967,9.765625
1968,11.718750
1969,11.718750
1970,11.718750
1971,11.718750
1972,11.718750
1973,11.718750
1974,11.718750
1975,11.718750
1976,11.718750
1977,11.718750
1978,11.718750
1979,11.718750
1980,11.718750
1981,11.718750
1982,11.718750
1983,13.671875
1984,11.718750
1985,13.671875
1986,11.718750
1987,13.671875
1988,13.671875
1989,13.671875
1990,11.718750
1991,11.718750
1992,13.671875
1993,11.718750
1994,13.671875
1995,11.718750
1996,11.718750
1997,11.718750
1998,11.718750
1999,11.718750
2000,11.718750
2001,11.718750
2002,11.718750
2003,11.718750
2004,11.718750
2005,11.718750
2006,11.718750
2007,9.765625
2008,9.765625
2009,9.765625
2010,9.765625
2011,9.765625
2012,9.765625
2013,9.765625
2014,9.765625
2015,9.765625
2016,9.765625
2017,7.812500
2018,7.812500
2019,7.812500
2020,7.812500
2021,7.812500
2022,5.859375
2023,5.859375
2024,5.859375
2025,5.859375
2026,5.859375
2027,5.859375
2028,5.859375
2029,5.859375
2030,3.906250
2031,3.906250
2032,3.906250
2033,3.906250
2034,1.953125
2035,1.953125
2036,1.953125
2037,1.953125
2038,1.953125
2039,1.953125
2040,1.953125
2041,0.000000
2042,0.000000
2043,0.000000
2044,0.000000
2045,-1.953125
2046,-1.953125
2047,-1.953125
2048,-1.953125
2049,-3.906250
2050,-3.906250
2051,-3.906250
2052,-3.906250
2053,-3.906250
2054,-3.906250
2055,-5.859375
2056,-5.859375
2057,-5.859375
2058,-5.859375
2059,-7.812500
2060,-7.812500
2061,-7.812500
2062,-7.812500
2063,-7.812500
2064,-9.765625
2065,-9.765625
2066,-9.765625
2067,-9.765625
2068,-11.718750
2069,-11.718750
2070,-11.718750
2071,-11.718750
2072,-11.718750
2073,-13.671875
2074,-13.671875
2075,-13.671875
2076,-13.671875
2077,-13.671875
2078,-15.625000
2079,-15.625000
2080,-15.625000
2081,-15.625000
2082,-17.578125
2083,-17.578125
2084,-17.578125
2085,-17.578125
2086,-17.578125
2087,-17.578125
2088,-17.578125
2089,-19.531250
2090,-19.531250
2091,-19.531250
2092,-19.531250
2093,-21.484375
2094,-21.484375
2095,-21.484375
2096,-21.484375
2097,-21.484375
2098,-21.484375
2099,-21.484375
2100,-21.484375
2101,-23.437500
2102,-23.437500
2103,-23.437500
2104,-23.437500
2105,-23.437500
2106,-25.390625
2107,-23.437500
2108,-25.390625
2109,-25.390625
2110,-25.390625
2111,-25.390625
2112,-25.390625
2113,-25.390625
2114,-25.390625
2115,-25.390625
2116,-25.390625
2117,-25.390625
2118,-25.390625
2119,-25.390625
2120,-25.390625
2121,-25.390625
2122,-25.390625
2123,-25.390625
2124,-25.390625
2125,-25.390625
2126,-25.390625
2127,-25.390625
2128,-25.390625
2129,-25.390625
2130,-25.390625
2131,-25.390625
2132,-25.390625
2133,-25.390625
2134,-25.390625
2135,-25.390625
2136,-25.390625
2137,-25.390625
2138,-25.390625
2139,-25.390625
2140,-25.390625
2141,-25.390625
2142,-23.437500
2143,-25.390625
2144,-25.390625
2145,-25.390625
2146,-23.437500
2147,-25.390625
2148,-23.437500
2149,-23.437500
2150,-23.437500
2151,-23.437500
2152,-23.437500
2153,-23.437500
2154,-21.484375
2155,-23.437500
2156,-23.437500
2157,-23.437500
2158,-21.484375
2159,-21.484375
2160,-21.484375
2161,-21.484375
2162,-21.484375
2163,-19.531250
2164,-19.531250
2165,-19.531250
2166,-19.531250
2167,-19.531250
2168,-19.531250
2169,-17.578125
2170,-17.578125
2171,-17.578125
2172,-17.578125
2173,-15.625000
2174,-15.625000
2175,-15.625000
2176,-15.625000
2177,-15.625000
2178,-13.671875
2179,-13.671875
2180,-13.671875
2181,-13.671875
2182,-11.718750
2183,-11.718750
2184,-11.718750
2185,-11.718750
2186,-11.718750
2187,-11.718750
2188,-9.765625
2189,-9.765625
2190,-9.765625
2191,-9.765625
2192,-7.812500
2193,-7.812500
2194,-7.812500
2195,-5.859375
2196,-5.859375
2197,-5.859375
2198,-5.859375
2199,-5.859375
2200,-5.859375
2201,-5.859375
2202,-3.906250
2203,-3.906250
2204,-3.906250
2205,-1.953125
2206,-1.953125
2207,-1.953125
2208,-1.953125
2209,-1.953125
2210,0.000000
2211,0.000000
2212,0.000000
2213,0.000000
2214,0.000000
2215,1.953125
2216,0.000000
2217,1.953125
2218,1.953125
2219,1.953125
2220,1.953125
2221,3.906250
2222,3.906250
2223,3.906250
2224,3.906250
2225,3.906250
2226,5.859375
2227,5.859375
2228,5.859375
2229,5.859375
2230,5.859375
2231,5.859375
2232,7.812500
2233,7.812500
2234,7.812500
2235,7.812500
2236,7.812500
2237,7.812500
2238,9.765625
2239,7.812500
2240,9.765625
2241,7.812500
2242,9.765625
2243,9.765625
2244,11.718750
2245,9.765625
2246,11.718750
2247,11.718750
2248,11.718750
2249,11.718750
2250,11.718750
2251,11.718750
2252,11.718750
2253,11.718750
2254,11.718750
2255,11.718750
2256,11.718750
2257,13.671875
2258,11.718750
2259,13.671875
2260,13.671875
2261,11.718750
2262,13.671875
2263,11.718750
2264,13.671875
2265,13.671875
2266,13.671875
2267,13.671875
2268,13.671875
2269,13.671875
2270,13.671875
2271,13.671875
2272,13.671875
2273,11.718750
2274,11.718750
2275,11.718750
2276,11.718750
2277,13.671875
2278,11.718750
2279,11.718750
2280,11.718750
2281,11.718750
2282,11.718750
2283,11.718750
2284,11.718750
2285,11.718750
2286,11.718750
2287,11.718750
2288,11.718750
2289,11.718750
2290,9.765625
2291,9.765625
2292,9.765625
2293,9.765625
2294,9.765625
2295,9.765625
2296,9.765625
2297,9.765625
2298,9.765625
2299,7.812500
2300,7.812500
2301,7.812500
2302,7.812500
2303,7.812500
2304,7.812500
2305,7.812500
2306,3.906250
2307,5.859375
2308,5.859375
2309,5.859375
2310,5.859375
2311,5.859375
2312,5.859375
2313,3.906250
2314,3.906250
2315,3.906250
2316,1.953125
2317,3.906250
2318,1.953125
2319,1.953125
2320,1.953125
2321,1.953125
2322,1.953125
2323,1.953125
2324,0.000000
2325,0.000000
2326,0.000000
2327,0.000000
2328,-1.953125
2329,-1.953125
2330,-1.953125
2331,-1.953125
2332,-3.906250
2333,-3.906250
2334,-3.906250
2335,-3.906250
2336,-3.906250
2337,-5.859375
2338,-5.859375
2339,-5.859375
2340,-5.859375
2341,-7.812500
2342,-7.812500
2343,-7.812500
2344,-7.812500
2345,-9.765625
2346,-9.765625
2347,-9.765625
2348,-9.765625
2349,-11.718750
2350,-9.765625
2351,-11.718750
2352,-11.718750
2353,-11.718750
2354,-11.718750
2355,-11.718750
2356,-13.671875
2357,-13.671875
2358,-13.671875
2359,-13.671875
2360,-15.625000
2361,-15.625000
2362,-15.625000
2363,-15.625000
2364,-17.578125
2365,-17.578125
2366,-17.578125
2367,-17.578125
2368,-19.531250
2369,-19.531250
2370,-19.531250
2371,-19.531250
2372,-19.531250
2373,-19.531250
2374,-19.531250
2375,-21.484375
2376,-19.531250
2377,-21.484375
2378,-21.484375
2379,-21.484375
2380,-23.437500
2381,-23.437500
2382,-23.437500
2383,-23.437500
2384,-23.437500
2385,-23.437500
2386,-23.437500
2387,-23.437500
2388,-23.437500
2389,-23.437500
2390,-25.390625
2391,-25.390625
2392,-25.390625
2393,-25.390625
2394,-23.437500
2395,-25.390625
2396,-25.390625
2397,-25.390625
2398,-25.390625
2399,-25.390625
2400,-25.390625
2401,-25.390625
2402,-25.390625
2403,-25.390625
2404,-25.390625
2405,-25.390625
2406,-25.390625
2407,-27.343750
2408,-27.343750
2409,-27.343750
2410,-25.390625
2411,-27.343750
2412,-25.390625
2413,-27.343750
2414,-27.343750
2415,-25.390625
2416,-25.390625
2417,-25.390625
2418,-25.390625
2419,-25.390625
2420,-25.390625
2421,-25.390625
2422,-25.390625
2423,-25.390625
2424,-25.390625
2425,-25.390625
2426,-25.390625
2427,-25.390625
2428,-23.437500
2429,-25.390625
2430,-23.437500
2431,-23.437500
2432,-23.437500
2433,-23.437500
2434,-23.437500
2435,-23.437500
2436,-23.437500
2437,-21.484375
2438,-21.484375
2439,-21.484375
2440,-21.484375
2441,-21.484375
2442,-19.531250
2443,-19.531250
2444,-19.531250
2445,-19.531250
2446,-19.531250
2447,-19.531250
2448,-19.531250
2449,-19.531250
2450,-17.578125
2451,-17.578125
2452,-17.578125
2453,-17.578125
2454,-17.578125
2455,-17.578125
2456,-15.625000
2457,-15.625000
2458,-15.625000
2459,-13.671875
2460,-15.625000
2461,-13.671875
2462,-13.671875
2463,-13.671875
2464,-13.671875
2465,-13.671875
2466,-11.718750
2467,-11.718750
2468,-11.718750
2469,-11.718750
2470,-9.765625
2471,-9.765625
2472,-9.765625
2473,-9.765625
2474,-7.812500
2475,-7.812500
2476,-7.812500
2477,-7.812500
2478,-7.812500
2479,-5.859375
2480,-5.859375
2481,-5.859375
2482,-5.859375
2483,-3.906250
2484,-5.859375
2485,-5.859375
2486,-3.906250
2487,-3.906250
2488,-3.906250
2489,-1.953125
2490,-1.953125
2491,-1.953125
2492,-1.953125
2493,-1.953125
2494,-1.953125
2495,0.000000
2496,0.000000
2497,1.953125
2498,1.953125
2499,1.953125
2500,1.953125
2501,3.906250
2502,1.953125
2503,3.906250
2504,3.906250
2505,3.906250
2506,3.906250
2507,5.859375
2508,5.859375
2509,5.859375
2510,5.859375
2511,5.859375
2512,5.859375
2513,7.812500
2514,7.812500
2515,7.812500
2516,7.812500
2517,7.812500
2518,7.812500
2519,7.812500
2520,7.812500
2521,9.765625
2522,9.765625
2523,9.765625
2524,11.718750
2525,9.765625
2526,9.765625
2527,9.765625
2528,9.765625
2529,11.718750
2530,11.718750
2531,9.765625
2532,11.718750
2533,11.718750
2534,11.718750
2535,11.718750
2536,11.718750
2537,11.718750
2538,11.718750
2539,11.718750
2540,11.718750
2541,11.718750
2542,13.671875
2543,11.718750
2544,11.718750
2545,11.718750
2546,11.718750
2547,13.671875
2548,11.718750
2549,13.671875
2550,11.718750
2551,11.718750
2552,13.671875
2553,13.671875
2554,13.671875
2555,11.718750
2556,11.718750
2557,11.718750
2558,11.718750
2559,11.718750
2560,11.718750
2561,11.718750
2562,11.718750
2563,11.718750
2564,11.718750
2565,11.718750
2566,11.718750
2567,11.718750
2568,11.718750
2569,11.718750
2570,11.718750
2571,11.718750
2572,11.718750
2573,9.765625
2574,9.765625
2575,9.765625
2576,9.765625
2577,9.765625
2578,9.765625
2579,9.765625
2580,9.765625
2581,7.812500
2582,7.812500
2583,7.812500
2584,7.812500
2585,7.812500
2586,7.812500
2587,7.812500
2588,7.812500
2589,5.859375
2590,5.859375
2591,5.859375
2592,5.859375
2593,5.859375
2594,5.859375
2595,3.906250
2596,3.906250
2597,3.906250
2598,3.906250
2599,3.906250
2600,3.906250
2601,1.953125
2602,1.953125
2603,1.953125
2604,0.000000
2605,0.000000
2606,0.000000
2607,0.000000
2608,0.000000
2609,0.000000
2610,-1.953125
2611,-1.953125
2612,-1.953125
2613,-3.906250
2614,-3.906250
2615,-3.906250
2616,-3.906250
2617,-3.906250
2618,-3.906250
2619,-5.859375
2620,-5.859375
2621,-5.859375
2622,-5.859375
2623,-5.859375
2624,-7.812500
2625,-7.812500
2626,-7.812500
2627,-7.812500
2628,-9.765625
2629,-9.765625
2630,-9.765625
2631,-11.718750
2632,-11.718750
2633,-11.718750
2634,-11.718750
2635,-11.718750
2636,-11.718750
2637,-11.718750
2638,-13.671875
2639,-13.671875
2640,-13.671875
2641,-13.671875
2642,-13.671875
2643,-15.625000
2644,-15.625000
2645,-15.625000
2646,-15.625000
2647,-17.578125
2648,-17.578125
2649,-17.578125
2650,-17.578125
2651,-17.578125
2652,-17.578125
2653,-19.531250
2654,-19.531250
2655,-19.531250
2656,-19.531250
2657,-19.531250
2658,-19.531250
2659,-21.484375
2660,-21.484375
2661,-21.484375
2662,-21.484375
2663,-21.484375
2664,-21.484375
2665,-21.484375
2666,-21.484375
2667,-23.437500
2668,-23.437500
2669,-23.437500
2670,-23.437500
2671,-23.437500
2672,-23.437500
2673,-23.437500
2674,-25.390625
2675,-23.437500
2676,-25.390625
2677,-25.390625
2678,-25.390625
2679,-25.390625
2680,-25.390625
2681,-25.390625
2682,-25.390625
2683,-25.390625
2684,-25.390625
2685,-25.390625
2686,-25.390625
2687,-27.343750
2688,-25.390625
2689,-27.343750
2690,-27.343750
2691,-27.343750
2692,-25.390625
2693,-25.390625
2694,-25.390625
2695,-25.390625
2696,-27.343750
2697,-25.390625
2698,-25.390625
2699,-25.390625
2700,-25.390625
2701,-27.343750
2702,-27.343750
2703,-25.390625
2704,-25.390625
2705,-25.390625
2706,-25.390625
2707,-25.390625
2708,-25.390625
2709,-23.437500
2710,-23.437500
2711,-23.437500
2712,-23.437500
2713,-23.437500
2714,-23.437500
2715,-23.437500
2716,-23.437500
2717,-23.437500
2718,-23.437500
2719,-21.484375
2720,-23.437500
2721,-21.484375
2722,-21.484375
2723,-21.484375
2724,-21.484375
2725,-21.484375
2726,-19.531250
2727,-19.531250
2728,-19.531250
2729,-19.531250
2730,-19.531250
2731,-19.531250
2732,-19.531250
2733,-17.578125
2734,-19.531250
2735,-17.578125
2736,-17.578125
2737,-17.578125
2738,-15.625000
2739,-15.625000
2740,-15.625000
2741,-15.625000
2742,-15.625000
2743,-15.625000
2744,-13.671875
2745,-13.671875
2746,-13.671875
2747,-13.671875
2748,-11.718750
2749,-11.718750
2750,-11.718750
2751,-11.718750
2752,-11.718750
2753,-9.765625
2754,-9.765625
2755,-9.765625
2756,-9.765625
2757,-7.812500
2758,-7.812500
2759,-7.812500
2760,-7.812500
2761,-5.859375
2762,-5.859375
2763,-5.859375
2764,-3.906250
2765,-3.906250
2766,-3.906250
2767,-3.906250
2768,-3.906250
2769,-3.906250
2770,-3.906250
2771,-1.953125
2772,-1.953125
2773,-1.953125
2774,0.000000
2775,0.000000
2776,0.000000
2777,0.000000
2778,0.000000
2779,1.953125
2780,1.953125
2781,1.953125
2782,1.953125
2783,1.953125
2784,3.906250
2785,1.953125
2786,3.906250
2787,3.906250
2788,3.906250
2789,3.906250
2790,5.859375
2791,5.859375
2792,5.859375
2793,5.859375
2794,5.859375
2795,5.859375
2796,5.859375
2797,7.812500
2798,7.812500
2799,7.812500
2800,7.812500
2801,7.812500
2802,9.765625
2803,7.812500
2804,9.765625
2805,9.765625
2806,9.765625
2807,9.765625
2808,9.765625
2809,9.765625
2810,9.765625
2811,9.765625
2812,11.718750
2813,11.718750
2814,11.718750
2815,11.718750
2816,11.718750
2817,11.718750
2818,11.718750
2819,11.718750
2820,13.671875
2821,11.718750
2822,11.718750
2823,11.718750
2824,11.718750
2825,11.718750
2826,11.718750
2827,13.671875
2828,13.671875
2829,11.718750
2830,13.671875
2831,11.718750
2832,13.671875
2833,13.671875
2834,13.671875
2835,13.671875
2836,13.671875
2837,13.671875
2838,13.671875
2839,13.671875
2840,11.718750
2841,11.718750
2842,11.718750
2843,11.718750
2844,11.718750
2845,11.718750
2846,11.718750
2847,11.718750
2848,11.718750
2849,11.718750
2850,11.718750
2851,11.718750
2852,11.718750
2853,11.718750
2854,11.718750
2855,9.765625
2856,9.765625
2857,11.718750
2858,9.765625
2859,9.765625
2860,9.765625
2861,9.765625
2862,9.765625
2863,7.812500
2864,7.812500
2865,9.765625
2866,7.812500
2867,7.812500
2868,7.812500
2869,7.812500
2870,5.859375
2871,7.812500
2872,5.859375
2873,5.859375
2874,5.859375
2875,3.906250
2876,3.906250
2877,3.906250
2878,3.906250
2879,3.906250
2880,3.906250
2881,1.953125
2882,1.953125
2883,1.953125
2884,1.953125
2885,1.953125
2886,0.000000
2887,1.953125
2888,0.000000
2889,0.000000
2890,0.000000
2891,-1.953125
2892,-1.953125
2893,0.000000
2894,-1.953125
2895,-1.953125
2896,-3.906250
2897,-3.906250
2898,-3.906250
2899,-3.906250
2900,-3.906250
2901,-3.906250
2902,-3.906250
2903,-5.859375
2904,-5.859375
2905,-7.812500
2906,-5.859375
2907,-7.812500
2908,-7.812500
2909,-7.812500
2910,-7.812500
2911,-9.765625
2912,-9.765625
2913,-9.765625
2914,-9.765625
2915,-9.765625
2916,-11.718750
2917,-11.718750
2918,-11.718750
2919,-11.718750
2920,-13.671875
2921,-13.671875
2922,-13.671875
2923,-13.671875
2924,-15.625000
2925,-15.625000
2926,-15.625000
2927,-13.671875
2928,-15.625000
2929,-15.625000
2930,-17.578125
2931,-17.578125
2932,-17.578125
2933,-19.531250
2934,-17.578125
2935,-19.531250
2936,-19.531250
2937,-19.531250
2938,-19.531250
2939,-19.531250
2940,-21.484375
2941,-21.484375
2942,-21.484375
2943,-21.484375
2944,-21.484375
2945,-21.484375
2946,-21.484375
2947,-23.437500
2948,-23.437500
2949,-23.437500
2950,-23.437500
2951,-23.437500
2952,-23.437500
2953,-23.437500
2954,-23.437500
2955,-23.437500
2956,-25.390625
2957,-25.390625
2958,-25.390625
2959,-25.390625
2960,-25.390625
2961,-25.390625
2962,-25.390625
2963,-25.390625
2964,-25.390625
2965,-25.390625
2966,-25.390625
2967,-25.390625
2968,-25.390625
2969,-25.390625
2970,-27.343750
2971,-25.390625
2972,-27.343750
2973,-25.390625
2974,-25.390625
2975,-25.390625
2976,-25.390625
2977,-25.390625
2978,-27.343750
2979,-25.390625
2980,-25.390625
2981,-25.390625
2982,-25.390625
2983,-25.390625
2984,-25.390625
2985,-25.390625
2986,-25.390625
2987,-25.390625
2988,-25.390625
2989,-25.390625
2990,-25.390625
2991,-25.390625
2992,-25.390625
2993,-25.390625
2994,-25.390625
2995,-23.437500
2996,-23.437500
2997,-23.437500
2998,-23.437500
2999,-23.437500
3000,-23.437500
3001,-23.437500
3002,-23.437500
3003,-21.484375
3004,-21.484375
3005,-21.484375
3006,-21.484375
3007,-21.484375
3008,-21.484375
3009,-19.531250
3010,-19.531250
3011,-21.484375
3012,-19.531250
3013,-19.531250
3014,-19.531250
3015,-17.578125
3016,-17.578125
3017,-17.578125
3018,-17.578125
3019,-17.578125
3020,-17.578125
3021,-15.625000
3022,-15.625000
3023,-15.625000
3024,-15.625000
3025,-15.625000
3026,-13.671875
3027,-13.671875
3028,-13.671875
3029,-11.718750
3030,-11.718750
3031,-11.718750
3032,-11.718750
3033,-11.718750
3034,-9.765625
3035,-9.765625
3036,-9.765625
3037,-9.765625
3038,-7.812500
3039,-7.812500
3040,-7.812500
3041,-7.812500
3042,-7.812500
3043,-5.859375
3044,-5.859375
3045,-5.859375
3046,-5.859375
3047,-5.859375
3048,-3.906250
3049,-3.906250
3050,-3.906250
3051,-3.906250
3052,-1.953125
3053,-1.953125
3054,-1.953125
3055,-1.953125
3056,-1.953125
3057,0.000000
3058,0.000000
3059,0.000000
3060,0.000000
3061,0.000000
3062,1.953125
3063,1.953125
3064,1.953125
3065,1.953125
3066,1.953125
3067,1.953125
3068,3.906250
3069,3.906250
3070,3.906250
3071,5.859375
3072,3.906250
3073,3.906250
3074,5.859375
3075,5.859375
3076,5.859375
3077,5.859375
3078,5.859375
3079,7.812500
3080,3.906250
3081,7.812500
3082,7.812500
3083,7.812500
3084,9.765625
3085,7.812500
3086,9.765625
3087,9.765625
3088,9.765625
3089,9.765625
3090,9.765625
3091,11.718750
3092,9.765625
3093,11.718750
3094,9.765625
3095,11.718750
3096,11.718750
3097,11.718750
3098,11.718750
3099,11.718750
3100,11.718750
3101,11.718750
3102,11.718750
3103,11.718750
3104,11.718750
3105,13.671875
3106,13.671875
3107,13.671875
3108,11.718750
3109,13.671875
3110,11.718750
3111,13.671875
3112,13.671875
3113,13.671875
3114,13.671875
3115,13.671875
3116,13.671875
3117,13.671875
3118,11.718750
3119,15.625000
3120,13.671875
3121,11.718750
3122,11.718750
3123,13.671875
3124,11.718750
3125,13.671875
3126,11.718750
3127,11.718750
3128,11.718750
3129,11.718750
3130,11.718750
3131,11.718750
3132,9.765625
3133,11.718750
3134,11.718750
3135,13.671875
3136,11.718750
3137,11.718750
3138,11.718750
3139,9.765625
3140,9.765625
3141,9.765625
3142,9.765625
3143,9.765625
3144,9.765625
3145,9.765625
3146,9.765625
3147,7.812500
3148,7.812500
3149,7.812500
3150,7.812500
3151,7.812500
3152,7.812500
3153,7.812500
3154,5.859375
3155,5.859375
3156,5.859375
3157,5.859375
3158,5.859375
3159,5.859375
3160,5.859375
3161,3.906250
3162,3.906250
3163,3.906250
3164,3.906250
3165,1.953125
3166,1.953125
3167,1.953125
3168,1.953125
3169,1.953125
3170,0.000000
3171,0.000000
3172,0.000000
3173,0.000000
3174,0.000000
3175,-1.953125
3176,-1.953125
3177,-1.953125
3178,-1.953125
3179,-1.953125
3180,-3.906250
3181,-3.906250
3182,-3.906250
3183,-3.906250
3184,-3.906250
3185,-5.859375
3186,-5.859375
3187,-5.859375
3188,-7.812500
3189,-7.812500
3190,-7.812500
3191,-7.812500
3192,-9.765625
3193,-7.812500
3194,-9.765625
3195,-9.765625
3196,-11.718750
3197,-9.765625
3198,-11.718750
3199,-11.718750
3200,-11.718750
3201,-13.671875
3202,-13.671875
3203,-11.718750
3204,-13.671875
3205,-13.671875
3206,-15.625000
3207,-15.625000
3208,-15.625000
3209,-15.625000
3210,-15.625000
3211,-15.625000
3212,-17.578125
3213,-17.578125
3214,-17.578125
3215,-17.578125
3216,-19.531250
3217,-19.531250
3218,-19.531250
3219,-19.531250
3220,-19.531250
3221,-19.531250
3222,-19.531250
3223,-19.531250
3224,-19.531250
3225,-21.484375
3226,-21.484375
3227,-21.484375
3228,-21.484375
3229,-21.484375
3230,-23.437500
3231,-23.437500
3232,-23.437500
3233,-23.437500
3234,-23.437500
3235,-23.437500
3236,-23.437500
3237,-23.437500
3238,-23.437500
3239,-23.437500
3240,-23.437500
3241,-25.390625
3242,-25.390625
3243,-25.390625
3244,-25.390625
3245,-25.390625
3246,-25.390625
3247,-27.343750
3248,-25.390625
3249,-25.390625
3250,-25.390625
3251,-27.343750
3252,-25.390625
3253,-25.390625
3254,-25.390625
3255,-25.390625
3256,-25.390625
3257,-25.390625
3258,-27.343750
3259,-27.343750
3260,-25.390625
3261,-25.390625
3262,-25.390625
3263,-27.343750
3264,-25.390625
3265,-25.390625
3266,-25.390625
3267,-25.390625
3268,-23.437500
3269,-25.390625
3270,-25.390625
3271,-21.484375
3272,-25.390625
3273,-25.390625
3274,-23.437500
3275,-25.390625
3276,-23.437500
3277,-23.437500
3278,-23.437500
3279,-23.437500
3280,-21.484375
3281,-23.437500
3282,-23.437500
3283,-21.484375
3284,-23.437500
3285,-21.484375
3286,-19.531250
3287,-21.484375
3288,-21.484375
3289,-21.484375
3290,-19.531250
3291,-19.531250
3292,-19.531250
3293,-19.531250
3294,-19.531250
3295,-19.531250
3296,-19.531250
3297,-17.578125
3298,-17.578125
3299,-17.578125
3300,-17.578125
3301,-17.578125
3302,-15.625000
3303,-15.625000
3304,-15.625000
3305,-15.625000
3306,-15.625000
3307,-13.671875
3308,-13.671875
3309,-13.671875
3310,-13.671875
3311,-13.671875
3312,-11.718750
3313,-11.718750
3314,-11.718750
3315,-11.718750
3316,-11.718750
3317,-11.718750
3318,-9.765625
3319,-9.765625
3320,-9.765625
3321,-7.812500
3322,-7.812500
3323,-5.859375
3324,-7.812500
3325,-7.812500
3326,-7.812500
3327,-5.859375
3328,-5.859375
3329,-5.859375
3330,-3.906250
3331,-3.906250
3332,-3.906250
3333,-3.906250
3334,-1.953125
3335,-1.953125
3336,-1.953125
3337,-1.953125
3338,-1.953125
3339,0.000000
3340,0.000000
3341,0.000000
3342,0.000000
3343,1.953125
3344,0.000000
3345,1.953125
3346,1.953125
3347,1.953125
3348,1.953125
3349,3.906250
3350,3.906250
3351,3.906250
3352,3.906250
3353,3.906250
3354,5.859375
3355,5.859375
3356,5.859375
3357,5.859375
3358,5.859375
3359,5.859375
3360,7.812500
3361,7.812500
3362,7.812500
3363,7.812500
3364,7.812500
3365,7.812500
3366,7.812500
3367,7.812500
3368,9.765625
3369,9.765625
3370,9.765625
3371,9.765625
3372,9.765625
3373,9.765625
3374,9.765625
3375,11.718750
3376,11.718750
3377,11.718750
3378,11.718750
3379,11.718750
3380,11.718750
3381,11.718750
3382,11.718750
3383,11.718750
3384,11.718750
3385,11.718750
3386,11.718750
3387,11.718750
3388,13.671875
3389,11.718750
3390,11.718750
3391,11.718750
3392,13.671875
3393,13.671875
3394,13.671875
3395,11.718750
3396,13.671875
3397,13.671875
3398,13.671875
3399,11.718750
3400,11.718750
3401,13.671875
3402,13.671875
3403,13.671875
3404,11.718750
3405,13.671875
3406,13.671875
3407,13.671875
3408,11.718750
3409,11.718750
3410,11.718750
3411,11.718750
3412,11.718750
3413,11.718750
3414,11.718750
3415,11.718750
3416,11.718750
3417,11.718750
3418,11.718750
3419,9.765625
3420,11.718750
3421,11.718750
3422,9.765625
3423,9.765625
3424,9.765625
3425,9.765625
3426,9.765625
3427,9.765625
3428,9.765625
3429,7.812500
3430,7.812500
3431,7.812500
3432,7.812500
3433,7.812500
3434,7.812500
3435,7.812500
3436,5.859375
3437,5.859375
3438,5.859375
3439,5.859375
3440,5.859375
3441,5.859375
3442,3.906250
3443,3.906250
3444,3.906250
3445,3.906250
3446,3.906250
3447,3.906250
3448,3.906250
3449,1.953125
3450,1.953125
3451,1.953125
3452,1.953125
3453,0.000000
3454,0.000000
3455,0.000000
3456,-1.953125
3457,-1.953125
3458,-1.953125
3459,-1.953125
3460,-3.906250
3461,-1.953125
3462,-3.906250
3463,-3.906250
3464,-3.906250
3465,-3.906250
3466,-3.906250
3467,-5.859375
3468,-5.859375
3469,-5.859375
3470,-5.859375
3471,-7.812500
3472,-7.812500
3473,-7.812500
3474,-7.812500
3475,-7.812500
3476,-9.765625
3477,-9.765625
3478,-9.765625
3479,-9.765625
3480,-11.718750
3481,-11.718750
3482,-11.718750
3483,-11.718750
3484,-11.718750
3485,-13.671875
3486,-13.671875
3487,-13.671875
3488,-13.671875
3489,-15.625000
3490,-15.625000
3491,-15.625000
3492,-15.625000
3493,-15.625000
3494,-17.578125
3495,-17.578125
3496,-17.578125
3497,-17.578125
3498,-17.578125
3499,-17.578125
3500,-19.531250
3501,-19.531250
3502,-19.531250
3503,-19.531250
3504,-19.531250
3505,-19.531250
3506,-21.484375
3507,-21.484375
3508,-21.484375
3509,-21.484375
3510,-19.531250
3511,-23.437500
3512,-23.437500
3513,-23.437500
3514,-23.437500
3515,-23.437500
3516,-23.437500
3517,-23.437500
3518,-23.437500
3519,-23.437500
3520,-25.390625
3521,-25.390625
3522,-25.390625
3523,-25.390625
3524,-25.390625
3525,-25.390625
3526,-25.390625
3527,-25.390625
3528,-25.390625
3529,-25.390625
3530,-25.390625
3531,-25.390625
3532,-25.390625
3533,-25.390625
3534,-25.390625
3535,-25.390625
3536,-27.343750
3537,-25.390625
3538,-25.390625
3539,-25.390625
3540,-25.390625
3541,-27.343750
3542,-25.390625
3543,-25.390625
3544,-25.390625
3545,-25.390625
3546,-25.390625
3547,-25.390625
3548,-25.390625
3549,-25.390625
3550,-25.390625
3551,-25.390625
3552,-25.390625
3553,-25.390625
3554,-25.390625
3555,-25.390625
3556,-25.390625
3557,-25.390625
3558,-23.437500
3559,-23.437500
3560,-23.437500
3561,-23.437500
3562,-23.437500
3563,-23.437500
3564,-23.437500
3565,-23.437500
3566,-23.437500
3567,-21.484375
3568,-21.484375
3569,-21.484375
3570,-21.484375
3571,-21.484375
3572,-21.484375
3573,-21.484375
3574,-19.531250
3575,-19.531250
3576,-19.531250
3577,-19.531250
3578,-19.531250
3579,-17.578125
3580,-17.578125
3581,-17.578125
3582,-17.578125
3583,-17.578125
3584,-17.578125
3585,-15.625000
3586,-15.625000
3587,-15.625000
3588,-15.625000
3589,-15.625000
3590,-13.671875
3591,-13.671875
3592,-13.671875
3593,-13.671875
3594,-11.718750
3595,-11.718750
3596,-11.718750
3597,-11.718750
3598,-11.718750
3599,-11.718750
3600,-9.765625
3601,-9.765625
3602,-7.812500
3603,-7.812500
3604,-7.812500
3605,-7.812500
3606,-5.859375
3607,-5.859375
3608,-5.859375
3609,-5.859375
3610,-5.859375
3611,-5.859375
3612,-3.906250
3613,-3.906250
3614,-3.906250
3615,-3.906250
3616,-3.906250
3617,-1.953125
3618,-1.953125
3619,-1.953125
3620,-1.953125
3621,0.000000
3622,0.000000
3623,0.000000
3624,0.000000
3625,0.000000
3626,1.953125
3627,1.953125
3628,1.953125
3629,1.953125
3630,3.906250
3631,3.906250
3632,3.906250
3633,3.906250
3634,3.906250
3635,3.906250
3636,5.859375
3637,5.859375
3638,5.859375
3639,5.859375
3640,5.859375
3641,7.812500
3642,5.859375
3643,5.859375
3644,7.812500
3645,7.812500
3646,7.812500
3647,7.812500
3648,9.765625
3649,7.812500
3650,7.812500
3651,9.765625
3652,9.765625
3653,9.765625
3654,9.765625
3655,9.765625
3656,9.765625
3657,9.765625
3658,11.718750
3659,11.718750
3660,11.718750
3661,11.718750
3662,11.718750
3663,11.718750
3664,11.718750
3665,11.718750
3666,11.718750
3667,11.718750
3668,11.718750
3669,11.718750
3670,11.718750
3671,13.671875
3672,13.671875
3673,11.718750
3674,13.671875
3675,13.671875
3676,11.718750
3677,11.718750
3678,13.671875
3679,13.671875
3680,13.671875
3681,13.671875
3682,13.671875
3683,13.671875
3684,13.671875
3685,13.671875
3686,11.718750
3687,13.671875
3688,13.671875
3689,13.671875
3690,13.671875
3691,11.718750
3692,11.718750
3693,11.718750
3694,11.718750
3695,11.718750
3696,11.718750
3697,11.718750
3698,11.718750
3699,11.718750
3700,11.718750
3701,11.718750
3702,9.765625
3703,9.765625
3704,9.765625
3705,9.765625
3706,9.765625
3707,9.765625
3708,9.765625
3709,9.765625
3710,7.812500
3711,9.765625
3712,7.812500
3713,7.812500
3714,7.812500
3715,7.812500
3716,7.812500
3717,5.859375
3718,5.859375
3719,5.859375
3720,5.859375
3721,5.859375
3722,5.859375
3723,5.859375
3724,3.906250
3725,3.906250
3726,3.906250
3727,3.906250
3728,3.906250
3729,1.953125
3730,3.906250
3731,1.953125
3732,1.953125
3733,1.953125
3734,0.000000
3735,0.000000
3736,0.000000
3737,0.000000
3738,0.000000
3739,0.000000
3740,-1.953125
3741,-1.953125
3742,-1.953125
3743,-1.953125
3744,-1.953125
3745,-3.906250
3746,-3.906250
3747,-3.906250
3748,-3.906250
3749,-3.906250
3750,-5.859375
3751,-5.859375
3752,-5.859375
3753,-7.812500
3754,-7.812500
3755,-7.812500
3756,-7.812500
3757,-7.812500
3758,-9.765625
3759,-9.765625
3760,-9.765625
3761,-9.765625
3762,-11.718750
3763,-11.718750
3764,-11.718750
3765,-11.718750
3766,-11.718750
3767,-13.671875
3768,-13.671875
3769,-13.671875
3770,-13.671875
3771,-13.671875
3772,-15.625000
3773,-15.625000
3774,-15.625000
3775,-15.625000
3776,-15.625000
3777,-17.578125
3778,-17.578125
3779,-17.578125
3780,-17.578125
3781,-19.531250
3782,-19.531250
3783,-19.531250
3784,-19.531250
3785,-19.531250
3786,-19.531250
3787,-21.484375
3788,-21.484375
3789,-21.484375
3790,-21.484375
3791,-21.484375
3792,-21.484375
3793,-21.484375
3794,-21.484375
3795,-21.484375
3796,-21.484375
3797,-23.437500
3798,-23.437500
3799,-23.437500
3800,-23.437500
3801,-23.437500
3802,-23.437500
3803,-25.390625
3804,-23.437500
3805,-23.437500
3806,-25.390625
3807,-25.390625
3808,-25.390625
3809,-25.390625
3810,-25.390625
3811,-25.390625
3812,-25.390625
3813,-25.390625
3814,-25.390625
3815,-25.390625
3816,-25.390625
3817,-25.390625
3818,-25.390625
3819,-25.390625
3820,-25.390625
3821,-25.390625
3822,-25.390625
3823,-25.390625
3824,-27.343750
3825,-25.390625
3826,-25.390625
3827,-25.390625
3828,-25.390625
3829,-25.390625
3830,-25.390625
3831,-25.390625
3832,-25.390625
3833,-25.390625
3834,-25.390625
3835,-25.390625
3836,-25.390625
3837,-25.390625
3838,-23.437500
3839,-25.390625
3840,-25.390625
3841,-23.437500
3842,-23.437500
3843,-25.390625
3844,-23.437500
3845,-23.437500
3846,-23.437500
3847,-23.437500
3848,-21.484375
3849,-21.484375
3850,-21.484375
3851,-21.484375
3852,-21.484375
3853,-25.390625
3854,-21.484375
3855,-19.531250
3856,-21.484375
3857,-19.531250
3858,-19.531250
3859,-17.578125
3860,-19.531250
3861,-19.531250
3862,-17.578125
3863,-17.578125
3864,-17.578125
3865,-17.578125
3866,-15.625000
3867,-15.625000
3868,-15.625000
3869,-15.625000
3870,-15.625000
3871,-15.625000
3872,-13.671875
3873,-13.671875
3874,-13.671875
3875,-13.671875
3876,-11.718750
3877,-11.718750
3878,-11.718750
3879,-11.718750
3880,-11.718750
3881,-9.765625
3882,-9.765625
3883,-9.765625
3884,-9.765625
3885,-9.765625
3886,-7.812500
3887,-7.812500
3888,-7.812500
3889,-7.812500
3890,-5.859375
3891,-5.859375
3892,-5.859375
3893,-5.859375
3894,-5.859375
3895,-3.906250
3896,-3.906250
3897,-3.906250
3898,-3.906250
3899,-3.906250
3900,-1.953125
3901,-1.953125
3902,-1.953125
3903,-1.953125
3904,-1.953125
3905,-1.953125
3906,0.000000
3907,0.000000
3908,1.953125
3909,1.953125
3910,1.953125
3911,1.953125
3912,1.953125
3913,1.953125
3914,3.906250
3915,3.906250
3916,3.906250
3917,3.906250
3918,5.859375
3919,5.859375
3920,3.906250
3921,5.859375
3922,5.859375
3923,5.859375
3924,5.859375
3925,7.812500
3926,7.812500
3927,7.812500
3928,7.812500
3929,7.812500
3930,7.812500
3931,9.765625
3932,9.765625
3933,9.765625
3934,9.765625
3935,9.765625
3936,9.765625
3937,9.765625
3938,9.765625
3939,9.765625
3940,11.718750
3941,11.718750
3942,11.718750
3943,11.718750
3944,11.718750
3945,11.718750
3946,11.718750
3947,11.718750
3948,11.718750
3949,11.718750
3950,11.718750
3951,11.718750
3952,11.718750
3953,11.718750
3954,11.718750
3955,11.718750
3956,13.671875
3957,11.718750
3958,11.718750
3959,11.718750
3960,13.671875
3961,13.671875
3962,11.718750
3963,13.671875
3964,13.671875
3965,11.718750
3966,11.718750
3967,11.718750
3968,13.671875
3969,11.718750
3970,13.671875
3971,11.718750
3972,11.718750
3973,11.718750
3974,11.718750
3975,11.718750
3976,11.718750
3977,11.718750
3978,11.718750
3979,11.718750
3980,11.718750
3981,11.718750
3982,11.718750
3983,11.718750
3984,9.765625
3985,11.718750
3986,9.765625
3987,9.765625
3988,9.765625
3989,9.765625
3990,9.765625
3991,9.765625
3992,9.765625
3993,9.765625
3994,7.812500
3995,7.812500
3996,7.812500
3997,7.812500
3998,7.812500
3999,7.812500
4000,7.812500
4001,7.812500
4002,5.859375
4003,5.859375
4004,5.859375
4005,5.859375
4006,5.859375
4007,3.906250
4008,5.859375
4009,3.906250
4010,3.906250
4011,3.906250
4012,1.953125
4013,1.953125
4014,1.953125
4015,1.953125
4016,1.953125
4017,0.000000
4018,0.000000
4019,0.000000
4020,0.000000
4021,0.000000
4022,-1.953125
4023,-1.953125
4024,-1.953125
4025,-3.906250
4026,-1.953125
4027,-3.906250
4028,-3.906250
4029,-3.906250
4030,-5.859375
4031,-5.859375
4032,-5.859375
4033,-5.859375
4034,-5.859375
4035,-7.812500
4036,-7.812500
4037,-5.859375
4038,-7.812500
4039,-7.812500
4040,-9.765625
4041,-9.765625
4042,-9.765625
4043,-9.765625
4044,-11.718750
4045,-11.718750
4046,-11.718750
4047,-11.718750
4048,-11.718750
4049,-13.671875
4050,-13.671875
4051,-13.671875
4052,-13.671875
4053,-13.671875
4054,-15.625000
4055,-15.625000
4056,-15.625000
4057,-15.625000
4058,-15.625000
4059,-17.578125
4060,-17.578125
4061,-17.578125
4062,-17.578125
4063,-17.578125
4064,-19.531250
4065,-19.531250
4066,-19.531250
4067,-19.531250
4068,-19.531250
4069,-19.531250
4070,-19.531250
4071,-21.484375
4072,-19.531250
4073,-21.484375
4074,-21.484375
4075,-21.484375
4076,-21.484375
4077,-23.437500
4078,-21.484375
4079,-23.437500
4080,-23.437500
4081,-23.437500
4082,-23.437500
4083,-23.437500
4084,-23.437500
4085,-23.437500
4086,-23.437500
4087,-25.390625
4088,-25.390625
4089,-25.390625
4090,-25.390625
4091,-25.390625
4092,-25.390625
4093,-25.390625
4094,-25.390625
4095,-25.390625
4096,-25.390625
4097,-25.390625
4098,-27.343750
4099,-27.343750
4100,-25.390625
4101,-25.390625
4102,-25.390625
4103,-25.390625
4104,-25.390625
4105,-27.343750
4106,-25.390625
4107,-25.390625
4108,-25.390625
4109,-25.390625
4110,-27.343750
4111,-25.390625
4112,-25.390625
4113,-25.390625
4114,-25.390625
4115,-25.390625
4116,-25.390625
4117,-25.390625
4118,-25.390625
4119,-25.390625
4120,-25.390625
4121,-23.437500
4122,-25.390625
4123,-23.437500
4124,-23.437500
4125,-23.437500
4126,-23.437500
4127,-23.437500
4128,-23.437500
4129,-23.437500
4130,-21.484375
4131,-21.484375
4132,-21.484375
4133,-21.484375
4134,-21.484375
4135,-21.484375
4136,-21.484375
4137,-19.531250
4138,-21.484375
4139,-19.531250
4140,-19.531250
4141,-19.531250
4142,-17.578125
4143,-17.578125
4144,-19.531250
4145,-17.578125
4146,-17.578125
4147,-17.578125
4148,-17.578125
4149,-17.578125
4150,-15.625000
4151,-15.625000
4152,-15.625000
4153,-15.625000
4154,-13.671875
4155,-13.671875
4156,-13.671875
4157,-13.671875
4158,-13.671875
4159,-13.671875
4160,-11.718750
4161,-11.718750
4162,-11.718750
4163,-9.765625
4164,-9.765625
4165,-9.765625
4166,-9.765625
4167,-9.765625
4168,-7.812500
4169,-7.812500
4170,-7.812500
4171,-5.859375
4172,-5.859375
4173,-5.859375
4174,-5.859375
4175,-5.859375
4176,-3.906250
4177,-3.906250
4178,-3.906250
4179,-3.906250
4180,-3.906250
4181,-3.906250
4182,-1.953125
4183,-1.953125
4184,-1.953125
4185,-1.953125
4186,-1.953125
4187,0.000000
4188,0.000000
4189,0.000000
4190,0.000000
4191,1.953125
4192,1.953125
4193,1.953125
4194,1.953125
4195,1.953125
4196,3.906250
4197,3.906250
4198,3.906250
4199,3.906250
4200,3.906250
4201,3.906250
4202,5.859375
4203,5.859375
4204,5.859375
4205,5.859375
4206,5.859375
4207,7.812500
4208,7.812500
4209,7.812500
4210,7.812500
4211,7.812500
4212,7.812500
4213,7.812500
4214,9.765625
4215,9.765625
4216,9.765625
4217,9.765625
4218,9.765625
4219,9.765625
4220,11.718750
4221,9.765625
4222,9.765625
4223,9.765625
4224,11.718750
4225,11.718750
4226,11.718750
4227,11.718750
4228,11.718750
4229,11.718750
4230,11.718750
4231,11.718750
4232,11.718750
4233,11.718750
4234,11.718750
4235,13.671875
4236,11.718750
4237,11.718750
4238,11.718750
4239,13.671875
4240,13.671875
4241,13.671875
4242,13.671875
4243,13.671875
4244,11.718750
4245,13.671875
4246,13.671875
4247,13.671875
4248,11.718750
4249,11.718750
4250,13.671875
4251,11.718750
4252,11.718750
4253,11.718750
4254,13.671875
4255,11.718750
4256,11.718750
4257,11.718750
4258,11.718750
4259,13.671875
4260,11.718750
4261,11.718750
4262,11.718750
4263,11.718750
4264,11.718750
4265,11.718750
4266,11.718750
4267,9.765625
4268,9.765625
4269,9.765625
4270,9.765625
4271,9.765625
4272,9.765625
4273,9.765625
4274,9.765625
4275,9.765625
4276,9.765625
4277,7.812500
4278,7.812500
4279,7.812500
4280,7.812500
4281,5.859375
4282,5.859375
4283,5.859375
4284,5.859375
4285,5.859375
4286,5.859375
4287,5.859375
4288,3.906250
4289,3.906250
4290,3.906250
4291,3.906250
4292,3.906250
4293,3.906250
4294,1.953125
4295,1.953125
4296,1.953125
4297,1.953125
4298,1.953125
4299,0.000000
4300,0.000000
4301,0.000000
4302,0.000000
4303,0.000000
4304,-1.953125
4305,-1.953125
4306,-1.953125
4307,-1.953125
4308,-1.953125
4309,-1.953125
4310,-3.906250
4311,-3.906250
4312,-5.859375
4313,-5.859375
4314,-5.859375
4315,-5.859375
4316,-5.859375
4317,-5.859375
4318,-7.812500
4319,-7.812500
4320,-7.812500
4321,-7.812500
4322,-9.765625
4323,-9.765625
4324,-9.765625
4325,-9.765625
4326,-9.765625
4327,-11.718750
4328,-11.718750
4329,-11.718750
4330,-11.718750
4331,-13.671875
4332,-13.671875
4333,-13.671875
4334,-13.671875
4335,-13.671875
4336,-13.671875
4337,-15.625000
4338,-15.625000
4339,-15.625000
4340,-15.625000
4341,-15.625000
4342,-17.578125
4343,-17.578125
4344,-17.578125
4345,-17.578125
4346,-19.531250
4347,-19.531250
4348,-19.531250
4349,-19.531250
4350,-19.531250
4351,-19.531250
4352,-19.531250
4353,-21.484375
4354,-21.484375
4355,-21.484375
4356,-21.484375
4357,-21.484375
4358,-21.484375
4359,-21.484375
4360,-23.437500
4361,-23.437500
4362,-23.437500
4363,-23.437500
4364,-23.437500
4365,-23.437500
4366,-23.437500
4367,-23.437500
4368,-25.390625
4369,-25.390625
4370,-25.390625
4371,-25.390625
4372,-25.390625
4373,-25.390625
4374,-25.390625
4375,-25.390625
4376,-25.390625
4377,-25.390625
4378,-25.390625
4379,-25.390625
4380,-25.390625
4381,-25.390625
4382,-25.390625
4383,-25.390625
4384,-25.390625
4385,-25.390625
4386,-25.390625
4387,-25.390625
4388,-25.390625
4389,-25.390625
4390,-25.390625
4391,-25.390625
4392,-25.390625
4393,-25.390625
4394,-25.390625
4395,-25.390625
4396,-25.390625
4397,-25.390625
4398,-25.390625
4399,-25.390625
4400,-25.390625
4401,-23.437500
4402,-25.390625
4403,-25.390625
4404,-23.437500
4405,-23.437500
4406,-23.437500
4407,-23.437500
4408,-23.437500
4409,-23.437500
4410,-21.484375
4411,-23.437500
4412,-23.437500
4413,-21.484375
4414,-23.437500
4415,-21.484375
4416,-21.484375
4417,-21.484375
4418,-21.484375
4419,-21.484375
4420,-19.531250
4421,-19.531250
4422,-19.531250
4423,-19.531250
4424,-19.531250
4425,-19.531250
4426,-17.578125
4427,-17.578125
4428,-17.578125
4429,-17.578125
4430,-15.625000
4431,-17.578125
4432,-15.625000
4433,-15.625000
4434,-15.625000
4435,-15.625000
4436,-15.625000
4437,-13.671875
4438,-13.671875
4439,-13.671875
4440,-15.625000
4441,-13.671875
4442,-11.718750
4443,-11.718750
4444,-11.718750
4445,-11.718750
4446,-11.718750
4447,-9.765625
4448,-9.765625
4449,-9.765625
4450,-7.812500
4451,-7.812500
4452,-7.812500
4453,-7.812500
4454,-7.812500
4455,-5.859375
4456,-5.859375
4457,-5.859375
4458,-5.859375
4459,-3.906250
4460,-3.906250
4461,-3.906250
4462,-3.906250
4463,-3.906250
4464,-1.953125
4465,-1.953125
4466,-1.953125
4467,0.000000
4468,-1.953125
4469,0.000000
4470,-1.953125
4471,0.000000
4472,0.000000
4473,1.953125
4474,1.953125
4475,1.953125
4476,1.953125
4477,1.953125
4478,1.953125
4479,1.953125
4480,3.906250
4481,3.906250
4482,3.906250
4483,3.906250
4484,5.859375
4485,5.859375
4486,5.859375
4487,5.859375
4488,5.859375
4489,5.859375
4490,5.859375
4491,7.812500
4492,5.859375
4493,7.812500
4494,7.812500
4495,7.812500
4496,7.812500
4497,7.812500
4498,9.765625
4499,9.765625
4500,9.765625
4501,9.765625
4502,9.765625
4503,9.765625
4504,9.765625
4505,9.765625
4506,9.765625
4507,11.718750
4508,11.718750
4509,11.718750
4510,11.718750
4511,11.718750
4512,11.718750
4513,11.718750
4514,11.718750
4515,11.718750
4516,11.718750
4517,13.671875
4518,13.671875
4519,11.718750
4520,13.671875
4521,13.671875
4522,13.671875
4523,13.671875
4524,13.671875
4525,13.671875
4526,13.671875
4527,13.671875
4528,13.671875
4529,13.671875
4530,13.671875
4531,13.671875
4532,13.671875
4533,11.718750
4534,11.718750
4535,13.671875
4536,11.718750
4537,11.718750
4538,11.718750
4539,11.718750
4540,11.718750
4541,11.718750
4542,11.718750
4543,11.718750
4544,11.718750
4545,11.718750
4546,9.765625
4547,11.718750
4548,9.765625
4549,9.765625
4550,9.765625
4551,9.765625
4552,9.765625
4553,9.765625
4554,9.765625
4555,9.765625
4556,9.765625
4557,9.765625
4558,7.812500
4559,7.812500
4560,7.812500
4561,7.812500
4562,7.812500
4563,7.812500
4564,7.812500
4565,5.859375
4566,5.859375
4567,5.859375
4568,5.859375
4569,5.859375
4570,5.859375
4571,3.906250
4572,5.859375
4573,3.906250
4574,3.906250
4575,3.906250
4576,3.906250
4577,1.953125
4578,1.953125
4579,1.953125
4580,1.953125
4581,1.953125
4582,0.000000
4583,0.000000
4584,0.000000
4585,0.000000
4586,-1.953125
4587,-1.953125
4588,-1.953125
4589,-1.953125
4590,-1.953125
4591,-1.953125
4592,-3.906250
4593,-3.906250
4594,-3.906250
4595,-3.906250
4596,-5.859375
4597,-5.859375
4598,-5.859375
4599,-5.859375
4600,-5.859375
4601,-7.812500
4602,-7.812500
4603,-7.812500
4604,-7.812500
4605,-9.765625
4606,-9.765625
4607,-9.765625
4608,-9.765625
4609,-9.765625
4610,-11.718750
4611,-11.718750
4612,-11.718750
4613,-11.718750
4614,-13.671875
4615,-13.671875
4616,-13.671875
4617,-17.578125
4618,-13.671875
4619,-15.625000
4620,-15.625000
4621,-15.625000
4622,-15.625000
4623,-15.625000
4624,-17.578125
4625,-17.578125
4626,-17.578125
4627,-17.578125
4628,-17.578125
4629,-19.531250
4630,-19.531250
4631,-19.531250
4632,-19.531250
4633,-19.531250
4634,-19.531250
4635,-21.484375
4636,-21.484375
4637,-21.484375
4638,-21.484375
4639,-21.484375
4640,-21.484375
4641,-21.484375
4642,-23.437500
4643,-23.437500
4644,-23.437500
4645,-23.437500
4646,-23.437500
4647,-23.437500
4648,-23.437500
4649,-23.437500
4650,-25.390625
4651,-23.437500
4652,-25.390625
4653,-23.437500
4654,-25.390625
4655,-25.390625
4656,-25.390625
4657,-25.390625
4658,-25.390625
4659,-25.390625
4660,-25.390625
4661,-25.390625
4662,-25.390625
4663,-25.390625
4664,-25.390625
4665,-25.390625
4666,-25.390625
4667,-25.390625
4668,-25.390625
4669,-25.390625
4670,-25.390625
4671,-27.343750
4672,-27.343750
4673,-25.390625
4674,-25.390625
4675,-25.390625
4676,-25.390625
4677,-25.390625
4678,-25.390625
4679,-25.390625
4680,-25.390625
4681,-25.390625
4682,-25.390625
4683,-25.390625
4684,-25.390625
4685,-25.390625
4686,-23.437500
4687,-25.390625
4688,-25.390625
4689,-25.390625
4690,-23.437500
4691,-23.437500
4692,-23.437500
4693,-23.437500
4694,-23.437500
4695,-23.437500
4696,-23.437500
4697,-21.484375
4698,-21.484375
4699,-21.484375
4700,-21.484375
4701,-21.484375
4702,-21.484375
4703,-19.531250
4704,-19.531250
4705,-19.531250
4706,-19.531250
4707,-19.531250
4708,-17.578125
4709,-17.578125
4710,-17.578125
4711,-17.578125
4712,-17.578125
4713,-15.625000
4714,-15.625000
4715,-15.625000
4716,-15.625000
4717,-15.625000
4718,-15.625000
4719,-13.671875
4720,-13.671875
4721,-13.671875
4722,-13.671875
4723,-11.718750
4724,-11.718750
4725,-11.718750
4726,-11.718750
4727,-11.718750
4728,-9.765625
4729,-9.765625
4730,-9.765625
4731,-9.765625
4732,-7.812500
4733,-7.812500
4734,-7.812500
4735,-7.812500
4736,-7.812500
4737,-7.812500
4738,-5.859375
4739,-5.859375
4740,-5.859375
4741,-3.906250
4742,-3.906250
4743,-3.906250
4744,-3.906250
4745,-3.906250
4746,-3.906250
4747,-1.953125
4748,-1.953125
4749,-1.953125
4750,-1.953125
4751,0.000000
4752,0.000000
4753,0.000000
4754,0.000000
4755,0.000000
4756,1.953125
4757,1.953125
4758,1.953125
4759,1.953125
4760,3.906250
4761,3.906250
4762,3.906250
4763,3.906250
4764,3.906250
4765,3.906250
4766,5.859375
4767,5.859375
4768,5.859375
4769,5.859375
4770,5.859375
4771,5.859375
4772,7.812500
4773,7.812500
4774,7.812500
4775,7.812500
4776,7.812500
4777,7.812500
4778,9.765625
4779,9.765625
4780,9.765625
4781,9.765625
4782,9.765625
4783,9.765625
4784,9.765625
4785,11.718750
4786,9.765625
4787,11.718750
4788,11.718750
4789,11.718750
4790,11.718750
4791,11.718750
4792,11.718750
4793,9.765625
4794,11.718750
4795,11.718750
4796,11.718750
4797,13.671875
4798,11.718750
4799,11.718750
4800,13.671875
4801,11.718750
4802,13.671875
4803,11.718750
4804,13.671875
4805,11.718750
4806,13.671875
4807,13.671875
4808,13.671875
4809,11.718750
4810,13.671875
4811,13.671875
4812,11.718750
4813,13.671875
4814,13.671875
4815,11.718750
4816,11.718750
4817,11.718750
4818,13.671875
4819,11.718750
4820,11.718750
4821,11.718750
4822,13.671875
4823,11.718750
4824,11.718750
4825,11.718750
4826,11.718750
4827,11.718750
4828,11.718750
4829,11.718750
4830,11.718750
4831,11.718750
4832,11.718750
4833,11.718750
4834,9.765625
4835,9.765625
4836,7.812500
4837,9.765625
4838,9.765625
4839,9.765625
4840,9.765625
4841,7.812500
4842,7.812500
4843,7.812500
4844,7.812500
4845,7.812500
4846,7.812500
4847,7.812500
4848,5.859375
4849,5.859375
4850,5.859375
4851,5.859375
4852,5.859375
4853,3.906250
4854,3.906250
4855,3.906250
4856,3.906250
4857,3.906250
4858,3.906250
4859,1.953125
4860,1.953125
4861,3.906250
4862,1.953125
4863,1.953125
4864,0.000000
4865,0.000000
4866,0.000000
4867,-1.953125
4868,-1.953125
4869,-1.953125
4870,-1.953125
4871,-1.953125
4872,-1.953125
4873,-3.906250
4874,-3.906250
4875,-3.906250
4876,-3.906250
4877,-5.859375
4878,-5.859375
4879,-5.859375
4880,-5.859375
4881,-5.859375
4882,-7.812500
4883,-7.812500
4884,-7.812500
4885,-7.812500
4886,-9.765625
4887,-9.765625
4888,-9.765625
4889,-9.765625
4890,-9.765625
4891,-11.718750
4892,-11.718750
4893,-11.718750
4894,-11.718750
4895,-11.718750
4896,-11.718750
4897,-13.671875
4898,-13.671875
4899,-13.671875
4900,-13.671875
4901,-13.671875
4902,-15.625000
4903,-15.625000
4904,-15.625000
4905,-15.625000
4906,-15.625000
4907,-17.578125
4908,-17.578125
4909,-17.578125
4910,-17.578125
4911,-17.578125
4912,-19.531250
4913,-19.531250
4914,-19.531250
4915,-19.531250
4916,-19.531250
4917,-21.484375
4918,-21.484375
4919,-21.484375
4920,-21.484375
4921,-21.484375
4922,-21.484375
4923,-21.484375
4924,-23.437500
4925,-23.437500
4926,-23.437500
4927,-23.437500
4928,-23.437500
4929,-23.437500
4930,-23.437500
4931,-25.390625
4932,-23.437500
4933,-25.390625
4934,-25.390625
4935,-25.390625
4936,-25.390625
4937,-25.390625
4938,-25.390625
4939,-25.390625
4940,-25.390625
4941,-25.390625
4942,-25.390625
4943,-25.390625
4944,-25.390625
4945,-25.390625
4946,-25.390625
4947,-27.343750
4948,-25.390625
4949,-25.390625
4950,-25.390625
4951,-25.390625
4952,-27.343750
4953,-25.390625
4954,-25.390625
4955,-25.390625
4956,-27.343750
4957,-25.390625
4958,-25.390625
4959,-25.390625
4960,-25.390625
4961,-25.390625
4962,-25.390625
4963,-25.390625
4964,-25.390625
4965,-25.390625
4966,-25.390625
4967,-23.437500
4968,-25.390625
4969,-23.437500
4970,-23.437500
4971,-23.437500
4972,-23.437500
4973,-23.437500
4974,-23.437500
4975,-23.437500
4976,-23.437500
4977,-21.484375
4978,-21.484375
4979,-21.484375
4980,-21.484375
4981,-21.484375
4982,-21.484375
4983,-19.531250
4984,-19.531250
4985,-19.531250
4986,-21.484375
4987,-19.531250
4988,-19.531250
4989,-19.531250
4990,-19.531250
4991,-19.531250
4992,-17.578125
4993,-17.578125
4994,-17.578125
4995,-17.578125
4996,-17.578125
4997,-17.578125
4998,-15.625000
4999,-15.625000
5000,-15.625000
5001,-15.625000
5002,-13.671875
5003,-13.671875
5004,-13.671875
5005,-13.671875
5006,-13.671875
5007,-11.718750
5008,-11.718750
5009,-11.718750
5010,-11.718750
5011,-9.765625
5012,-9.765625
5013,-7.812500
5014,-9.765625
5015,-7.812500
5016,-9.765625
5017,-7.812500
5018,-7.812500
5019,-7.812500
5020,-5.859375
5021,-5.859375
5022,-5.859375
5023,-5.859375
5024,-3.906250
5025,-3.906250
5026,-3.906250
5027,-3.906250
5028,-1.953125
5029,-1.953125
5030,-1.953125
5031,-1.953125
5032,-1.953125
5033,0.000000
5034,0.000000
5035,0.000000
5036,0.000000
5037,1.953125
5038,0.000000
5039,1.953125
5040,1.953125
5041,1.953125
5042,1.953125
5043,3.906250
5044,3.906250
5045,3.906250
5046,3.906250
5047,3.906250
5048,5.859375
5049,5.859375
5050,5.859375
5051,5.859375
5052,5.859375
5053,5.859375
5054,5.859375
5055,7.812500
5056,7.812500
5057,7.812500
5058,7.812500
5059,7.812500
5060,7.812500
5061,7.812500
5062,9.765625
5063,7.812500
5064,9.765625
5065,9.765625
5066,9.765625
5067,9.765625
5068,9.765625
5069,9.765625
5070,9.765625
5071,9.765625
5072,11.718750
5073,11.718750
5074,11.718750
5075,11.718750
5076,11.718750
5077,11.718750
5078,11.718750
5079,11.718750
5080,11.718750
5081,11.718750
5082,11.718750
5083,11.718750
5084,13.671875
5085,11.718750
5086,11.718750
5087,11.718750
5088,11.718750
5089,11.718750
5090,11.718750
5091,11.718750
5092,13.671875
5093,11.718750
5094,13.671875
5095,13.671875
5096,13.671875
5097,13.671875
5098,11.718750
5099,11.718750
5100,13.671875
5101,11.718750
5102,11.718750
5103,11.718750
5104,11.718750
5105,11.718750
5106,11.718750
5107,11.718750
5108,11.718750
5109,11.718750
5110,11.718750
5111,11.718750
5112,11.718750
5113,11.718750
5114,9.765625
5115,9.765625
5116,9.765625
5117,9.765625
5118,9.765625
5119,9.765625
5120,9.765625
5121,9.765625
5122,9.765625
5123,9.765625
5124,7.812500
5125,7.812500
5126,7.812500
5127,7.812500
5128,5.859375
5129,7.812500
5130,5.859375
5131,5.859375
5132,5.859375
5133,5.859375
5134,5.859375
5135,5.859375
5136,3.906250
5137,3.906250
5138,3.906250
5139,3.906250
5140,1.953125
5141,1.953125
5142,1.953125
5143,1.953125
5144,1.953125
5145,1.953125
5146,1.953125
5147,0.000000
5148,0.000000
5149,0.000000
5150,0.000000
5151,0.000000
5152,-1.953125
5153,-1.953125
5154,-1.953125
5155,-1.953125
5156,-3.906250
5157,-3.906250
5158,-3.906250
5159,-3.906250
5160,-5.859375
5161,-5.859375
5162,-5.859375
5163,-5.859375
5164,-5.859375
5165,-5.859375
5166,-7.812500
5167,-7.812500
5168,-7.812500
5169,-7.812500
5170,-9.765625
5171,-9.765625
5172,-9.765625
5173,-9.765625
5174,-11.718750
5175,-11.718750
5176,-11.718750
5177,-11.718750
5178,-13.671875
5179,-13.671875
5180,-13.671875
5181,-13.671875
5182,-13.671875
5183,-13.671875
5184,-15.625000
5185,-15.625000
5186,-15.625000
5187,-15.625000
5188,-15.625000
5189,-17.578125
5190,-17.578125
5191,-17.578125
5192,-17.578125
5193,-17.578125
5194,-19.531250
5195,-19.531250
5196,-19.531250
5197,-19.531250
5198,-19.531250
5199,-21.484375
5200,-21.484375
5201,-21.484375
5202,-21.484375
5203,-21.484375
5204,-21.484375
5205,-23.437500
5206,-21.484375
5207,-23.437500
5208,-23.437500
5209,-23.437500
5210,-23.437500
5211,-23.437500
5212,-23.437500
5213,-25.390625
5214,-23.437500
5215,-23.437500
5216,-25.390625
5217,-25.390625
5218,-25.390625
5219,-25.390625
5220,-25.390625
5221,-25.390625
5222,-25.390625
5223,-25.390625
5224,-25.390625
5225,-25.390625
5226,-25.390625
5227,-25.390625
5228,-25.390625
5229,-25.390625
5230,-25.390625
5231,-25.390625
5232,-27.343750
5233,-25.390625
5234,-25.390625
5235,-25.390625
5236,-27.343750
5237,-25.390625
5238,-25.390625
5239,-25.390625
5240,-25.390625
5241,-25.390625
5242,-27.343750
5243,-25.390625
5244,-25.390625
5245,-25.390625
5246,-25.390625
5247,-23.437500
5248,-25.390625
5249,-25.390625
5250,-25.390625
5251,-23.437500
5252,-25.390625
5253,-23.437500
5254,-23.437500
5255,-23.437500
5256,-25.390625
5257,-23.437500
5258,-23.437500
5259,-23.437500
5260,-23.437500
5261,-23.437500
5262,-21.484375
5263,-21.484375
5264,-21.484375
5265,-21.484375
5266,-21.484375
5267,-19.531250
5268,-19.531250
5269,-19.531250
5270,-19.531250
5271,-19.531250
5272,-19.531250
5273,-19.531250
5274,-17.578125
5275,-17.578125
5276,-17.578125
5277,-17.578125
5278,-15.625000
5279,-15.625000
5280,-15.625000
5281,-15.625000
5282,-15.625000
5283,-15.625000
5284,-13.671875
5285,-13.671875
5286,-13.671875
5287,-13.671875
5288,-11.718750
5289,-11.718750
5290,-11.718750
5291,-11.718750
5292,-9.765625
5293,-9.765625
5294,-9.765625
5295,-9.765625
5296,-7.812500
5297,-7.812500
5298,-9.765625
5299,-7.812500
5300,-7.812500
5301,-5.859375
5302,-7.812500
5303,-5.859375
5304,-5.859375
5305,-5.859375
5306,-5.859375
5307,-3.906250
5308,-5.859375
5309,-3.906250
5310,-3.906250
5311,-1.953125
5312,-1.953125
5313,-1.953125
5314,-1.953125
5315,0.000000
5316,0.000000
5317,0.000000
5318,0.000000
5319,0.000000
5320,0.000000
5321,1.953125
5322,1.953125
5323,1.953125
5324,1.953125
5325,1.953125
5326,3.906250
5327,3.906250
5328,3.906250
5329,3.906250
5330,3.906250
5331,3.906250
5332,5.859375
5333,5.859375
5334,5.859375
5335,5.859375
5336,5.859375
5337,5.859375
5338,7.812500
5339,7.812500
5340,7.812500
5341,7.812500
5342,7.812500
5343,9.765625
5344,7.812500
5345,9.765625
5346,9.765625
5347,9.765625
5348,9.765625
5349,9.765625
5350,9.765625
5351,9.765625
5352,11.718750
5353,11.718750
5354,11.718750
5355,11.718750
5356,11.718750
5357,11.718750
5358,11.718750
5359,11.718750
5360,11.718750
5361,11.718750
5362,11.718750
5363,13.671875
5364,11.718750
5365,11.718750
5366,13.671875
5367,13.671875
5368,11.718750
5369,13.671875
5370,13.671875
5371,13.671875
5372,13.671875
5373,11.718750
5374,13.671875
5375,13.671875
5376,13.671875
5377,13.671875
5378,11.718750
5379,13.671875
5380,13.671875
5381,11.718750
5382,11.718750
5383,11.718750
5384,11.718750
5385,11.718750
5386,11.718750
5387,11.718750
5388,11.718750
5389,11.718750
5390,11.718750
5391,11.718750
5392,11.718750
5393,11.718750
5394,11.718750
5395,11.718750
5396,9.765625
5397,9.765625
5398,11.718750
5399,9.765625
5400,9.765625
5401,9.765625
5402,9.765625
5403,9.765625
5404,7.812500
5405,7.812500
5406,7.812500
5407,7.812500
5408,7.812500
5409,7.812500
5410,7.812500
5411,7.812500
5412,5.859375
5413,5.859375
5414,5.859375
5415,5.859375
5416,5.859375
5417,3.906250
5418,3.906250
5419,3.906250
5420,3.906250
5421,3.906250
5422,1.953125
5423,1.953125
5424,3.906250
5425,1.953125
5426,1.953125
5427,1.953125
5428,1.953125
5429,0.000000
5430,0.000000
5431,0.000000
5432,0.000000
5433,0.000000
5434,-1.953125
5435,-1.953125
5436,-1.953125
5437,-1.953125
5438,-3.906250
5439,-3.906250
5440,-3.906250
5441,-3.906250
5442,-5.859375
5443,-3.906250
5444,-5.859375
5445,-5.859375
5446,-7.812500
5447,-7.812500
5448,-7.812500
5449,-7.812500
5450,-9.765625
5451,-9.765625
5452,-9.765625
5453,-9.765625
5454,-11.718750
5455,-11.718750
5456,-11.718750
5457,-11.718750
5458,-11.718750
5459,-13.671875
5460,-13.671875
5461,-13.671875
5462,-13.671875
5463,-13.671875
5464,-13.671875
5465,-13.671875
5466,-15.625000
5467,-15.625000
5468,-15.625000
5469,-17.578125
5470,-15.625000
5471,-17.578125
5472,-17.578125
5473,-19.531250
5474,-17.578125
5475,-17.578125
5476,-19.531250
5477,-19.531250
5478,-19.531250
5479,-19.531250
5480,-19.531250
5481,-21.484375
5482,-19.531250
5483,-21.484375
5484,-21.484375
5485,-21.484375
5486,-21.484375
5487,-21.484375
5488,-21.484375
5489,-23.437500
5490,-23.437500
5491,-23.437500
5492,-23.437500
5493,-23.437500
5494,-23.437500
5495,-23.437500
5496,-23.437500
5497,-23.437500
5498,-23.437500
5499,-25.390625
5500,-25.390625
5501,-25.390625
5502,-25.390625
5503,-25.390625
5504,-25.390625
5505,-25.390625
5506,-25.390625
5507,-25.390625
5508,-25.390625
5509,-25.390625
5510,-25.390625
5511,-25.390625
5512,-25.390625
5513,-27.343750
5514,-27.343750
5515,-25.390625
5516,-25.390625
5517,-27.343750
5518,-27.343750
5519,-25.390625
5520,-27.343750
5521,-27.343750
5522,-25.390625
5523,-25.390625
5524,-25.390625
5525,-25.390625
5526,-25.390625
5527,-25.390625
5528,-25.390625
5529,-25.390625
5530,-25.390625
5531,-25.390625
5532,-25.390625
5533,-25.390625
5534,-25.390625
5535,-23.437500
5536,-25.390625
5537,-23.437500
5538,-23.437500
5539,-23.437500
5540,-23.437500
5541,-23.437500
5542,-21.484375
5543,-21.484375
5544,-21.484375
5545,-21.484375
5546,-21.484375
5547,-21.484375
5548,-21.484375
5549,-21.484375
5550,-21.484375
5551,-19.531250
5552,-19.531250
5553,-19.531250
5554,-17.578125
5555,-19.531250
5556,-17.578125
5557,-17.578125
5558,-17.578125
5559,-17.578125
5560,-17.578125
5561,-15.625000
5562,-15.625000
5563,-15.625000
5564,-15.625000
5565,-15.625000
5566,-13.671875
5567,-13.671875
5568,-13.671875
5569,-13.671875
5570,-13.671875
5571,-11.718750
5572,-11.718750
5573,-11.718750
5574,-11.718750
5575,-9.765625
5576,-9.765625
5577,-9.765625
5578,-9.765625
5579,-9.765625
5580,-7.812500
5581,-7.812500
5582,-7.812500
5583,-7.812500
5584,-7.812500
5585,-5.859375
5586,-5.859375
5587,-5.859375
5588,-5.859375
5589,-5.859375
5590,-3.906250
5591,-3.906250
5592,-3.906250
5593,-1.953125
5594,-1.953125
5595,-1.953125
5596,-1.953125
5597,-1.953125
5598,0.000000
5599,-1.953125
5600,0.000000
5601,0.000000
5602,1.953125
5603,0.000000
5604,1.953125
5605,1.953125
5606,1.953125
5607,1.953125
5608,1.953125
5609,3.906250
5610,3.906250
5611,3.906250
5612,3.906250
5613,5.859375
5614,5.859375
5615,5.859375
5616,5.859375
5617,5.859375
5618,5.859375
5619,7.812500
5620,7.812500
5621,7.812500
5622,7.812500
5623,7.812500
5624,7.812500
5625,9.765625
5626,9.765625
5627,9.765625
5628,9.765625
5629,9.765625
5630,9.765625
5631,9.765625
5632,9.765625
5633,9.765625
5634,11.718750
5635,9.765625
5636,9.765625
5637,11.718750
5638,9.765625
5639,11.718750
5640,11.718750
5641,11.718750
5642,11.718750
5643,11.718750
5644,11.718750
5645,9.765625
5646,11.718750
5647,11.718750
5648,11.718750
5649,11.718750
5650,11.718750
5651,11.718750
5652,11.718750
5653,13.671875
5654,11.718750
5655,11.718750
5656,13.671875
5657,11.718750
5658,11.718750
5659,13.671875
5660,13.671875
5661,11.718750
5662,11.718750
5663,11.718750
5664,11.718750
5665,11.718750
5666,11.718750
5667,13.671875
5668,11.718750
5669,11.718750
5670,11.718750
5671,11.718750
5672,11.718750
5673,11.718750
5674,11.718750
5675,11.718750
5676,9.765625
5677,9.765625
5678,11.718750
5679,11.718750
5680,9.765625
5681,9.765625
5682,9.765625
5683,9.765625
5684,9.765625
5685,9.765625
5686,7.812500
5687,9.765625
5688,7.812500
5689,7.812500
5690,9.765625
5691,7.812500
5692,5.859375
5693,7.812500
5694,5.859375
5695,5.859375
5696,5.859375
5697,5.859375
5698,3.906250
5699,5.859375
5700,3.906250
5701,3.906250
5702,3.906250
5703,3.906250
5704,3.906250
5705,1.953125
5706,1.953125
5707,1.953125
5708,1.953125
5709,1.953125
5710,1.953125
5711,0.000000
5712,0.000000
5713,0.000000
5714,0.000000
5715,-1.953125
5716,-1.953125
5717,-1.953125
5718,-1.953125
5719,-1.953125
5720,-1.953125
5721,-3.906250
5722,-3.906250
5723,-3.906250
5724,-5.859375
5725,-3.906250
5726,-5.859375
5727,-5.859375
5728,-5.859375
5729,-5.859375
5730,-7.812500
5731,-7.812500
5732,-7.812500
5733,-7.812500
5734,-9.765625
5735,-9.765625
5736,-9.765625
5737,-9.765625
5738,-11.718750
5739,-9.765625
5740,-11.718750
5741,-11.718750
5742,-11.718750
5743,-11.718750
5744,-11.718750
5745,-13.671875
5746,-13.671875
5747,-13.671875
5748,-13.671875
5749,-15.625000
5750,-15.625000
5751,-15.625000
5752,-15.625000
5753,-15.625000
5754,-17.578125
5755,-17.578125
5756,-17.578125
5757,-17.578125
5758,-19.531250
5759,-19.531250
5760,-19.531250
5761,-19.531250
5762,-19.531250
5763,-19.531250
5764,-19.531250
5765,-21.484375
5766,-21.484375
5767,-21.484375
5768,-21.484375
5769,-21.484375
5770,-23.437500
5771,-23.437500
5772,-23.437500
5773,-23.437500
5774,-23.437500
5775,-23.437500
5776,-23.437500
5777,-25.390625
5778,-23.437500
5779,-23.437500
5780,-25.390625
5781,-25.390625
5782,-25.390625
5783,-25.390625
5784,-25.390625
5785,-25.390625
5786,-25.390625
5787,-25.390625
5788,-25.390625
5789,-25.390625
5790,-25.390625
5791,-25.390625
5792,-25.390625
5793,-27.343750
5794,-27.343750
5795,-25.390625
5796,-27.343750
5797,-27.343750
5798,-25.390625
5799,-27.343750
5800,-25.390625
5801,-27.343750
5802,-25.390625
5803,-25.390625
5804,-25.390625
5805,-25.390625
5806,-25.390625
5807,-25.390625
5808,-25.390625
5809,-25.390625
5810,-25.390625
5811,-25.390625
5812,-25.390625
5813,-25.390625
5814,-25.390625
5815,-23.437500
5816,-25.390625
5817,-25.390625
5818,-23.437500
5819,-23.437500
5820,-23.437500
5821,-23.437500
5822,-23.437500
5823,-23.437500
5824,-23.437500
5825,-21.484375
5826,-21.484375
5827,-21.484375
5828,-21.484375
5829,-21.484375
5830,-21.484375
5831,-21.484375
5832,-19.531250
5833,-19.531250
5834,-19.531250
5835,-19.531250
5836,-19.531250
5837,-19.531250
5838,-19.531250
5839,-17.578125
5840,-17.578125
5841,-17.578125
5842,-17.578125
5843,-17.578125
5844,-15.625000
5845,-15.625000
5846,-15.625000
5847,-15.625000
5848,-15.625000
5849,-15.625000
5850,-13.671875
5851,-13.671875
5852,-13.671875
5853,-13.671875
5854,-11.718750
5855,-11.718750
5856,-11.718750
5857,-11.718750
5858,-9.765625
5859,-9.765625
5860,-9.765625
5861,-9.765625
5862,-7.812500
5863,-9.765625
5864,-7.812500
5865,-7.812500
5866,-7.812500
5867,-7.812500
5868,-5.859375
5869,-3.906250
5870,-5.859375
5871,-5.859375
5872,-3.906250
5873,-3.906250
5874,-3.906250
5875,-3.906250
5876,-1.953125
5877,-1.953125
5878,-1.953125
5879,-1.953125
5880,0.000000
5881,0.000000
5882,0.000000
5883,0.000000
5884,0.000000
5885,1.953125
5886,1.953125
5887,1.953125
5888,1.953125
5889,1.953125
5890,3.906250
5891,3.906250
5892,3.906250
5893,3.906250
5894,3.906250
5895,3.906250
5896,5.859375
5897,5.859375
5898,5.859375
5899,5.859375
5900,5.859375
5901,5.859375
5902,5.859375
5903,7.812500
5904,7.812500
5905,7.812500
5906,7.812500
5907,7.812500
5908,9.765625
5909,7.812500
5910,9.765625
5911,9.765625
5912,9.765625
5913,9.765625
5914,9.765625
5915,9.765625
5916,9.765625
5917,11.718750
5918,11.718750
5919,11.718750
5920,9.765625
5921,11.718750
5922,11.718750
5923,11.718750
5924,11.718750
5925,11.718750
5926,11.718750
5927,11.718750
5928,11.718750
5929,11.718750
5930,11.718750
5931,13.671875
5932,11.718750
5933,11.718750
5934,13.671875
5935,13.671875
5936,13.671875
5937,15.625000
5938,13.671875
5939,11.718750
5940,13.671875
5941,11.718750
5942,13.671875
5943,13.671875
5944,13.671875
5945,13.671875
5946,13.671875
5947,11.718750
5948,11.718750
5949,13.671875
5950,11.718750
5951,11.718750
5952,11.718750
5953,9.765625
5954,11.718750
5955,11.718750
5956,13.671875
5957,11.718750
5958,11.718750
5959,11.718750
5960,11.718750
5961,11.718750
5962,9.765625
5963,9.765625
5964,9.765625
5965,9.765625
5966,9.765625
5967,9.765625
5968,7.812500
5969,7.812500
5970,9.765625
5971,7.812500
5972,7.812500
5973,7.812500
5974,7.812500
5975,7.812500
5976,7.812500
5977,5.859375
5978,5.859375
5979,5.859375
5980,5.859375
5981,5.859375
5982,3.906250
5983,5.859375
5984,3.906250
5985,3.906250
5986,3.906250
5987,-1.953125
5988,1.953125
5989,1.953125
5990,1.953125
5991,5.859375
5992,1.953125
5993,1.953125
5994,0.000000
5995,0.000000
5996,0.000000
5997,0.000000
5998,-1.953125
5999,-1.953125
6000,-1.953125
6001,-1.953125
6002,-3.906250
6003,-3.906250
6004,-3.906250
6005,-3.906250
6006,-3.906250
6007,-5.859375
6008,-5.859375
6009,-5.859375
6010,-5.859375
6011,-5.859375
6012,-7.812500
6013,-7.812500
6014,-7.812500
6015,-7.812500
6016,-7.812500
6017,-9.765625
6018,-9.765625
6019,-9.765625
6020,-9.765625
6021,-13.671875
6022,-11.718750
6023,-13.671875
6024,-15.625000
6025,-11.718750
6026,-13.671875
6027,-13.671875
6028,-13.671875
6029,-15.625000
6030,-13.671875
6031,-15.625000
6032,-15.625000
6033,-15.625000
6034,-15.625000
6035,-17.578125
6036,-17.578125
6037,-17.578125
6038,-17.578125
6039,-19.531250
6040,-19.531250
6041,-19.531250
6042,-19.531250
6043,-19.531250
6044,-19.531250
6045,-21.484375
6046,-21.484375
6047,-21.484375
6048,-19.531250
6049,-21.484375
6050,-21.484375
6051,-21.484375
6052,-23.437500
6053,-23.437500
6054,-23.437500
6055,-23.437500
6056,-23.437500
6057,-23.437500
6058,-23.437500
6059,-23.437500
6060,-25.390625
6061,-25.390625
6062,-25.390625
6063,-25.390625
6064,-25.390625
6065,-25.390625
6066,-25.390625
6067,-25.390625
6068,-25.390625
6069,-25.390625
6070,-25.390625
6071,-25.390625
6072,-25.390625
6073,-25.390625
6074,-25.390625
6075,-25.390625
6076,-25.390625
6077,-25.390625
6078,-25.390625
6079,-25.390625
6080,-25.390625
6081,-25.390625
6082,-25.390625
6083,-25.390625
6084,-25.390625
6085,-25.390625
6086,-27.343750
6087,-25.390625
6088,-25.390625
6089,-25.390625
6090,-25.390625
6091,-25.390625
6092,-25.390625
6093,-25.390625
6094,-25.390625
6095,-25.390625
6096,-25.390625
6097,-25.390625
6098,-23.437500
6099,-25.390625
6100,-25.390625
6101,-23.437500
6102,-23.437500
6103,-23.437500
6104,-23.437500
6105,-23.437500
6106,-23.437500
6107,-23.437500
6108,-21.484375
6109,-21.484375
6110,-21.484375
6111,-21.484375
6112,-21.484375
6113,-21.484375
6114,-21.484375
6115,-21.484375
6116,-19.531250
6117,-19.531250
6118,-19.531250
6119,-19.531250
6120,-19.531250
6121,-17.578125
6122,-17.578125
6123,-17.578125
6124,-17.578125
6125,-17.578125
6126,-15.625000
6127,-15.625000
6128,-15.625000
6129,-15.625000
6130,-13.671875
6131,-13.671875
6132,-13.671875
6133,-13.671875
6134,-13.671875
6135,-11.718750
6136,-11.718750
6137,-11.718750
6138,-11.718750
6139,-11.718750
6140,-11.718750
6141,-9.765625
6142,-9.765625
6143,-9.765625
6144,-9.765625
6145,-7.812500
6146,-7.812500
6147,-7.812500
6148,-5.859375
6149,-7.812500
6150,-5.859375
6151,-5.859375
6152,-5.859375
6153,-5.859375
6154,-3.906250
6155,-3.906250
6156,-3.906250
6157,-3.906250
6158,-1.953125
6159,-1.953125
6160,-1.953125
6161,-1.953125
6162,-1.953125
6163,-1.953125
6164,-1.953125
6165,0.000000
6166,0.000000
6167,0.000000
6168,1.953125
6169,1.953125
6170,1.953125
6171,1.953125
6172,1.953125
6173,3.906250
6174,3.906250
6175,3.906250
6176,3.906250
6177,3.906250
6178,3.906250
6179,5.859375
6180,5.859375
6181,5.859375
6182,5.859375
6183,5.859375
6184,5.859375
6185,7.812500
6186,7.812500
6187,7.812500
6188,7.812500
6189,9.765625
6190,7.812500
6191,7.812500
6192,9.765625
6193,9.765625
6194,9.765625
6195,11.718750
6196,9.765625
6197,9.765625
6198,11.718750
6199,9.765625
6200,9.765625
6201,11.718750
6202,11.718750
6203,11.718750
6204,11.718750
6205,13.671875
6206,11.718750
6207,11.718750
6208,11.718750
6209,11.718750
6210,13.671875
6211,13.671875
6212,11.718750
6213,11.718750
6214,13.671875
6215,13.671875
6216,13.671875
6217,13.671875
6218,13.671875
6219,11.718750
6220,11.718750
6221,13.671875
6222,13.671875
6223,11.718750
6224,11.718750
6225,11.718750
6226,11.718750
6227,13.671875
6228,11.718750
6229,11.718750
6230,11.718750
6231,11.718750
6232,11.718750
6233,11.718750
6234,11.718750
6235,11.718750
6236,11.718750
6237,11.718750
6238,11.718750
6239,9.765625
6240,11.718750
6241,9.765625
6242,9.765625
6243,11.718750
6244,9.765625
6245,9.765625
6246,9.765625
6247,9.765625
6248,9.765625
6249,9.765625
6250,9.765625
6251,9.765625
6252,7.812500
6253,7.812500
6254,7.812500
6255,7.812500
6256,7.812500
6257,7.812500
6258,7.812500
6259,5.859375
6260,5.859375
6261,5.859375
6262,5.859375
6263,5.859375
6264,5.859375
6265,3.906250
6266,3.906250
6267,3.906250
6268,3.906250
6269,1.953125
6270,3.906250
6271,1.953125
6272,1.953125
6273,1.953125
6274,1.953125
6275,1.953125
6276,0.000000
6277,0.000000
6278,0.000000
6279,0.000000
6280,-1.953125
6281,-1.953125
6282,-1.953125
6283,-1.953125
6284,-1.953125
6285,-3.906250
6286,-3.906250
6287,-3.906250
6288,-3.906250
6289,-5.859375
6290,-5.859375
6291,-5.859375
6292,-5.859375
6293,-5.859375
6294,-7.812500
6295,-7.812500
6296,-7.812500
6297,-7.812500
6298,-7.812500
6299,-9.765625
6300,-9.765625
6301,-9.765625
6302,-11.718750
6303,-11.718750
6304,-9.765625
6305,-11.718750
6306,-13.671875
6307,-11.718750
6308,-11.718750
6309,-13.671875
6310,-13.671875
6311,-13.671875
6312,-13.671875
6313,-15.625000
6314,-15.625000
6315,-15.625000
6316,-15.625000
6317,-15.625000
6318,-15.625000
6319,-17.578125
6320,-17.578125
6321,-17.578125
6322,-17.578125
6323,-19.531250
6324,-19.531250
6325,-19.531250
6326,-19.531250
6327,-19.531250
6328,-19.531250
6329,-21.484375
6330,-21.484375
6331,-21.484375
6332,-21.484375
6333,-21.484375
6334,-21.484375
6335,-21.484375
6336,-23.437500
6337,-23.437500
6338,-23.437500
6339,-23.437500
6340,-23.437500
6341,-23.437500
6342,-23.437500
6343,-23.437500
6344,-23.437500
6345,-25.390625
6346,-25.390625
6347,-23.437500
6348,-25.390625
6349,-25.390625
6350,-25.390625
6351,-25.390625
6352,-25.390625
6353,-25.390625
6354,-25.390625
6355,-25.390625
6356,-25.390625
6357,-25.390625
6358,-25.390625
6359,-27.343750
6360,-25.390625
6361,-25.390625
6362,-27.343750
6363,-25.390625
6364,-25.390625
6365,-27.343750
6366,-27.343750
6367,-25.390625
6368,-25.390625
6369,-27.343750
6370,-25.390625
6371,-25.390625
6372,-25.390625
6373,-25.390625
6374,-25.390625
6375,-25.390625
6376,-25.390625
6377,-25.390625
6378,-25.390625
6379,-25.390625
6380,-23.437500
6381,-23.437500
6382,-25.390625
6383,-23.437500
6384,-23.437500
6385,-23.437500
6386,-23.437500
6387,-23.437500
6388,-23.437500
6389,-23.437500
6390,-21.484375
6391,-21.484375
6392,-21.484375
6393,-21.484375
6394,-21.484375
6395,-21.484375
6396,-19.531250
6397,-19.531250
6398,-19.531250
6399,-19.531250
6400,-19.531250
6401,-17.578125
6402,-19.531250
6403,-17.578125
6404,-17.578125
6405,-17.578125
6406,-17.578125
6407,-17.578125
6408,-15.625000
6409,-15.625000
6410,-15.625000
6411,-15.625000
6412,-15.625000
6413,-13.671875
6414,-13.671875
6415,-13.671875
6416,-13.671875
6417,-13.671875
6418,-11.718750
6419,-13.671875
6420,-11.718750
6421,-11.718750
6422,-11.718750
6423,-11.718750
6424,-9.765625
6425,-9.765625
6426,-9.765625
6427,-9.765625
6428,-7.812500
6429,-7.812500
6430,-7.812500
6431,-5.859375
6432,-7.812500
6433,-5.859375
6434,-5.859375
6435,-5.859375
6436,-5.859375
6437,-3.906250
6438,-3.906250
6439,-3.906250
6440,-3.906250
6441,-3.906250
6442,-1.953125
6443,-1.953125
6444,-1.953125
6445,0.000000
6446,0.000000
6447,0.000000
6448,0.000000
6449,0.000000
6450,1.953125
6451,1.953125
6452,1.953125
6453,1.953125
6454,3.906250
6455,1.953125
6456,3.906250
6457,3.906250
6458,3.906250
6459,3.906250
6460,5.859375
6461,3.906250
6462,5.859375
6463,5.859375
6464,5.859375
6465,5.859375
6466,7.812500
6467,7.812500
6468,7.812500
6469,7.812500
6470,7.812500
6471,7.812500
6472,7.812500
6473,9.765625
6474,7.812500
6475,9.765625
6476,9.765625
6477,9.765625
6478,9.765625
6479,9.765625
6480,11.718750
6481,9.765625
6482,9.765625
6483,11.718750
6484,9.765625
6485,11.718750
6486,11.718750
6487,11.718750
6488,11.718750
6489,11.718750
6490,11.718750
6491,11.718750
6492,11.718750
6493,11.718750
6494,11.718750
6495,11.718750
6496,11.718750
6497,11.718750
6498,13.671875
6499,13.671875
6500,13.671875
6501,13.671875
6502,13.671875
6503,11.718750
6504,13.671875
6505,13.671875
6506,11.718750
6507,13.671875
6508,13.671875
6509,11.718750
6510,11.718750
6511,11.718750
6512,11.718750
6513,11.718750
6514,13.671875
6515,11.718750
6516,11.718750
6517,11.718750
6518,11.718750
6519,11.718750
6520,11.718750
6521,11.718750
6522,11.718750
6523,11.718750
6524,11.718750
6525,11.718750
6526,9.765625
6527,9.765625
6528,9.765625
6529,9.765625
6530,9.765625
6531,9.765625
6532,9.765625
6533,9.765625
6534,9.765625
6535,7.812500
6536,7.812500
6537,7.812500
6538,7.812500
6539,5.859375
6540,7.812500
6541,7.812500
6542,7.812500
6543,5.859375
6544,5.859375
6545,5.859375
6546,5.859375
6547,3.906250
6548,3.906250
6549,3.906250
6550,3.906250
6551,3.906250
6552,1.953125
6553,1.953125
6554,1.953125
6555,1.953125
6556,1.953125
6557,0.000000
6558,0.000000
6559,0.000000
6560,0.000000
6561,0.000000
6562,-1.953125
6563,-1.953125
6564,-1.953125
6565,-1.953125
6566,-1.953125
6567,-1.953125
6568,-3.906250
6569,-3.906250
6570,-3.906250
6571,-3.906250
6572,-5.859375
6573,-5.859375
6574,-5.859375
6575,-5.859375
6576,-5.859375
6577,-5.859375
6578,-7.812500
6579,-7.812500
6580,-9.765625
6581,-9.765625
6582,-9.765625
6583,-9.765625
6584,-9.765625
6585,-11.718750
6586,-11.718750
6587,-11.718750
6588,-11.718750
6589,-11.718750
6590,-13.671875
6591,-13.671875
6592,-11.718750
6593,-13.671875
6594,-15.625000
6595,-15.625000
6596,-15.625000
6597,-15.625000
6598,-15.625000
6599,-15.625000
6600,-17.578125
6601,-17.578125
6602,-17.578125
6603,-17.578125
6604,-17.578125
6605,-17.578125
6606,-19.531250
6607,-19.531250
6608,-19.531250
6609,-19.531250
6610,-19.531250
6611,-21.484375
6612,-21.484375
6613,-21.484375
6614,-23.437500
6615,-21.484375
6616,-21.484375
6617,-23.437500
6618,-23.437500
6619,-23.437500
6620,-23.437500
6621,-23.437500
6622,-23.437500
6623,-23.437500
6624,-25.390625
6625,-23.437500
6626,-25.390625
6627,-25.390625
6628,-25.390625
6629,-25.390625
6630,-25.390625
6631,-25.390625
6632,-25.390625
6633,-25.390625
6634,-27.343750
6635,-25.390625
6636,-25.390625
6637,-25.390625
6638,-25.390625
6639,-25.390625
6640,-27.343750
6641,-25.390625
6642,-25.390625
6643,-25.390625
6644,-25.390625
6645,-25.390625
6646,-25.390625
6647,-27.343750
6648,-25.390625
6649,-25.390625
6650,-25.390625
6651,-25.390625
6652,-25.390625
6653,-25.390625
6654,-25.390625
6655,-25.390625
6656,-25.390625
6657,-25.390625
6658,-25.390625
6659,-25.390625
6660,-25.390625
6661,-23.437500
6662,-25.390625
6663,-25.390625
6664,-25.390625
6665,-23.437500
6666,-23.437500
6667,-23.437500
6668,-23.437500
6669,-23.437500
6670,-23.437500
6671,-23.437500
6672,-23.437500
6673,-23.437500
6674,-21.484375
6675,-21.484375
6676,-21.484375
6677,-21.484375
6678,-21.484375
6679,-21.484375
6680,-19.531250
6681,-19.531250
6682,-19.531250
6683,-19.531250
6684,-19.531250
6685,-19.531250
6686,-19.531250
6687,-17.578125
6688,-17.578125
6689,-17.578125
6690,-17.578125
6691,-17.578125
6692,-15.625000
6693,-15.625000
6694,-15.625000
6695,-15.625000
6696,-13.671875
6697,-13.671875
6698,-13.671875
6699,-13.671875
6700,-13.671875
6701,-11.718750
6702,-11.718750
6703,-11.718750
6704,-11.718750
6705,-9.765625
6706,-9.765625
6707,-9.765625
6708,-9.765625
6709,-9.765625
6710,-7.812500
6711,-7.812500
6712,-7.812500
6713,-5.859375
6714,-5.859375
6715,-5.859375
6716,-5.859375
6717,-5.859375
6718,-3.906250
6719,-3.906250
6720,-3.906250
6721,-3.906250
6722,-3.906250
6723,-1.953125
6724,-1.953125
6725,-1.953125
6726,-1.953125
6727,0.000000
6728,0.000000
6729,0.000000
6730,0.000000
6731,0.000000
6732,0.000000
6733,1.953125
6734,1.953125
6735,1.953125
6736,1.953125
6737,3.906250
6738,1.953125
6739,3.906250
6740,3.906250
6741,3.906250
6742,3.906250
6743,5.859375
6744,5.859375
6745,5.859375
6746,5.859375
6747,5.859375
6748,5.859375
6749,5.859375
6750,7.812500
6751,7.812500
6752,7.812500
6753,7.812500
6754,7.812500
6755,9.765625
6756,9.765625
6757,9.765625
6758,9.765625
6759,9.765625
6760,9.765625
6761,9.765625
6762,9.765625
6763,11.718750
6764,9.765625
6765,11.718750
6766,11.718750
6767,11.718750
6768,11.718750
6769,11.718750
6770,11.718750
6771,11.718750
6772,11.718750
6773,11.718750
6774,11.718750
6775,11.718750
6776,13.671875
6777,11.718750
6778,11.718750
6779,11.718750
6780,13.671875
6781,13.671875
6782,11.718750
6783,13.671875
6784,13.671875
6785,13.671875
6786,13.671875
6787,13.671875
6788,11.718750
6789,13.671875
6790,13.671875
6791,11.718750
6792,11.718750
6793,11.718750
6794,11.718750
6795,11.718750
6796,11.718750
6797,11.718750
6798,11.718750
6799,11.718750
6800,11.718750
6801,11.718750
6802,11.718750
6803,11.718750
6804,11.718750
6805,11.718750
6806,9.765625
6807,9.765625
6808,9.765625
6809,9.765625
6810,9.765625
6811,9.765625
6812,9.765625
6813,9.765625
6814,9.765625
6815,7.812500
6816,7.812500
6817,7.812500
6818,7.812500
6819,7.812500
6820,7.812500
6821,7.812500
6822,5.859375
6823,5.859375
6824,5.859375
6825,5.859375
6826,5.859375
6827,5.859375
6828,5.859375
6829,3.906250
6830,3.906250
6831,3.906250
6832,3.906250
6833,1.953125
6834,1.953125
6835,1.953125
6836,1.953125
6837,1.953125
6838,1.953125
6839,1.953125
6840,0.000000
6841,0.000000
6842,0.000000
6843,0.000000
6844,0.000000
6845,-1.953125
6846,-1.953125
6847,-1.953125
6848,-1.953125
6849,-1.953125
6850,-3.906250
6851,-3.906250
6852,-3.906250
6853,-3.906250
6854,-5.859375
6855,-5.859375
6856,-5.859375
6857,-7.812500
6858,-5.859375
6859,-7.812500
6860,-7.812500
6861,-7.812500
6862,-7.812500
6863,-7.812500
6864,-9.765625
6865,-9.765625
6866,-9.765625
6867,-11.718750
6868,-11.718750
6869,-11.718750
6870,-11.718750
6871,-11.718750
6872,-13.671875
6873,-13.671875
6874,-13.671875
6875,-13.671875
6876,-15.625000
6877,-15.625000
6878,-15.625000
6879,-15.625000
6880,-15.625000
6881,-15.625000
6882,-17.578125
6883,-17.578125
6884,-17.578125
6885,-17.578125
6886,-17.578125
6887,-17.578125
6888,-19.531250
6889,-19.531250
6890,-19.531250
6891,-19.531250
6892,-21.484375
6893,-21.484375
6894,-19.531250
6895,-21.484375
6896,-21.484375
6897,-21.484375
6898,-21.484375
6899,-21.484375
6900,-21.484375
6901,-23.437500
6902,-23.437500
6903,-23.437500
6904,-23.437500
6905,-23.437500
6906,-23.437500
6907,-23.437500
6908,-23.437500
6909,-25.390625
6910,-23.437500
6911,-25.390625
6912,-25.390625
6913,-25.390625
6914,-25.390625
6915,-25.390625
6916,-25.390625
6917,-25.390625
6918,-25.390625
6919,-25.390625
6920,-25.390625
6921,-25.390625
6922,-25.390625
6923,-27.343750
6924,-25.390625
6925,-25.390625
6926,-27.343750
6927,-25.390625
6928,-25.390625
6929,-27.343750
6930,-25.390625
6931,-25.390625
6932,-25.390625
6933,-25.390625
6934,-25.390625
6935,-25.390625
6936,-25.390625
6937,-25.390625
6938,-25.390625
6939,-25.390625
6940,-25.390625
6941,-25.390625
6942,-25.390625
6943,-25.390625
6944,-25.390625
6945,-25.390625
6946,-23.437500
6947,-23.437500
6948,-23.437500
6949,-23.437500
6950,-23.437500
6951,-23.437500
6952,-23.437500
6953,-23.437500
6954,-23.437500
6955,-23.437500
6956,-23.437500
6957,-21.484375
6958,-21.484375
6959,-21.484375
6960,-21.484375
6961,-19.531250
6962,-19.531250
6963,-19.531250
6964,-19.531250
6965,-19.531250
6966,-19.531250
6967,-19.531250
6968,-17.578125
6969,-17.578125
6970,-17.578125
6971,-17.578125
6972,-15.625000
6973,-15.625000
6974,-15.625000
6975,-15.625000
6976,-15.625000
6977,-15.625000
6978,-13.671875
6979,-13.671875
6980,-13.671875
6981,-13.671875
6982,-13.671875
6983,-11.718750
6984,-11.718750
6985,-11.718750
6986,-11.718750
6987,-9.765625
6988,-11.718750
6989,-9.765625
6990,-9.765625
6991,-9.765625
6992,-9.765625
6993,-7.812500
6994,-7.812500
6995,-7.812500
6996,-5.859375
6997,-5.859375
6998,-5.859375
6999,-5.859375
7000,-5.859375
7001,-3.906250
7002,-3.906250
7003,-3.906250
7004,-3.906250
7005,-1.953125
7006,-3.906250
7007,-1.953125
7008,-1.953125
7009,-1.953125
7010,0.000000
7011,0.000000
7012,0.000000
7013,0.000000
7014,0.000000
7015,0.000000
7016,1.953125
7017,1.953125
7018,1.953125
7019,1.953125
7020,3.906250
7021,3.906250
7022,3.906250
7023,3.906250
7024,3.906250
7025,3.906250
7026,5.859375
7027,5.859375
7028,5.859375
7029,5.859375
7030,5.859375
7031,5.859375
7032,7.812500
7033,7.812500
7034,7.812500
7035,7.812500
7036,7.812500
7037,7.812500
7038,9.765625
7039,9.765625
7040,9.765625
7041,9.765625
7042,9.765625
7043,9.765625
7044,9.765625
7045,9.765625
7046,11.718750
7047,11.718750
7048,11.718750
7049,11.718750
7050,11.718750
7051,11.718750
7052,11.718750
7053,11.718750
7054,11.718750
7055,11.718750
7056,11.718750
7057,11.718750
7058,11.718750
7059,11.718750
7060,11.718750
7061,11.718750
7062,11.718750
7063,11.718750
7064,13.671875
7065,11.718750
7066,13.671875
7067,13.671875
7068,11.718750
7069,13.671875
7070,11.718750
7071,11.718750
7072,13.671875
7073,11.718750
7074,11.718750
7075,11.718750
7076,11.718750
7077,11.718750
7078,11.718750
7079,11.718750
7080,11.718750
7081,11.718750
7082,11.718750
7083,11.718750
7084,11.718750
7085,11.718750
7086,11.718750
7087,11.718750
7088,11.718750
7089,9.765625
7090,9.765625
7091,9.765625
7092,9.765625
7093,9.765625
7094,9.765625
7095,9.765625
7096,9.765625
7097,9.765625
7098,9.765625
7099,9.765625
7100,7.812500
7101,7.812500
7102,7.812500
7103,7.812500
7104,7.812500
7105,5.859375
7106,7.812500
7107,5.859375
7108,5.859375
7109,5.859375
7110,5.859375
7111,5.859375
7112,3.906250
7113,3.906250
7114,3.906250
7115,3.906250
7116,3.906250
7117,3.906250
7118,1.953125
7119,1.953125
7120,1.953125
7121,1.953125
7122,0.000000
7123,0.000000
7124,0.000000
7125,0.000000
7126,0.000000
7127,-1.953125
7128,-1.953125
7129,-1.953125
7130,-1.953125
7131,-1.953125
7132,-3.906250
7133,-3.906250
7134,-3.906250
7135,-3.906250
7136,-5.859375
7137,-5.859375
7138,-5.859375
7139,-5.859375
7140,-5.859375
7141,-7.812500
7142,-7.812500
7143,-7.812500
7144,-7.812500
7145,-7.812500
7146,-9.765625
7147,-9.765625
7148,-9.765625
7149,-11.718750
7150,-9.765625
7151,-11.718750
7152,-11.718750
7153,-11.718750
7154,-11.718750
7155,-13.671875
7156,-13.671875
7157,-13.671875
7158,-13.671875
7159,-15.625000
7160,-15.625000
7161,-15.625000
7162,-15.625000
7163,-15.625000
7164,-15.625000
7165,-17.578125
7166,-17.578125
7167,-17.578125
7168,-17.578125
7169,-17.578125
7170,-19.531250
7171,-19.531250
7172,-19.531250
7173,-19.531250
7174,-19.531250
7175,-19.531250
7176,-21.484375
7177,-21.484375
7178,-21.484375
7179,-21.484375
7180,-21.484375
7181,-21.484375
7182,-21.484375
7183,-21.484375
7184,-21.484375
7185,-23.437500
7186,-23.437500
7187,-23.437500
7188,-23.437500
7189,-23.437500
7190,-23.437500
7191,-25.390625
7192,-25.390625
7193,-25.390625
7194,-25.390625
7195,-25.390625
7196,-25.390625
7197,-25.390625
7198,-25.390625
7199,-25.390625
7200,-25.390625
7201,-25.390625
7202,-25.390625
7203,-25.390625
7204,-25.390625
7205,-27.343750
7206,-27.343750
7207,-27.343750
7208,-25.390625
7209,-25.390625
7210,-27.343750
7211,-27.343750
7212,-27.343750
7213,-25.390625
7214,-27.343750
7215,-25.390625
7216,-25.390625
7217,-25.390625
7218,-25.390625
7219,-25.390625
7220,-25.390625
7221,-25.390625
7222,-25.390625
7223,-25.390625
7224,-25.390625
7225,-25.390625
7226,-25.390625
7227,-23.437500
7228,-23.437500
7229,-23.437500
7230,-23.437500
7231,-23.437500
7232,-23.437500
7233,-23.437500
7234,-23.437500
7235,-23.437500
7236,-21.484375
7237,-21.484375
7238,-21.484375
7239,-21.484375
7240,-21.484375
7241,-21.484375
7242,-21.484375
7243,-21.484375
7244,-19.531250
7245,-19.531250
7246,-19.531250
7247,-19.531250
7248,-19.531250
7249,-17.578125
7250,-17.578125
7251,-17.578125
7252,-17.578125
7253,-17.578125
7254,-17.578125
7255,-17.578125
7256,-15.625000
7257,-15.625000
7258,-15.625000
7259,-15.625000
7260,-15.625000
7261,-15.625000
7262,-13.671875
7263,-13.671875
7264,-13.671875
7265,-13.671875
7266,-11.718750
7267,-11.718750
7268,-11.718750
7269,-9.765625
7270,-11.718750
7271,-9.765625
7272,-9.765625
7273,-9.765625
7274,-7.812500
7275,-7.812500
7276,-7.812500
7277,-7.812500
7278,-7.812500
7279,-5.859375
7280,-5.859375
7281,-5.859375
7282,-5.859375
7283,-3.906250
7284,-3.906250
7285,-3.906250
7286,-3.906250
7287,-1.953125
7288,-1.953125
7289,-1.953125
7290,-1.953125
7291,-1.953125
7292,0.000000
7293,0.000000
7294,0.000000
7295,0.000000
7296,0.000000
7297,1.953125
7298,1.953125
7299,1.953125
7300,1.953125
7301,3.906250
7302,3.906250
7303,3.906250
7304,3.906250
7305,5.859375
7306,3.906250
7307,5.859375
7308,5.859375
7309,5.859375
7310,5.859375
7311,5.859375
7312,5.859375
7313,5.859375
7314,7.812500
7315,7.812500
7316,7.812500
7317,7.812500
7318,7.812500
7319,7.812500
7320,7.812500
7321,9.765625
7322,9.765625
7323,9.765625
7324,9.765625
7325,9.765625
7326,9.765625
7327,9.765625
7328,9.765625
7329,11.718750
7330,9.765625
7331,11.718750
7332,11.718750
7333,11.718750
7334,11.718750
7335,11.718750
7336,11.718750
7337,11.718750
7338,11.718750
7339,11.718750
7340,11.718750
7341,11.718750
7342,11.718750
7343,13.671875
7344,11.718750
7345,13.671875
7346,13.671875
7347,13.671875
7348,13.671875
7349,11.718750
7350,11.718750
7351,11.718750
7352,13.671875
7353,13.671875
7354,11.718750
7355,11.718750
7356,13.671875
7357,13.671875
7358,11.718750
7359,13.671875
7360,11.718750
7361,13.671875
7362,11.718750
7363,11.718750
7364,11.718750
7365,11.718750
7366,11.718750
7367,11.718750
7368,11.718750
7369,11.718750
7370,11.718750
7371,11.718750
7372,11.718750
7373,9.765625
7374,9.765625
7375,9.765625
7376,9.765625
7377,9.765625
7378,9.765625
7379,9.765625
7380,9.765625
7381,9.765625
7382,7.812500
7383,7.812500
7384,7.812500
7385,7.812500
7386,7.812500
7387,5.859375
7388,5.859375
7389,5.859375
7390,5.859375
7391,5.859375
7392,5.859375
7393,3.906250
7394,3.906250
7395,3.906250
7396,3.906250
7397,3.906250
7398,3.906250
7399,1.953125
7400,1.953125
7401,1.953125
7402,1.953125
7403,1.953125
7404,1.953125
7405,0.000000
7406,0.000000
7407,0.000000
7408,0.000000
7409,-1.953125
7410,0.000000
7411,-1.953125
7412,-1.953125
7413,-1.953125
7414,-1.953125
7415,-3.906250
7416,-3.906250
7417,-3.906250
7418,-3.906250
7419,-3.906250
7420,-5.859375
7421,-5.859375
7422,-5.859375
7423,-7.812500
7424,-5.859375
7425,-7.812500
7426,-7.812500
7427,-7.812500
7428,-9.765625
7429,-9.765625
7430,-9.765625
7431,-9.765625
7432,-9.765625
7433,-11.718750
7434,-11.718750
7435,-11.718750
7436,-11.718750
7437,-11.718750
7438,-13.671875
7439,-13.671875
7440,-13.671875
7441,-13.671875
7442,-13.671875
7443,-15.625000
7444,-15.625000
7445,-15.625000
7446,-15.625000
7447,-17.578125
7448,-17.578125
7449,-17.578125
7450,-19.531250
7451,-19.531250
7452,-17.578125
7453,-19.531250
7454,-19.531250
7455,-19.531250
7456,-19.531250
7457,-21.484375
7458,-21.484375
7459,-21.484375
7460,-19.531250
7461,-21.484375
7462,-21.484375
7463,-23.437500
7464,-23.437500
7465,-23.437500
7466,-23.437500
7467,-23.437500
7468,-23.437500
7469,-23.437500
7470,-23.437500
7471,-23.437500
7472,-23.437500
7473,-23.437500
7474,-23.437500
7475,-23.437500
7476,-25.390625
7477,-23.437500
7478,-25.390625
7479,-25.390625
7480,-25.390625
7481,-25.390625
7482,-25.390625
7483,-25.390625
7484,-25.390625
7485,-25.390625
7486,-25.390625
7487,-25.390625
7488,-25.390625
7489,-25.390625
7490,-25.390625
7491,-25.390625
7492,-25.390625
7493,-25.390625
7494,-25.390625
7495,-25.390625
7496,-25.390625
7497,-25.390625
7498,-25.390625
7499,-25.390625
7500,-25.390625
7501,-25.390625
7502,-25.390625
7503,-25.390625
7504,-25.390625
7505,-25.390625
7506,-25.390625
7507,-25.390625
7508,-25.390625
7509,-25.390625
7510,-23.437500
7511,-23.437500
7512,-23.437500
7513,-23.437500
7514,-23.437500
7515,-23.437500
7516,-23.437500
7517,-23.437500
7518,-23.437500
7519,-23.437500
7520,-21.484375
7521,-21.484375
7522,-21.484375
7523,-21.484375
7524,-21.484375
7525,-21.484375
7526,-19.531250
7527,-21.484375
7528,-19.531250
7529,-19.531250
7530,-19.531250
7531,-19.531250
7532,-19.531250
7533,-17.578125
7534,-19.531250
7535,-17.578125
7536,-17.578125
7537,-15.625000
7538,-15.625000
7539,-15.625000
7540,-15.625000
7541,-15.625000
7542,-15.625000
7543,-13.671875
7544,-13.671875
7545,-13.671875
7546,-13.671875
7547,-13.671875
7548,-11.718750
7549,-11.718750
7550,-11.718750
7551,-11.718750
7552,-9.765625
7553,-9.765625
7554,-9.765625
7555,-9.765625
7556,-7.812500
7557,-7.812500
7558,-7.812500
7559,-7.812500
7560,-7.812500
7561,-5.859375
7562,-5.859375
7563,-5.859375
7564,-3.906250
7565,-3.906250
7566,-3.906250
7567,-3.906250
7568,-3.906250
7569,-1.953125
7570,-1.953125
7571,-1.953125
7572,-1.953125
7573,-1.953125
7574,-1.953125
7575,0.000000
7576,0.000000
7577,0.000000
7578,0.000000
7579,0.000000
7580,1.953125
7581,1.953125
7582,1.953125
7583,1.953125
7584,3.906250
7585,3.906250
7586,3.906250
7587,3.906250
7588,3.906250
7589,3.906250
7590,5.859375
7591,5.859375
7592,5.859375
7593,5.859375
7594,5.859375
7595,5.859375
7596,5.859375
7597,7.812500
7598,7.812500
7599,7.812500
7600,7.812500
7601,7.812500
7602,7.812500
7603,9.765625
7604,9.765625
7605,9.765625
7606,9.765625
7607,9.765625
7608,9.765625
7609,9.765625
7610,11.718750
7611,9.765625
7612,11.718750
7613,11.718750
7614,11.718750
7615,11.718750
7616,11.718750
7617,11.718750
7618,11.718750
7619,11.718750
7620,11.718750
7621,11.718750
7622,11.718750
7623,11.718750
7624,11.718750
7625,13.671875
7626,13.671875
7627,13.671875
7628,11.718750
7629,13.671875
7630,13.671875
7631,11.718750
7632,13.671875
7633,13.671875
7634,13.671875
7635,13.671875
7636,11.718750
7637,11.718750
7638,13.671875
7639,11.718750
7640,11.718750
7641,11.718750
7642,13.671875
7643,11.718750
7644,11.718750
7645,11.718750
7646,11.718750
7647,11.718750
7648,11.718750
7649,11.718750
7650,11.718750
7651,11.718750
7652,11.718750
7653,11.718750
7654,11.718750
7655,9.765625
7656,9.765625
7657,9.765625
7658,9.765625
7659,9.765625
7660,7.812500
7661,9.765625
7662,9.765625
7663,7.812500
7664,7.812500
7665,7.812500
7666,7.812500
7667,7.812500
7668,7.812500
7669,7.812500
7670,7.812500
7671,7.812500
7672,5.859375
7673,5.859375
7674,5.859375
7675,5.859375
7676,5.859375
7677,3.906250
7678,3.906250
7679,3.906250
7680,3.906250
7681,3.906250
7682,3.906250
7683,1.953125
7684,1.953125
7685,1.953125
7686,1.953125
7687,1.953125
7688,1.953125
7689,0.000000
7690,0.000000
7691,0.000000
7692,-1.953125
7693,-1.953125
7694,-1.953125
7695,-1.953125
7696,-1.953125
7697,-1.953125
7698,-3.906250
7699,-3.906250
7700,-3.906250
7701,-3.906250
7702,-3.906250
7703,-5.859375
7704,-5.859375
7705,-5.859375
7706,-7.812500
7707,-7.812500
7708,-7.812500
7709,-9.765625
7710,-9.765625
7711,-9.765625
7712,-9.765625
7713,-9.765625
7714,-11.718750
7715,-11.718750
7716,-11.718750
7717,-11.718750
7718,-11.718750
7719,-11.718750
7720,-13.671875
7721,-13.671875
7722,-13.671875
7723,-13.671875
7724,-15.625000
7725,-15.625000
7726,-15.625000
7727,-19.531250
7728,-17.578125
7729,-17.578125
7730,-17.578125
7731,-17.578125
7732,-17.578125
7733,-17.578125
7734,-19.531250
7735,-17.578125
7736,-21.484375
7737,-25.390625
7738,-19.531250
7739,-19.531250
7740,-19.531250
7741,-19.531250
7742,-21.484375
7743,-21.484375
7744,-21.484375
7745,-21.484375
7746,-23.437500
7747,-21.484375
7748,-23.437500
7749,-23.437500
7750,-23.437500
7751,-23.437500
7752,-23.437500
7753,-23.437500
7754,-23.437500
7755,-23.437500
7756,-23.437500
7757,-25.390625
7758,-25.390625
7759,-25.390625
7760,-25.390625
7761,-23.437500
7762,-25.390625
7763,-25.390625
7764,-25.390625
7765,-25.390625
7766,-25.390625
7767,-25.390625
7768,-25.390625
7769,-25.390625
7770,-23.437500
7771,-27.343750
7772,-25.390625
7773,-25.390625
7774,-27.343750
7775,-27.343750
7776,-27.343750
7777,-25.390625
7778,-25.390625
7779,-25.390625
7780,-25.390625
7781,-27.343750
7782,-27.343750
7783,-25.390625
7784,-25.390625
7785,-25.390625
7786,-25.390625
7787,-25.390625
7788,-25.390625
7789,-25.390625
7790,-25.390625
7791,-25.390625
7792,-25.390625
7793,-23.437500
7794,-23.437500
7795,-23.437500
7796,-23.437500
7797,-23.437500
7798,-23.437500
7799,-23.437500
7800,-23.437500
7801,-21.484375
7802,-23.437500
7803,-21.484375
7804,-21.484375
7805,-21.484375
7806,-21.484375
7807,-21.484375
7808,-21.484375
7809,-19.531250
7810,-19.531250
7811,-19.531250
7812,-19.531250
7813,-19.531250
7814,-17.578125
7815,-17.578125
7816,-17.578125
7817,-17.578125
7818,-17.578125
7819,-17.578125
7820,-17.578125
7821,-15.625000
7822,-15.625000
7823,-15.625000
7824,-13.671875
7825,-13.671875
7826,-13.671875
7827,-13.671875
7828,-13.671875
7829,-13.671875
7830,-11.718750
7831,-11.718750
7832,-11.718750
7833,-11.718750
7834,-9.765625
7835,-9.765625
7836,-9.765625
7837,-9.765625
7838,-7.812500
7839,-7.812500
7840,-7.812500
7841,-7.812500
7842,-7.812500
7843,-5.859375
7844,-5.859375
7845,-5.859375
7846,-5.859375
7847,-5.859375
7848,-3.906250
7849,-3.906250
7850,-3.906250
7851,-3.906250
7852,-3.906250
7853,-1.953125
7854,-1.953125
7855,-1.953125
7856,-1.953125
7857,0.000000
7858,-1.953125
7859,0.000000
7860,0.000000
7861,0.000000
7862,1.953125
7863,1.953125
7864,1.953125
7865,1.953125
7866,1.953125
7867,1.953125
7868,3.906250
7869,3.906250
7870,3.906250
7871,5.859375
7872,3.906250
7873,5.859375
7874,5.859375
7875,5.859375
7876,5.859375
7877,7.812500
7878,7.812500
7879,5.859375
7880,7.812500
7881,7.812500
7882,7.812500
7883,9.765625
7884,9.765625
7885,9.765625
7886,7.812500
7887,9.765625
7888,7.812500
7889,9.765625
7890,9.765625
7891,11.718750
7892,9.765625
7893,9.765625
7894,9.765625
7895,11.718750
7896,11.718750
7897,11.718750
7898,11.718750
7899,11.718750
7900,11.718750
7901,11.718750
7902,11.718750
7903,11.718750
7904,11.718750
7905,13.671875
7906,11.718750
7907,13.671875
7908,13.671875
7909,13.671875
7910,13.671875
7911,11.718750
7912,13.671875
7913,11.718750
7914,13.671875
7915,11.718750
7916,13.671875
7917,11.718750
7918,13.671875
7919,13.671875
7920,11.718750
7921,11.718750
7922,13.671875
7923,11.718750
7924,11.718750
7925,11.718750
7926,11.718750
7927,11.718750
7928,11.718750
7929,11.718750
7930,11.718750
7931,11.718750
7932,11.718750
7933,11.718750
7934,11.718750
7935,11.718750
7936,11.718750
7937,11.718750
7938,9.765625
7939,9.765625
7940,9.765625
7941,9.765625
7942,9.765625
7943,9.765625
7944,9.765625
7945,9.765625
7946,9.765625
7947,7.812500
7948,7.812500
7949,9.765625
7950,7.812500
7951,7.812500
7952,7.812500
7953,5.859375
7954,5.859375
7955,5.859375
7956,5.859375
7957,5.859375
7958,5.859375
7959,3.906250
7960,3.906250
7961,3.906250
7962,3.906250
7963,3.906250
7964,3.906250
7965,1.953125
7966,1.953125
7967,1.953125
7968,1.953125
7969,1.953125
7970,0.000000
7971,0.000000
7972,0.000000
7973,0.000000
7974,0.000000
7975,-1.953125
7976,-1.953125
7977,-1.953125
7978,-3.906250
7979,-3.906250
7980,-3.906250
7981,-3.906250
7982,-3.906250
7983,-3.906250
7984,-5.859375
7985,-5.859375
7986,-5.859375
7987,-5.859375
7988,-7.812500
7989,-7.812500
7990,-7.812500
7991,-7.812500
7992,-7.812500
7993,-7.812500
7994,-9.765625
7995,-9.765625
7996,-9.765625
7997,-9.765625
7998,-11.718750
7999,-11.718750
8000,-11.718750
8001,-13.671875
8002,-13.671875
8003,-13.671875
8004,-13.671875
8005,-13.671875
8006,-13.671875
8007,-15.625000
8008,-13.671875
8009,-15.625000
8010,-17.578125
8011,-17.578125
8012,-17.578125
8013,-17.578125
8014,-17.578125
8015,-17.578125
8016,-17.578125
8017,-17.578125
8018,-19.531250
8019,-19.531250
8020,-19.531250
8021,-19.531250
8022,-19.531250
8023,-19.531250
8024,-21.484375
8025,-21.484375
8026,-21.484375
8027,-21.484375
8028,-23.437500
8029,-23.437500
8030,-23.437500
8031,-23.437500
8032,-23.437500
8033,-23.437500
8034,-23.437500
8035,-23.437500
8036,-23.437500
8037,-23.437500
8038,-25.390625
8039,-25.390625
8040,-25.390625
8041,-25.390625
8042,-25.390625
8043,-25.390625
8044,-25.390625
8045,-25.390625
8046,-25.390625
8047,-25.390625
8048,-25.390625
8049,-27.343750
8050,-27.343750
8051,-25.390625
8052,-25.390625
8053,-25.390625
8054,-25.390625
8055,-25.390625
8056,-27.343750
8057,-27.343750
8058,-25.390625
8059,-27.343750
8060,-27.343750
8061,-25.390625
8062,-25.390625
8063,-25.390625
8064,-25.390625
8065,-25.390625
8066,-25.390625
8067,-25.390625
8068,-25.390625
8069,-25.390625
8070,-25.390625
8071,-25.390625
8072,-25.390625
8073,-25.390625
8074,-23.437500
8075,-25.390625
8076,-23.437500
8077,-23.437500
8078,-25.390625
8079,-23.437500
8080,-23.437500
8081,-23.437500
8082,-23.437500
8083,-21.484375
8084,-21.484375
8085,-21.484375
8086,-21.484375
8087,-21.484375
8088,-21.484375
8089,-21.484375
8090,-21.484375
8091,-19.531250
8092,-19.531250
8093,-19.531250
8094,-19.531250
8095,-19.531250
8096,-17.578125
8097,-19.531250
8098,-17.578125
8099,-17.578125
8100,-17.578125
8101,-17.578125
8102,-15.625000
8103,-17.578125
8104,-15.625000
8105,-15.625000
8106,-15.625000
8107,-15.625000
8108,-13.671875
8109,-13.671875
8110,-13.671875
8111,-13.671875
8112,-11.718750
8113,-11.718750
8114,-11.718750
8115,-11.718750
8116,-9.765625
8117,-9.765625
8118,-9.765625
8119,-9.765625
8120,-7.812500
8121,-7.812500
8122,-7.812500
8123,-7.812500
8124,-7.812500
8125,-7.812500
8126,-5.859375
8127,-5.859375
8128,-5.859375
8129,-5.859375
8130,-3.906250
8131,-3.906250
8132,-3.906250
8133,-3.906250
8134,-3.906250
8135,-3.906250
8136,-1.953125
8137,-1.953125
8138,-1.953125
8139,0.000000
8140,0.000000
8141,0.000000
8142,0.000000
8143,1.953125
8144,1.953125
8145,1.953125
8146,1.953125
8147,1.953125
8148,1.953125
8149,1.953125
8150,3.906250
8151,3.906250
8152,3.906250
8153,3.906250
8154,3.906250
8155,3.906250
8156,5.859375
8157,5.859375
8158,5.859375
8159,5.859375
8160,5.859375
8161,5.859375
8162,7.812500
8163,7.812500
8164,7.812500
8165,7.812500
8166,7.812500
8167,7.812500
8168,9.765625
8169,9.765625
8170,9.765625
8171,9.765625
8172,9.765625
8173,9.765625
8174,9.765625
8175,9.765625
8176,9.765625
8177,11.718750
8178,11.718750
8179,11.718750
8180,11.718750
8181,11.718750
8182,11.718750
8183,11.718750
8184,11.718750
8185,11.718750
8186,11.718750
8187,11.718750
8188,11.718750
8189,11.718750
8190,11.718750
8191,11.718750
8192,11.718750
8193,13.671875
8194,13.671875
8195,13.671875
8196,13.671875
8197,13.671875
8198,11.718750
8199,13.671875
8200,11.718750
8201,13.671875
8202,13.671875
8203,11.718750
8204,13.671875
8205,13.671875
8206,13.671875
8207,13.671875
8208,13.671875
8209,11.718750
8210,11.718750
8211,11.718750
8212,11.718750
8213,11.718750
8214,11.718750
8215,11.718750
8216,11.718750
8217,11.718750
8218,11.718750
8219,11.718750
8220,11.718750
8221,9.765625
8222,9.765625
8223,9.765625
8224,9.765625
8225,9.765625
8226,9.765625
8227,9.765625
8228,9.765625
8229,7.812500
8230,7.812500
8231,7.812500
8232,7.812500
8233,7.812500
8234,5.859375
8235,5.859375
8236,5.859375
8237,5.859375
8238,5.859375
8239,5.859375
8240,5.859375
8241,3.906250
8242,5.859375
8243,3.906250
8244,3.906250
8245,3.906250
8246,1.953125
8247,1.953125
8248,1.953125
8249,1.953125
8250,1.953125
8251,1.953125
8252,0.000000
8253,0.000000
8254,0.000000
8255,0.000000
8256,0.000000
8257,-1.953125
8258,-1.953125
8259,-1.953125
8260,-1.953125
8261,-1.953125
8262,-1.953125
8263,-3.906250
8264,-3.906250
8265,-3.906250
8266,-3.906250
8267,-5.859375
8268,-7.812500
8269,-5.859375
8270,-7.812500
8271,-7.812500
8272,-7.812500
8273,-7.812500
8274,-7.812500
8275,-7.812500
8276,-7.812500
8277,-9.765625
8278,-9.765625
8279,-11.718750
8280,-11.718750
8281,-11.718750
8282,-11.718750
8283,-11.718750
8284,-11.718750
8285,-13.671875
8286,-13.671875
8287,-13.671875
8288,-15.625000
8289,-13.671875
8290,-15.625000
8291,-15.625000
8292,-15.625000
8293,-15.625000
8294,-15.625000
8295,-17.578125
8296,-17.578125
8297,-17.578125
8298,-19.531250
8299,-19.531250
8300,-19.531250
8301,-19.531250
8302,-19.531250
8303,-19.531250
8304,-19.531250
8305,-21.484375
8306,-21.484375
8307,-21.484375
8308,-21.484375
8309,-21.484375
8310,-21.484375
8311,-21.484375
8312,-21.484375
8313,-23.437500
8314,-23.437500
8315,-23.437500
8316,-23.437500
8317,-23.437500
8318,-23.437500
8319,-23.437500
8320,-25.390625
8321,-25.390625
8322,-23.437500
8323,-23.437500
8324,-25.390625
8325,-25.390625
8326,-25.390625
8327,-25.390625
8328,-25.390625
8329,-25.390625
8330,-25.390625
8331,-25.390625
8332,-25.390625
8333,-25.390625
8334,-25.390625
8335,-25.390625
8336,-25.390625
8337,-25.390625
8338,-27.343750
8339,-25.390625
8340,-25.390625
8341,-25.390625
8342,-25.390625
8343,-27.343750
8344,-25.390625
8345,-25.390625
8346,-25.390625
8347,-25.390625
8348,-25.390625
8349,-25.390625
8350,-25.390625
8351,-25.390625
8352,-25.390625
8353,-25.390625
8354,-25.390625
8355,-25.390625
8356,-23.437500
8357,-25.390625
8358,-25.390625
8359,-25.390625
8360,-23.437500
8361,-23.437500
8362,-23.437500
8363,-23.437500
8364,-23.437500
8365,-23.437500
8366,-23.437500
8367,-21.484375
8368,-21.484375
8369,-21.484375
8370,-21.484375
8371,-21.484375
8372,-21.484375
8373,-19.531250
8374,-19.531250
8375,-19.531250
8376,-19.531250
8377,-19.531250
8378,-19.531250
8379,-17.578125
8380,-17.578125
8381,-17.578125
8382,-17.578125
8383,-15.625000
8384,-17.578125
8385,-15.625000
8386,-17.578125
8387,-15.625000
8388,-15.625000
8389,-15.625000
8390,-13.671875
8391,-13.671875
8392,-13.671875
8393,-13.671875
8394,-11.718750
8395,-11.718750
8396,-11.718750
8397,-11.718750
8398,-11.718750
8399,-11.718750
8400,-9.765625
8401,-9.765625
8402,-9.765625
8403,-9.765625
8404,-7.812500
8405,-7.812500
8406,-7.812500
8407,-5.859375
8408,-5.859375
8409,-5.859375
8410,-5.859375
8411,-5.859375
8412,-3.906250
8413,-3.906250
8414,-3.906250
8415,-3.906250
8416,-3.906250
8417,-1.953125
8418,-1.953125
8419,-1.953125
8420,-1.953125
8421,-1.953125
8422,0.000000
8423,0.000000
8424,0.000000
8425,0.000000
8426,0.000000
8427,1.953125
8428,1.953125
8429,1.953125
8430,1.953125
8431,1.953125
8432,3.906250
8433,3.906250
8434,3.906250
8435,3.906250
8436,5.859375
8437,3.906250
8438,5.859375
8439,5.859375
8440,5.859375
8441,5.859375
8442,5.859375
8443,5.859375
8444,7.812500
8445,7.812500
8446,7.812500
8447,7.812500
8448,7.812500
8449,9.765625
8450,9.765625
8451,9.765625
8452,9.765625
8453,9.765625
8454,9.765625
8455,9.765625
8456,11.718750
8457,9.765625
8458,11.718750
8459,11.718750
8460,11.718750
8461,11.718750
8462,11.718750
8463,11.718750
8464,11.718750
8465,11.718750
8466,11.718750
8467,11.718750
8468,11.718750
8469,11.718750
8470,11.718750
8471,11.718750
8472,11.718750
8473,11.718750
8474,11.718750
8475,11.718750
8476,11.718750
8477,11.718750
8478,13.671875
8479,13.671875
8480,13.671875
8481,13.671875
8482,11.718750
8483,13.671875
8484,11.718750
8485,11.718750
8486,11.718750
8487,11.718750
8488,11.718750
8489,11.718750
8490,11.718750
8491,11.718750
8492,11.718750
8493,11.718750
8494,11.718750
8495,11.718750
8496,11.718750
8497,11.718750
8498,11.718750
8499,9.765625
8500,11.718750
8501,11.718750
8502,9.765625
8503,9.765625
8504,9.765625
8505,9.765625
8506,9.765625
8507,9.765625
8508,9.765625
8509,9.765625
8510,9.765625
8511,7.812500
8512,7.812500
8513,7.812500
8514,7.812500
8515,7.812500
8516,7.812500
8517,7.812500
8518,5.859375
8519,5.859375
8520,5.859375
8521,5.859375
8522,5.859375
8523,3.906250
8524,3.906250
8525,3.906250
8526,3.906250
8527,3.906250
8528,3.906250
8529,1.953125
8530,3.906250
8531,1.953125
8532,1.953125
8533,1.953125
8534,0.000000
8535,0.000000
8536,0.000000
8537,0.000000
8538,-1.953125
8539,-1.953125
8540,-1.953125
8541,-1.953125
8542,-1.953125
8543,-3.906250
8544,-1.953125
8545,-3.906250
8546,-3.906250
8547,-5.859375
8548,-5.859375
8549,-5.859375
8550,-5.859375
8551,-3.906250
8552,-5.859375
8553,-7.812500
8554,-7.812500
8555,-7.812500
8556,-7.812500
8557,-9.765625
8558,-9.765625
8559,-9.765625
8560,-9.765625
8561,-11.718750
8562,-11.718750
8563,-11.718750
8564,-11.718750
8565,-13.671875
8566,-11.718750
8567,-13.671875
8568,-13.671875
8569,-13.671875
8570,-13.671875
8571,-15.625000
8572,-15.625000
8573,-15.625000
8574,-15.625000
8575,-15.625000
8576,-17.578125
8577,-17.578125
8578,-17.578125
8579,-17.578125
8580,-17.578125
8581,-17.578125
8582,-17.578125
8583,-19.531250
8584,-19.531250
8585,-19.531250
8586,-19.531250
8587,-19.531250
8588,-21.484375
8589,-21.484375
8590,-21.484375
8591,-21.484375
8592,-21.484375
8593,-21.484375
8594,-23.437500
8595,-21.484375
8596,-23.437500
8597,-23.437500
8598,-23.437500
8599,-25.390625
8600,-23.437500
8601,-25.390625
8602,-25.390625
8603,-23.437500
8604,-25.390625
8605,-25.390625
8606,-25.390625
8607,-25.390625
8608,-25.390625
8609,-25.390625
8610,-25.390625
8611,-25.390625
8612,-25.390625
8613,-25.390625
8614,-25.390625
8615,-25.390625
8616,-27.343750
8617,-25.390625
8618,-27.343750
8619,-25.390625
8620,-25.390625
8621,-25.390625
8622,-25.390625
8623,-25.390625
8624,-25.390625
8625,-27.343750
8626,-27.343750
8627,-25.390625
8628,-27.343750
8629,-25.390625
8630,-25.390625
8631,-25.390625
8632,-25.390625
8633,-25.390625
8634,-25.390625
8635,-25.390625
8636,-25.390625
8637,-25.390625
8638,-25.390625
8639,-25.390625
8640,-25.390625
8641,-25.390625
8642,-23.437500
8643,-23.437500
8644,-23.437500
8645,-23.437500
8646,-23.437500
8647,-23.437500
8648,-21.484375
8649,-21.484375
8650,-21.484375
8651,-21.484375
8652,-21.484375
8653,-21.484375
8654,-21.484375
8655,-21.484375
8656,-21.484375
8657,-19.531250
8658,-19.531250
8659,-19.531250
8660,-19.531250
8661,-17.578125
8662,-17.578125
8663,-17.578125
8664,-15.625000
8665,-17.578125
8666,-17.578125
8667,-15.625000
8668,-15.625000
8669,-15.625000
8670,-15.625000
8671,-15.625000
8672,-13.671875
8673,-13.671875
8674,-13.671875
8675,-13.671875
8676,-11.718750
8677,-11.718750
8678,-11.718750
8679,-11.718750
8680,-11.718750
8681,-9.765625
8682,-9.765625
8683,-9.765625
8684,-9.765625
8685,-9.765625
8686,-7.812500
8687,-7.812500
8688,-7.812500
8689,-7.812500
8690,-7.812500
8691,-5.859375
8692,-5.859375
8693,-5.859375
8694,-3.906250
8695,-5.859375
8696,-3.906250
8697,-3.906250
8698,-3.906250
8699,-3.906250
8700,-3.906250
8701,-1.953125
8702,-1.953125
8703,-1.953125
8704,0.000000
8705,0.000000
8706,0.000000
8707,0.000000
8708,0.000000
8709,1.953125
8710,3.906250
8711,1.953125
8712,1.953125
8713,1.953125
8714,3.906250
8715,3.906250
8716,3.906250
8717,3.906250
8718,3.906250
8719,5.859375
8720,5.859375
8721,5.859375
8722,5.859375
8723,5.859375
8724,7.812500
8725,5.859375
8726,7.812500
8727,7.812500
8728,7.812500
8729,9.765625
8730,7.812500
8731,7.812500
8732,7.812500
8733,9.765625
8734,9.765625
8735,9.765625
8736,9.765625
8737,9.765625
8738,9.765625
8739,9.765625
8740,9.765625
8741,9.765625
8742,9.765625
8743,9.765625
8744,11.718750
8745,11.718750
8746,11.718750
8747,11.718750
8748,11.718750
8749,11.718750
8750,11.718750
8751,11.718750
8752,11.718750
8753,11.718750
8754,11.718750
8755,11.718750
8756,11.718750
8757,11.718750
8758,11.718750
8759,11.718750
8760,13.671875
8761,13.671875
8762,13.671875
8763,13.671875
8764,13.671875
8765,13.671875
8766,11.718750
8767,11.718750
8768,11.718750
8769,11.718750
8770,11.718750
8771,11.718750
8772,11.718750
8773,11.718750
8774,11.718750
8775,11.718750
8776,11.718750
8777,11.718750
8778,11.718750
8779,11.718750
8780,11.718750
8781,11.718750
8782,11.718750
8783,11.718750
8784,11.718750
8785,11.718750
8786,9.765625
8787,9.765625
8788,9.765625
8789,9.765625
8790,9.765625
8791,9.765625
8792,7.812500
8793,7.812500
8794,7.812500
8795,7.812500
8796,7.812500
8797,7.812500
8798,7.812500
8799,7.812500
8800,5.859375
8801,5.859375
8802,5.859375
8803,5.859375
8804,5.859375
8805,5.859375
8806,5.859375
8807,3.906250
8808,3.906250
8809,3.906250
8810,3.906250
8811,1.953125
8812,1.953125
8813,1.953125
8814,1.953125
8815,1.953125
8816,0.000000
8817,0.000000
8818,0.000000
8819,0.000000
8820,0.000000
8821,-1.953125
8822,-1.953125
8823,-1.953125
8824,-1.953125
8825,-3.906250
8826,-3.906250
8827,-3.906250
8828,-3.906250
8829,-3.906250
8830,-5.859375
8831,-5.859375
8832,-5.859375
8833,-5.859375
8834,-5.859375
8835,-7.812500
8836,-7.812500
8837,-7.812500
8838,-7.812500
8839,-9.765625
8840,-7.812500
8841,-9.765625
8842,-9.765625
8843,-9.765625
8844,-9.765625
8845,-9.765625
8846,-11.718750
8847,-11.718750
8848,-13.671875
8849,-13.671875
8850,-13.671875
8851,-13.671875
8852,-13.671875
8853,-13.671875
8854,-13.671875
8855,-15.625000
8856,-15.625000
8857,-15.625000
8858,-17.578125
8859,-17.578125
8860,-17.578125
8861,-17.578125
8862,-17.578125
8863,-17.578125
8864,-17.578125
8865,-19.531250
8866,-19.531250
8867,-19.531250
8868,-19.531250
8869,-21.484375
8870,-21.484375
8871,-21.484375
8872,-21.484375
8873,-21.484375
8874,-21.484375
8875,-21.484375
8876,-21.484375
8877,-23.437500
8878,-23.437500
8879,-23.437500
8880,-23.437500
8881,-23.437500
8882,-23.437500
8883,-23.437500
8884,-23.437500
8885,-25.390625
8886,-25.390625
8887,-25.390625
8888,-25.390625
8889,-25.390625
8890,-25.390625
8891,-25.390625
8892,-25.390625
8893,-23.437500
8894,-25.390625
8895,-25.390625
8896,-25.390625
8897,-27.343750
8898,-25.390625
8899,-25.390625
8900,-27.343750
8901,-27.343750
8902,-27.343750
8903,-25.390625
8904,-27.343750
8905,-25.390625
8906,-25.390625
8907,-25.390625
8908,-25.390625
8909,-25.390625
8910,-25.390625
8911,-25.390625
8912,-25.390625
8913,-25.390625
8914,-25.390625
8915,-25.390625
8916,-25.390625
8917,-25.390625
8918,-25.390625
8919,-25.390625
8920,-25.390625
8921,-25.390625
8922,-23.437500
8923,-25.390625
8924,-23.437500
8925,-23.437500
8926,-23.437500
8927,-23.437500
8928,-23.437500
8929,-23.437500
8930,-23.437500
8931,-23.437500
8932,-21.484375
8933,-21.484375
8934,-21.484375
8935,-21.484375
8936,-21.484375
8937,-21.484375
8938,-19.531250
8939,-19.531250
8940,-17.578125
8941,-19.531250
8942,-19.531250
8943,-19.531250
8944,-19.531250
8945,-17.578125
8946,-17.578125
8947,-17.578125
8948,-17.578125
8949,-15.625000
8950,-15.625000
8951,-15.625000
8952,-15.625000
8953,-15.625000
8954,-13.671875
8955,-13.671875
8956,-13.671875
8957,-13.671875
8958,-13.671875
8959,-11.718750
8960,-11.718750
8961,-11.718750
8962,-11.718750
8963,-9.765625
8964,-9.765625
8965,-9.765625
8966,-9.765625
8967,-7.812500
8968,-7.812500
8969,-7.812500
8970,-7.812500
8971,-7.812500
8972,-7.812500
8973,-5.859375
8974,-5.859375
8975,-5.859375
8976,-5.859375
8977,-3.906250
8978,-3.906250
8979,-3.906250
8980,-1.953125
8981,-3.906250
8982,-1.953125
8983,-1.953125
8984,-1.953125
8985,-1.953125
8986,-1.953125
8987,0.000000
8988,0.000000
8989,0.000000
8990,0.000000
8991,1.953125
8992,1.953125
8993,1.953125
8994,1.953125
8995,1.953125
8996,1.953125
8997,3.906250
8998,3.906250
8999,3.906250
9000,3.906250
9001,3.906250
9002,3.906250
9003,5.859375
9004,5.859375
9005,5.859375
9006,5.859375
9007,5.859375
9008,7.812500
9009,7.812500
9010,7.812500
9011,7.812500
9012,7.812500
9013,7.812500
9014,7.812500
9015,9.765625
9016,9.765625
9017,9.765625
9018,9.765625
9019,9.765625
9020,9.765625
9021,9.765625
9022,9.765625
9023,9.765625
9024,9.765625
9025,9.765625
9026,11.718750
9027,11.718750
9028,11.718750
9029,11.718750
9030,11.718750
9031,11.718750
9032,11.718750
9033,11.718750
9034,13.671875
9035,13.671875
9036,11.718750
9037,13.671875
9038,11.718750
9039,11.718750
9040,13.671875
9041,11.718750
9042,13.671875
9043,13.671875
9044,13.671875
9045,13.671875
9046,13.671875
9047,13.671875
9048,13.671875
9049,13.671875
9050,11.718750
9051,11.718750
9052,11.718750
9053,13.671875
9054,11.718750
9055,11.718750
9056,11.718750
9057,11.718750
9058,11.718750
9059,11.718750
9060,11.718750
9061,11.718750
9062,11.718750
9063,11.718750
9064,11.718750
9065,11.718750
9066,11.718750
9067,9.765625
9068,9.765625
9069,9.765625
9070,9.765625
9071,9.765625
9072,9.765625
9073,9.765625
9074,9.765625
9075,7.812500
9076,7.812500
9077,7.812500
9078,7.812500
9079,7.812500
9080,7.812500
9081,5.859375
9082,5.859375
9083,5.859375
9084,5.859375
9085,5.859375
9086,5.859375
9087,5.859375
9088,5.859375
9089,3.906250
9090,3.906250
9091,3.906250
9092,3.906250
9093,3.906250
9094,1.953125
9095,1.953125
9096,1.953125
9097,1.953125
9098,0.000000
9099,0.000000
9100,0.000000
9101,0.000000
9102,0.000000
9103,0.000000
9104,-1.953125
9105,-1.953125
9106,-1.953125
9107,-1.953125
9108,-3.906250
9109,-3.906250
9110,-3.906250
9111,-3.906250
9112,-3.906250
9113,-5.859375
9114,-5.859375
9115,-5.859375
9116,-5.859375
9117,-7.812500
9118,-7.812500
9119,-7.812500
9120,-7.812500
9121,-9.765625
9122,-9.765625
9123,-9.765625
9124,-9.765625
9125,-9.765625
9126,-9.765625
9127,-11.718750
9128,-11.718750
9129,-11.718750
9130,-13.671875
9131,-13.671875
9132,-13.671875
9133,-13.671875
9134,-13.671875
9135,-15.625000
9136,-15.625000
9137,-15.625000
9138,-15.625000
9139,-15.625000
9140,-15.625000
9141,-17.578125
9142,-17.578125
9143,-17.578125
9144,-17.578125
9145,-19.531250
9146,-19.531250
9147,-19.531250
9148,-19.531250
9149,-19.531250
9150,-19.531250
9151,-21.484375
9152,-21.484375
9153,-21.484375
9154,-21.484375
9155,-21.484375
9156,-21.484375
9157,-21.484375
9158,-21.484375
9159,-21.484375
9160,-23.437500
9161,-23.437500
9162,-23.437500
9163,-23.437500
9164,-23.437500
9165,-23.437500
9166,-23.437500
9167,-25.390625
9168,-25.390625
9169,-25.390625
9170,-25.390625
9171,-25.390625
9172,-25.390625
9173,-25.390625
9174,-25.390625
9175,-25.390625
9176,-25.390625
9177,-25.390625
9178,-25.390625
9179,-25.390625
9180,-25.390625
9181,-25.390625
9182,-25.390625
9183,-27.343750
9184,-25.390625
9185,-25.390625
9186,-25.390625
9187,-25.390625
9188,-25.390625
9189,-25.390625
9190,-25.390625
9191,-27.343750
9192,-25.390625
9193,-25.390625
9194,-25.390625
9195,-25.390625
9196,-25.390625
9197,-25.390625
9198,-25.390625
9199,-25.390625
9200,-25.390625
9201,-25.390625
9202,-25.390625
9203,-25.390625
9204,-23.437500
9205,-23.437500
9206,-23.437500
9207,-23.437500
9208,-23.437500
9209,-23.437500
9210,-23.437500
9211,-23.437500
9212,-23.437500
9213,-23.437500
9214,-21.484375
9215,-21.484375
9216,-21.484375
9217,-21.484375
9218,-21.484375
9219,-21.484375
9220,-21.484375
9221,-19.531250
9222,-19.531250
9223,-19.531250
9224,-19.531250
9225,-17.578125
9226,-19.531250
9227,-17.578125
9228,-17.578125
9229,-17.578125
9230,-17.578125
9231,-15.625000
9232,-15.625000
9233,-15.625000
9234,-15.625000
9235,-15.625000
9236,-15.625000
9237,-13.671875
9238,-13.671875
9239,-13.671875
9240,-13.671875
9241,-11.718750
9242,-11.718750
9243,-11.718750
9244,-11.718750
9245,-9.765625
9246,-9.765625
9247,-9.765625
9248,-9.765625
9249,-9.765625
9250,-9.765625
9251,-7.812500
9252,-7.812500
9253,-7.812500
9254,-7.812500
9255,-7.812500
9256,-5.859375
9257,-5.859375
9258,-5.859375
9259,-5.859375
9260,-3.906250
9261,-3.906250
9262,-3.906250
9263,-3.906250
9264,-3.906250
9265,-1.953125
9266,-1.953125
9267,-1.953125
9268,-1.953125
9269,0.000000
9270,0.000000
9271,0.000000
9272,0.000000
9273,0.000000
9274,0.000000
9275,1.953125
9276,1.953125
9277,1.953125
9278,1.953125
9279,1.953125
9280,3.906250
9281,3.906250
9282,3.906250
9283,3.906250
9284,5.859375
9285,5.859375
9286,3.906250
9287,5.859375
9288,5.859375
9289,7.812500
9290,5.859375
9291,7.812500
9292,7.812500
9293,7.812500
9294,7.812500
9295,7.812500
9296,9.765625
9297,9.765625
9298,7.812500
9299,9.765625
9300,9.765625
9301,9.765625
9302,9.765625
9303,9.765625
9304,11.718750
9305,9.765625
9306,11.718750
9307,11.718750
9308,11.718750
9309,11.718750
9310,11.718750
9311,11.718750
9312,11.718750
9313,11.718750
9314,11.718750
9315,11.718750
9316,11.718750
9317,11.718750
9318,11.718750
9319,11.718750
9320,13.671875
9321,11.718750
9322,13.671875
9323,13.671875
9324,11.718750
9325,11.718750
9326,11.718750
9327,11.718750
9328,13.671875
9329,13.671875
9330,13.671875
9331,11.718750
9332,11.718750
9333,11.718750
9334,11.718750
9335,11.718750
9336,11.718750
9337,11.718750
9338,11.718750
9339,11.718750
9340,11.718750
9341,11.718750
9342,11.718750
9343,11.718750
9344,11.718750
9345,11.718750
9346,11.718750
9347,11.718750
9348,9.765625
9349,9.765625
9350,9.765625
9351,9.765625
9352,9.765625
9353,9.765625
9354,9.765625
9355,9.765625
9356,9.765625
9357,7.812500
9358,7.812500
9359,7.812500
9360,7.812500
9361,7.812500
9362,7.812500
9363,7.812500
9364,7.812500
9365,5.859375
9366,5.859375
9367,5.859375
9368,5.859375
9369,5.859375
9370,5.859375
9371,5.859375
9372,3.906250
9373,3.906250
9374,3.906250
9375,3.906250
9376,1.953125
9377,1.953125
9378,1.953125
9379,1.953125
9380,0.000000
9381,0.000000
9382,0.000000
9383,0.000000
9384,0.000000
9385,0.000000
9386,-1.953125
9387,-1.953125
9388,-1.953125
9389,-1.953125
9390,-1.953125
9391,-3.906250
9392,-3.906250
9393,-3.906250
9394,-3.906250
9395,-5.859375
9396,-5.859375
9397,-5.859375
9398,-5.859375
9399,-7.812500
9400,-7.812500
9401,-7.812500
9402,-7.812500
9403,-9.765625
9404,-9.765625
9405,-9.765625
9406,-9.765625
9407,-9.765625
9408,-9.765625
9409,-11.718750
9410,-11.718750
9411,-11.718750
9412,-11.718750
9413,-11.718750
9414,-13.671875
9415,-13.671875
9416,-15.625000
9417,-15.625000
9418,-15.625000
9419,-15.625000
9420,-15.625000
9421,-15.625000
9422,-15.625000
9423,-15.625000
9424,-17.578125
9425,-17.578125
9426,-17.578125
9427,-17.578125
9428,-17.578125
9429,-17.578125
9430,-19.531250
9431,-19.531250
9432,-19.531250
9433,-19.531250
9434,-19.531250
9435,-19.531250
9436,-19.531250
9437,-21.484375
9438,-21.484375
9439,-21.484375
9440,-23.437500
9441,-21.484375
9442,-21.484375
9443,-23.437500
9444,-23.437500
9445,-23.437500
9446,-23.437500
9447,-23.437500
9448,-23.437500
9449,-25.390625
9450,-23.437500
9451,-23.437500
9452,-25.390625
9453,-25.390625
9454,-25.390625
9455,-25.390625
9456,-25.390625
9457,-25.390625
9458,-25.390625
9459,-25.390625
9460,-25.390625
9461,-25.390625
9462,-25.390625
9463,-25.390625
9464,-25.390625
9465,-25.390625
9466,-25.390625
9467,-25.390625
9468,-25.390625
9469,-25.390625
9470,-27.343750
9471,-27.343750
9472,-25.390625
9473,-27.343750
9474,-25.390625
9475,-25.390625
9476,-25.390625
9477,-25.390625
9478,-25.390625
9479,-25.390625
9480,-25.390625
9481,-25.390625
9482,-25.390625
9483,-25.390625
9484,-25.390625
9485,-25.390625
9486,-25.390625
9487,-23.437500
9488,-23.437500
9489,-23.437500
9490,-23.437500
9491,-23.437500
9492,-23.437500
9493,-23.437500
9494,-23.437500
9495,-23.437500
9496,-23.437500
9497,-21.484375
9498,-21.484375
9499,-21.484375
9500,-21.484375
9501,-19.531250
9502,-21.484375
9503,-21.484375
9504,-19.531250
9505,-19.531250
9506,-19.531250
9507,-19.531250
9508,-17.578125
9509,-19.531250
9510,-17.578125
9511,-17.578125
9512,-17.578125
9513,-15.625000
9514,-15.625000
9515,-15.625000
9516,-15.625000
9517,-15.625000
9518,-15.625000
9519,-15.625000
9520,-13.671875
9521,-13.671875
9522,-13.671875
9523,-13.671875
9524,-13.671875
9525,-11.718750
9526,-11.718750
9527,-11.718750
9528,-9.765625
9529,-9.765625
9530,-9.765625
9531,-9.765625
9532,-9.765625
9533,-9.765625
9534,-9.765625
9535,-7.812500
9536,-7.812500
9537,-5.859375
9538,-5.859375
9539,-5.859375
9540,-5.859375
9541,-5.859375
9542,-3.906250
9543,-3.906250
9544,-3.906250
9545,-3.906250
9546,-3.906250
9547,-1.953125
9548,-1.953125
9549,-1.953125
9550,-1.953125
9551,0.000000
9552,0.000000
9553,0.000000
9554,0.000000
9555,1.953125
9556,1.953125
9557,1.953125
9558,1.953125
9559,1.953125
9560,1.953125
9561,3.906250
9562,3.906250
9563,3.906250
9564,3.906250
9565,3.906250
9566,3.906250
9567,5.859375
9568,5.859375
9569,5.859375
9570,5.859375
9571,5.859375
9572,5.859375
9573,7.812500
9574,7.812500
9575,7.812500
9576,7.812500
9577,7.812500
9578,7.812500
9579,7.812500
9580,9.765625
9581,9.765625
9582,9.765625
9583,9.765625
9584,9.765625
9585,9.765625
9586,9.765625
9587,11.718750
9588,9.765625
9589,9.765625
9590,9.765625
9591,11.718750
9592,11.718750
9593,11.718750
9594,11.718750
9595,11.718750
9596,11.718750
9597,11.718750
9598,11.718750
9599,11.718750
9600,13.671875
9601,13.671875
9602,13.671875
9603,11.718750
9604,11.718750
9605,11.718750
9606,13.671875
9607,13.671875
9608,13.671875
9609,11.718750
9610,11.718750
9611,11.718750
9612,13.671875
9613,13.671875
9614,13.671875
9615,13.671875
9616,11.718750
9617,13.671875
9618,13.671875
9619,11.718750
9620,11.718750
9621,11.718750
9622,11.718750
9623,11.718750
9624,11.718750
9625,11.718750
9626,11.718750
9627,11.718750
9628,11.718750
9629,11.718750
9630,9.765625
9631,9.765625
9632,9.765625
9633,9.765625
9634,9.765625
9635,9.765625
9636,9.765625
9637,9.765625
9638,9.765625
9639,9.765625
9640,9.765625
9641,7.812500
9642,7.812500
9643,7.812500
9644,7.812500
9645,7.812500
9646,5.859375
9647,7.812500
9648,5.859375
9649,5.859375
9650,5.859375
9651,5.859375
9652,5.859375
9653,3.906250
9654,3.906250
9655,3.906250
9656,3.906250
9657,3.906250
9658,3.906250
9659,1.953125
9660,1.953125
9661,1.953125
9662,0.000000
9663,0.000000
9664,0.000000
9665,0.000000
9666,0.000000
9667,-1.953125
9668,-1.953125
9669,-1.953125
9670,-1.953125
9671,-1.953125
9672,-3.906250
9673,-3.906250
9674,-3.906250
9675,-5.859375
9676,-3.906250
9677,-3.906250
9678,-5.859375
9679,-5.859375
9680,-5.859375
9681,-5.859375
9682,-7.812500
9683,-7.812500
9684,-7.812500
9685,-7.812500
9686,-9.765625
9687,-9.765625
9688,-9.765625
9689,-9.765625
9690,-9.765625
9691,-11.718750
9692,-11.718750
9693,-11.718750
9694,-11.718750
9695,-11.718750
9696,-13.671875
9697,-13.671875
9698,-13.671875
9699,-13.671875
9700,-13.671875
9701,-15.625000
9702,-15.625000
9703,-15.625000
9704,-15.625000
9705,-17.578125
9706,-17.578125
9707,-17.578125
9708,-17.578125
9709,-17.578125
9710,-19.531250
9711,-19.531250
9712,-19.531250
9713,-19.531250
9714,-21.484375
9715,-19.531250
9716,-21.484375
9717,-21.484375
9718,-21.484375
9719,-21.484375
9720,-21.484375
9721,-21.484375
9722,-23.437500
9723,-23.437500
9724,-23.437500
9725,-23.437500
9726,-23.437500
9727,-23.437500
9728,-23.437500
9729,-23.437500
9730,-23.437500
9731,-25.390625
9732,-25.390625
9733,-25.390625
9734,-25.390625
9735,-25.390625
9736,-25.390625
9737,-25.390625
9738,-25.390625
9739,-25.390625
9740,-25.390625
9741,-25.390625
9742,-25.390625
9743,-25.390625
9744,-25.390625
9745,-25.390625
9746,-25.390625
9747,-25.390625
9748,-25.390625
9749,-25.390625
9750,-27.343750
9751,-25.390625
9752,-25.390625
9753,-25.390625
9754,-25.390625
9755,-25.390625
9756,-25.390625
9757,-25.390625
9758,-25.390625
9759,-25.390625
9760,-25.390625
9761,-25.390625
9762,-25.390625
9763,-25.390625
9764,-23.437500
9765,-25.390625
9766,-25.390625
9767,-25.390625
9768,-25.390625
9769,-25.390625
9770,-23.437500
9771,-23.437500
9772,-23.437500
9773,-23.437500
9774,-23.437500
9775,-23.437500
9776,-23.437500
9777,-21.484375
9778,-23.437500
9779,-21.484375
9780,-21.484375
9781,-21.484375
9782,-21.484375
9783,-21.484375
9784,-21.484375
9785,-19.531250
9786,-19.531250
9787,-19.531250
9788,-19.531250
9789,-19.531250
9790,-19.531250
9791,-17.578125
9792,-17.578125
9793,-17.578125
9794,-17.578125
9795,-17.578125
9796,-15.625000
9797,-15.625000
9798,-15.625000
9799,-15.625000
9800,-15.625000
9801,-15.625000
9802,-13.671875
9803,-13.671875
9804,-13.671875
9805,-13.671875
9806,-13.671875
9807,-11.718750
9808,-11.718750
9809,-11.718750
9810,-9.765625
9811,-9.765625
9812,-9.765625
9813,-9.765625
9814,-9.765625
9815,-9.765625
9816,-7.812500
9817,-7.812500
9818,-7.812500
9819,-5.859375
9820,-5.859375
9821,-5.859375
9822,-5.859375
9823,-5.859375
9824,-3.906250
9825,-3.906250
9826,-3.906250
9827,-3.906250
9828,-3.906250
9829,-1.953125
9830,-1.953125
9831,-1.953125
9832,-1.953125
9833,0.000000
9834,0.000000
9835,0.000000
9836,0.000000
9837,0.000000
9838,0.000000
9839,1.953125
9840,1.953125
9841,1.953125
9842,1.953125
9843,1.953125
9844,3.906250
9845,3.906250
9846,3.906250
9847,3.906250
9848,3.906250
9849,3.906250
9850,5.859375
9851,5.859375
9852,5.859375
9853,5.859375
9854,5.859375
9855,7.812500
9856,7.812500
9857,7.812500
9858,7.812500
9859,7.812500
9860,7.812500
9861,7.812500
9862,7.812500
9863,9.765625
9864,9.765625
9865,9.765625
9866,9.765625
9867,9.765625
9868,9.765625
9869,11.718750
9870,11.718750
9871,9.765625
9872,11.718750
9873,11.718750
9874,11.718750
9875,11.718750
9876,11.718750
9877,11.718750
9878,11.718750
9879,11.718750
9880,13.671875
9881,11.718750
9882,11.718750
9883,13.671875
9884,11.718750
9885,13.671875
9886,13.671875
9887,13.671875
9888,11.718750
9889,13.671875
9890,13.671875
9891,13.671875
9892,11.718750
9893,11.718750
9894,11.718750
9895,13.671875
9896,13.671875
9897,11.718750
9898,11.718750
9899,11.718750
9900,11.718750
9901,11.718750
9902,13.671875
9903,11.718750
9904,11.718750
9905,11.718750
9906,11.718750
9907,11.718750
9908,11.718750
9909,11.718750
9910,11.718750
9911,11.718750
9912,9.765625
9913,9.765625
9914,9.765625
9915,9.765625
9916,9.765625
9917,9.765625
9918,9.765625
9919,9.765625
9920,9.765625
9921,7.812500
9922,7.812500
9923,7.812500
9924,7.812500
9925,7.812500
9926,7.812500
9927,7.812500
9928,5.859375
9929,7.812500
9930,5.859375
9931,5.859375
9932,5.859375
9933,5.859375
9934,5.859375
9935,5.859375
9936,3.906250
9937,3.906250
9938,3.906250
9939,3.906250
9940,1.953125
9941,1.953125
9942,1.953125
9943,1.953125
9944,0.000000
9945,1.953125
9946,0.000000
9947,0.000000
9948,0.000000
9949,0.000000
9950,0.000000
9951,0.000000
9952,-1.953125
9953,-1.953125
9954,-3.906250
9955,-3.906250
9956,-3.906250
9957,-3.906250
9958,-3.906250
9959,-5.859375
9960,-5.859375
9961,-5.859375
9962,-5.859375
9963,-5.859375
9964,-7.812500
9965,-7.812500
9966,-7.812500
9967,-7.812500
9968,-7.812500
9969,-9.765625
9970,-9.765625
9971,-9.765625
9972,-9.765625
9973,-11.718750
9974,-11.718750
9975,-11.718750
9976,-11.718750
9977,-11.718750
9978,-11.718750
9979,-13.671875
9980,-13.671875
9981,-13.671875
9982,-13.671875
9983,-15.625000
9984,-15.625000
9985,-15.625000
9986,-15.625000
9987,-15.625000
9988,-17.578125
9989,-17.578125
9990,-17.578125
9991,-17.578125
9992,-17.578125
9993,-19.531250
9994,-19.531250
9995,-19.531250
9996,-19.531250
9997,-19.531250
9998,-21.484375
9999,-19.531250
10000,-21.484375
