Channel              :,CH1
Frequency            :,1.771kHz
Period               :,0.565ms
PK-PK                :,136.7mV
Probe attenuation    :,1X
Voltage per ADC value:,0.122070mV
Time interval        :,2.00000us

index,CH1_Voltage(mV)
1,54.687500
2,54.687500
3,54.687500
4,56.640625
5,56.640625
6,54.687500
7,54.687500
8,54.687500
9,54.687500
10,52.734375
11,54.687500
12,54.687500
13,52.734375
14,52.734375
15,52.734375
16,50.781250
17,50.781250
18,50.781250
19,48.828125
20,48.828125
21,48.828125
22,48.828125
23,46.875000
24,46.875000
25,46.875000
26,46.875000
27,44.921875
28,42.968750
29,42.968750
30,42.968750
31,41.015625
32,41.015625
33,39.062500
34,39.062500
35,37.109375
36,37.109375
37,37.109375
38,35.156250
39,33.203125
40,33.203125
41,31.250000
42,31.250000
43,29.296875
44,29.296875
45,27.343750
46,25.390625
47,25.390625
48,23.437500
49,21.484375
50,21.484375
51,19.531250
52,19.531250
53,17.578125
54,15.625000
55,13.671875
56,13.671875
57,11.718750
58,9.765625
59,9.765625
60,7.812500
61,5.859375
62,5.859375
63,3.906250
64,1.953125
65,0.000000
66,0.000000
67,-1.953125
68,-3.906250
69,-5.859375
70,-5.859375
71,-7.812500
72,-9.765625
73,-11.718750
74,-13.671875
75,-13.671875
76,-15.625000
77,-15.625000
78,-17.578125
79,-19.531250
80,-21.484375
81,-21.484375
82,-23.437500
83,-25.390625
84,-27.343750
85,-29.296875
86,-29.296875
87,-31.250000
88,-33.203125
89,-33.203125
90,-35.156250
91,-35.156250
92,-37.109375
93,-39.062500
94,-41.015625
95,-41.015625
96,-42.968750
97,-44.921875
98,-44.921875
99,-46.875000
100,-48.828125
101,-48.828125
102,-50.781250
103,-50.781250
104,-52.734375
105,-54.687500
106,-54.687500
107,-54.687500
108,-56.640625
109,-56.640625
110,-58.593750
111,-60.546875
112,-60.546875
113,-60.546875
114,-62.500000
115,-62.500000
116,-64.453125
117,-64.453125
118,-66.406250
119,-66.406250
120,-66.406250
121,-68.359375
122,-68.359375
123,-68.359375
124,-70.312500
125,-70.312500
126,-70.312500
127,-70.312500
128,-70.312500
129,-72.265625
130,-72.265625
131,-72.265625
132,-72.265625
133,-72.265625
134,-74.218750
135,-74.218750
136,-72.265625
137,-74.218750
138,-74.218750
139,-74.218750
140,-72.265625
141,-74.218750
142,-74.218750
143,-74.218750
144,-72.265625
145,-74.218750
146,-74.218750
147,-72.265625
148,-72.265625
149,-72.265625
150,-72.265625
151,-72.265625
152,-72.265625
153,-70.312500
154,-70.312500
155,-70.312500
156,-70.312500
157,-68.359375
158,-68.359375
159,-68.359375
160,-68.359375
161,-66.406250
162,-66.406250
163,-64.453125
164,-64.453125
165,-62.500000
166,-62.500000
167,-60.546875
168,-60.546875
169,-58.593750
170,-58.593750
171,-58.593750
172,-56.640625
173,-54.687500
174,-54.687500
175,-54.687500
176,-52.734375
177,-50.781250
178,-50.781250
179,-48.828125
180,-48.828125
181,-46.875000
182,-46.875000
183,-42.968750
184,-42.968750
185,-41.015625
186,-41.015625
187,-39.062500
188,-37.109375
189,-37.109375
190,-35.156250
191,-33.203125
192,-33.203125
193,-31.250000
194,-29.296875
195,-27.343750
196,-27.343750
197,-25.390625
198,-23.437500
199,-23.437500
200,-21.484375
201,-19.531250
202,-19.531250
203,-17.578125
204,-15.625000
205,-13.671875
206,-13.671875
207,-11.718750
208,-9.765625
209,-9.765625
210,-7.812500
211,-5.859375
212,-3.906250
213,-1.953125
214,-1.953125
215,0.000000
216,1.953125
217,3.906250
218,3.906250
219,5.859375
220,7.812500
221,7.812500
222,9.765625
223,11.718750
224,13.671875
225,13.671875
226,15.625000
227,17.578125
228,17.578125
229,19.531250
230,21.484375
231,21.484375
232,23.437500
233,23.437500
234,25.390625
235,27.343750
236,27.343750
237,29.296875
238,31.250000
239,31.250000
240,33.203125
241,33.203125
242,35.156250
243,35.156250
244,35.156250
245,37.109375
246,39.062500
247,39.062500
248,39.062500
249,41.015625
250,42.968750
251,42.968750
252,42.968750
253,44.921875
254,44.921875
255,46.875000
256,46.875000
257,46.875000
258,46.875000
259,48.828125
260,48.828125
261,50.781250
262,50.781250
263,50.781250
264,50.781250
265,52.734375
266,52.734375
267,52.734375
268,52.734375
269,52.734375
270,54.687500
271,54.687500
272,54.687500
273,54.687500
274,54.687500
275,56.640625
276,56.640625
277,56.640625
278,54.687500
279,54.687500
280,56.640625
281,56.640625
282,56.640625
283,56.640625
284,54.687500
285,54.687500
286,54.687500
287,56.640625
288,54.687500
289,54.687500
290,54.687500
291,54.687500
292,54.687500
293,54.687500
294,54.687500
295,52.734375
296,52.734375
297,52.734375
298,52.734375
299,50.781250
300,50.781250
301,50.781250
302,50.781250
303,48.828125
304,48.828125
305,48.828125
306,46.875000
307,46.875000
308,46.875000
309,44.921875
310,44.921875
311,44.921875
312,42.968750
313,41.015625
314,41.015625
315,39.062500
316,39.062500
317,37.109375
318,37.109375
319,37.109375
320,35.156250
321,35.156250
322,33.203125
323,31.250000
324,29.296875
325,29.296875
326,29.296875
327,27.343750
328,25.390625
329,25.390625
330,23.437500
331,21.484375
332,21.484375
333,19.531250
334,19.531250
335,17.578125
336,15.625000
337,15.625000
338,13.671875
339,11.718750
340,11.718750
341,9.765625
342,7.812500
343,5.859375
344,5.859375
345,3.906250
346,1.953125
347,1.953125
348,0.000000
349,-1.953125
350,-3.906250
351,-3.906250
352,-5.859375
353,-7.812500
354,-9.765625
355,-9.765625
356,-11.718750
357,-13.671875
358,-15.625000
359,-15.625000
360,-19.531250
361,-19.531250
362,-19.531250
363,-21.484375
364,-23.437500
365,-25.390625
366,-27.343750
367,-27.343750
368,-29.296875
369,-31.250000
370,-31.250000
371,-33.203125
372,-33.203125
373,-35.156250
374,-37.109375
375,-39.062500
376,-39.062500
377,-41.015625
378,-42.968750
379,-42.968750
380,-44.921875
381,-46.875000
382,-46.875000
383,-48.828125
384,-48.828125
385,-50.781250
386,-52.734375
387,-52.734375
388,-54.687500
389,-54.687500
390,-56.640625
391,-58.593750
392,-58.593750
393,-58.593750
394,-60.546875
395,-60.546875
396,-62.500000
397,-62.500000
398,-62.500000
399,-64.453125
400,-66.406250
401,-66.406250
402,-66.406250
403,-68.359375
404,-68.359375
405,-68.359375
406,-70.312500
407,-70.312500
408,-70.312500
409,-70.312500
410,-70.312500
411,-72.265625
412,-72.265625
413,-72.265625
414,-74.218750
415,-74.218750
416,-74.218750
417,-74.218750
418,-74.218750
419,-74.218750
420,-74.218750
421,-74.218750
422,-74.218750
423,-74.218750
424,-74.218750
425,-74.218750
426,-74.218750
427,-72.265625
428,-72.265625
429,-74.218750
430,-72.265625
431,-72.265625
432,-72.265625
433,-72.265625
434,-70.312500
435,-70.312500
436,-70.312500
437,-70.312500
438,-70.312500
439,-68.359375
440,-68.359375
441,-68.359375
442,-66.406250
443,-66.406250
444,-66.406250
445,-64.453125
446,-64.453125
447,-62.500000
448,-62.500000
449,-60.546875
450,-60.546875
451,-60.546875
452,-58.593750
453,-58.593750
454,-56.640625
455,-56.640625
456,-56.640625
457,-54.687500
458,-52.734375
459,-52.734375
460,-50.781250
461,-50.781250
462,-48.828125
463,-46.875000
464,-46.875000
465,-44.921875
466,-42.968750
467,-42.968750
468,-41.015625
469,-39.062500
470,-39.062500
471,-37.109375
472,-37.109375
473,-35.156250
474,-33.203125
475,-33.203125
476,-31.250000
477,-29.296875
478,-27.343750
479,-27.343750
480,-25.390625
481,-23.437500
482,-21.484375
483,-19.531250
484,-19.531250
485,-17.578125
486,-17.578125
487,-15.625000
488,-13.671875
489,-11.718750
490,-9.765625
491,-7.812500
492,-7.812500
493,-5.859375
494,-3.906250
495,-1.953125
496,-1.953125
497,0.000000
498,1.953125
499,1.953125
500,3.906250
501,5.859375
502,7.812500
503,7.812500
504,9.765625
505,11.718750
506,13.671875
507,13.671875
508,15.625000
509,15.625000
510,17.578125
511,19.531250
512,19.531250
513,21.484375
514,23.437500
515,23.437500
516,25.390625
517,27.343750
518,27.343750
519,29.296875
520,29.296875
521,31.250000
522,33.203125
523,33.203125
524,35.156250
525,35.156250
526,35.156250
527,37.109375
528,39.062500
529,39.062500
530,39.062500
531,41.015625
532,41.015625
533,42.968750
534,42.968750
535,44.921875
536,44.921875
537,44.921875
538,46.875000
539,46.875000
540,46.875000
541,48.828125
542,48.828125
543,48.828125
544,50.781250
545,50.781250
546,50.781250
547,50.781250
548,52.734375
549,52.734375
550,52.734375
551,52.734375
552,54.687500
553,54.687500
554,54.687500
555,54.687500
556,54.687500
557,56.640625
558,56.640625
559,54.687500
560,56.640625
561,56.640625
562,54.687500
563,56.640625
564,56.640625
565,56.640625
566,56.640625
567,56.640625
568,56.640625
569,54.687500
570,56.640625
571,56.640625
572,54.687500
573,54.687500
574,54.687500
575,54.687500
576,52.734375
577,52.734375
578,52.734375
579,52.734375
580,52.734375
581,52.734375
582,50.781250
583,50.781250
584,50.781250
585,48.828125
586,48.828125
587,48.828125
588,46.875000
589,46.875000
590,44.921875
591,44.921875
592,44.921875
593,44.921875
594,42.968750
595,41.015625
596,41.015625
597,39.062500
598,39.062500
599,39.062500
600,37.109375
601,35.156250
602,35.156250
603,35.156250
604,33.203125
605,31.250000
606,31.250000
607,31.250000
608,29.296875
609,27.343750
610,27.343750
611,25.390625
612,23.437500
613,23.437500
614,21.484375
615,21.484375
616,19.531250
617,17.578125
618,17.578125
619,15.625000
620,15.625000
621,13.671875
622,9.765625
623,9.765625
624,9.765625
625,7.812500
626,5.859375
627,3.906250
628,3.906250
629,1.953125
630,0.000000
631,-1.953125
632,-1.953125
633,-3.906250
634,-5.859375
635,-7.812500
636,-7.812500
637,-9.765625
638,-11.718750
639,-13.671875
640,-13.671875
641,-15.625000
642,-17.578125
643,-19.531250
644,-19.531250
645,-21.484375
646,-23.437500
647,-23.437500
648,-25.390625
649,-27.343750
650,-29.296875
651,-31.250000
652,-31.250000
653,-33.203125
654,-33.203125
655,-35.156250
656,-37.109375
657,-39.062500
658,-39.062500
659,-41.015625
660,-41.015625
661,-44.921875
662,-44.921875
663,-46.875000
664,-46.875000
665,-48.828125
666,-48.828125
667,-50.781250
668,-50.781250
669,-52.734375
670,-54.687500
671,-54.687500
672,-56.640625
673,-56.640625
674,-56.640625
675,-58.593750
676,-60.546875
677,-60.546875
678,-62.500000
679,-62.500000
680,-62.500000
681,-64.453125
682,-64.453125
683,-66.406250
684,-66.406250
685,-68.359375
686,-68.359375
687,-68.359375
688,-68.359375
689,-70.312500
690,-70.312500
691,-70.312500
692,-70.312500
693,-70.312500
694,-72.265625
695,-72.265625
696,-72.265625
697,-72.265625
698,-72.265625
699,-74.218750
700,-74.218750
701,-74.218750
702,-74.218750
703,-72.265625
704,-74.218750
705,-74.218750
706,-74.218750
707,-74.218750
708,-72.265625
709,-74.218750
710,-74.218750
711,-74.218750
712,-72.265625
713,-74.218750
714,-72.265625
715,-72.265625
716,-72.265625
717,-72.265625
718,-70.312500
719,-70.312500
720,-70.312500
721,-70.312500
722,-68.359375
723,-68.359375
724,-68.359375
725,-66.406250
726,-66.406250
727,-64.453125
728,-64.453125
729,-64.453125
730,-64.453125
731,-62.500000
732,-62.500000
733,-60.546875
734,-60.546875
735,-58.593750
736,-56.640625
737,-56.640625
738,-54.687500
739,-54.687500
740,-52.734375
741,-52.734375
742,-50.781250
743,-50.781250
744,-48.828125
745,-48.828125
746,-46.875000
747,-44.921875
748,-44.921875
749,-42.968750
750,-41.015625
751,-41.015625
752,-39.062500
753,-37.109375
754,-35.156250
755,-35.156250
756,-33.203125
757,-31.250000
758,-31.250000
759,-29.296875
760,-27.343750
761,-27.343750
762,-25.390625
763,-23.437500
764,-21.484375
765,-21.484375
766,-19.531250
767,-17.578125
768,-17.578125
769,-15.625000
770,-13.671875
771,-11.718750
772,-11.718750
773,-9.765625
774,-7.812500
775,-5.859375
776,-5.859375
777,-3.906250
778,-1.953125
779,0.000000
780,0.000000
781,1.953125
782,3.906250
783,3.906250
784,5.859375
785,7.812500
786,7.812500
787,9.765625
788,11.718750
789,13.671875
790,13.671875
791,15.625000
792,17.578125
793,17.578125
794,19.531250
795,21.484375
796,21.484375
797,23.437500
798,25.390625
799,25.390625
800,27.343750
801,27.343750
802,29.296875
803,31.250000
804,31.250000
805,31.250000
806,33.203125
807,35.156250
808,35.156250
809,37.109375
810,37.109375
811,39.062500
812,39.062500
813,41.015625
814,41.015625
815,42.968750
816,42.968750
817,44.921875
818,44.921875
819,46.875000
820,46.875000
821,46.875000
822,46.875000
823,48.828125
824,48.828125
825,48.828125
826,50.781250
827,50.781250
828,50.781250
829,52.734375
830,52.734375
831,52.734375
832,52.734375
833,52.734375
834,54.687500
835,54.687500
836,54.687500
837,54.687500
838,54.687500
839,54.687500
840,54.687500
841,56.640625
842,54.687500
843,54.687500
844,54.687500
845,54.687500
846,54.687500
847,56.640625
848,54.687500
849,56.640625
850,54.687500
851,54.687500
852,54.687500
853,54.687500
854,54.687500
855,54.687500
856,54.687500
857,54.687500
858,54.687500
859,52.734375
860,52.734375
861,52.734375
862,52.734375
863,50.781250
864,50.781250
865,50.781250
866,50.781250
867,48.828125
868,48.828125
869,48.828125
870,46.875000
871,46.875000
872,46.875000
873,44.921875
874,44.921875
875,44.921875
876,42.968750
877,42.968750
878,41.015625
879,41.015625
880,39.062500
881,39.062500
882,39.062500
883,37.109375
884,35.156250
885,35.156250
886,33.203125
887,33.203125
888,31.250000
889,31.250000
890,29.296875
891,27.343750
892,27.343750
893,27.343750
894,25.390625
895,23.437500
896,21.484375
897,21.484375
898,19.531250
899,17.578125
900,17.578125
901,15.625000
902,15.625000
903,13.671875
904,11.718750
905,9.765625
906,7.812500
907,7.812500
908,5.859375
909,3.906250
910,3.906250
911,1.953125
912,0.000000
913,-1.953125
914,-1.953125
915,-3.906250
916,-5.859375
917,-7.812500
918,-7.812500
919,-9.765625
920,-11.718750
921,-13.671875
922,-13.671875
923,-15.625000
924,-17.578125
925,-17.578125
926,-19.531250
927,-21.484375
928,-21.484375
929,-23.437500
930,-25.390625
931,-27.343750
932,-27.343750
933,-29.296875
934,-31.250000
935,-31.250000
936,-33.203125
937,-35.156250
938,-37.109375
939,-37.109375
940,-39.062500
941,-39.062500
942,-41.015625
943,-42.968750
944,-44.921875
945,-44.921875
946,-46.875000
947,-46.875000
948,-48.828125
949,-50.781250
950,-50.781250
951,-52.734375
952,-52.734375
953,-54.687500
954,-56.640625
955,-56.640625
956,-58.593750
957,-58.593750
958,-60.546875
959,-60.546875
960,-60.546875
961,-62.500000
962,-62.500000
963,-64.453125
964,-64.453125
965,-66.406250
966,-66.406250
967,-66.406250
968,-66.406250
969,-68.359375
970,-68.359375
971,-70.312500
972,-70.312500
973,-70.312500
974,-70.312500
975,-72.265625
976,-72.265625
977,-72.265625
978,-74.218750
979,-72.265625
980,-72.265625
981,-74.218750
982,-74.218750
983,-74.218750
984,-74.218750
985,-74.218750
986,-74.218750
987,-74.218750
988,-74.218750
989,-74.218750
990,-74.218750
991,-74.218750
992,-74.218750
993,-74.218750
994,-74.218750
995,-72.265625
996,-72.265625
997,-72.265625
998,-72.265625
999,-72.265625
1000,-72.265625
1001,-70.312500
1002,-70.312500
1003,-70.312500
1004,-68.359375
1005,-68.359375
1006,-68.359375
1007,-66.406250
1008,-66.406250
1009,-66.406250
1010,-66.406250
1011,-64.453125
1012,-62.500000
1013,-62.500000
1014,-60.546875
1015,-60.546875
1016,-60.546875
1017,-58.593750
1018,-56.640625
1019,-56.640625
1020,-56.640625
1021,-54.687500
1022,-54.687500
1023,-52.734375
1024,-50.781250
1025,-50.781250
1026,-48.828125
1027,-48.828125
1028,-46.875000
1029,-44.921875
1030,-44.921875
1031,-42.968750
1032,-42.968750
1033,-41.015625
1034,-39.062500
1035,-39.062500
1036,-37.109375
1037,-35.156250
1038,-35.156250
1039,-33.203125
1040,-31.250000
1041,-29.296875
1042,-29.296875
1043,-27.343750
1044,-25.390625
1045,-25.390625
1046,-23.437500
1047,-21.484375
1048,-19.531250
1049,-19.531250
1050,-17.578125
1051,-15.625000
1052,-13.671875
1053,-11.718750
1054,-11.718750
1055,-9.765625
1056,-9.765625
1057,-7.812500
1058,-5.859375
1059,-3.906250
1060,-1.953125
1061,-1.953125
1062,0.000000
1063,1.953125
1064,3.906250
1065,3.906250
1066,5.859375
1067,7.812500
1068,7.812500
1069,9.765625
1070,11.718750
1071,13.671875
1072,13.671875
1073,15.625000
1074,17.578125
1075,17.578125
1076,19.531250
1077,21.484375
1078,21.484375
1079,23.437500
1080,25.390625
1081,25.390625
1082,27.343750
1083,27.343750
1084,29.296875
1085,29.296875
1086,31.250000
1087,33.203125
1088,33.203125
1089,35.156250
1090,35.156250
1091,37.109375
1092,37.109375
1093,39.062500
1094,39.062500
1095,41.015625
1096,41.015625
1097,42.968750
1098,42.968750
1099,42.968750
1100,44.921875
1101,46.875000
1102,46.875000
1103,46.875000
1104,46.875000
1105,48.828125
1106,48.828125
1107,48.828125
1108,50.781250
1109,50.781250
1110,50.781250
1111,50.781250
1112,52.734375
1113,52.734375
1114,52.734375
1115,52.734375
1116,52.734375
1117,52.734375
1118,54.687500
1119,54.687500
1120,54.687500
1121,54.687500
1122,54.687500
1123,54.687500
1124,54.687500
1125,56.640625
1126,54.687500
1127,54.687500
1128,54.687500
1129,56.640625
1130,56.640625
1131,56.640625
1132,54.687500
1133,54.687500
1134,54.687500
1135,54.687500
1136,54.687500
1137,54.687500
1138,54.687500
1139,54.687500
1140,54.687500
1141,54.687500
1142,54.687500
1143,52.734375
1144,52.734375
1145,52.734375
1146,50.781250
1147,50.781250
1148,50.781250
1149,50.781250
1150,48.828125
1151,48.828125
1152,46.875000
1153,46.875000
1154,46.875000
1155,46.875000
1156,44.921875
1157,44.921875
1158,44.921875
1159,42.968750
1160,42.968750
1161,41.015625
1162,41.015625
1163,37.109375
1164,39.062500
1165,37.109375
1166,37.109375
1167,35.156250
1168,35.156250
1169,33.203125
1170,31.250000
1171,31.250000
1172,29.296875
1173,27.343750
1174,27.343750
1175,25.390625
1176,25.390625
1177,23.437500
1178,23.437500
1179,21.484375
1180,19.531250
1181,17.578125
1182,17.578125
1183,15.625000
1184,13.671875
1185,13.671875
1186,11.718750
1187,9.765625
1188,9.765625
1189,7.812500
1190,7.812500
1191,5.859375
1192,3.906250
1193,1.953125
1194,0.000000
1195,0.000000
1196,-1.953125
1197,-3.906250
1198,-3.906250
1199,-5.859375
1200,-7.812500
1201,-9.765625
1202,-9.765625
1203,-11.718750
1204,-13.671875
1205,-13.671875
1206,-15.625000
1207,-17.578125
1208,-19.531250
1209,-19.531250
1210,-21.484375
1211,-23.437500
1212,-25.390625
1213,-27.343750
1214,-27.343750
1215,-29.296875
1216,-31.250000
1217,-31.250000
1218,-33.203125
1219,-35.156250
1220,-37.109375
1221,-37.109375
1222,-39.062500
1223,-39.062500
1224,-41.015625
1225,-42.968750
1226,-44.921875
1227,-44.921875
1228,-46.875000
1229,-46.875000
1230,-48.828125
1231,-50.781250
1232,-50.781250
1233,-52.734375
1234,-52.734375
1235,-54.687500
1236,-54.687500
1237,-56.640625
1238,-58.593750
1239,-58.593750
1240,-58.593750
1241,-60.546875
1242,-60.546875
1243,-62.500000
1244,-62.500000
1245,-64.453125
1246,-64.453125
1247,-66.406250
1248,-66.406250
1249,-66.406250
1250,-66.406250
1251,-68.359375
1252,-68.359375
1253,-70.312500
1254,-70.312500
1255,-70.312500
1256,-72.265625
1257,-70.312500
1258,-72.265625
1259,-72.265625
1260,-72.265625
1261,-72.265625
1262,-72.265625
1263,-74.218750
1264,-72.265625
1265,-74.218750
1266,-74.218750
1267,-74.218750
1268,-74.218750
1269,-74.218750
1270,-74.218750
1271,-74.218750
1272,-74.218750
1273,-74.218750
1274,-74.218750
1275,-74.218750
1276,-72.265625
1277,-72.265625
1278,-72.265625
1279,-72.265625
1280,-72.265625
1281,-72.265625
1282,-70.312500
1283,-70.312500
1284,-70.312500
1285,-68.359375
1286,-68.359375
1287,-68.359375
1288,-68.359375
1289,-66.406250
1290,-66.406250
1291,-66.406250
1292,-64.453125
1293,-64.453125
1294,-64.453125
1295,-62.500000
1296,-62.500000
1297,-62.500000
1298,-60.546875
1299,-58.593750
1300,-60.546875
1301,-56.640625
1302,-56.640625
1303,-54.687500
1304,-54.687500
1305,-52.734375
1306,-52.734375
1307,-50.781250
1308,-48.828125
1309,-48.828125
1310,-48.828125
1311,-46.875000
1312,-44.921875
1313,-44.921875
1314,-42.968750
1315,-41.015625
1316,-41.015625
1317,-39.062500
1318,-37.109375
1319,-37.109375
1320,-35.156250
1321,-33.203125
1322,-31.250000
1323,-31.250000
1324,-29.296875
1325,-27.343750
1326,-25.390625
1327,-25.390625
1328,-23.437500
1329,-21.484375
1330,-21.484375
1331,-19.531250
1332,-17.578125
1333,-15.625000
1334,-15.625000
1335,-13.671875
1336,-11.718750
1337,-9.765625
1338,-7.812500
1339,-7.812500
1340,-5.859375
1341,-3.906250
1342,-3.906250
1343,-1.953125
1344,0.000000
1345,1.953125
1346,1.953125
1347,3.906250
1348,5.859375
1349,7.812500
1350,7.812500
1351,9.765625
1352,11.718750
1353,11.718750
1354,13.671875
1355,15.625000
1356,17.578125
1357,17.578125
1358,19.531250
1359,19.531250
1360,21.484375
1361,21.484375
1362,23.437500
1363,25.390625
1364,25.390625
1365,27.343750
1366,27.343750
1367,29.296875
1368,31.250000
1369,31.250000
1370,33.203125
1371,33.203125
1372,35.156250
1373,35.156250
1374,37.109375
1375,37.109375
1376,39.062500
1377,39.062500
1378,41.015625
1379,41.015625
1380,42.968750
1381,42.968750
1382,44.921875
1383,44.921875
1384,44.921875
1385,46.875000
1386,46.875000
1387,48.828125
1388,48.828125
1389,48.828125
1390,48.828125
1391,50.781250
1392,50.781250
1393,52.734375
1394,50.781250
1395,52.734375
1396,52.734375
1397,52.734375
1398,52.734375
1399,52.734375
1400,54.687500
1401,54.687500
1402,54.687500
1403,54.687500
1404,54.687500
1405,54.687500
1406,56.640625
1407,56.640625
1408,56.640625
1409,56.640625
1410,56.640625
1411,56.640625
1412,56.640625
1413,56.640625
1414,56.640625
1415,54.687500
1416,54.687500
1417,54.687500
1418,54.687500
1419,54.687500
1420,54.687500
1421,54.687500
1422,54.687500
1423,54.687500
1424,52.734375
1425,52.734375
1426,52.734375
1427,50.781250
1428,50.781250
1429,50.781250
1430,50.781250
1431,50.781250
1432,48.828125
1433,48.828125
1434,48.828125
1435,46.875000
1436,46.875000
1437,44.921875
1438,44.921875
1439,44.921875
1440,42.968750
1441,42.968750
1442,41.015625
1443,41.015625
1444,41.015625
1445,39.062500
1446,39.062500
1447,37.109375
1448,37.109375
1449,35.156250
1450,35.156250
1451,33.203125
1452,31.250000
1453,31.250000
1454,31.250000
1455,29.296875
1456,27.343750
1457,27.343750
1458,25.390625
1459,23.437500
1460,23.437500
1461,23.437500
1462,21.484375
1463,19.531250
1464,17.578125
1465,17.578125
1466,15.625000
1467,15.625000
1468,13.671875
1469,11.718750
1470,9.765625
1471,9.765625
1472,7.812500
1473,5.859375
1474,3.906250
1475,3.906250
1476,1.953125
1477,0.000000
1478,-1.953125
1479,-1.953125
1480,-3.906250
1481,-5.859375
1482,-7.812500
1483,-7.812500
1484,-9.765625
1485,-11.718750
1486,-11.718750
1487,-13.671875
1488,-15.625000
1489,-17.578125
1490,-19.531250
1491,-21.484375
1492,-21.484375
1493,-23.437500
1494,-25.390625
1495,-25.390625
1496,-27.343750
1497,-29.296875
1498,-29.296875
1499,-31.250000
1500,-33.203125
1501,-35.156250
1502,-35.156250
1503,-37.109375
1504,-39.062500
1505,-39.062500
1506,-41.015625
1507,-42.968750
1508,-42.968750
1509,-44.921875
1510,-46.875000
1511,-46.875000
1512,-48.828125
1513,-48.828125
1514,-50.781250
1515,-50.781250
1516,-52.734375
1517,-50.781250
1518,-54.687500
1519,-54.687500
1520,-56.640625
1521,-58.593750
1522,-58.593750
1523,-58.593750
1524,-60.546875
1525,-62.500000
1526,-62.500000
1527,-62.500000
1528,-64.453125
1529,-64.453125
1530,-66.406250
1531,-66.406250
1532,-66.406250
1533,-68.359375
1534,-68.359375
1535,-70.312500
1536,-70.312500
1537,-70.312500
1538,-70.312500
1539,-70.312500
1540,-72.265625
1541,-72.265625
1542,-74.218750
1543,-74.218750
1544,-72.265625
1545,-72.265625
1546,-72.265625
1547,-74.218750
1548,-74.218750
1549,-74.218750
1550,-74.218750
1551,-74.218750
1552,-74.218750
1553,-74.218750
1554,-74.218750
1555,-74.218750
1556,-74.218750
1557,-74.218750
1558,-74.218750
1559,-72.265625
1560,-72.265625
1561,-72.265625
1562,-72.265625
1563,-72.265625
1564,-72.265625
1565,-72.265625
1566,-68.359375
1567,-70.312500
1568,-70.312500
1569,-68.359375
1570,-68.359375
1571,-68.359375
1572,-68.359375
1573,-66.406250
1574,-66.406250
1575,-66.406250
1576,-62.500000
1577,-62.500000
1578,-62.500000
1579,-62.500000
1580,-60.546875
1581,-60.546875
1582,-58.593750
1583,-58.593750
1584,-56.640625
1585,-54.687500
1586,-54.687500
1587,-52.734375
1588,-52.734375
1589,-50.781250
1590,-50.781250
1591,-48.828125
1592,-46.875000
1593,-46.875000
1594,-44.921875
1595,-44.921875
1596,-42.968750
1597,-41.015625
1598,-41.015625
1599,-39.062500
1600,-39.062500
1601,-37.109375
1602,-35.156250
1603,-33.203125
1604,-33.203125
1605,-31.250000
1606,-29.296875
1607,-29.296875
1608,-27.343750
1609,-25.390625
1610,-23.437500
1611,-21.484375
1612,-21.484375
1613,-19.531250
1614,-17.578125
1615,-15.625000
1616,-15.625000
1617,-13.671875
1618,-11.718750
1619,-11.718750
1620,-9.765625
1621,-7.812500
1622,-7.812500
1623,-5.859375
1624,-3.906250
1625,-1.953125
1626,0.000000
1627,0.000000
1628,1.953125
1629,3.906250
1630,3.906250
1631,5.859375
1632,7.812500
1633,9.765625
1634,9.765625
1635,11.718750
1636,13.671875
1637,13.671875
1638,15.625000
1639,17.578125
1640,19.531250
1641,19.531250
1642,21.484375
1643,21.484375
1644,23.437500
1645,25.390625
1646,25.390625
1647,27.343750
1648,27.343750
1649,29.296875
1650,31.250000
1651,31.250000
1652,33.203125
1653,33.203125
1654,35.156250
1655,37.109375
1656,37.109375
1657,37.109375
1658,39.062500
1659,39.062500
1660,41.015625
1661,42.968750
1662,42.968750
1663,42.968750
1664,44.921875
1665,44.921875
1666,44.921875
1667,46.875000
1668,46.875000
1669,46.875000
1670,48.828125
1671,48.828125
1672,48.828125
1673,48.828125
1674,50.781250
1675,50.781250
1676,50.781250
1677,52.734375
1678,52.734375
1679,52.734375
1680,52.734375
1681,52.734375
1682,54.687500
1683,54.687500
1684,54.687500
1685,54.687500
1686,54.687500
1687,54.687500
1688,54.687500
1689,54.687500
1690,54.687500
1691,54.687500
1692,56.640625
1693,56.640625
1694,56.640625
1695,56.640625
1696,54.687500
1697,54.687500
1698,54.687500
1699,56.640625
1700,54.687500
1701,54.687500
1702,54.687500
1703,54.687500
1704,54.687500
1705,54.687500
1706,52.734375
1707,52.734375
1708,52.734375
1709,52.734375
1710,54.687500
1711,50.781250
1712,50.781250
1713,50.781250
1714,50.781250
1715,48.828125
1716,48.828125
1717,46.875000
1718,46.875000
1719,46.875000
1720,44.921875
1721,44.921875
1722,44.921875
1723,42.968750
1724,42.968750
1725,41.015625
1726,41.015625
1727,39.062500
1728,39.062500
1729,37.109375
1730,37.109375
1731,37.109375
1732,35.156250
1733,33.203125
1734,33.203125
1735,31.250000
1736,31.250000
1737,29.296875
1738,27.343750
1739,27.343750
1740,25.390625
1741,23.437500
1742,23.437500
1743,21.484375
1744,21.484375
1745,19.531250
1746,19.531250
1747,17.578125
1748,15.625000
1749,13.671875
1750,13.671875
1751,11.718750
1752,9.765625
1753,7.812500
1754,7.812500
1755,5.859375
1756,5.859375
1757,3.906250
1758,1.953125
1759,0.000000
1760,-1.953125
1761,-1.953125
1762,-3.906250
1763,-5.859375
1764,-7.812500
1765,-7.812500
1766,-9.765625
1767,-11.718750
1768,-11.718750
1769,-13.671875
1770,-15.625000
1771,-15.625000
1772,-17.578125
1773,-19.531250
1774,-21.484375
1775,-23.437500
1776,-23.437500
1777,-25.390625
1778,-27.343750
1779,-27.343750
1780,-29.296875
1781,-31.250000
1782,-31.250000
1783,-33.203125
1784,-35.156250
1785,-37.109375
1786,-37.109375
1787,-39.062500
1788,-39.062500
1789,-41.015625
1790,-42.968750
1791,-44.921875
1792,-44.921875
1793,-46.875000
1794,-46.875000
1795,-48.828125
1796,-50.781250
1797,-50.781250
1798,-52.734375
1799,-52.734375
1800,-54.687500
1801,-54.687500
1802,-56.640625
1803,-58.593750
1804,-58.593750
1805,-60.546875
1806,-60.546875
1807,-62.500000
1808,-62.500000
1809,-62.500000
1810,-64.453125
1811,-64.453125
1812,-64.453125
1813,-66.406250
1814,-68.359375
1815,-68.359375
1816,-68.359375
1817,-68.359375
1818,-70.312500
1819,-70.312500
1820,-70.312500
1821,-70.312500
1822,-70.312500
1823,-72.265625
1824,-72.265625
1825,-72.265625
1826,-72.265625
1827,-72.265625
1828,-72.265625
1829,-72.265625
1830,-74.218750
1831,-74.218750
1832,-74.218750
1833,-74.218750
1834,-74.218750
1835,-74.218750
1836,-74.218750
1837,-74.218750
1838,-74.218750
1839,-74.218750
1840,-72.265625
1841,-74.218750
1842,-72.265625
1843,-72.265625
1844,-72.265625
1845,-72.265625
1846,-72.265625
1847,-70.312500
1848,-70.312500
1849,-70.312500
1850,-70.312500
1851,-68.359375
1852,-68.359375
1853,-68.359375
1854,-66.406250
1855,-66.406250
1856,-66.406250
1857,-64.453125
1858,-64.453125
1859,-62.500000
1860,-62.500000
1861,-62.500000
1862,-60.546875
1863,-60.546875
1864,-58.593750
1865,-56.640625
1866,-56.640625
1867,-54.687500
1868,-54.687500
1869,-54.687500
1870,-52.734375
1871,-50.781250
1872,-50.781250
1873,-48.828125
1874,-48.828125
1875,-46.875000
1876,-44.921875
1877,-44.921875
1878,-42.968750
1879,-42.968750
1880,-41.015625
1881,-39.062500
1882,-39.062500
1883,-37.109375
1884,-35.156250
1885,-33.203125
1886,-31.250000
1887,-31.250000
1888,-29.296875
1889,-29.296875
1890,-27.343750
1891,-25.390625
1892,-25.390625
1893,-23.437500
1894,-21.484375
1895,-19.531250
1896,-19.531250
1897,-17.578125
1898,-15.625000
1899,-13.671875
1900,-11.718750
1901,-11.718750
1902,-9.765625
1903,-7.812500
1904,-7.812500
1905,-5.859375
1906,-3.906250
1907,-1.953125
1908,-1.953125
1909,1.953125
1910,1.953125
1911,1.953125
1912,3.906250
1913,5.859375
1914,7.812500
1915,7.812500
1916,9.765625
1917,11.718750
1918,11.718750
1919,15.625000
1920,15.625000
1921,17.578125
1922,19.531250
1923,19.531250
1924,21.484375
1925,23.437500
1926,23.437500
1927,25.390625
1928,25.390625
1929,25.390625
1930,27.343750
1931,29.296875
1932,29.296875
1933,31.250000
1934,33.203125
1935,33.203125
1936,35.156250
1937,35.156250
1938,37.109375
1939,39.062500
1940,39.062500
1941,39.062500
1942,39.062500
1943,41.015625
1944,42.968750
1945,42.968750
1946,42.968750
1947,44.921875
1948,44.921875
1949,46.875000
1950,46.875000
1951,46.875000
1952,48.828125
1953,48.828125
1954,48.828125
1955,48.828125
1956,50.781250
1957,50.781250
1958,50.781250
1959,52.734375
1960,52.734375
1961,52.734375
1962,52.734375
1963,52.734375
1964,52.734375
1965,54.687500
1966,54.687500
1967,54.687500
1968,54.687500
1969,56.640625
1970,54.687500
1971,54.687500
1972,56.640625
1973,54.687500
1974,54.687500
1975,56.640625
1976,56.640625
1977,56.640625
1978,56.640625
1979,54.687500
1980,54.687500
1981,56.640625
1982,54.687500
1983,54.687500
1984,54.687500
1985,54.687500
1986,54.687500
1987,54.687500
1988,52.734375
1989,52.734375
1990,52.734375
1991,52.734375
1992,52.734375
1993,50.781250
1994,50.781250
1995,50.781250
1996,48.828125
1997,48.828125
1998,48.828125
1999,48.828125
2000,46.875000
2001,46.875000
2002,44.921875
2003,44.921875
2004,44.921875
2005,42.968750
2006,42.968750
2007,42.968750
2008,41.015625
2009,41.015625
2010,39.062500
2011,39.062500
2012,37.109375
2013,35.156250
2014,35.156250
2015,35.156250
2016,33.203125
2017,31.250000
2018,31.250000
2019,29.296875
2020,29.296875
2021,27.343750
2022,27.343750
2023,25.390625
2024,23.437500
2025,21.484375
2026,21.484375
2027,19.531250
2028,19.531250
2029,17.578125
2030,15.625000
2031,13.671875
2032,13.671875
2033,11.718750
2034,11.718750
2035,9.765625
2036,7.812500
2037,5.859375
2038,5.859375
2039,3.906250
2040,3.906250
2041,0.000000
2042,0.000000
2043,-1.953125
2044,-1.953125
2045,-3.906250
2046,-5.859375
2047,-7.812500
2048,-9.765625
2049,-9.765625
2050,-11.718750
2051,-13.671875
2052,-13.671875
2053,-15.625000
2054,-17.578125
2055,-19.531250
2056,-19.531250
2057,-21.484375
2058,-23.437500
2059,-23.437500
2060,-27.343750
2061,-27.343750
2062,-29.296875
2063,-31.250000
2064,-33.203125
2065,-33.203125
2066,-35.156250
2067,-37.109375
2068,-37.109375
2069,-39.062500
2070,-39.062500
2071,-41.015625
2072,-42.968750
2073,-42.968750
2074,-44.921875
2075,-46.875000
2076,-46.875000
2077,-48.828125
2078,-48.828125
2079,-50.781250
2080,-50.781250
2081,-52.734375
2082,-54.687500
2083,-54.687500
2084,-56.640625
2085,-56.640625
2086,-58.593750
2087,-58.593750
2088,-60.546875
2089,-60.546875
2090,-62.500000
2091,-62.500000
2092,-64.453125
2093,-66.406250
2094,-64.453125
2095,-66.406250
2096,-66.406250
2097,-68.359375
2098,-68.359375
2099,-68.359375
2100,-70.312500
2101,-70.312500
2102,-70.312500
2103,-70.312500
2104,-70.312500
2105,-68.359375
2106,-72.265625
2107,-72.265625
2108,-72.265625
2109,-74.218750
2110,-72.265625
2111,-76.171875
2112,-74.218750
2113,-74.218750
2114,-74.218750
2115,-74.218750
2116,-74.218750
2117,-74.218750
2118,-74.218750
2119,-74.218750
2120,-74.218750
2121,-74.218750
2122,-74.218750
2123,-72.265625
2124,-72.265625
2125,-72.265625
2126,-72.265625
2127,-74.218750
2128,-72.265625
2129,-72.265625
2130,-70.312500
2131,-70.312500
2132,-70.312500
2133,-70.312500
2134,-68.359375
2135,-68.359375
2136,-68.359375
2137,-66.406250
2138,-62.500000
2139,-66.406250
2140,-64.453125
2141,-64.453125
2142,-62.500000
2143,-62.500000
2144,-62.500000
2145,-60.546875
2146,-58.593750
2147,-58.593750
2148,-58.593750
2149,-56.640625
2150,-54.687500
2151,-54.687500
2152,-52.734375
2153,-52.734375
2154,-50.781250
2155,-50.781250
2156,-48.828125
2157,-46.875000
2158,-46.875000
2159,-44.921875
2160,-42.968750
2161,-42.968750
2162,-41.015625
2163,-39.062500
2164,-39.062500
2165,-37.109375
2166,-35.156250
2167,-35.156250
2168,-33.203125
2169,-31.250000
2170,-31.250000
2171,-29.296875
2172,-27.343750
2173,-27.343750
2174,-25.390625
2175,-23.437500
2176,-21.484375
2177,-21.484375
2178,-19.531250
2179,-17.578125
2180,-17.578125
2181,-13.671875
2182,-13.671875
2183,-11.718750
2184,-9.765625
2185,-9.765625
2186,-7.812500
2187,-5.859375
2188,-3.906250
2189,-3.906250
2190,-1.953125
2191,0.000000
2192,1.953125
2193,1.953125
2194,3.906250
2195,3.906250
2196,5.859375
2197,7.812500
2198,7.812500
2199,9.765625
2200,11.718750
2201,13.671875
2202,13.671875
2203,15.625000
2204,17.578125
2205,19.531250
2206,19.531250
2207,21.484375
2208,21.484375
2209,23.437500
2210,25.390625
2211,27.343750
2212,27.343750
2213,27.343750
2214,29.296875
2215,31.250000
2216,33.203125
2217,33.203125
2218,33.203125
2219,35.156250
2220,37.109375
2221,37.109375
2222,37.109375
2223,37.109375
2224,39.062500
2225,41.015625
2226,41.015625
2227,42.968750
2228,42.968750
2229,44.921875
2230,44.921875
2231,44.921875
2232,46.875000
2233,46.875000
2234,48.828125
2235,48.828125
2236,50.781250
2237,50.781250
2238,50.781250
2239,50.781250
2240,50.781250
2241,52.734375
2242,52.734375
2243,52.734375
2244,52.734375
2245,54.687500
2246,54.687500
2247,52.734375
2248,54.687500
2249,54.687500
2250,54.687500
2251,56.640625
2252,56.640625
2253,54.687500
2254,54.687500
2255,56.640625
2256,56.640625
2257,58.593750
2258,56.640625
2259,56.640625
2260,54.687500
2261,54.687500
2262,54.687500
2263,54.687500
2264,54.687500
2265,54.687500
2266,54.687500
2267,54.687500
2268,54.687500
2269,54.687500
2270,54.687500
2271,52.734375
2272,52.734375
2273,52.734375
2274,52.734375
2275,50.781250
2276,50.781250
2277,50.781250
2278,50.781250
2279,48.828125
2280,48.828125
2281,46.875000
2282,46.875000
2283,46.875000
2284,46.875000
2285,44.921875
2286,44.921875
2287,42.968750
2288,42.968750
2289,42.968750
2290,41.015625
2291,41.015625
2292,39.062500
2293,39.062500
2294,37.109375
2295,37.109375
2296,35.156250
2297,35.156250
2298,33.203125
2299,35.156250
2300,31.250000
2301,31.250000
2302,29.296875
2303,27.343750
2304,27.343750
2305,25.390625
2306,25.390625
2307,23.437500
2308,21.484375
2309,21.484375
2310,19.531250
2311,17.578125
2312,15.625000
2313,15.625000
2314,13.671875
2315,13.671875
2316,9.765625
2317,9.765625
2318,9.765625
2319,7.812500
2320,5.859375
2321,3.906250
2322,3.906250
2323,1.953125
2324,0.000000
2325,-1.953125
2326,-1.953125
2327,-3.906250
2328,-3.906250
2329,-7.812500
2330,-7.812500
2331,-9.765625
2332,-7.812500
2333,-13.671875
2334,-13.671875
2335,-15.625000
2336,-17.578125
2337,-19.531250
2338,-19.531250
2339,-21.484375
2340,-23.437500
2341,-25.390625
2342,-25.390625
2343,-27.343750
2344,-29.296875
2345,-31.250000
2346,-31.250000
2347,-33.203125
2348,-33.203125
2349,-37.109375
2350,-37.109375
2351,-39.062500
2352,-41.015625
2353,-41.015625
2354,-42.968750
2355,-42.968750
2356,-44.921875
2357,-46.875000
2358,-46.875000
2359,-48.828125
2360,-48.828125
2361,-50.781250
2362,-50.781250
2363,-52.734375
2364,-52.734375
2365,-54.687500
2366,-54.687500
2367,-56.640625
2368,-58.593750
2369,-58.593750
2370,-60.546875
2371,-60.546875
2372,-62.500000
2373,-62.500000
2374,-64.453125
2375,-64.453125
2376,-64.453125
2377,-66.406250
2378,-66.406250
2379,-66.406250
2380,-68.359375
2381,-68.359375
2382,-70.312500
2383,-70.312500
2384,-70.312500
2385,-70.312500
2386,-72.265625
2387,-72.265625
2388,-72.265625
2389,-72.265625
2390,-72.265625
2391,-72.265625
2392,-72.265625
2393,-72.265625
2394,-74.218750
2395,-74.218750
2396,-74.218750
2397,-74.218750
2398,-74.218750
2399,-74.218750
2400,-74.218750
2401,-74.218750
2402,-74.218750
2403,-74.218750
2404,-74.218750
2405,-74.218750
2406,-72.265625
2407,-72.265625
2408,-72.265625
2409,-72.265625
2410,-72.265625
2411,-72.265625
2412,-70.312500
2413,-70.312500
2414,-70.312500
2415,-70.312500
2416,-68.359375
2417,-68.359375
2418,-68.359375
2419,-66.406250
2420,-66.406250
2421,-64.453125
2422,-64.453125
2423,-64.453125
2424,-62.500000
2425,-62.500000
2426,-60.546875
2427,-60.546875
2428,-60.546875
2429,-58.593750
2430,-56.640625
2431,-56.640625
2432,-54.687500
2433,-54.687500
2434,-52.734375
2435,-52.734375
2436,-50.781250
2437,-48.828125
2438,-48.828125
2439,-46.875000
2440,-46.875000
2441,-44.921875
2442,-44.921875
2443,-42.968750
2444,-41.015625
2445,-39.062500
2446,-39.062500
2447,-37.109375
2448,-37.109375
2449,-35.156250
2450,-33.203125
2451,-31.250000
2452,-31.250000
2453,-29.296875
2454,-27.343750
2455,-27.343750
2456,-25.390625
2457,-23.437500
2458,-23.437500
2459,-21.484375
2460,-19.531250
2461,-17.578125
2462,-17.578125
2463,-15.625000
2464,-13.671875
2465,-11.718750
2466,-11.718750
2467,-9.765625
2468,-5.859375
2469,-5.859375
2470,-5.859375
2471,-3.906250
2472,-1.953125
2473,-1.953125
2474,3.906250
2475,1.953125
2476,1.953125
2477,3.906250
2478,7.812500
2479,7.812500
2480,9.765625
2481,9.765625
2482,11.718750
2483,13.671875
2484,15.625000
2485,15.625000
2486,17.578125
2487,17.578125
2488,19.531250
2489,21.484375
2490,23.437500
2491,23.437500
2492,25.390625
2493,25.390625
2494,27.343750
2495,27.343750
2496,29.296875
2497,31.250000
2498,31.250000
2499,33.203125
2500,33.203125
2501,35.156250
2502,35.156250
2503,37.109375
2504,37.109375
2505,39.062500
2506,39.062500
2507,41.015625
2508,41.015625
2509,42.968750
2510,42.968750
2511,44.921875
2512,44.921875
2513,44.921875
2514,46.875000
2515,46.875000
2516,48.828125
2517,48.828125
2518,46.875000
2519,50.781250
2520,50.781250
2521,50.781250
2522,50.781250
2523,52.734375
2524,52.734375
2525,52.734375
2526,52.734375
2527,52.734375
2528,52.734375
2529,54.687500
2530,54.687500
2531,54.687500
2532,54.687500
2533,54.687500
2534,54.687500
2535,54.687500
2536,54.687500
2537,56.640625
2538,56.640625
2539,54.687500
2540,56.640625
2541,54.687500
2542,56.640625
2543,54.687500
2544,56.640625
2545,54.687500
2546,54.687500
2547,54.687500
2548,54.687500
2549,54.687500
2550,54.687500
2551,54.687500
2552,52.734375
2553,52.734375
2554,54.687500
2555,52.734375
2556,52.734375
2557,52.734375
2558,52.734375
2559,50.781250
2560,50.781250
2561,50.781250
2562,48.828125
2563,48.828125
2564,46.875000
2565,46.875000
2566,46.875000
2567,46.875000
2568,44.921875
2569,44.921875
2570,42.968750
2571,42.968750
2572,41.015625
2573,41.015625
2574,41.015625
2575,39.062500
2576,37.109375
2577,37.109375
2578,37.109375
2579,35.156250
2580,33.203125
2581,33.203125
2582,31.250000
2583,29.296875
2584,29.296875
2585,27.343750
2586,27.343750
2587,25.390625
2588,25.390625
2589,23.437500
2590,21.484375
2591,21.484375
2592,19.531250
2593,19.531250
2594,17.578125
2595,15.625000
2596,15.625000
2597,13.671875
2598,11.718750
2599,9.765625
2600,9.765625
2601,7.812500
2602,5.859375
2603,3.906250
2604,1.953125
2605,1.953125
2606,0.000000
2607,0.000000
2608,-1.953125
2609,-3.906250
2610,-5.859375
2611,-5.859375
2612,-7.812500
2613,-9.765625
2614,-11.718750
2615,-11.718750
2616,-13.671875
2617,-15.625000
2618,-15.625000
2619,-17.578125
2620,-19.531250
2621,-21.484375
2622,-21.484375
2623,-23.437500
2624,-25.390625
2625,-27.343750
2626,-27.343750
2627,-29.296875
2628,-31.250000
2629,-33.203125
2630,-33.203125
2631,-35.156250
2632,-37.109375
2633,-37.109375
2634,-39.062500
2635,-41.015625
2636,-41.015625
2637,-41.015625
2638,-42.968750
2639,-44.921875
2640,-46.875000
2641,-46.875000
2642,-48.828125
2643,-48.828125
2644,-50.781250
2645,-52.734375
2646,-52.734375
2647,-54.687500
2648,-56.640625
2649,-56.640625
2650,-56.640625
2651,-58.593750
2652,-60.546875
2653,-60.546875
2654,-62.500000
2655,-62.500000
2656,-62.500000
2657,-64.453125
2658,-64.453125
2659,-66.406250
2660,-66.406250
2661,-66.406250
2662,-68.359375
2663,-68.359375
2664,-68.359375
2665,-70.312500
2666,-70.312500
2667,-70.312500
2668,-70.312500
2669,-72.265625
2670,-72.265625
2671,-72.265625
2672,-72.265625
2673,-72.265625
2674,-72.265625
2675,-74.218750
2676,-76.171875
2677,-72.265625
2678,-74.218750
2679,-74.218750
2680,-72.265625
2681,-74.218750
2682,-74.218750
2683,-72.265625
2684,-74.218750
2685,-74.218750
2686,-74.218750
2687,-70.312500
2688,-72.265625
2689,-72.265625
2690,-72.265625
2691,-72.265625
2692,-72.265625
2693,-72.265625
2694,-70.312500
2695,-70.312500
2696,-70.312500
2697,-70.312500
2698,-68.359375
2699,-68.359375
2700,-68.359375
2701,-66.406250
2702,-66.406250
2703,-66.406250
2704,-66.406250
2705,-64.453125
2706,-62.500000
2707,-62.500000
2708,-62.500000
2709,-60.546875
2710,-60.546875
2711,-58.593750
2712,-58.593750
2713,-56.640625
2714,-56.640625
2715,-54.687500
2716,-54.687500
2717,-52.734375
2718,-52.734375
2719,-50.781250
2720,-48.828125
2721,-48.828125
2722,-46.875000
2723,-46.875000
2724,-44.921875
2725,-44.921875
2726,-42.968750
2727,-41.015625
2728,-39.062500
2729,-39.062500
2730,-37.109375
2731,-35.156250
2732,-35.156250
2733,-33.203125
2734,-31.250000
2735,-29.296875
2736,-29.296875
2737,-27.343750
2738,-25.390625
2739,-23.437500
2740,-23.437500
2741,-21.484375
2742,-19.531250
2743,-19.531250
2744,-17.578125
2745,-15.625000
2746,-13.671875
2747,-13.671875
2748,-11.718750
2749,-9.765625
2750,-7.812500
2751,-7.812500
2752,-5.859375
2753,-3.906250
2754,-1.953125
2755,-1.953125
2756,0.000000
2757,0.000000
2758,1.953125
2759,3.906250
2760,5.859375
2761,7.812500
2762,7.812500
2763,9.765625
2764,11.718750
2765,11.718750
2766,15.625000
2767,15.625000
2768,15.625000
2769,17.578125
2770,19.531250
2771,19.531250
2772,21.484375
2773,23.437500
2774,23.437500
2775,25.390625
2776,25.390625
2777,27.343750
2778,29.296875
2779,29.296875
2780,31.250000
2781,31.250000
2782,33.203125
2783,35.156250
2784,35.156250
2785,35.156250
2786,37.109375
2787,37.109375
2788,39.062500
2789,39.062500
2790,41.015625
2791,41.015625
2792,42.968750
2793,42.968750
2794,44.921875
2795,44.921875
2796,46.875000
2797,46.875000
2798,46.875000
2799,48.828125
2800,48.828125
2801,48.828125
2802,50.781250
2803,50.781250
2804,50.781250
2805,50.781250
2806,52.734375
2807,52.734375
2808,52.734375
2809,54.687500
2810,54.687500
2811,54.687500
2812,54.687500
2813,54.687500
2814,54.687500
2815,54.687500
2816,56.640625
2817,56.640625
2818,56.640625
2819,56.640625
2820,56.640625
2821,56.640625
2822,56.640625
2823,56.640625
2824,54.687500
2825,56.640625
2826,56.640625
2827,54.687500
2828,56.640625
2829,54.687500
2830,54.687500
2831,54.687500
2832,54.687500
2833,54.687500
2834,54.687500
2835,54.687500
2836,52.734375
2837,52.734375
2838,52.734375
2839,52.734375
2840,52.734375
2841,50.781250
2842,50.781250
2843,48.828125
2844,50.781250
2845,48.828125
2846,48.828125
2847,46.875000
2848,46.875000
2849,46.875000
2850,44.921875
2851,44.921875
2852,42.968750
2853,42.968750
2854,41.015625
2855,41.015625
2856,39.062500
2857,39.062500
2858,39.062500
2859,37.109375
2860,37.109375
2861,33.203125
2862,33.203125
2863,33.203125
2864,31.250000
2865,31.250000
2866,29.296875
2867,29.296875
2868,27.343750
2869,27.343750
2870,25.390625
2871,23.437500
2872,23.437500
2873,21.484375
2874,19.531250
2875,19.531250
2876,17.578125
2877,19.531250
2878,15.625000
2879,13.671875
2880,11.718750
2881,11.718750
2882,9.765625
2883,7.812500
2884,5.859375
2885,5.859375
2886,3.906250
2887,1.953125
2888,0.000000
2889,0.000000
2890,-1.953125
2891,-3.906250
2892,-3.906250
2893,-5.859375
2894,-7.812500
2895,-7.812500
2896,-9.765625
2897,-11.718750
2898,-11.718750
2899,-15.625000
2900,-15.625000
2901,-17.578125
2902,-19.531250
2903,-19.531250
2904,-21.484375
2905,-23.437500
2906,-25.390625
2907,-27.343750
2908,-27.343750
2909,-29.296875
2910,-31.250000
2911,-31.250000
2912,-33.203125
2913,-33.203125
2914,-35.156250
2915,-37.109375
2916,-37.109375
2917,-39.062500
2918,-41.015625
2919,-41.015625
2920,-44.921875
2921,-44.921875
2922,-46.875000
2923,-46.875000
2924,-48.828125
2925,-50.781250
2926,-50.781250
2927,-52.734375
2928,-52.734375
2929,-54.687500
2930,-54.687500
2931,-56.640625
2932,-58.593750
2933,-58.593750
2934,-60.546875
2935,-60.546875
2936,-60.546875
2937,-62.500000
2938,-62.500000
2939,-64.453125
2940,-64.453125
2941,-64.453125
2942,-66.406250
2943,-66.406250
2944,-66.406250
2945,-70.312500
2946,-68.359375
2947,-68.359375
2948,-70.312500
2949,-70.312500
2950,-70.312500
2951,-70.312500
2952,-72.265625
2953,-72.265625
2954,-72.265625
2955,-72.265625
2956,-72.265625
2957,-72.265625
2958,-74.218750
2959,-74.218750
2960,-74.218750
2961,-74.218750
2962,-74.218750
2963,-74.218750
2964,-74.218750
2965,-74.218750
2966,-74.218750
2967,-74.218750
2968,-74.218750
2969,-74.218750
2970,-74.218750
2971,-72.265625
2972,-72.265625
2973,-72.265625
2974,-72.265625
2975,-72.265625
2976,-72.265625
2977,-70.312500
2978,-70.312500
2979,-70.312500
2980,-70.312500
2981,-68.359375
2982,-68.359375
2983,-66.406250
2984,-66.406250
2985,-66.406250
2986,-64.453125
2987,-64.453125
2988,-64.453125
2989,-62.500000
2990,-62.500000
2991,-60.546875
2992,-60.546875
2993,-58.593750
2994,-58.593750
2995,-58.593750
2996,-56.640625
2997,-56.640625
2998,-54.687500
2999,-52.734375
3000,-52.734375
3001,-50.781250
3002,-50.781250
3003,-48.828125
3004,-46.875000
3005,-46.875000
3006,-44.921875
3007,-42.968750
3008,-42.968750
3009,-41.015625
3010,-39.062500
3011,-39.062500
3012,-37.109375
3013,-35.156250
3014,-35.156250
3015,-33.203125
3016,-31.250000
3017,-31.250000
3018,-29.296875
3019,-27.343750
3020,-25.390625
3021,-25.390625
3022,-23.437500
3023,-21.484375
3024,-21.484375
3025,-17.578125
3026,-17.578125
3027,-15.625000
3028,-15.625000
3029,-13.671875
3030,-11.718750
3031,-11.718750
3032,-7.812500
3033,-7.812500
3034,-5.859375
3035,-3.906250
3036,-3.906250
3037,-1.953125
3038,-1.953125
3039,0.000000
3040,3.906250
3041,3.906250
3042,5.859375
3043,5.859375
3044,7.812500
3045,9.765625
3046,9.765625
3047,11.718750
3048,13.671875
3049,15.625000
3050,15.625000
3051,17.578125
3052,19.531250
3053,19.531250
3054,21.484375
3055,23.437500
3056,25.390625
3057,27.343750
3058,25.390625
3059,27.343750
3060,29.296875
3061,29.296875
3062,31.250000
3063,31.250000
3064,33.203125
3065,35.156250
3066,35.156250
3067,35.156250
3068,37.109375
3069,39.062500
3070,39.062500
3071,35.156250
3072,41.015625
3073,42.968750
3074,42.968750
3075,42.968750
3076,44.921875
3077,44.921875
3078,44.921875
3079,44.921875
3080,50.781250
3081,48.828125
3082,48.828125
3083,46.875000
3084,48.828125
3085,50.781250
3086,50.781250
3087,52.734375
3088,52.734375
3089,52.734375
3090,52.734375
3091,52.734375
3092,54.687500
3093,54.687500
3094,54.687500
3095,54.687500
3096,56.640625
3097,54.687500
3098,54.687500
3099,54.687500
3100,56.640625
3101,56.640625
3102,54.687500
3103,54.687500
3104,56.640625
3105,56.640625
3106,60.546875
3107,52.734375
3108,54.687500
3109,54.687500
3110,54.687500
3111,54.687500
3112,54.687500
3113,54.687500
3114,54.687500
3115,54.687500
3116,52.734375
3117,52.734375
3118,54.687500
3119,52.734375
3120,52.734375
3121,52.734375
3122,50.781250
3123,50.781250
3124,50.781250
3125,48.828125
3126,48.828125
3127,48.828125
3128,48.828125
3129,46.875000
3130,46.875000
3131,46.875000
3132,44.921875
3133,44.921875
3134,42.968750
3135,42.968750
3136,42.968750
3137,41.015625
3138,41.015625
3139,41.015625
3140,37.109375
3141,37.109375
3142,37.109375
3143,35.156250
3144,35.156250
3145,33.203125
3146,33.203125
3147,31.250000
3148,31.250000
3149,29.296875
3150,27.343750
3151,27.343750
3152,25.390625
3153,25.390625
3154,21.484375
3155,21.484375
3156,21.484375
3157,19.531250
3158,17.578125
3159,17.578125
3160,15.625000
3161,13.671875
3162,11.718750
3163,11.718750
3164,9.765625
3165,9.765625
3166,7.812500
3167,5.859375
3168,3.906250
3169,1.953125
3170,1.953125
3171,0.000000
3172,0.000000
3173,-1.953125
3174,-3.906250
3175,-5.859375
3176,-5.859375
3177,-7.812500
3178,-9.765625
3179,-11.718750
3180,-11.718750
3181,-13.671875
3182,-15.625000
3183,-17.578125
3184,-17.578125
3185,-19.531250
3186,-21.484375
3187,-23.437500
3188,-23.437500
3189,-25.390625
3190,-27.343750
3191,-27.343750
3192,-29.296875
3193,-31.250000
3194,-33.203125
3195,-33.203125
3196,-35.156250
3197,-37.109375
3198,-39.062500
3199,-39.062500
3200,-41.015625
3201,-42.968750
3202,-42.968750
3203,-44.921875
3204,-44.921875
3205,-46.875000
3206,-48.828125
3207,-48.828125
3208,-50.781250
3209,-50.781250
3210,-52.734375
3211,-52.734375
3212,-54.687500
3213,-56.640625
3214,-56.640625
3215,-58.593750
3216,-58.593750
3217,-60.546875
3218,-60.546875
3219,-62.500000
3220,-62.500000
3221,-62.500000
3222,-64.453125
3223,-66.406250
3224,-66.406250
3225,-68.359375
3226,-66.406250
3227,-68.359375
3228,-68.359375
3229,-68.359375
3230,-70.312500
3231,-70.312500
3232,-70.312500
3233,-72.265625
3234,-72.265625
3235,-72.265625
3236,-72.265625
3237,-72.265625
3238,-72.265625
3239,-72.265625
3240,-74.218750
3241,-74.218750
3242,-74.218750
3243,-74.218750
3244,-74.218750
3245,-74.218750
3246,-74.218750
3247,-74.218750
3248,-74.218750
3249,-74.218750
3250,-74.218750
3251,-74.218750
3252,-72.265625
3253,-72.265625
3254,-72.265625
3255,-72.265625
3256,-72.265625
3257,-72.265625
3258,-72.265625
3259,-70.312500
3260,-70.312500
3261,-70.312500
3262,-70.312500
3263,-68.359375
3264,-68.359375
3265,-68.359375
3266,-66.406250
3267,-66.406250
3268,-66.406250
3269,-64.453125
3270,-64.453125
3271,-62.500000
3272,-62.500000
3273,-60.546875
3274,-60.546875
3275,-58.593750
3276,-58.593750
3277,-56.640625
3278,-56.640625
3279,-56.640625
3280,-54.687500
3281,-52.734375
3282,-52.734375
3283,-50.781250
3284,-50.781250
3285,-48.828125
3286,-46.875000
3287,-46.875000
3288,-44.921875
3289,-44.921875
3290,-42.968750
3291,-42.968750
3292,-39.062500
3293,-39.062500
3294,-37.109375
3295,-37.109375
3296,-35.156250
3297,-33.203125
3298,-31.250000
3299,-31.250000
3300,-29.296875
3301,-29.296875
3302,-27.343750
3303,-25.390625
3304,-23.437500
3305,-21.484375
3306,-21.484375
3307,-21.484375
3308,-17.578125
3309,-17.578125
3310,-15.625000
3311,-13.671875
3312,-13.671875
3313,-11.718750
3314,-9.765625
3315,-7.812500
3316,-7.812500
3317,-5.859375
3318,-3.906250
3319,-1.953125
3320,0.000000
3321,0.000000
3322,1.953125
3323,3.906250
3324,5.859375
3325,7.812500
3326,7.812500
3327,9.765625
3328,9.765625
3329,11.718750
3330,13.671875
3331,15.625000
3332,15.625000
3333,17.578125
3334,19.531250
3335,19.531250
3336,21.484375
3337,23.437500
3338,23.437500
3339,25.390625
3340,25.390625
3341,27.343750
3342,27.343750
3343,29.296875
3344,31.250000
3345,31.250000
3346,33.203125
3347,33.203125
3348,35.156250
3349,35.156250
3350,37.109375
3351,37.109375
3352,39.062500
3353,39.062500
3354,41.015625
3355,41.015625
3356,42.968750
3357,42.968750
3358,42.968750
3359,44.921875
3360,44.921875
3361,46.875000
3362,46.875000
3363,46.875000
3364,48.828125
3365,48.828125
3366,48.828125
3367,50.781250
3368,50.781250
3369,50.781250
3370,50.781250
3371,52.734375
3372,52.734375
3373,52.734375
3374,52.734375
3375,52.734375
3376,54.687500
3377,54.687500
3378,54.687500
3379,54.687500
3380,54.687500
3381,54.687500
3382,56.640625
3383,56.640625
3384,56.640625
3385,56.640625
3386,56.640625
3387,56.640625
3388,56.640625
3389,56.640625
3390,56.640625
3391,56.640625
3392,54.687500
3393,54.687500
3394,54.687500
3395,54.687500
3396,54.687500
3397,54.687500
3398,54.687500
3399,54.687500
3400,54.687500
3401,52.734375
3402,52.734375
3403,52.734375
3404,52.734375
3405,50.781250
3406,50.781250
3407,50.781250
3408,48.828125
3409,50.781250
3410,46.875000
3411,46.875000
3412,46.875000
3413,46.875000
3414,46.875000
3415,44.921875
3416,44.921875
3417,42.968750
3418,42.968750
3419,41.015625
3420,41.015625
3421,41.015625
3422,39.062500
3423,37.109375
3424,37.109375
3425,35.156250
3426,35.156250
3427,33.203125
3428,33.203125
3429,31.250000
3430,31.250000
3431,29.296875
3432,27.343750
3433,27.343750
3434,25.390625
3435,25.390625
3436,23.437500
3437,21.484375
3438,21.484375
3439,21.484375
3440,19.531250
3441,17.578125
3442,15.625000
3443,13.671875
3444,13.671875
3445,11.718750
3446,9.765625
3447,9.765625
3448,7.812500
3449,1.953125
3450,5.859375
3451,3.906250
3452,1.953125
3453,0.000000
3454,0.000000
3455,-1.953125
3456,-3.906250
3457,-3.906250
3458,-5.859375
3459,-7.812500
3460,-5.859375
3461,-11.718750
3462,-11.718750
3463,-13.671875
3464,-15.625000
3465,-15.625000
3466,-17.578125
3467,-19.531250
3468,-21.484375
3469,-21.484375
3470,-23.437500
3471,-25.390625
3472,-27.343750
3473,-29.296875
3474,-29.296875
3475,-29.296875
3476,-31.250000
3477,-33.203125
3478,-35.156250
3479,-37.109375
3480,-37.109375
3481,-39.062500
3482,-41.015625
3483,-41.015625
3484,-42.968750
3485,-42.968750
3486,-44.921875
3487,-46.875000
3488,-46.875000
3489,-48.828125
3490,-50.781250
3491,-50.781250
3492,-52.734375
3493,-52.734375
3494,-54.687500
3495,-56.640625
3496,-56.640625
3497,-58.593750
3498,-58.593750
3499,-60.546875
3500,-60.546875
3501,-62.500000
3502,-62.500000
3503,-62.500000
3504,-64.453125
3505,-64.453125
3506,-66.406250
3507,-66.406250
3508,-66.406250
3509,-68.359375
3510,-68.359375
3511,-68.359375
3512,-68.359375
3513,-70.312500
3514,-70.312500
3515,-70.312500
3516,-70.312500
3517,-72.265625
3518,-72.265625
3519,-72.265625
3520,-72.265625
3521,-72.265625
3522,-74.218750
3523,-74.218750
3524,-74.218750
3525,-72.265625
3526,-74.218750
3527,-74.218750
3528,-74.218750
3529,-74.218750
3530,-74.218750
3531,-72.265625
3532,-74.218750
3533,-72.265625
3534,-74.218750
3535,-72.265625
3536,-72.265625
3537,-72.265625
3538,-72.265625
3539,-72.265625
3540,-70.312500
3541,-70.312500
3542,-70.312500
3543,-70.312500
3544,-70.312500
3545,-68.359375
3546,-68.359375
3547,-68.359375
3548,-66.406250
3549,-68.359375
3550,-66.406250
3551,-64.453125
3552,-64.453125
3553,-62.500000
3554,-62.500000
3555,-62.500000
3556,-62.500000
3557,-60.546875
3558,-58.593750
3559,-58.593750
3560,-56.640625
3561,-56.640625
3562,-54.687500
3563,-54.687500
3564,-52.734375
3565,-52.734375
3566,-50.781250
3567,-48.828125
3568,-48.828125
3569,-46.875000
3570,-46.875000
3571,-44.921875
3572,-42.968750
3573,-42.968750
3574,-41.015625
3575,-39.062500
3576,-39.062500
3577,-37.109375
3578,-37.109375
3579,-33.203125
3580,-31.250000
3581,-31.250000
3582,-29.296875
3583,-29.296875
3584,-27.343750
3585,-25.390625
3586,-23.437500
3587,-23.437500
3588,-21.484375
3589,-19.531250
3590,-19.531250
3591,-17.578125
3592,-15.625000
3593,-13.671875
3594,-11.718750
3595,-11.718750
3596,-9.765625
3597,-7.812500
3598,-5.859375
3599,-5.859375
3600,-3.906250
3601,-1.953125
3602,-1.953125
3603,0.000000
3604,1.953125
3605,1.953125
3606,3.906250
3607,5.859375
3608,5.859375
3609,7.812500
3610,9.765625
3611,11.718750
3612,13.671875
3613,13.671875
3614,15.625000
3615,17.578125
3616,17.578125
3617,19.531250
3618,19.531250
3619,21.484375
3620,23.437500
3621,25.390625
3622,25.390625
3623,27.343750
3624,27.343750
3625,29.296875
3626,29.296875
3627,31.250000
3628,31.250000
3629,33.203125
3630,35.156250
3631,35.156250
3632,37.109375
3633,37.109375
3634,37.109375
3635,39.062500
3636,41.015625
3637,39.062500
3638,41.015625
3639,42.968750
3640,41.015625
3641,44.921875
3642,44.921875
3643,46.875000
3644,46.875000
3645,46.875000
3646,48.828125
3647,48.828125
3648,48.828125
3649,48.828125
3650,48.828125
3651,50.781250
3652,52.734375
3653,52.734375
3654,52.734375
3655,52.734375
3656,54.687500
3657,54.687500
3658,54.687500
3659,54.687500
3660,54.687500
3661,54.687500
3662,54.687500
3663,54.687500
3664,54.687500
3665,54.687500
3666,56.640625
3667,56.640625
3668,56.640625
3669,56.640625
3670,54.687500
3671,56.640625
3672,56.640625
3673,56.640625
3674,54.687500
3675,54.687500
3676,54.687500
3677,54.687500
3678,54.687500
3679,54.687500
3680,54.687500
3681,54.687500
3682,52.734375
3683,52.734375
3684,52.734375
3685,52.734375
3686,52.734375
3687,50.781250
3688,50.781250
3689,50.781250
3690,50.781250
3691,48.828125
3692,48.828125
3693,48.828125
3694,46.875000
3695,46.875000
3696,44.921875
3697,44.921875
3698,44.921875
3699,42.968750
3700,42.968750
3701,41.015625
3702,41.015625
3703,41.015625
3704,39.062500
3705,39.062500
3706,37.109375
3707,37.109375
3708,35.156250
3709,33.203125
3710,33.203125
3711,31.250000
3712,31.250000
3713,29.296875
3714,29.296875
3715,27.343750
3716,27.343750
3717,25.390625
3718,23.437500
3719,23.437500
3720,21.484375
3721,21.484375
3722,19.531250
3723,17.578125
3724,15.625000
3725,15.625000
3726,13.671875
3727,11.718750
3728,11.718750
3729,9.765625
3730,7.812500
3731,7.812500
3732,5.859375
3733,3.906250
3734,1.953125
3735,1.953125
3736,0.000000
3737,-1.953125
3738,-3.906250
3739,-3.906250
3740,-5.859375
3741,-7.812500
3742,-7.812500
3743,-9.765625
3744,-11.718750
3745,-13.671875
3746,-13.671875
3747,-15.625000
3748,-17.578125
3749,-19.531250
3750,-19.531250
3751,-21.484375
3752,-23.437500
3753,-25.390625
3754,-25.390625
3755,-27.343750
3756,-29.296875
3757,-31.250000
3758,-31.250000
3759,-33.203125
3760,-35.156250
3761,-35.156250
3762,-37.109375
3763,-39.062500
3764,-39.062500
3765,-41.015625
3766,-42.968750
3767,-42.968750
3768,-44.921875
3769,-46.875000
3770,-46.875000
3771,-48.828125
3772,-48.828125
3773,-50.781250
3774,-52.734375
3775,-52.734375
3776,-54.687500
3777,-54.687500
3778,-56.640625
3779,-56.640625
3780,-58.593750
3781,-58.593750
3782,-60.546875
3783,-60.546875
3784,-60.546875
3785,-62.500000
3786,-62.500000
3787,-64.453125
3788,-64.453125
3789,-66.406250
3790,-66.406250
3791,-68.359375
3792,-68.359375
3793,-68.359375
3794,-68.359375
3795,-70.312500
3796,-70.312500
3797,-70.312500
3798,-70.312500
3799,-72.265625
3800,-72.265625
3801,-72.265625
3802,-72.265625
3803,-72.265625
3804,-74.218750
3805,-74.218750
3806,-74.218750
3807,-72.265625
3808,-74.218750
3809,-74.218750
3810,-74.218750
3811,-74.218750
3812,-74.218750
3813,-74.218750
3814,-74.218750
3815,-74.218750
3816,-72.265625
3817,-72.265625
3818,-72.265625
3819,-74.218750
3820,-72.265625
3821,-72.265625
3822,-72.265625
3823,-72.265625
3824,-70.312500
3825,-70.312500
3826,-70.312500
3827,-70.312500
3828,-68.359375
3829,-68.359375
3830,-66.406250
3831,-66.406250
3832,-66.406250
3833,-64.453125
3834,-64.453125
3835,-64.453125
3836,-64.453125
3837,-62.500000
3838,-60.546875
3839,-60.546875
3840,-58.593750
3841,-58.593750
3842,-56.640625
3843,-56.640625
3844,-56.640625
3845,-54.687500
3846,-52.734375
3847,-52.734375
3848,-50.781250
3849,-48.828125
3850,-48.828125
3851,-46.875000
3852,-46.875000
3853,-44.921875
3854,-44.921875
3855,-42.968750
3856,-41.015625
3857,-41.015625
3858,-39.062500
3859,-37.109375
3860,-35.156250
3861,-33.203125
3862,-33.203125
3863,-31.250000
3864,-31.250000
3865,-29.296875
3866,-27.343750
3867,-25.390625
3868,-25.390625
3869,-23.437500
3870,-21.484375
3871,-19.531250
3872,-19.531250
3873,-17.578125
3874,-15.625000
3875,-17.578125
3876,-13.671875
3877,-11.718750
3878,-9.765625
3879,-9.765625
3880,-7.812500
3881,-7.812500
3882,-3.906250
3883,-3.906250
3884,-1.953125
3885,0.000000
3886,0.000000
3887,1.953125
3888,3.906250
3889,3.906250
3890,5.859375
3891,7.812500
3892,9.765625
3893,11.718750
3894,11.718750
3895,13.671875
3896,13.671875
3897,15.625000
3898,17.578125
3899,17.578125
3900,19.531250
3901,21.484375
3902,21.484375
3903,23.437500
3904,25.390625
3905,25.390625
3906,27.343750
3907,27.343750
3908,29.296875
3909,31.250000
3910,31.250000
3911,33.203125
3912,33.203125
3913,35.156250
3914,35.156250
3915,37.109375
3916,37.109375
3917,39.062500
3918,39.062500
3919,41.015625
3920,41.015625
3921,42.968750
3922,42.968750
3923,44.921875
3924,44.921875
3925,44.921875
3926,46.875000
3927,46.875000
3928,48.828125
3929,48.828125
3930,48.828125
3931,50.781250
3932,50.781250
3933,50.781250
3934,50.781250
3935,52.734375
3936,52.734375
3937,52.734375
3938,52.734375
3939,54.687500
3940,54.687500
3941,54.687500
3942,54.687500
3943,54.687500
3944,54.687500
3945,54.687500
3946,54.687500
3947,54.687500
3948,56.640625
3949,54.687500
3950,56.640625
3951,56.640625
3952,54.687500
3953,56.640625
3954,56.640625
3955,56.640625
3956,54.687500
3957,54.687500
3958,54.687500
3959,54.687500
3960,54.687500
3961,54.687500
3962,52.734375
3963,54.687500
3964,54.687500
3965,52.734375
3966,52.734375
3967,52.734375
3968,52.734375
3969,52.734375
3970,50.781250
3971,50.781250
3972,50.781250
3973,48.828125
3974,48.828125
3975,48.828125
3976,46.875000
3977,46.875000
3978,46.875000
3979,44.921875
3980,44.921875
3981,44.921875
3982,42.968750
3983,42.968750
3984,41.015625
3985,41.015625
3986,39.062500
3987,39.062500
3988,39.062500
3989,37.109375
3990,35.156250
3991,35.156250
3992,33.203125
3993,33.203125
3994,31.250000
3995,31.250000
3996,29.296875
3997,27.343750
3998,27.343750
3999,25.390625
4000,25.390625
4001,23.437500
4002,21.484375
4003,21.484375
4004,19.531250
4005,17.578125
4006,17.578125
4007,15.625000
4008,13.671875
4009,11.718750
4010,11.718750
4011,9.765625
4012,7.812500
4013,7.812500
4014,5.859375
4015,3.906250
4016,1.953125
4017,1.953125
4018,0.000000
4019,0.000000
4020,-1.953125
4021,-3.906250
4022,-5.859375
4023,-5.859375
4024,-7.812500
4025,-9.765625
4026,-11.718750
4027,-11.718750
4028,-13.671875
4029,-17.578125
4030,-17.578125
4031,-17.578125
4032,-19.531250
4033,-21.484375
4034,-23.437500
4035,-23.437500
4036,-25.390625
4037,-27.343750
4038,-27.343750
4039,-29.296875
4040,-31.250000
4041,-33.203125
4042,-33.203125
4043,-35.156250
4044,-37.109375
4045,-37.109375
4046,-39.062500
4047,-41.015625
4048,-42.968750
4049,-42.968750
4050,-44.921875
4051,-44.921875
4052,-46.875000
4053,-48.828125
4054,-48.828125
4055,-50.781250
4056,-52.734375
4057,-52.734375
4058,-52.734375
4059,-54.687500
4060,-56.640625
4061,-56.640625
4062,-58.593750
4063,-58.593750
4064,-58.593750
4065,-60.546875
4066,-62.500000
4067,-62.500000
4068,-64.453125
4069,-64.453125
4070,-64.453125
4071,-66.406250
4072,-66.406250
4073,-68.359375
4074,-68.359375
4075,-68.359375
4076,-68.359375
4077,-70.312500
4078,-70.312500
4079,-70.312500
4080,-72.265625
4081,-72.265625
4082,-72.265625
4083,-72.265625
4084,-72.265625
4085,-72.265625
4086,-74.218750
4087,-74.218750
4088,-74.218750
4089,-74.218750
4090,-74.218750
4091,-74.218750
4092,-74.218750
4093,-74.218750
4094,-74.218750
4095,-74.218750
4096,-74.218750
4097,-74.218750
4098,-74.218750
4099,-72.265625
4100,-72.265625
4101,-72.265625
4102,-72.265625
4103,-72.265625
4104,-72.265625
4105,-70.312500
4106,-70.312500
4107,-70.312500
4108,-70.312500
4109,-70.312500
4110,-68.359375
4111,-68.359375
4112,-66.406250
4113,-66.406250
4114,-66.406250
4115,-66.406250
4116,-64.453125
4117,-64.453125
4118,-62.500000
4119,-62.500000
4120,-60.546875
4121,-60.546875
4122,-58.593750
4123,-58.593750
4124,-58.593750
4125,-56.640625
4126,-54.687500
4127,-54.687500
4128,-52.734375
4129,-52.734375
4130,-50.781250
4131,-50.781250
4132,-48.828125
4133,-46.875000
4134,-46.875000
4135,-44.921875
4136,-44.921875
4137,-42.968750
4138,-41.015625
4139,-41.015625
4140,-39.062500
4141,-37.109375
4142,-37.109375
4143,-35.156250
4144,-33.203125
4145,-33.203125
4146,-31.250000
4147,-29.296875
4148,-27.343750
4149,-27.343750
4150,-25.390625
4151,-23.437500
4152,-23.437500
4153,-21.484375
4154,-19.531250
4155,-19.531250
4156,-17.578125
4157,-15.625000
4158,-13.671875
4159,-11.718750
4160,-11.718750
4161,-9.765625
4162,-7.812500
4163,-5.859375
4164,-3.906250
4165,-3.906250
4166,-1.953125
4167,0.000000
4168,0.000000
4169,1.953125
4170,3.906250
4171,5.859375
4172,5.859375
4173,7.812500
4174,9.765625
4175,9.765625
4176,11.718750
4177,13.671875
4178,13.671875
4179,15.625000
4180,17.578125
4181,19.531250
4182,19.531250
4183,21.484375
4184,23.437500
4185,23.437500
4186,25.390625
4187,25.390625
4188,27.343750
4189,27.343750
4190,29.296875
4191,31.250000
4192,31.250000
4193,33.203125
4194,33.203125
4195,35.156250
4196,35.156250
4197,37.109375
4198,37.109375
4199,37.109375
4200,39.062500
4201,41.015625
4202,41.015625
4203,42.968750
4204,42.968750
4205,42.968750
4206,44.921875
4207,44.921875
4208,46.875000
4209,46.875000
4210,46.875000
4211,48.828125
4212,48.828125
4213,48.828125
4214,50.781250
4215,50.781250
4216,50.781250
4217,50.781250
4218,52.734375
4219,52.734375
4220,52.734375
4221,52.734375
4222,52.734375
4223,54.687500
4224,54.687500
4225,54.687500
4226,54.687500
4227,56.640625
4228,56.640625
4229,54.687500
4230,54.687500
4231,56.640625
4232,56.640625
4233,56.640625
4234,56.640625
4235,56.640625
4236,56.640625
4237,56.640625
4238,56.640625
4239,56.640625
4240,54.687500
4241,54.687500
4242,54.687500
4243,54.687500
4244,54.687500
4245,54.687500
4246,54.687500
4247,52.734375
4248,52.734375
4249,52.734375
4250,52.734375
4251,52.734375
4252,52.734375
4253,50.781250
4254,50.781250
4255,50.781250
4256,48.828125
4257,48.828125
4258,48.828125
4259,46.875000
4260,46.875000
4261,44.921875
4262,44.921875
4263,44.921875
4264,42.968750
4265,44.921875
4266,41.015625
4267,41.015625
4268,39.062500
4269,39.062500
4270,37.109375
4271,37.109375
4272,37.109375
4273,35.156250
4274,33.203125
4275,33.203125
4276,31.250000
4277,31.250000
4278,29.296875
4279,29.296875
4280,27.343750
4281,25.390625
4282,25.390625
4283,23.437500
4284,21.484375
4285,21.484375
4286,19.531250
4287,19.531250
4288,17.578125
4289,15.625000
4290,15.625000
4291,13.671875
4292,11.718750
4293,9.765625
4294,9.765625
4295,7.812500
4296,5.859375
4297,5.859375
4298,3.906250
4299,1.953125
4300,0.000000
4301,0.000000
4302,-1.953125
4303,-3.906250
4304,-5.859375
4305,-5.859375
4306,-7.812500
4307,-9.765625
4308,-11.718750
4309,-11.718750
4310,-13.671875
4311,-15.625000
4312,-17.578125
4313,-17.578125
4314,-19.531250
4315,-21.484375
4316,-21.484375
4317,-23.437500
4318,-25.390625
4319,-25.390625
4320,-27.343750
4321,-29.296875
4322,-31.250000
4323,-33.203125
4324,-33.203125
4325,-35.156250
4326,-37.109375
4327,-37.109375
4328,-39.062500
4329,-41.015625
4330,-41.015625
4331,-42.968750
4332,-44.921875
4333,-44.921875
4334,-46.875000
4335,-48.828125
4336,-48.828125
4337,-50.781250
4338,-50.781250
4339,-52.734375
4340,-52.734375
4341,-54.687500
4342,-56.640625
4343,-56.640625
4344,-58.593750
4345,-58.593750
4346,-60.546875
4347,-60.546875
4348,-60.546875
4349,-62.500000
4350,-62.500000
4351,-62.500000
4352,-64.453125
4353,-66.406250
4354,-66.406250
4355,-66.406250
4356,-68.359375
4357,-68.359375
4358,-70.312500
4359,-68.359375
4360,-70.312500
4361,-70.312500
4362,-70.312500
4363,-72.265625
4364,-70.312500
4365,-72.265625
4366,-72.265625
4367,-72.265625
4368,-72.265625
4369,-72.265625
4370,-72.265625
4371,-72.265625
4372,-74.218750
4373,-74.218750
4374,-74.218750
4375,-74.218750
4376,-74.218750
4377,-74.218750
4378,-72.265625
4379,-74.218750
4380,-72.265625
4381,-72.265625
4382,-72.265625
4383,-72.265625
4384,-72.265625
4385,-72.265625
4386,-72.265625
4387,-72.265625
4388,-70.312500
4389,-70.312500
4390,-70.312500
4391,-70.312500
4392,-68.359375
4393,-68.359375
4394,-68.359375
4395,-66.406250
4396,-66.406250
4397,-66.406250
4398,-64.453125
4399,-64.453125
4400,-64.453125
4401,-62.500000
4402,-60.546875
4403,-60.546875
4404,-60.546875
4405,-58.593750
4406,-58.593750
4407,-56.640625
4408,-56.640625
4409,-54.687500
4410,-54.687500
4411,-52.734375
4412,-50.781250
4413,-50.781250
4414,-48.828125
4415,-48.828125
4416,-46.875000
4417,-44.921875
4418,-44.921875
4419,-42.968750
4420,-41.015625
4421,-41.015625
4422,-39.062500
4423,-39.062500
4424,-37.109375
4425,-35.156250
4426,-33.203125
4427,-33.203125
4428,-31.250000
4429,-31.250000
4430,-29.296875
4431,-27.343750
4432,-25.390625
4433,-23.437500
4434,-23.437500
4435,-21.484375
4436,-19.531250
4437,-17.578125
4438,-17.578125
4439,-15.625000
4440,-13.671875
4441,-11.718750
4442,-11.718750
4443,-9.765625
4444,-7.812500
4445,-5.859375
4446,-5.859375
4447,-3.906250
4448,-1.953125
4449,-1.953125
4450,0.000000
4451,1.953125
4452,3.906250
4453,3.906250
4454,5.859375
4455,7.812500
4456,9.765625
4457,9.765625
4458,13.671875
4459,11.718750
4460,13.671875
4461,15.625000
4462,15.625000
4463,17.578125
4464,19.531250
4465,21.484375
4466,21.484375
4467,23.437500
4468,23.437500
4469,25.390625
4470,27.343750
4471,27.343750
4472,27.343750
4473,29.296875
4474,31.250000
4475,31.250000
4476,33.203125
4477,35.156250
4478,35.156250
4479,37.109375
4480,37.109375
4481,37.109375
4482,39.062500
4483,41.015625
4484,41.015625
4485,42.968750
4486,42.968750
4487,42.968750
4488,44.921875
4489,44.921875
4490,46.875000
4491,46.875000
4492,46.875000
4493,48.828125
4494,48.828125
4495,48.828125
4496,48.828125
4497,50.781250
4498,50.781250
4499,50.781250
4500,50.781250
4501,52.734375
4502,52.734375
4503,54.687500
4504,52.734375
4505,54.687500
4506,54.687500
4507,54.687500
4508,54.687500
4509,54.687500
4510,56.640625
4511,56.640625
4512,54.687500
4513,54.687500
4514,56.640625
4515,56.640625
4516,56.640625
4517,56.640625
4518,56.640625
4519,56.640625
4520,56.640625
4521,56.640625
4522,54.687500
4523,54.687500
4524,54.687500
4525,54.687500
4526,54.687500
4527,54.687500
4528,54.687500
4529,52.734375
4530,52.734375
4531,52.734375
4532,52.734375
4533,52.734375
4534,50.781250
4535,50.781250
4536,50.781250
4537,48.828125
4538,48.828125
4539,48.828125
4540,48.828125
4541,46.875000
4542,46.875000
4543,46.875000
4544,44.921875
4545,44.921875
4546,44.921875
4547,42.968750
4548,42.968750
4549,41.015625
4550,41.015625
4551,39.062500
4552,39.062500
4553,37.109375
4554,37.109375
4555,35.156250
4556,35.156250
4557,33.203125
4558,33.203125
4559,31.250000
4560,31.250000
4561,29.296875
4562,29.296875
4563,27.343750
4564,25.390625
4565,25.390625
4566,23.437500
4567,21.484375
4568,19.531250
4569,19.531250
4570,17.578125
4571,17.578125
4572,15.625000
4573,13.671875
4574,13.671875
4575,11.718750
4576,9.765625
4577,7.812500
4578,5.859375
4579,5.859375
4580,3.906250
4581,3.906250
4582,1.953125
4583,0.000000
4584,-1.953125
4585,-1.953125
4586,-3.906250
4587,-5.859375
4588,-7.812500
4589,-7.812500
4590,-9.765625
4591,-11.718750
4592,-11.718750
4593,-15.625000
4594,-15.625000
4595,-17.578125
4596,-17.578125
4597,-19.531250
4598,-21.484375
4599,-23.437500
4600,-25.390625
4601,-25.390625
4602,-27.343750
4603,-29.296875
4604,-31.250000
4605,-31.250000
4606,-33.203125
4607,-35.156250
4608,-35.156250
4609,-37.109375
4610,-39.062500
4611,-39.062500
4612,-41.015625
4613,-42.968750
4614,-42.968750
4615,-44.921875
4616,-44.921875
4617,-46.875000
4618,-48.828125
4619,-48.828125
4620,-50.781250
4621,-50.781250
4622,-52.734375
4623,-54.687500
4624,-54.687500
4625,-56.640625
4626,-56.640625
4627,-58.593750
4628,-58.593750
4629,-60.546875
4630,-60.546875
4631,-60.546875
4632,-62.500000
4633,-64.453125
4634,-64.453125
4635,-64.453125
4636,-66.406250
4637,-66.406250
4638,-66.406250
4639,-68.359375
4640,-68.359375
4641,-68.359375
4642,-68.359375
4643,-70.312500
4644,-72.265625
4645,-72.265625
4646,-72.265625
4647,-72.265625
4648,-72.265625
4649,-72.265625
4650,-72.265625
4651,-74.218750
4652,-74.218750
4653,-74.218750
4654,-74.218750
4655,-74.218750
4656,-74.218750
4657,-74.218750
4658,-74.218750
4659,-74.218750
4660,-74.218750
4661,-74.218750
4662,-74.218750
4663,-74.218750
4664,-74.218750
4665,-74.218750
4666,-74.218750
4667,-72.265625
4668,-72.265625
4669,-72.265625
4670,-72.265625
4671,-70.312500
4672,-70.312500
4673,-70.312500
4674,-70.312500
4675,-68.359375
4676,-68.359375
4677,-66.406250
4678,-66.406250
4679,-66.406250
4680,-64.453125
4681,-64.453125
4682,-64.453125
4683,-62.500000
4684,-62.500000
4685,-60.546875
4686,-60.546875
4687,-58.593750
4688,-58.593750
4689,-56.640625
4690,-56.640625
4691,-54.687500
4692,-54.687500
4693,-52.734375
4694,-52.734375
4695,-50.781250
4696,-50.781250
4697,-48.828125
4698,-46.875000
4699,-44.921875
4700,-44.921875
4701,-42.968750
4702,-42.968750
4703,-41.015625
4704,-39.062500
4705,-39.062500
4706,-37.109375
4707,-35.156250
4708,-35.156250
4709,-33.203125
4710,-31.250000
4711,-31.250000
4712,-29.296875
4713,-27.343750
4714,-25.390625
4715,-25.390625
4716,-23.437500
4717,-21.484375
4718,-21.484375
4719,-19.531250
4720,-17.578125
4721,-15.625000
4722,-13.671875
4723,-13.671875
4724,-11.718750
4725,-9.765625
4726,-9.765625
4727,-7.812500
4728,-5.859375
4729,-3.906250
4730,-3.906250
4731,-1.953125
4732,0.000000
4733,0.000000
4734,1.953125
4735,3.906250
4736,3.906250
4737,5.859375
4738,7.812500
4739,9.765625
4740,11.718750
4741,11.718750
4742,13.671875
4743,15.625000
4744,15.625000
4745,17.578125
4746,19.531250
4747,21.484375
4748,21.484375
4749,23.437500
4750,23.437500
4751,25.390625
4752,25.390625
4753,27.343750
4754,29.296875
4755,29.296875
4756,31.250000
4757,31.250000
4758,33.203125
4759,33.203125
4760,35.156250
4761,35.156250
4762,37.109375
4763,39.062500
4764,39.062500
4765,41.015625
4766,41.015625
4767,41.015625
4768,42.968750
4769,44.921875
4770,44.921875
4771,44.921875
4772,44.921875
4773,46.875000
4774,46.875000
4775,48.828125
4776,48.828125
4777,48.828125
4778,50.781250
4779,50.781250
4780,50.781250
4781,50.781250
4782,50.781250
4783,50.781250
4784,52.734375
4785,52.734375
4786,52.734375
4787,52.734375
4788,54.687500
4789,54.687500
4790,54.687500
4791,54.687500
4792,54.687500
4793,54.687500
4794,54.687500
4795,54.687500
4796,56.640625
4797,54.687500
4798,54.687500
4799,54.687500
4800,54.687500
4801,56.640625
4802,56.640625
4803,54.687500
4804,56.640625
4805,54.687500
4806,54.687500
4807,54.687500
4808,54.687500
4809,54.687500
4810,54.687500
4811,52.734375
4812,52.734375
4813,52.734375
4814,52.734375
4815,52.734375
4816,50.781250
4817,50.781250
4818,50.781250
4819,50.781250
4820,48.828125
4821,48.828125
4822,48.828125
4823,46.875000
4824,46.875000
4825,46.875000
4826,46.875000
4827,44.921875
4828,42.968750
4829,42.968750
4830,42.968750
4831,41.015625
4832,41.015625
4833,41.015625
4834,39.062500
4835,37.109375
4836,37.109375
4837,35.156250
4838,35.156250
4839,33.203125
4840,33.203125
4841,31.250000
4842,29.296875
4843,29.296875
4844,27.343750
4845,27.343750
4846,25.390625
4847,23.437500
4848,23.437500
4849,21.484375
4850,21.484375
4851,19.531250
4852,17.578125
4853,17.578125
4854,15.625000
4855,13.671875
4856,13.671875
4857,11.718750
4858,9.765625
4859,7.812500
4860,7.812500
4861,5.859375
4862,3.906250
4863,3.906250
4864,1.953125
4865,0.000000
4866,0.000000
4867,-1.953125
4868,-3.906250
4869,-5.859375
4870,-7.812500
4871,-7.812500
4872,-9.765625
4873,-11.718750
4874,-11.718750
4875,-13.671875
4876,-15.625000
4877,-17.578125
4878,-17.578125
4879,-19.531250
4880,-21.484375
4881,-23.437500
4882,-23.437500
4883,-25.390625
4884,-27.343750
4885,-27.343750
4886,-29.296875
4887,-31.250000
4888,-33.203125
4889,-33.203125
4890,-35.156250
4891,-37.109375
4892,-37.109375
4893,-39.062500
4894,-41.015625
4895,-41.015625
4896,-42.968750
4897,-44.921875
4898,-44.921875
4899,-46.875000
4900,-48.828125
4901,-48.828125
4902,-50.781250
4903,-50.781250
4904,-52.734375
4905,-54.687500
4906,-54.687500
4907,-54.687500
4908,-56.640625
4909,-58.593750
4910,-58.593750
4911,-60.546875
4912,-60.546875
4913,-62.500000
4914,-62.500000
4915,-64.453125
4916,-64.453125
4917,-64.453125
4918,-66.406250
4919,-66.406250
4920,-66.406250
4921,-68.359375
4922,-68.359375
4923,-68.359375
4924,-70.312500
4925,-70.312500
4926,-70.312500
4927,-70.312500
4928,-72.265625
4929,-72.265625
4930,-72.265625
4931,-72.265625
4932,-72.265625
4933,-72.265625
4934,-74.218750
4935,-74.218750
4936,-74.218750
4937,-74.218750
4938,-74.218750
4939,-74.218750
4940,-74.218750
4941,-74.218750
4942,-74.218750
4943,-74.218750
4944,-74.218750
4945,-74.218750
4946,-74.218750
4947,-72.265625
4948,-72.265625
4949,-72.265625
4950,-72.265625
4951,-72.265625
4952,-70.312500
4953,-70.312500
4954,-70.312500
4955,-70.312500
4956,-68.359375
4957,-68.359375
4958,-68.359375
4959,-68.359375
4960,-66.406250
4961,-66.406250
4962,-64.453125
4963,-64.453125
4964,-64.453125
4965,-62.500000
4966,-62.500000
4967,-60.546875
4968,-60.546875
4969,-60.546875
4970,-58.593750
4971,-58.593750
4972,-56.640625
4973,-54.687500
4974,-54.687500
4975,-54.687500
4976,-52.734375
4977,-50.781250
4978,-48.828125
4979,-48.828125
4980,-46.875000
4981,-46.875000
4982,-44.921875
4983,-44.921875
4984,-42.968750
4985,-42.968750
4986,-41.015625
4987,-39.062500
4988,-39.062500
4989,-35.156250
4990,-35.156250
4991,-35.156250
4992,-33.203125
4993,-31.250000
4994,-29.296875
4995,-29.296875
4996,-27.343750
4997,-25.390625
4998,-23.437500
4999,-23.437500
5000,-21.484375
5001,-19.531250
5002,-17.578125
5003,-15.625000
5004,-15.625000
5005,-13.671875
5006,-13.671875
5007,-11.718750
5008,-9.765625
5009,-7.812500
5010,-5.859375
5011,-5.859375
5012,-3.906250
5013,-1.953125
5014,0.000000
5015,0.000000
5016,1.953125
5017,3.906250
5018,5.859375
5019,5.859375
5020,7.812500
5021,9.765625
5022,11.718750
5023,11.718750
5024,13.671875
5025,15.625000
5026,15.625000
5027,17.578125
5028,17.578125
5029,19.531250
5030,21.484375
5031,21.484375
5032,23.437500
5033,23.437500
5034,25.390625
5035,27.343750
5036,27.343750
5037,29.296875
5038,29.296875
5039,31.250000
5040,31.250000
5041,35.156250
5042,35.156250
5043,35.156250
5044,35.156250
5045,37.109375
5046,39.062500
5047,39.062500
5048,39.062500
5049,41.015625
5050,42.968750
5051,42.968750
5052,42.968750
5053,44.921875
5054,44.921875
5055,46.875000
5056,46.875000
5057,46.875000
5058,48.828125
5059,48.828125
5060,48.828125
5061,50.781250
5062,50.781250
5063,50.781250
5064,52.734375
5065,52.734375
5066,52.734375
5067,52.734375
5068,52.734375
5069,54.687500
5070,54.687500
5071,54.687500
5072,54.687500
5073,54.687500
5074,56.640625
5075,56.640625
5076,56.640625
5077,56.640625
5078,56.640625
5079,56.640625
5080,56.640625
5081,56.640625
5082,56.640625
5083,56.640625
5084,56.640625
5085,56.640625
5086,56.640625
5087,56.640625
5088,54.687500
5089,54.687500
5090,54.687500
5091,54.687500
5092,54.687500
5093,54.687500
5094,52.734375
5095,52.734375
5096,52.734375
5097,52.734375
5098,50.781250
5099,50.781250
5100,50.781250
5101,50.781250
5102,50.781250
5103,48.828125
5104,48.828125
5105,48.828125
5106,46.875000
5107,46.875000
5108,44.921875
5109,44.921875
5110,44.921875
5111,42.968750
5112,42.968750
5113,41.015625
5114,41.015625
5115,39.062500
5116,39.062500
5117,37.109375
5118,37.109375
5119,37.109375
5120,35.156250
5121,35.156250
5122,33.203125
5123,33.203125
5124,31.250000
5125,29.296875
5126,29.296875
5127,27.343750
5128,25.390625
5129,25.390625
5130,23.437500
5131,23.437500
5132,21.484375
5133,19.531250
5134,19.531250
5135,17.578125
5136,15.625000
5137,15.625000
5138,13.671875
5139,11.718750
5140,11.718750
5141,9.765625
5142,7.812500
5143,7.812500
5144,5.859375
5145,3.906250
5146,1.953125
5147,1.953125
5148,0.000000
5149,-1.953125
5150,-3.906250
5151,-3.906250
5152,-5.859375
5153,-7.812500
5154,-9.765625
5155,-9.765625
5156,-11.718750
5157,-13.671875
5158,-15.625000
5159,-15.625000
5160,-17.578125
5161,-19.531250
5162,-21.484375
5163,-21.484375
5164,-23.437500
5165,-25.390625
5166,-27.343750
5167,-29.296875
5168,-29.296875
5169,-31.250000
5170,-31.250000
5171,-33.203125
5172,-35.156250
5173,-37.109375
5174,-37.109375
5175,-39.062500
5176,-41.015625
5177,-41.015625
5178,-42.968750
5179,-44.921875
5180,-44.921875
5181,-46.875000
5182,-46.875000
5183,-48.828125
5184,-50.781250
5185,-50.781250
5186,-52.734375
5187,-52.734375
5188,-54.687500
5189,-56.640625
5190,-56.640625
5191,-56.640625
5192,-58.593750
5193,-58.593750
5194,-60.546875
5195,-60.546875
5196,-62.500000
5197,-62.500000
5198,-64.453125
5199,-64.453125
5200,-66.406250
5201,-64.453125
5202,-66.406250
5203,-66.406250
5204,-68.359375
5205,-68.359375
5206,-68.359375
5207,-70.312500
5208,-70.312500
5209,-70.312500
5210,-70.312500
5211,-72.265625
5212,-72.265625
5213,-72.265625
5214,-72.265625
5215,-72.265625
5216,-72.265625
5217,-74.218750
5218,-74.218750
5219,-74.218750
5220,-74.218750
5221,-72.265625
5222,-74.218750
5223,-74.218750
5224,-74.218750
5225,-74.218750
5226,-72.265625
5227,-74.218750
5228,-72.265625
5229,-74.218750
5230,-72.265625
5231,-72.265625
5232,-72.265625
5233,-72.265625
5234,-72.265625
5235,-70.312500
5236,-68.359375
5237,-70.312500
5238,-70.312500
5239,-68.359375
5240,-68.359375
5241,-68.359375
5242,-66.406250
5243,-66.406250
5244,-66.406250
5245,-64.453125
5246,-64.453125
5247,-62.500000
5248,-62.500000
5249,-62.500000
5250,-60.546875
5251,-60.546875
5252,-58.593750
5253,-58.593750
5254,-56.640625
5255,-56.640625
5256,-54.687500
5257,-54.687500
5258,-52.734375
5259,-52.734375
5260,-50.781250
5261,-48.828125
5262,-48.828125
5263,-46.875000
5264,-46.875000
5265,-44.921875
5266,-42.968750
5267,-42.968750
5268,-41.015625
5269,-39.062500
5270,-37.109375
5271,-37.109375
5272,-35.156250
5273,-33.203125
5274,-33.203125
5275,-31.250000
5276,-29.296875
5277,-29.296875
5278,-27.343750
5279,-25.390625
5280,-25.390625
5281,-23.437500
5282,-21.484375
5283,-19.531250
5284,-17.578125
5285,-17.578125
5286,-15.625000
5287,-13.671875
5288,-13.671875
5289,-11.718750
5290,-9.765625
5291,-7.812500
5292,-5.859375
5293,-5.859375
5294,-3.906250
5295,-1.953125
5296,-1.953125
5297,0.000000
5298,1.953125
5299,1.953125
5300,3.906250
5301,5.859375
5302,7.812500
5303,7.812500
5304,9.765625
5305,11.718750
5306,11.718750
5307,13.671875
5308,15.625000
5309,15.625000
5310,17.578125
5311,19.531250
5312,19.531250
5313,21.484375
5314,23.437500
5315,23.437500
5316,25.390625
5317,25.390625
5318,27.343750
5319,29.296875
5320,29.296875
5321,31.250000
5322,31.250000
5323,33.203125
5324,35.156250
5325,35.156250
5326,37.109375
5327,37.109375
5328,39.062500
5329,39.062500
5330,41.015625
5331,41.015625
5332,42.968750
5333,42.968750
5334,42.968750
5335,44.921875
5336,44.921875
5337,44.921875
5338,46.875000
5339,48.828125
5340,48.828125
5341,48.828125
5342,48.828125
5343,50.781250
5344,50.781250
5345,52.734375
5346,52.734375
5347,52.734375
5348,52.734375
5349,52.734375
5350,54.687500
5351,52.734375
5352,52.734375
5353,54.687500
5354,54.687500
5355,54.687500
5356,54.687500
5357,54.687500
5358,54.687500
5359,56.640625
5360,54.687500
5361,56.640625
5362,56.640625
5363,54.687500
5364,56.640625
5365,56.640625
5366,56.640625
5367,54.687500
5368,54.687500
5369,54.687500
5370,56.640625
5371,54.687500
5372,54.687500
5373,54.687500
5374,54.687500
5375,54.687500
5376,54.687500
5377,52.734375
5378,52.734375
5379,52.734375
5380,52.734375
5381,50.781250
5382,50.781250
5383,50.781250
5384,50.781250
5385,48.828125
5386,48.828125
5387,46.875000
5388,46.875000
5389,46.875000
5390,46.875000
5391,44.921875
5392,44.921875
5393,42.968750
5394,44.921875
5395,42.968750
5396,41.015625
5397,41.015625
5398,39.062500
5399,37.109375
5400,37.109375
5401,37.109375
5402,35.156250
5403,35.156250
5404,33.203125
5405,33.203125
5406,31.250000
5407,29.296875
5408,29.296875
5409,27.343750
5410,27.343750
5411,25.390625
5412,23.437500
5413,23.437500
5414,21.484375
5415,19.531250
5416,19.531250
5417,17.578125
5418,15.625000
5419,15.625000
5420,13.671875
5421,13.671875
5422,11.718750
5423,9.765625
5424,7.812500
5425,5.859375
5426,5.859375
5427,3.906250
5428,1.953125
5429,1.953125
5430,0.000000
5431,-1.953125
5432,-3.906250
5433,-3.906250
5434,-5.859375
5435,-7.812500
5436,-9.765625
5437,-9.765625
5438,-11.718750
5439,-13.671875
5440,-15.625000
5441,-15.625000
5442,-17.578125
5443,-19.531250
5444,-19.531250
5445,-21.484375
5446,-23.437500
5447,-25.390625
5448,-27.343750
5449,-27.343750
5450,-29.296875
5451,-31.250000
5452,-31.250000
5453,-33.203125
5454,-35.156250
5455,-37.109375
5456,-37.109375
5457,-39.062500
5458,-39.062500
5459,-41.015625
5460,-42.968750
5461,-42.968750
5462,-44.921875
5463,-46.875000
5464,-46.875000
5465,-48.828125
5466,-48.828125
5467,-50.781250
5468,-50.781250
5469,-52.734375
5470,-54.687500
5471,-54.687500
5472,-54.687500
5473,-56.640625
5474,-58.593750
5475,-58.593750
5476,-60.546875
5477,-60.546875
5478,-62.500000
5479,-62.500000
5480,-64.453125
5481,-64.453125
5482,-64.453125
5483,-64.453125
5484,-66.406250
5485,-68.359375
5486,-68.359375
5487,-68.359375
5488,-68.359375
5489,-68.359375
5490,-70.312500
5491,-72.265625
5492,-72.265625
5493,-72.265625
5494,-72.265625
5495,-72.265625
5496,-72.265625
5497,-74.218750
5498,-74.218750
5499,-72.265625
5500,-74.218750
5501,-74.218750
5502,-74.218750
5503,-74.218750
5504,-74.218750
5505,-74.218750
5506,-74.218750
5507,-74.218750
5508,-74.218750
5509,-74.218750
5510,-74.218750
5511,-74.218750
5512,-72.265625
5513,-72.265625
5514,-72.265625
5515,-72.265625
5516,-72.265625
5517,-70.312500
5518,-70.312500
5519,-70.312500
5520,-70.312500
5521,-68.359375
5522,-68.359375
5523,-68.359375
5524,-68.359375
5525,-66.406250
5526,-64.453125
5527,-64.453125
5528,-64.453125
5529,-64.453125
5530,-62.500000
5531,-60.546875
5532,-60.546875
5533,-60.546875
5534,-58.593750
5535,-58.593750
5536,-56.640625
5537,-56.640625
5538,-54.687500
5539,-54.687500
5540,-52.734375
5541,-52.734375
5542,-50.781250
5543,-48.828125
5544,-48.828125
5545,-46.875000
5546,-46.875000
5547,-44.921875
5548,-42.968750
5549,-42.968750
5550,-41.015625
5551,-39.062500
5552,-39.062500
5553,-37.109375
5554,-35.156250
5555,-33.203125
5556,-33.203125
5557,-31.250000
5558,-31.250000
5559,-29.296875
5560,-27.343750
5561,-27.343750
5562,-25.390625
5563,-23.437500
5564,-21.484375
5565,-19.531250
5566,-19.531250
5567,-17.578125
5568,-17.578125
5569,-13.671875
5570,-13.671875
5571,-11.718750
5572,-11.718750
5573,-9.765625
5574,-7.812500
5575,-5.859375
5576,-3.906250
5577,-3.906250
5578,-1.953125
5579,0.000000
5580,1.953125
5581,1.953125
5582,3.906250
5583,5.859375
5584,7.812500
5585,7.812500
5586,9.765625
5587,9.765625
5588,11.718750
5589,13.671875
5590,15.625000
5591,17.578125
5592,17.578125
5593,19.531250
5594,19.531250
5595,21.484375
5596,23.437500
5597,23.437500
5598,25.390625
5599,25.390625
5600,27.343750
5601,29.296875
5602,29.296875
5603,31.250000
5604,31.250000
5605,33.203125
5606,35.156250
5607,35.156250
5608,35.156250
5609,37.109375
5610,37.109375
5611,41.015625
5612,41.015625
5613,41.015625
5614,41.015625
5615,42.968750
5616,42.968750
5617,44.921875
5618,44.921875
5619,44.921875
5620,48.828125
5621,46.875000
5622,46.875000
5623,48.828125
5624,48.828125
5625,52.734375
5626,50.781250
5627,50.781250
5628,50.781250
5629,50.781250
5630,52.734375
5631,52.734375
5632,52.734375
5633,52.734375
5634,54.687500
5635,54.687500
5636,54.687500
5637,54.687500
5638,54.687500
5639,56.640625
5640,56.640625
5641,54.687500
5642,56.640625
5643,56.640625
5644,56.640625
5645,54.687500
5646,54.687500
5647,56.640625
5648,56.640625
5649,54.687500
5650,56.640625
5651,56.640625
5652,56.640625
5653,54.687500
5654,54.687500
5655,54.687500
5656,54.687500
5657,54.687500
5658,52.734375
5659,52.734375
5660,52.734375
5661,52.734375
5662,52.734375
5663,50.781250
5664,50.781250
5665,50.781250
5666,50.781250
5667,48.828125
5668,48.828125
5669,48.828125
5670,48.828125
5671,48.828125
5672,46.875000
5673,44.921875
5674,44.921875
5675,42.968750
5676,42.968750
5677,41.015625
5678,41.015625
5679,41.015625
5680,39.062500
5681,39.062500
5682,37.109375
5683,37.109375
5684,35.156250
5685,35.156250
5686,33.203125
5687,33.203125
5688,31.250000
5689,29.296875
5690,29.296875
5691,29.296875
5692,27.343750
5693,27.343750
5694,25.390625
5695,23.437500
5696,21.484375
5697,21.484375
5698,19.531250
5699,17.578125
5700,15.625000
5701,15.625000
5702,13.671875
5703,13.671875
5704,11.718750
5705,9.765625
5706,9.765625
5707,5.859375
5708,5.859375
5709,5.859375
5710,3.906250
5711,1.953125
5712,0.000000
5713,-1.953125
5714,-1.953125
5715,-3.906250
5716,-5.859375
5717,-7.812500
5718,-7.812500
5719,-9.765625
5720,-9.765625
5721,-11.718750
5722,-13.671875
5723,-15.625000
5724,-15.625000
5725,-17.578125
5726,-19.531250
5727,-21.484375
5728,-23.437500
5729,-23.437500
5730,-25.390625
5731,-27.343750
5732,-27.343750
5733,-29.296875
5734,-31.250000
5735,-31.250000
5736,-33.203125
5737,-35.156250
5738,-37.109375
5739,-37.109375
5740,-39.062500
5741,-41.015625
5742,-41.015625
5743,-42.968750
5744,-44.921875
5745,-44.921875
5746,-46.875000
5747,-46.875000
5748,-48.828125
5749,-50.781250
5750,-50.781250
5751,-52.734375
5752,-52.734375
5753,-54.687500
5754,-56.640625
5755,-56.640625
5756,-58.593750
5757,-58.593750
5758,-60.546875
5759,-60.546875
5760,-62.500000
5761,-62.500000
5762,-64.453125
5763,-64.453125
5764,-64.453125
5765,-66.406250
5766,-66.406250
5767,-66.406250
5768,-68.359375
5769,-68.359375
5770,-68.359375
5771,-68.359375
5772,-70.312500
5773,-70.312500
5774,-70.312500
5775,-70.312500
5776,-72.265625
5777,-72.265625
5778,-72.265625
5779,-72.265625
5780,-72.265625
5781,-72.265625
5782,-74.218750
5783,-74.218750
5784,-74.218750
5785,-74.218750
5786,-72.265625
5787,-74.218750
5788,-80.078125
5789,-74.218750
5790,-74.218750
5791,-74.218750
5792,-74.218750
5793,-72.265625
5794,-72.265625
5795,-72.265625
5796,-72.265625
5797,-72.265625
5798,-70.312500
5799,-70.312500
5800,-70.312500
5801,-70.312500
5802,-70.312500
5803,-68.359375
5804,-68.359375
5805,-70.312500
5806,-66.406250
5807,-68.359375
5808,-66.406250
5809,-66.406250
5810,-64.453125
5811,-64.453125
5812,-62.500000
5813,-62.500000
5814,-60.546875
5815,-60.546875
5816,-60.546875
5817,-58.593750
5818,-58.593750
5819,-56.640625
5820,-56.640625
5821,-54.687500
5822,-54.687500
5823,-54.687500
5824,-54.687500
5825,-50.781250
5826,-48.828125
5827,-48.828125
5828,-46.875000
5829,-44.921875
5830,-44.921875
5831,-42.968750
5832,-41.015625
5833,-41.015625
5834,-39.062500
5835,-39.062500
5836,-37.109375
5837,-35.156250
5838,-33.203125
5839,-35.156250
5840,-31.250000
5841,-29.296875
5842,-27.343750
5843,-27.343750
5844,-25.390625
5845,-25.390625
5846,-23.437500
5847,-21.484375
5848,-19.531250
5849,-17.578125
5850,-17.578125
5851,-15.625000
5852,-13.671875
5853,-11.718750
5854,-11.718750
5855,-9.765625
5856,-7.812500
5857,-7.812500
5858,-5.859375
5859,-3.906250
5860,-1.953125
5861,0.000000
5862,0.000000
5863,1.953125
5864,3.906250
5865,3.906250
5866,5.859375
5867,7.812500
5868,7.812500
5869,9.765625
5870,11.718750
5871,13.671875
5872,13.671875
5873,15.625000
5874,17.578125
5875,19.531250
5876,19.531250
5877,19.531250
5878,21.484375
5879,23.437500
5880,23.437500
5881,25.390625
5882,27.343750
5883,27.343750
5884,29.296875
5885,29.296875
5886,31.250000
5887,33.203125
5888,33.203125
5889,35.156250
5890,35.156250
5891,35.156250
5892,37.109375
5893,39.062500
5894,39.062500
5895,39.062500
5896,41.015625
5897,42.968750
5898,42.968750
5899,42.968750
5900,44.921875
5901,44.921875
5902,46.875000
5903,46.875000
5904,46.875000
5905,48.828125
5906,50.781250
5907,48.828125
5908,48.828125
5909,50.781250
5910,50.781250
5911,52.734375
5912,52.734375
5913,52.734375
5914,52.734375
5915,54.687500
5916,54.687500
5917,54.687500
5918,54.687500
5919,54.687500
5920,54.687500
5921,54.687500
5922,54.687500
5923,56.640625
5924,54.687500
5925,56.640625
5926,56.640625
5927,56.640625
5928,56.640625
5929,56.640625
5930,56.640625
5931,54.687500
5932,56.640625
5933,56.640625
5934,56.640625
5935,54.687500
5936,54.687500
5937,54.687500
5938,54.687500
5939,54.687500
5940,54.687500
5941,50.781250
5942,52.734375
5943,52.734375
5944,52.734375
5945,50.781250
5946,50.781250
5947,50.781250
5948,50.781250
5949,48.828125
5950,48.828125
5951,48.828125
5952,48.828125
5953,46.875000
5954,46.875000
5955,46.875000
5956,44.921875
5957,44.921875
5958,42.968750
5959,42.968750
5960,41.015625
5961,41.015625
5962,39.062500
5963,39.062500
5964,37.109375
5965,37.109375
5966,35.156250
5967,35.156250
5968,35.156250
5969,33.203125
5970,31.250000
5971,31.250000
5972,29.296875
5973,29.296875
5974,27.343750
5975,25.390625
5976,25.390625
5977,23.437500
5978,21.484375
5979,21.484375
5980,19.531250
5981,19.531250
5982,17.578125
5983,15.625000
5984,15.625000
5985,13.671875
5986,11.718750
5987,11.718750
5988,9.765625
5989,7.812500
5990,5.859375
5991,5.859375
5992,3.906250
5993,1.953125
5994,1.953125
5995,0.000000
5996,-1.953125
5997,-3.906250
5998,-3.906250
5999,-5.859375
6000,-7.812500
6001,-9.765625
6002,-9.765625
6003,-11.718750
6004,-13.671875
6005,-15.625000
6006,-15.625000
6007,-17.578125
6008,-19.531250
6009,-21.484375
6010,-21.484375
6011,-23.437500
6012,-25.390625
6013,-27.343750
6014,-27.343750
6015,-29.296875
6016,-31.250000
6017,-33.203125
6018,-33.203125
6019,-35.156250
6020,-37.109375
6021,-37.109375
6022,-39.062500
6023,-41.015625
6024,-41.015625
6025,-42.968750
6026,-42.968750
6027,-46.875000
6028,-46.875000
6029,-46.875000
6030,-48.828125
6031,-50.781250
6032,-50.781250
6033,-52.734375
6034,-54.687500
6035,-54.687500
6036,-54.687500
6037,-56.640625
6038,-56.640625
6039,-58.593750
6040,-58.593750
6041,-60.546875
6042,-60.546875
6043,-62.500000
6044,-62.500000
6045,-64.453125
6046,-64.453125
6047,-66.406250
6048,-66.406250
6049,-66.406250
6050,-68.359375
6051,-68.359375
6052,-68.359375
6053,-70.312500
6054,-70.312500
6055,-70.312500
6056,-70.312500
6057,-70.312500
6058,-72.265625
6059,-72.265625
6060,-72.265625
6061,-72.265625
6062,-72.265625
6063,-72.265625
6064,-74.218750
6065,-74.218750
6066,-72.265625
6067,-74.218750
6068,-74.218750
6069,-74.218750
6070,-74.218750
6071,-74.218750
6072,-74.218750
6073,-74.218750
6074,-74.218750
6075,-74.218750
6076,-74.218750
6077,-72.265625
6078,-72.265625
6079,-72.265625
6080,-72.265625
6081,-72.265625
6082,-70.312500
6083,-70.312500
6084,-70.312500
6085,-70.312500
6086,-68.359375
6087,-68.359375
6088,-68.359375
6089,-68.359375
6090,-66.406250
6091,-66.406250
6092,-66.406250
6093,-64.453125
6094,-62.500000
6095,-62.500000
6096,-62.500000
6097,-60.546875
6098,-60.546875
6099,-58.593750
6100,-56.640625
6101,-56.640625
6102,-56.640625
6103,-54.687500
6104,-54.687500
6105,-52.734375
6106,-50.781250
6107,-48.828125
6108,-48.828125
6109,-48.828125
6110,-46.875000
6111,-44.921875
6112,-44.921875
6113,-42.968750
6114,-41.015625
6115,-41.015625
6116,-39.062500
6117,-39.062500
6118,-37.109375
6119,-35.156250
6120,-33.203125
6121,-33.203125
6122,-31.250000
6123,-29.296875
6124,-27.343750
6125,-27.343750
6126,-25.390625
6127,-23.437500
6128,-21.484375
6129,-21.484375
6130,-19.531250
6131,-17.578125
6132,-17.578125
6133,-15.625000
6134,-13.671875
6135,-13.671875
6136,-11.718750
6137,-9.765625
6138,-7.812500
6139,-5.859375
6140,-5.859375
6141,-3.906250
6142,-3.906250
6143,-1.953125
6144,0.000000
6145,1.953125
6146,1.953125
6147,3.906250
6148,5.859375
6149,7.812500
6150,7.812500
6151,9.765625
6152,11.718750
6153,13.671875
6154,13.671875
6155,15.625000
6156,17.578125
6157,19.531250
6158,19.531250
6159,19.531250
6160,21.484375
6161,23.437500
6162,23.437500
6163,25.390625
6164,27.343750
6165,27.343750
6166,29.296875
6167,29.296875
6168,31.250000
6169,31.250000
6170,33.203125
6171,35.156250
6172,35.156250
6173,35.156250
6174,39.062500
6175,39.062500
6176,39.062500
6177,41.015625
6178,41.015625
6179,42.968750
6180,42.968750
6181,42.968750
6182,44.921875
6183,44.921875
6184,46.875000
6185,46.875000
6186,46.875000
6187,48.828125
6188,48.828125
6189,50.781250
6190,50.781250
6191,50.781250
6192,50.781250
6193,52.734375
6194,52.734375
6195,52.734375
6196,54.687500
6197,54.687500
6198,52.734375
6199,52.734375
6200,54.687500
6201,54.687500
6202,54.687500
6203,54.687500
6204,54.687500
6205,54.687500
6206,54.687500
6207,56.640625
6208,54.687500
6209,54.687500
6210,56.640625
6211,56.640625
6212,54.687500
6213,54.687500
6214,56.640625
6215,56.640625
6216,54.687500
6217,54.687500
6218,54.687500
6219,54.687500
6220,54.687500
6221,54.687500
6222,54.687500
6223,52.734375
6224,52.734375
6225,52.734375
6226,52.734375
6227,52.734375
6228,52.734375
6229,52.734375
6230,50.781250
6231,48.828125
6232,50.781250
6233,48.828125
6234,48.828125
6235,46.875000
6236,46.875000
6237,46.875000
6238,46.875000
6239,44.921875
6240,42.968750
6241,42.968750
6242,42.968750
6243,41.015625
6244,41.015625
6245,39.062500
6246,39.062500
6247,37.109375
6248,37.109375
6249,35.156250
6250,35.156250
6251,33.203125
6252,33.203125
6253,31.250000
6254,29.296875
6255,29.296875
6256,27.343750
6257,27.343750
6258,25.390625
6259,25.390625
6260,23.437500
6261,21.484375
6262,19.531250
6263,19.531250
6264,17.578125
6265,17.578125
6266,15.625000
6267,13.671875
6268,11.718750
6269,11.718750
6270,9.765625
6271,7.812500
6272,5.859375
6273,5.859375
6274,3.906250
6275,1.953125
6276,1.953125
6277,0.000000
6278,-1.953125
6279,-1.953125
6280,-3.906250
6281,-5.859375
6282,-7.812500
6283,-7.812500
6284,-9.765625
6285,-11.718750
6286,-13.671875
6287,-13.671875
6288,-15.625000
6289,-17.578125
6290,-19.531250
6291,-19.531250
6292,-21.484375
6293,-23.437500
6294,-25.390625
6295,-25.390625
6296,-27.343750
6297,-29.296875
6298,-29.296875
6299,-31.250000
6300,-33.203125
6301,-35.156250
6302,-35.156250
6303,-37.109375
6304,-37.109375
6305,-39.062500
6306,-41.015625
6307,-42.968750
6308,-42.968750
6309,-44.921875
6310,-44.921875
6311,-46.875000
6312,-48.828125
6313,-48.828125
6314,-50.781250
6315,-50.781250
6316,-52.734375
6317,-52.734375
6318,-54.687500
6319,-56.640625
6320,-56.640625
6321,-58.593750
6322,-58.593750
6323,-60.546875
6324,-60.546875
6325,-62.500000
6326,-62.500000
6327,-62.500000
6328,-64.453125
6329,-64.453125
6330,-66.406250
6331,-66.406250
6332,-66.406250
6333,-68.359375
6334,-68.359375
6335,-70.312500
6336,-70.312500
6337,-70.312500
6338,-70.312500
6339,-72.265625
6340,-72.265625
6341,-72.265625
6342,-72.265625
6343,-74.218750
6344,-72.265625
6345,-72.265625
6346,-74.218750
6347,-74.218750
6348,-74.218750
6349,-74.218750
6350,-74.218750
6351,-74.218750
6352,-74.218750
6353,-74.218750
6354,-74.218750
6355,-72.265625
6356,-74.218750
6357,-74.218750
6358,-74.218750
6359,-72.265625
6360,-72.265625
6361,-72.265625
6362,-72.265625
6363,-72.265625
6364,-72.265625
6365,-70.312500
6366,-70.312500
6367,-68.359375
6368,-68.359375
6369,-68.359375
6370,-68.359375
6371,-66.406250
6372,-66.406250
6373,-66.406250
6374,-64.453125
6375,-64.453125
6376,-64.453125
6377,-62.500000
6378,-60.546875
6379,-60.546875
6380,-60.546875
6381,-58.593750
6382,-58.593750
6383,-56.640625
6384,-56.640625
6385,-54.687500
6386,-54.687500
6387,-52.734375
6388,-52.734375
6389,-50.781250
6390,-48.828125
6391,-48.828125
6392,-46.875000
6393,-46.875000
6394,-44.921875
6395,-44.921875
6396,-42.968750
6397,-41.015625
6398,-39.062500
6399,-39.062500
6400,-37.109375
6401,-35.156250
6402,-35.156250
6403,-33.203125
6404,-31.250000
6405,-31.250000
6406,-29.296875
6407,-27.343750
6408,-25.390625
6409,-25.390625
6410,-23.437500
6411,-21.484375
6412,-21.484375
6413,-19.531250
6414,-17.578125
6415,-15.625000
6416,-15.625000
6417,-13.671875
6418,-11.718750
6419,-9.765625
6420,-9.765625
6421,-7.812500
6422,-5.859375
6423,-5.859375
6424,-3.906250
6425,-1.953125
6426,-1.953125
6427,0.000000
6428,1.953125
6429,3.906250
6430,5.859375
6431,5.859375
6432,7.812500
6433,9.765625
6434,11.718750
6435,11.718750
6436,13.671875
6437,15.625000
6438,15.625000
6439,17.578125
6440,19.531250
6441,21.484375
6442,21.484375
6443,21.484375
6444,23.437500
6445,25.390625
6446,25.390625
6447,27.343750
6448,29.296875
6449,29.296875
6450,31.250000
6451,31.250000
6452,33.203125
6453,35.156250
6454,35.156250
6455,35.156250
6456,37.109375
6457,37.109375
6458,39.062500
6459,39.062500
6460,41.015625
6461,41.015625
6462,41.015625
6463,42.968750
6464,44.921875
6465,44.921875
6466,44.921875
6467,46.875000
6468,46.875000
6469,46.875000
6470,48.828125
6471,48.828125
6472,50.781250
6473,50.781250
6474,50.781250
6475,50.781250
6476,52.734375
6477,50.781250
6478,52.734375
6479,52.734375
6480,52.734375
6481,52.734375
6482,54.687500
6483,54.687500
6484,54.687500
6485,54.687500
6486,54.687500
6487,54.687500
6488,56.640625
6489,56.640625
6490,56.640625
6491,56.640625
6492,56.640625
6493,56.640625
6494,56.640625
6495,56.640625
6496,56.640625
6497,56.640625
6498,56.640625
6499,56.640625
6500,56.640625
6501,56.640625
6502,54.687500
6503,54.687500
6504,54.687500
6505,54.687500
6506,54.687500
6507,52.734375
6508,52.734375
6509,52.734375
6510,52.734375
6511,50.781250
6512,50.781250
6513,50.781250
6514,48.828125
6515,48.828125
6516,48.828125
6517,48.828125
6518,46.875000
6519,46.875000
6520,46.875000
6521,44.921875
6522,44.921875
6523,42.968750
6524,42.968750
6525,41.015625
6526,39.062500
6527,41.015625
6528,39.062500
6529,37.109375
6530,37.109375
6531,35.156250
6532,35.156250
6533,33.203125
6534,33.203125
6535,31.250000
6536,29.296875
6537,29.296875
6538,29.296875
6539,27.343750
6540,25.390625
6541,25.390625
6542,23.437500
6543,21.484375
6544,21.484375
6545,19.531250
6546,17.578125
6547,17.578125
6548,15.625000
6549,13.671875
6550,13.671875
6551,11.718750
6552,9.765625
6553,9.765625
6554,7.812500
6555,5.859375
6556,3.906250
6557,3.906250
6558,1.953125
6559,0.000000
6560,-1.953125
6561,-1.953125
6562,-3.906250
6563,-3.906250
6564,-5.859375
6565,-7.812500
6566,-9.765625
6567,-11.718750
6568,-11.718750
6569,-13.671875
6570,-15.625000
6571,-15.625000
6572,-17.578125
6573,-19.531250
6574,-21.484375
6575,-23.437500
6576,-23.437500
6577,-25.390625
6578,-27.343750
6579,-27.343750
6580,-29.296875
6581,-31.250000
6582,-33.203125
6583,-33.203125
6584,-35.156250
6585,-37.109375
6586,-37.109375
6587,-39.062500
6588,-41.015625
6589,-42.968750
6590,-42.968750
6591,-44.921875
6592,-44.921875
6593,-46.875000
6594,-48.828125
6595,-48.828125
6596,-50.781250
6597,-52.734375
6598,-52.734375
6599,-54.687500
6600,-54.687500
6601,-56.640625
6602,-56.640625
6603,-58.593750
6604,-58.593750
6605,-58.593750
6606,-60.546875
6607,-62.500000
6608,-62.500000
6609,-62.500000
6610,-64.453125
6611,-66.406250
6612,-64.453125
6613,-66.406250
6614,-68.359375
6615,-68.359375
6616,-68.359375
6617,-68.359375
6618,-70.312500
6619,-70.312500
6620,-70.312500
6621,-72.265625
6622,-72.265625
6623,-72.265625
6624,-72.265625
6625,-72.265625
6626,-72.265625
6627,-72.265625
6628,-72.265625
6629,-74.218750
6630,-74.218750
6631,-74.218750
6632,-74.218750
6633,-74.218750
6634,-74.218750
6635,-74.218750
6636,-72.265625
6637,-72.265625
6638,-74.218750
6639,-74.218750
6640,-74.218750
6641,-72.265625
6642,-72.265625
6643,-72.265625
6644,-72.265625
6645,-72.265625
6646,-70.312500
6647,-70.312500
6648,-70.312500
6649,-70.312500
6650,-70.312500
6651,-68.359375
6652,-68.359375
6653,-68.359375
6654,-66.406250
6655,-66.406250
6656,-66.406250
6657,-64.453125
6658,-64.453125
6659,-62.500000
6660,-62.500000
6661,-62.500000
6662,-60.546875
6663,-60.546875
6664,-58.593750
6665,-58.593750
6666,-56.640625
6667,-56.640625
6668,-54.687500
6669,-52.734375
6670,-52.734375
6671,-50.781250
6672,-50.781250
6673,-48.828125
6674,-48.828125
6675,-46.875000
6676,-44.921875
6677,-44.921875
6678,-42.968750
6679,-42.968750
6680,-41.015625
6681,-39.062500
6682,-37.109375
6683,-37.109375
6684,-35.156250
6685,-33.203125
6686,-33.203125
6687,-31.250000
6688,-29.296875
6689,-27.343750
6690,-27.343750
6691,-25.390625
6692,-23.437500
6693,-21.484375
6694,-21.484375
6695,-19.531250
6696,-19.531250
6697,-17.578125
6698,-15.625000
6699,-13.671875
6700,-11.718750
6701,-9.765625
6702,-9.765625
6703,-7.812500
6704,-5.859375
6705,-5.859375
6706,-3.906250
6707,-1.953125
6708,0.000000
6709,1.953125
6710,1.953125
6711,3.906250
6712,5.859375
6713,5.859375
6714,7.812500
6715,9.765625
6716,9.765625
6717,11.718750
6718,13.671875
6719,15.625000
6720,15.625000
6721,17.578125
6722,19.531250
6723,19.531250
6724,21.484375
6725,21.484375
6726,23.437500
6727,25.390625
6728,25.390625
6729,25.390625
6730,27.343750
6731,29.296875
6732,29.296875
6733,31.250000
6734,33.203125
6735,33.203125
6736,35.156250
6737,35.156250
6738,37.109375
6739,39.062500
6740,39.062500
6741,39.062500
6742,41.015625
6743,41.015625
6744,42.968750
6745,42.968750
6746,44.921875
6747,44.921875
6748,44.921875
6749,46.875000
6750,46.875000
6751,48.828125
6752,48.828125
6753,48.828125
6754,50.781250
6755,50.781250
6756,50.781250
6757,50.781250
6758,52.734375
6759,52.734375
6760,52.734375
6761,54.687500
6762,52.734375
6763,52.734375
6764,54.687500
6765,54.687500
6766,54.687500
6767,54.687500
6768,56.640625
6769,56.640625
6770,56.640625
6771,56.640625
6772,56.640625
6773,56.640625
6774,56.640625
6775,56.640625
6776,56.640625
6777,56.640625
6778,54.687500
6779,54.687500
6780,56.640625
6781,54.687500
6782,54.687500
6783,54.687500
6784,54.687500
6785,54.687500
6786,54.687500
6787,54.687500
6788,54.687500
6789,52.734375
6790,52.734375
6791,52.734375
6792,52.734375
6793,50.781250
6794,50.781250
6795,50.781250
6796,48.828125
6797,48.828125
6798,48.828125
6799,46.875000
6800,46.875000
6801,46.875000
6802,44.921875
6803,44.921875
6804,42.968750
6805,42.968750
6806,42.968750
6807,41.015625
6808,41.015625
6809,39.062500
6810,39.062500
6811,37.109375
6812,37.109375
6813,37.109375
6814,35.156250
6815,35.156250
6816,33.203125
6817,31.250000
6818,31.250000
6819,29.296875
6820,29.296875
6821,27.343750
6822,25.390625
6823,25.390625
6824,23.437500
6825,23.437500
6826,21.484375
6827,19.531250
6828,19.531250
6829,17.578125
6830,15.625000
6831,15.625000
6832,13.671875
6833,11.718750
6834,11.718750
6835,9.765625
6836,7.812500
6837,5.859375
6838,5.859375
6839,3.906250
6840,1.953125
6841,1.953125
6842,0.000000
6843,-1.953125
6844,-3.906250
6845,-3.906250
6846,-5.859375
6847,-7.812500
6848,-9.765625
6849,-9.765625
6850,-11.718750
6851,-13.671875
6852,-15.625000
6853,-17.578125
6854,-17.578125
6855,-19.531250
6856,-19.531250
6857,-23.437500
6858,-23.437500
6859,-25.390625
6860,-25.390625
6861,-27.343750
6862,-29.296875
6863,-31.250000
6864,-31.250000
6865,-33.203125
6866,-35.156250
6867,-35.156250
6868,-37.109375
6869,-39.062500
6870,-41.015625
6871,-41.015625
6872,-42.968750
6873,-44.921875
6874,-44.921875
6875,-46.875000
6876,-46.875000
6877,-48.828125
6878,-50.781250
6879,-50.781250
6880,-52.734375
6881,-52.734375
6882,-54.687500
6883,-54.687500
6884,-56.640625
6885,-56.640625
6886,-58.593750
6887,-58.593750
6888,-60.546875
6889,-60.546875
6890,-62.500000
6891,-62.500000
6892,-62.500000
6893,-64.453125
6894,-64.453125
6895,-66.406250
6896,-66.406250
6897,-66.406250
6898,-68.359375
6899,-68.359375
6900,-70.312500
6901,-70.312500
6902,-68.359375
6903,-70.312500
6904,-70.312500
6905,-72.265625
6906,-72.265625
6907,-72.265625
6908,-72.265625
6909,-72.265625
6910,-74.218750
6911,-74.218750
6912,-72.265625
6913,-74.218750
6914,-74.218750
6915,-74.218750
6916,-74.218750
6917,-74.218750
6918,-74.218750
6919,-74.218750
6920,-74.218750
6921,-74.218750
6922,-72.265625
6923,-72.265625
6924,-72.265625
6925,-72.265625
6926,-72.265625
6927,-72.265625
6928,-72.265625
6929,-70.312500
6930,-70.312500
6931,-70.312500
6932,-70.312500
6933,-68.359375
6934,-68.359375
6935,-68.359375
6936,-68.359375
6937,-66.406250
6938,-66.406250
6939,-64.453125
6940,-64.453125
6941,-64.453125
6942,-62.500000
6943,-60.546875
6944,-60.546875
6945,-58.593750
6946,-58.593750
6947,-56.640625
6948,-56.640625
6949,-54.687500
6950,-54.687500
6951,-54.687500
6952,-52.734375
6953,-50.781250
6954,-50.781250
6955,-48.828125
6956,-48.828125
6957,-46.875000
6958,-46.875000
6959,-44.921875
6960,-42.968750
6961,-41.015625
6962,-41.015625
6963,-41.015625
6964,-39.062500
6965,-37.109375
6966,-35.156250
6967,-33.203125
6968,-33.203125
6969,-31.250000
6970,-29.296875
6971,-29.296875
6972,-27.343750
6973,-25.390625
6974,-25.390625
6975,-23.437500
6976,-21.484375
6977,-19.531250
6978,-19.531250
6979,-17.578125
6980,-15.625000
6981,-13.671875
6982,-13.671875
6983,-11.718750
6984,-9.765625
6985,-9.765625
6986,-7.812500
6987,-5.859375
6988,-3.906250
6989,-1.953125
6990,-1.953125
6991,0.000000
6992,0.000000
6993,1.953125
6994,3.906250
6995,5.859375
6996,7.812500
6997,7.812500
6998,9.765625
6999,11.718750
7000,11.718750
7001,13.671875
7002,15.625000
7003,15.625000
7004,17.578125
7005,19.531250
7006,19.531250
7007,21.484375
7008,23.437500
7009,25.390625
7010,25.390625
7011,25.390625
7012,27.343750
7013,29.296875
7014,29.296875
7015,31.250000
7016,33.203125
7017,33.203125
7018,35.156250
7019,35.156250
7020,37.109375
7021,37.109375
7022,37.109375
7023,39.062500
7024,41.015625
7025,41.015625
7026,42.968750
7027,42.968750
7028,42.968750
7029,44.921875
7030,44.921875
7031,46.875000
7032,46.875000
7033,46.875000
7034,48.828125
7035,48.828125
7036,48.828125
7037,48.828125
7038,50.781250
7039,50.781250
7040,50.781250
7041,52.734375
7042,52.734375
7043,52.734375
7044,52.734375
7045,52.734375
7046,52.734375
7047,54.687500
7048,54.687500
7049,54.687500
7050,54.687500
7051,54.687500
7052,54.687500
7053,54.687500
7054,56.640625
7055,56.640625
7056,56.640625
7057,56.640625
7058,54.687500
7059,54.687500
7060,56.640625
7061,56.640625
7062,56.640625
7063,54.687500
7064,54.687500
7065,56.640625
7066,54.687500
7067,54.687500
7068,54.687500
7069,54.687500
7070,54.687500
7071,52.734375
7072,52.734375
7073,52.734375
7074,52.734375
7075,52.734375
7076,50.781250
7077,50.781250
7078,50.781250
7079,50.781250
7080,48.828125
7081,48.828125
7082,46.875000
7083,46.875000
7084,46.875000
7085,46.875000
7086,44.921875
7087,44.921875
7088,42.968750
7089,42.968750
7090,41.015625
7091,41.015625
7092,39.062500
7093,37.109375
7094,37.109375
7095,37.109375
7096,35.156250
7097,35.156250
7098,33.203125
7099,31.250000
7100,31.250000
7101,31.250000
7102,29.296875
7103,27.343750
7104,27.343750
7105,25.390625
7106,23.437500
7107,23.437500
7108,21.484375
7109,21.484375
7110,19.531250
7111,17.578125
7112,17.578125
7113,15.625000
7114,15.625000
7115,11.718750
7116,11.718750
7117,9.765625
7118,7.812500
7119,7.812500
7120,5.859375
7121,3.906250
7122,3.906250
7123,1.953125
7124,0.000000
7125,0.000000
7126,-1.953125
7127,-3.906250
7128,-5.859375
7129,-7.812500
7130,-7.812500
7131,-9.765625
7132,-11.718750
7133,-13.671875
7134,-13.671875
7135,-15.625000
7136,-17.578125
7137,-19.531250
7138,-19.531250
7139,-21.484375
7140,-23.437500
7141,-25.390625
7142,-25.390625
7143,-27.343750
7144,-27.343750
7145,-29.296875
7146,-31.250000
7147,-33.203125
7148,-33.203125
7149,-35.156250
7150,-37.109375
7151,-39.062500
7152,-39.062500
7153,-41.015625
7154,-41.015625
7155,-42.968750
7156,-44.921875
7157,-44.921875
7158,-46.875000
7159,-48.828125
7160,-48.828125
7161,-50.781250
7162,-52.734375
7163,-52.734375
7164,-52.734375
7165,-54.687500
7166,-56.640625
7167,-56.640625
7168,-58.593750
7169,-58.593750
7170,-60.546875
7171,-60.546875
7172,-62.500000
7173,-62.500000
7174,-64.453125
7175,-64.453125
7176,-64.453125
7177,-66.406250
7178,-66.406250
7179,-68.359375
7180,-68.359375
7181,-68.359375
7182,-68.359375
7183,-70.312500
7184,-70.312500
7185,-70.312500
7186,-70.312500
7187,-72.265625
7188,-72.265625
7189,-72.265625
7190,-72.265625
7191,-74.218750
7192,-74.218750
7193,-74.218750
7194,-74.218750
7195,-74.218750
7196,-74.218750
7197,-74.218750
7198,-74.218750
7199,-74.218750
7200,-74.218750
7201,-74.218750
7202,-74.218750
7203,-74.218750
7204,-72.265625
7205,-72.265625
7206,-72.265625
7207,-72.265625
7208,-72.265625
7209,-72.265625
7210,-70.312500
7211,-70.312500
7212,-70.312500
7213,-70.312500
7214,-70.312500
7215,-68.359375
7216,-68.359375
7217,-68.359375
7218,-66.406250
7219,-66.406250
7220,-66.406250
7221,-64.453125
7222,-64.453125
7223,-62.500000
7224,-62.500000
7225,-62.500000
7226,-60.546875
7227,-60.546875
7228,-58.593750
7229,-58.593750
7230,-56.640625
7231,-56.640625
7232,-54.687500
7233,-54.687500
7234,-52.734375
7235,-52.734375
7236,-50.781250
7237,-48.828125
7238,-48.828125
7239,-46.875000
7240,-46.875000
7241,-44.921875
7242,-44.921875
7243,-42.968750
7244,-42.968750
7245,-41.015625
7246,-39.062500
7247,-37.109375
7248,-35.156250
7249,-35.156250
7250,-33.203125
7251,-33.203125
7252,-31.250000
7253,-29.296875
7254,-27.343750
7255,-25.390625
7256,-25.390625
7257,-23.437500
7258,-21.484375
7259,-21.484375
7260,-19.531250
7261,-17.578125
7262,-15.625000
7263,-15.625000
7264,-13.671875
7265,-11.718750
7266,-9.765625
7267,-7.812500
7268,-7.812500
7269,-5.859375
7270,-3.906250
7271,-3.906250
7272,-1.953125
7273,0.000000
7274,1.953125
7275,1.953125
7276,3.906250
7277,5.859375
7278,7.812500
7279,7.812500
7280,9.765625
7281,11.718750
7282,11.718750
7283,13.671875
7284,15.625000
7285,15.625000
7286,17.578125
7287,19.531250
7288,19.531250
7289,21.484375
7290,23.437500
7291,23.437500
7292,23.437500
7293,27.343750
7294,27.343750
7295,27.343750
7296,29.296875
7297,31.250000
7298,31.250000
7299,33.203125
7300,33.203125
7301,35.156250
7302,37.109375
7303,37.109375
7304,39.062500
7305,39.062500
7306,39.062500
7307,41.015625
7308,41.015625
7309,42.968750
7310,42.968750
7311,44.921875
7312,44.921875
7313,46.875000
7314,46.875000
7315,46.875000
7316,48.828125
7317,48.828125
7318,48.828125
7319,48.828125
7320,50.781250
7321,50.781250
7322,50.781250
7323,52.734375
7324,52.734375
7325,52.734375
7326,52.734375
7327,52.734375
7328,52.734375
7329,54.687500
7330,54.687500
7331,54.687500
7332,54.687500
7333,54.687500
7334,54.687500
7335,56.640625
7336,56.640625
7337,56.640625
7338,56.640625
7339,56.640625
7340,56.640625
7341,56.640625
7342,56.640625
7343,56.640625
7344,56.640625
7345,56.640625
7346,54.687500
7347,56.640625
7348,54.687500
7349,54.687500
7350,54.687500
7351,54.687500
7352,54.687500
7353,54.687500
7354,54.687500
7355,52.734375
7356,52.734375
7357,50.781250
7358,50.781250
7359,50.781250
7360,50.781250
7361,50.781250
7362,48.828125
7363,48.828125
7364,48.828125
7365,46.875000
7366,44.921875
7367,44.921875
7368,44.921875
7369,44.921875
7370,42.968750
7371,41.015625
7372,41.015625
7373,41.015625
7374,39.062500
7375,39.062500
7376,37.109375
7377,37.109375
7378,35.156250
7379,35.156250
7380,33.203125
7381,31.250000
7382,31.250000
7383,31.250000
7384,29.296875
7385,27.343750
7386,27.343750
7387,25.390625
7388,25.390625
7389,23.437500
7390,21.484375
7391,21.484375
7392,19.531250
7393,17.578125
7394,17.578125
7395,15.625000
7396,13.671875
7397,13.671875
7398,11.718750
7399,9.765625
7400,9.765625
7401,7.812500
7402,5.859375
7403,5.859375
7404,3.906250
7405,1.953125
7406,1.953125
7407,0.000000
7408,-1.953125
7409,-3.906250
7410,-5.859375
7411,-5.859375
7412,-7.812500
7413,-9.765625
7414,-11.718750
7415,-11.718750
7416,-13.671875
7417,-15.625000
7418,-17.578125
7419,-17.578125
7420,-19.531250
7421,-21.484375
7422,-23.437500
7423,-23.437500
7424,-25.390625
7425,-27.343750
7426,-29.296875
7427,-29.296875
7428,-31.250000
7429,-33.203125
7430,-33.203125
7431,-35.156250
7432,-37.109375
7433,-37.109375
7434,-39.062500
7435,-41.015625
7436,-42.968750
7437,-42.968750
7438,-44.921875
7439,-46.875000
7440,-46.875000
7441,-48.828125
7442,-48.828125
7443,-50.781250
7444,-50.781250
7445,-52.734375
7446,-52.734375
7447,-54.687500
7448,-56.640625
7449,-56.640625
7450,-58.593750
7451,-58.593750
7452,-60.546875
7453,-60.546875
7454,-62.500000
7455,-62.500000
7456,-62.500000
7457,-64.453125
7458,-64.453125
7459,-64.453125
7460,-66.406250
7461,-66.406250
7462,-68.359375
7463,-68.359375
7464,-68.359375
7465,-70.312500
7466,-70.312500
7467,-70.312500
7468,-70.312500
7469,-70.312500
7470,-72.265625
7471,-72.265625
7472,-72.265625
7473,-72.265625
7474,-72.265625
7475,-72.265625
7476,-74.218750
7477,-74.218750
7478,-72.265625
7479,-74.218750
7480,-74.218750
7481,-74.218750
7482,-72.265625
7483,-74.218750
7484,-74.218750
7485,-72.265625
7486,-72.265625
7487,-74.218750
7488,-72.265625
7489,-72.265625
7490,-72.265625
7491,-72.265625
7492,-72.265625
7493,-72.265625
7494,-72.265625
7495,-70.312500
7496,-70.312500
7497,-68.359375
7498,-68.359375
7499,-68.359375
7500,-68.359375
7501,-66.406250
7502,-66.406250
7503,-64.453125
7504,-64.453125
7505,-64.453125
7506,-62.500000
7507,-62.500000
7508,-62.500000
7509,-60.546875
7510,-60.546875
7511,-58.593750
7512,-58.593750
7513,-56.640625
7514,-56.640625
7515,-54.687500
7516,-52.734375
7517,-52.734375
7518,-52.734375
7519,-48.828125
7520,-48.828125
7521,-48.828125
7522,-46.875000
7523,-44.921875
7524,-42.968750
7525,-42.968750
7526,-42.968750
7527,-41.015625
7528,-39.062500
7529,-37.109375
7530,-37.109375
7531,-35.156250
7532,-33.203125
7533,-31.250000
7534,-31.250000
7535,-29.296875
7536,-27.343750
7537,-27.343750
7538,-25.390625
7539,-23.437500
7540,-21.484375
7541,-21.484375
7542,-19.531250
7543,-19.531250
7544,-17.578125
7545,-15.625000
7546,-13.671875
7547,-11.718750
7548,-9.765625
7549,-9.765625
7550,-7.812500
7551,-5.859375
7552,-5.859375
7553,-5.859375
7554,-1.953125
7555,0.000000
7556,0.000000
7557,1.953125
7558,3.906250
7559,3.906250
7560,3.906250
7561,7.812500
7562,7.812500
7563,9.765625
7564,11.718750
7565,13.671875
7566,13.671875
7567,15.625000
7568,17.578125
7569,17.578125
7570,19.531250
7571,21.484375
7572,21.484375
7573,23.437500
7574,23.437500
7575,25.390625
7576,27.343750
7577,29.296875
7578,29.296875
7579,29.296875
7580,31.250000
7581,33.203125
7582,33.203125
7583,35.156250
7584,35.156250
7585,37.109375
7586,37.109375
7587,39.062500
7588,39.062500
7589,41.015625
7590,41.015625
7591,42.968750
7592,42.968750
7593,42.968750
7594,44.921875
7595,44.921875
7596,46.875000
7597,46.875000
7598,48.828125
7599,48.828125
7600,48.828125
7601,48.828125
7602,50.781250
7603,50.781250
7604,50.781250
7605,52.734375
7606,52.734375
7607,52.734375
7608,52.734375
7609,52.734375
7610,54.687500
7611,54.687500
7612,54.687500
7613,54.687500
7614,54.687500
7615,56.640625
7616,54.687500
7617,54.687500
7618,56.640625
7619,56.640625
7620,54.687500
7621,54.687500
7622,56.640625
7623,56.640625
7624,56.640625
7625,54.687500
7626,56.640625
7627,56.640625
7628,54.687500
7629,54.687500
7630,54.687500
7631,54.687500
7632,54.687500
7633,54.687500
7634,54.687500
7635,54.687500
7636,52.734375
7637,52.734375
7638,52.734375
7639,52.734375
7640,50.781250
7641,50.781250
7642,50.781250
7643,48.828125
7644,50.781250
7645,48.828125
7646,48.828125
7647,46.875000
7648,46.875000
7649,44.921875
7650,44.921875
7651,44.921875
7652,42.968750
7653,42.968750
7654,41.015625
7655,41.015625
7656,41.015625
7657,39.062500
7658,39.062500
7659,37.109375
7660,37.109375
7661,33.203125
7662,35.156250
7663,33.203125
7664,33.203125
7665,31.250000
7666,29.296875
7667,29.296875
7668,27.343750
7669,27.343750
7670,25.390625
7671,23.437500
7672,23.437500
7673,21.484375
7674,21.484375
7675,19.531250
7676,17.578125
7677,15.625000
7678,15.625000
7679,13.671875
7680,9.765625
7681,11.718750
7682,9.765625
7683,7.812500
7684,7.812500
7685,5.859375
7686,3.906250
7687,1.953125
7688,1.953125
7689,0.000000
7690,-1.953125
7691,-1.953125
7692,-5.859375
7693,-5.859375
7694,-7.812500
7695,-7.812500
7696,-9.765625
7697,-11.718750
7698,-13.671875
7699,-15.625000
7700,-15.625000
7701,-17.578125
7702,-19.531250
7703,-21.484375
7704,-21.484375
7705,-23.437500
7706,-25.390625
7707,-25.390625
7708,-27.343750
7709,-29.296875
7710,-31.250000
7711,-31.250000
7712,-33.203125
7713,-35.156250
7714,-35.156250
7715,-37.109375
7716,-39.062500
7717,-39.062500
7718,-41.015625
7719,-42.968750
7720,-42.968750
7721,-44.921875
7722,-46.875000
7723,-46.875000
7724,-48.828125
7725,-48.828125
7726,-50.781250
7727,-52.734375
7728,-52.734375
7729,-54.687500
7730,-54.687500
7731,-56.640625
7732,-56.640625
7733,-58.593750
7734,-58.593750
7735,-60.546875
7736,-60.546875
7737,-62.500000
7738,-62.500000
7739,-62.500000
7740,-64.453125
7741,-64.453125
7742,-66.406250
7743,-66.406250
7744,-68.359375
7745,-68.359375
7746,-68.359375
7747,-70.312500
7748,-70.312500
7749,-70.312500
7750,-70.312500
7751,-70.312500
7752,-72.265625
7753,-72.265625
7754,-72.265625
7755,-72.265625
7756,-72.265625
7757,-74.218750
7758,-72.265625
7759,-74.218750
7760,-74.218750
7761,-74.218750
7762,-74.218750
7763,-74.218750
7764,-74.218750
7765,-74.218750
7766,-74.218750
7767,-74.218750
7768,-74.218750
7769,-74.218750
7770,-72.265625
7771,-72.265625
7772,-72.265625
7773,-72.265625
7774,-72.265625
7775,-72.265625
7776,-70.312500
7777,-70.312500
7778,-70.312500
7779,-70.312500
7780,-68.359375
7781,-68.359375
7782,-68.359375
7783,-66.406250
7784,-66.406250
7785,-64.453125
7786,-64.453125
7787,-64.453125
7788,-62.500000
7789,-62.500000
7790,-62.500000
7791,-60.546875
7792,-58.593750
7793,-58.593750
7794,-58.593750
7795,-56.640625
7796,-54.687500
7797,-54.687500
7798,-52.734375
7799,-52.734375
7800,-50.781250
7801,-50.781250
7802,-48.828125
7803,-48.828125
7804,-46.875000
7805,-44.921875
7806,-44.921875
7807,-42.968750
7808,-41.015625
7809,-41.015625
7810,-39.062500
7811,-39.062500
7812,-37.109375
7813,-35.156250
7814,-35.156250
7815,-33.203125
7816,-31.250000
7817,-29.296875
7818,-29.296875
7819,-27.343750
7820,-25.390625
7821,-23.437500
7822,-23.437500
7823,-21.484375
7824,-21.484375
7825,-19.531250
7826,-17.578125
7827,-15.625000
7828,-15.625000
7829,-13.671875
7830,-11.718750
7831,-9.765625
7832,-7.812500
7833,-7.812500
7834,-5.859375
7835,-3.906250
7836,-3.906250
7837,-1.953125
7838,0.000000
7839,1.953125
7840,1.953125
7841,3.906250
7842,5.859375
7843,7.812500
7844,9.765625
7845,9.765625
7846,11.718750
7847,13.671875
7848,13.671875
7849,15.625000
7850,17.578125
7851,17.578125
7852,19.531250
7853,21.484375
7854,21.484375
7855,23.437500
7856,23.437500
7857,25.390625
7858,27.343750
7859,29.296875
7860,29.296875
7861,29.296875
7862,31.250000
7863,33.203125
7864,35.156250
7865,35.156250
7866,35.156250
7867,37.109375
7868,37.109375
7869,37.109375
7870,39.062500
7871,41.015625
7872,41.015625
7873,41.015625
7874,42.968750
7875,42.968750
7876,44.921875
7877,44.921875
7878,46.875000
7879,46.875000
7880,46.875000
7881,48.828125
7882,48.828125
7883,48.828125
7884,50.781250
7885,50.781250
7886,50.781250
7887,50.781250
7888,50.781250
7889,52.734375
7890,52.734375
7891,52.734375
7892,54.687500
7893,54.687500
7894,54.687500
7895,54.687500
7896,54.687500
7897,54.687500
7898,54.687500
7899,54.687500
7900,54.687500
7901,54.687500
7902,56.640625
7903,56.640625
7904,56.640625
7905,56.640625
7906,56.640625
7907,56.640625
7908,56.640625
7909,56.640625
7910,56.640625
7911,54.687500
7912,54.687500
7913,54.687500
7914,54.687500
7915,54.687500
7916,54.687500
7917,54.687500
7918,54.687500
7919,52.734375
7920,52.734375
7921,50.781250
7922,52.734375
7923,52.734375
7924,50.781250
7925,48.828125
7926,50.781250
7927,48.828125
7928,46.875000
7929,46.875000
7930,46.875000
7931,44.921875
7932,44.921875
7933,44.921875
7934,44.921875
7935,42.968750
7936,41.015625
7937,42.968750
7938,41.015625
7939,39.062500
7940,37.109375
7941,37.109375
7942,37.109375
7943,35.156250
7944,35.156250
7945,33.203125
7946,31.250000
7947,33.203125
7948,29.296875
7949,29.296875
7950,27.343750
7951,27.343750
7952,25.390625
7953,23.437500
7954,23.437500
7955,21.484375
7956,19.531250
7957,19.531250
7958,17.578125
7959,15.625000
7960,15.625000
7961,13.671875
7962,11.718750
7963,11.718750
7964,9.765625
7965,7.812500
7966,7.812500
7967,5.859375
7968,3.906250
7969,3.906250
7970,1.953125
7971,0.000000
7972,0.000000
7973,-1.953125
7974,-3.906250
7975,-5.859375
7976,-7.812500
7977,-7.812500
7978,-9.765625
7979,-11.718750
7980,-13.671875
7981,-13.671875
7982,-15.625000
7983,-17.578125
7984,-19.531250
7985,-19.531250
7986,-21.484375
7987,-23.437500
7988,-25.390625
7989,-25.390625
7990,-27.343750
7991,-29.296875
7992,-29.296875
7993,-31.250000
7994,-33.203125
7995,-35.156250
7996,-35.156250
7997,-37.109375
7998,-37.109375
7999,-39.062500
8000,-41.015625
8001,-42.968750
8002,-42.968750
8003,-44.921875
8004,-46.875000
8005,-46.875000
8006,-48.828125
8007,-48.828125
8008,-50.781250
8009,-52.734375
8010,-52.734375
8011,-54.687500
8012,-54.687500
8013,-56.640625
8014,-56.640625
8015,-58.593750
8016,-58.593750
8017,-60.546875
8018,-60.546875
8019,-62.500000
8020,-62.500000
8021,-64.453125
8022,-64.453125
8023,-64.453125
8024,-66.406250
8025,-66.406250
8026,-66.406250
8027,-68.359375
8028,-68.359375
8029,-70.312500
8030,-70.312500
8031,-70.312500
8032,-70.312500
8033,-70.312500
8034,-72.265625
8035,-72.265625
8036,-72.265625
8037,-72.265625
8038,-72.265625
8039,-72.265625
8040,-72.265625
8041,-72.265625
8042,-72.265625
8043,-74.218750
8044,-74.218750
8045,-74.218750
8046,-74.218750
8047,-72.265625
8048,-72.265625
8049,-74.218750
8050,-74.218750
8051,-74.218750
8052,-72.265625
8053,-72.265625
8054,-72.265625
8055,-72.265625
8056,-72.265625
8057,-70.312500
8058,-70.312500
8059,-70.312500
8060,-70.312500
8061,-70.312500
8062,-68.359375
8063,-68.359375
8064,-68.359375
8065,-66.406250
8066,-66.406250
8067,-64.453125
8068,-66.406250
8069,-64.453125
8070,-64.453125
8071,-62.500000
8072,-62.500000
8073,-60.546875
8074,-60.546875
8075,-58.593750
8076,-58.593750
8077,-56.640625
8078,-56.640625
8079,-54.687500
8080,-54.687500
8081,-52.734375
8082,-52.734375
8083,-50.781250
8084,-48.828125
8085,-48.828125
8086,-46.875000
8087,-46.875000
8088,-44.921875
8089,-44.921875
8090,-42.968750
8091,-41.015625
8092,-41.015625
8093,-39.062500
8094,-37.109375
8095,-37.109375
8096,-35.156250
8097,-31.250000
8098,-31.250000
8099,-31.250000
8100,-29.296875
8101,-27.343750
8102,-25.390625
8103,-25.390625
8104,-23.437500
8105,-23.437500
8106,-19.531250
8107,-19.531250
8108,-17.578125
8109,-15.625000
8110,-15.625000
8111,-13.671875
8112,-11.718750
8113,-11.718750
8114,-9.765625
8115,-7.812500
8116,-5.859375
8117,-3.906250
8118,-3.906250
8119,-1.953125
8120,0.000000
8121,1.953125
8122,1.953125
8123,3.906250
8124,3.906250
8125,5.859375
8126,7.812500
8127,9.765625
8128,11.718750
8129,11.718750
8130,13.671875
8131,13.671875
8132,15.625000
8133,17.578125
8134,17.578125
8135,19.531250
8136,21.484375
8137,23.437500
8138,23.437500
8139,25.390625
8140,25.390625
8141,27.343750
8142,27.343750
8143,29.296875
8144,31.250000
8145,31.250000
8146,31.250000
8147,33.203125
8148,35.156250
8149,35.156250
8150,37.109375
8151,37.109375
8152,39.062500
8153,39.062500
8154,41.015625
8155,41.015625
8156,42.968750
8157,42.968750
8158,42.968750
8159,44.921875
8160,44.921875
8161,46.875000
8162,46.875000
8163,46.875000
8164,48.828125
8165,48.828125
8166,48.828125
8167,50.781250
8168,50.781250
8169,50.781250
8170,50.781250
8171,52.734375
8172,52.734375
8173,52.734375
8174,52.734375
8175,54.687500
8176,54.687500
8177,54.687500
8178,54.687500
8179,54.687500
8180,54.687500
8181,56.640625
8182,54.687500
8183,56.640625
8184,56.640625
8185,56.640625
8186,56.640625
8187,56.640625
8188,56.640625
8189,56.640625
8190,56.640625
8191,54.687500
8192,54.687500
8193,56.640625
8194,56.640625
8195,54.687500
8196,54.687500
8197,54.687500
8198,54.687500
8199,54.687500
8200,52.734375
8201,52.734375
8202,52.734375
8203,52.734375
8204,50.781250
8205,50.781250
8206,50.781250
8207,50.781250
8208,50.781250
8209,48.828125
8210,48.828125
8211,46.875000
8212,46.875000
8213,46.875000
8214,44.921875
8215,44.921875
8216,44.921875
8217,42.968750
8218,42.968750
8219,41.015625
8220,41.015625
8221,39.062500
8222,39.062500
8223,37.109375
8224,37.109375
8225,35.156250
8226,35.156250
8227,33.203125
8228,33.203125
8229,31.250000
8230,31.250000
8231,29.296875
8232,27.343750
8233,27.343750
8234,25.390625
8235,25.390625
8236,23.437500
8237,21.484375
8238,21.484375
8239,19.531250
8240,19.531250
8241,17.578125
8242,15.625000
8243,15.625000
8244,13.671875
8245,11.718750
8246,9.765625
8247,9.765625
8248,7.812500
8249,5.859375
8250,5.859375
8251,3.906250
8252,1.953125
8253,0.000000
8254,0.000000
8255,-1.953125
8256,-3.906250
8257,-5.859375
8258,-5.859375
8259,-7.812500
8260,-9.765625
8261,-11.718750
8262,-11.718750
8263,-13.671875
8264,-15.625000
8265,-17.578125
8266,-17.578125
8267,-19.531250
8268,-21.484375
8269,-23.437500
8270,-23.437500
8271,-25.390625
8272,-27.343750
8273,-27.343750
8274,-29.296875
8275,-31.250000
8276,-33.203125
8277,-33.203125
8278,-35.156250
8279,-37.109375
8280,-39.062500
8281,-39.062500
8282,-41.015625
8283,-42.968750
8284,-42.968750
8285,-44.921875
8286,-44.921875
8287,-46.875000
8288,-48.828125
8289,-48.828125
8290,-50.781250
8291,-52.734375
8292,-52.734375
8293,-54.687500
8294,-54.687500
8295,-56.640625
8296,-56.640625
8297,-58.593750
8298,-58.593750
8299,-58.593750
8300,-60.546875
8301,-62.500000
8302,-62.500000
8303,-62.500000
8304,-64.453125
8305,-64.453125
8306,-66.406250
8307,-66.406250
8308,-66.406250
8309,-68.359375
8310,-68.359375
8311,-68.359375
8312,-68.359375
8313,-70.312500
8314,-70.312500
8315,-70.312500
8316,-70.312500
8317,-72.265625
8318,-72.265625
8319,-72.265625
8320,-72.265625
8321,-72.265625
8322,-74.218750
8323,-72.265625
8324,-72.265625
8325,-74.218750
8326,-74.218750
8327,-74.218750
8328,-74.218750
8329,-74.218750
8330,-72.265625
8331,-74.218750
8332,-74.218750
8333,-72.265625
8334,-72.265625
8335,-72.265625
8336,-74.218750
8337,-72.265625
8338,-72.265625
8339,-72.265625
8340,-70.312500
8341,-72.265625
8342,-70.312500
8343,-70.312500
8344,-70.312500
8345,-68.359375
8346,-68.359375
8347,-68.359375
8348,-66.406250
8349,-66.406250
8350,-64.453125
8351,-64.453125
8352,-64.453125
8353,-62.500000
8354,-62.500000
8355,-62.500000
8356,-60.546875
8357,-60.546875
8358,-58.593750
8359,-58.593750
8360,-56.640625
8361,-56.640625
8362,-54.687500
8363,-52.734375
8364,-52.734375
8365,-50.781250
8366,-50.781250
8367,-48.828125
8368,-48.828125
8369,-46.875000
8370,-44.921875
8371,-44.921875
8372,-42.968750
8373,-41.015625
8374,-41.015625
8375,-39.062500
8376,-37.109375
8377,-37.109375
8378,-35.156250
8379,-33.203125
8380,-33.203125
8381,-31.250000
8382,-29.296875
8383,-27.343750
8384,-27.343750
8385,-25.390625
8386,-23.437500
8387,-21.484375
8388,-21.484375
8389,-19.531250
8390,-17.578125
8391,-15.625000
8392,-15.625000
8393,-13.671875
8394,-11.718750
8395,-11.718750
8396,-9.765625
8397,-7.812500
8398,-7.812500
8399,-5.859375
8400,-3.906250
8401,-1.953125
8402,-1.953125
8403,0.000000
8404,1.953125
8405,3.906250
8406,3.906250
8407,5.859375
8408,7.812500
8409,7.812500
8410,9.765625
8411,11.718750
8412,13.671875
8413,13.671875
8414,15.625000
8415,17.578125
8416,17.578125
8417,19.531250
8418,19.531250
8419,21.484375
8420,23.437500
8421,23.437500
8422,25.390625
8423,27.343750
8424,27.343750
8425,29.296875
8426,31.250000
8427,31.250000
8428,33.203125
8429,33.203125
8430,35.156250
8431,35.156250
8432,37.109375
8433,39.062500
8434,39.062500
8435,41.015625
8436,41.015625
8437,42.968750
8438,42.968750
8439,42.968750
8440,44.921875
8441,44.921875
8442,44.921875
8443,46.875000
8444,46.875000
8445,46.875000
8446,48.828125
8447,48.828125
8448,50.781250
8449,50.781250
8450,50.781250
8451,50.781250
8452,52.734375
8453,52.734375
8454,52.734375
8455,52.734375
8456,54.687500
8457,54.687500
8458,54.687500
8459,54.687500
8460,54.687500
8461,54.687500
8462,54.687500
8463,56.640625
8464,54.687500
8465,54.687500
8466,54.687500
8467,56.640625
8468,56.640625
8469,56.640625
8470,54.687500
8471,56.640625
8472,56.640625
8473,54.687500
8474,54.687500
8475,56.640625
8476,54.687500
8477,54.687500
8478,54.687500
8479,54.687500
8480,54.687500
8481,54.687500
8482,54.687500
8483,54.687500
8484,52.734375
8485,52.734375
8486,54.687500
8487,52.734375
8488,50.781250
8489,50.781250
8490,50.781250
8491,48.828125
8492,48.828125
8493,48.828125
8494,48.828125
8495,48.828125
8496,46.875000
8497,44.921875
8498,44.921875
8499,42.968750
8500,42.968750
8501,42.968750
8502,41.015625
8503,41.015625
8504,39.062500
8505,39.062500
8506,37.109375
8507,37.109375
8508,35.156250
8509,35.156250
8510,33.203125
8511,33.203125
8512,31.250000
8513,29.296875
8514,29.296875
8515,27.343750
8516,27.343750
8517,25.390625
8518,23.437500
8519,21.484375
8520,21.484375
8521,19.531250
8522,19.531250
8523,17.578125
8524,17.578125
8525,15.625000
8526,13.671875
8527,13.671875
8528,9.765625
8529,9.765625
8530,7.812500
8531,5.859375
8532,5.859375
8533,3.906250
8534,1.953125
8535,0.000000
8536,0.000000
8537,-1.953125
8538,-3.906250
8539,-5.859375
8540,-5.859375
8541,-7.812500
8542,-9.765625
8543,-11.718750
8544,-11.718750
8545,-13.671875
8546,-15.625000
8547,-15.625000
8548,-17.578125
8549,-19.531250
8550,-21.484375
8551,-21.484375
8552,-23.437500
8553,-25.390625
8554,-25.390625
8555,-27.343750
8556,-29.296875
8557,-31.250000
8558,-31.250000
8559,-33.203125
8560,-35.156250
8561,-35.156250
8562,-37.109375
8563,-39.062500
8564,-39.062500
8565,-41.015625
8566,-42.968750
8567,-42.968750
8568,-44.921875
8569,-46.875000
8570,-46.875000
8571,-48.828125
8572,-50.781250
8573,-50.781250
8574,-50.781250
8575,-52.734375
8576,-54.687500
8577,-54.687500
8578,-56.640625
8579,-56.640625
8580,-58.593750
8581,-58.593750
8582,-60.546875
8583,-60.546875
8584,-62.500000
8585,-62.500000
8586,-62.500000
8587,-64.453125
8588,-66.406250
8589,-66.406250
8590,-66.406250
8591,-68.359375
8592,-68.359375
8593,-68.359375
8594,-68.359375
8595,-70.312500
8596,-70.312500
8597,-70.312500
8598,-70.312500
8599,-72.265625
8600,-72.265625
8601,-72.265625
8602,-72.265625
8603,-72.265625
8604,-74.218750
8605,-74.218750
8606,-74.218750
8607,-74.218750
8608,-74.218750
8609,-74.218750
8610,-74.218750
8611,-74.218750
8612,-74.218750
8613,-74.218750
8614,-74.218750
8615,-72.265625
8616,-74.218750
8617,-72.265625
8618,-72.265625
8619,-72.265625
8620,-72.265625
8621,-72.265625
8622,-72.265625
8623,-70.312500
8624,-70.312500
8625,-70.312500
8626,-70.312500
8627,-68.359375
8628,-68.359375
8629,-68.359375
8630,-68.359375
8631,-66.406250
8632,-64.453125
8633,-64.453125
8634,-64.453125
8635,-64.453125
8636,-62.500000
8637,-62.500000
8638,-60.546875
8639,-58.593750
8640,-58.593750
8641,-58.593750
8642,-56.640625
8643,-56.640625
8644,-54.687500
8645,-54.687500
8646,-52.734375
8647,-52.734375
8648,-50.781250
8649,-48.828125
8650,-48.828125
8651,-46.875000
8652,-44.921875
8653,-44.921875
8654,-42.968750
8655,-41.015625
8656,-39.062500
8657,-39.062500
8658,-37.109375
8659,-37.109375
8660,-35.156250
8661,-33.203125
8662,-33.203125
8663,-31.250000
8664,-29.296875
8665,-29.296875
8666,-27.343750
8667,-25.390625
8668,-25.390625
8669,-23.437500
8670,-21.484375
8671,-21.484375
8672,-17.578125
8673,-17.578125
8674,-15.625000
8675,-15.625000
8676,-11.718750
8677,-11.718750
8678,-11.718750
8679,-7.812500
8680,-7.812500
8681,-5.859375
8682,-3.906250
8683,-1.953125
8684,-1.953125
8685,0.000000
8686,1.953125
8687,3.906250
8688,3.906250
8689,5.859375
8690,7.812500
8691,7.812500
8692,9.765625
8693,11.718750
8694,13.671875
8695,13.671875
8696,15.625000
8697,15.625000
8698,17.578125
8699,19.531250
8700,19.531250
8701,21.484375
8702,23.437500
8703,23.437500
8704,25.390625
8705,27.343750
8706,27.343750
8707,29.296875
8708,29.296875
8709,31.250000
8710,33.203125
8711,33.203125
8712,35.156250
8713,35.156250
8714,37.109375
8715,37.109375
8716,37.109375
8717,39.062500
8718,41.015625
8719,41.015625
8720,41.015625
8721,42.968750
8722,42.968750
8723,44.921875
8724,44.921875
8725,44.921875
8726,46.875000
8727,46.875000
8728,46.875000
8729,48.828125
8730,48.828125
8731,50.781250
8732,50.781250
8733,50.781250
8734,50.781250
8735,50.781250
8736,52.734375
8737,52.734375
8738,52.734375
8739,54.687500
8740,54.687500
8741,54.687500
8742,54.687500
8743,54.687500
8744,54.687500
8745,54.687500
8746,54.687500
8747,56.640625
8748,56.640625
8749,56.640625
8750,56.640625
8751,56.640625
8752,56.640625
8753,54.687500
8754,56.640625
8755,54.687500
8756,56.640625
8757,54.687500
8758,56.640625
8759,54.687500
8760,54.687500
8761,54.687500
8762,54.687500
8763,54.687500
8764,52.734375
8765,52.734375
8766,52.734375
8767,54.687500
8768,52.734375
8769,52.734375
8770,50.781250
8771,50.781250
8772,50.781250
8773,50.781250
8774,48.828125
8775,48.828125
8776,48.828125
8777,46.875000
8778,46.875000
8779,44.921875
8780,44.921875
8781,44.921875
8782,42.968750
8783,42.968750
8784,41.015625
8785,41.015625
8786,39.062500
8787,39.062500
8788,37.109375
8789,37.109375
8790,35.156250
8791,33.203125
8792,33.203125
8793,33.203125
8794,31.250000
8795,31.250000
8796,29.296875
8797,27.343750
8798,27.343750
8799,25.390625
8800,23.437500
8801,23.437500
8802,21.484375
8803,19.531250
8804,19.531250
8805,17.578125
8806,15.625000
8807,15.625000
8808,13.671875
8809,13.671875
8810,11.718750
8811,9.765625
8812,9.765625
8813,7.812500
8814,5.859375
8815,3.906250
8816,1.953125
8817,1.953125
8818,0.000000
8819,0.000000
8820,-1.953125
8821,-3.906250
8822,-5.859375
8823,-5.859375
8824,-7.812500
8825,-9.765625
8826,-11.718750
8827,-11.718750
8828,-13.671875
8829,-15.625000
8830,-17.578125
8831,-19.531250
8832,-19.531250
8833,-21.484375
8834,-23.437500
8835,-25.390625
8836,-25.390625
8837,-27.343750
8838,-29.296875
8839,-29.296875
8840,-31.250000
8841,-33.203125
8842,-35.156250
8843,-35.156250
8844,-37.109375
8845,-39.062500
8846,-39.062500
8847,-41.015625
8848,-41.015625
8849,-42.968750
8850,-44.921875
8851,-44.921875
8852,-46.875000
8853,-48.828125
8854,-48.828125
8855,-50.781250
8856,-50.781250
8857,-52.734375
8858,-54.687500
8859,-54.687500
8860,-56.640625
8861,-56.640625
8862,-56.640625
8863,-58.593750
8864,-60.546875
8865,-60.546875
8866,-62.500000
8867,-62.500000
8868,-62.500000
8869,-64.453125
8870,-64.453125
8871,-66.406250
8872,-66.406250
8873,-66.406250
8874,-68.359375
8875,-68.359375
8876,-70.312500
8877,-68.359375
8878,-70.312500
8879,-70.312500
8880,-70.312500
8881,-72.265625
8882,-72.265625
8883,-72.265625
8884,-70.312500
8885,-72.265625
8886,-74.218750
8887,-72.265625
8888,-74.218750
8889,-74.218750
8890,-74.218750
8891,-74.218750
8892,-74.218750
8893,-74.218750
8894,-74.218750
8895,-74.218750
8896,-74.218750
8897,-72.265625
8898,-74.218750
8899,-72.265625
8900,-72.265625
8901,-72.265625
8902,-72.265625
8903,-72.265625
8904,-72.265625
8905,-72.265625
8906,-70.312500
8907,-70.312500
8908,-70.312500
8909,-68.359375
8910,-68.359375
8911,-68.359375
8912,-68.359375
8913,-66.406250
8914,-66.406250
8915,-64.453125
8916,-64.453125
8917,-64.453125
8918,-62.500000
8919,-62.500000
8920,-62.500000
8921,-60.546875
8922,-58.593750
8923,-58.593750
8924,-58.593750
8925,-56.640625
8926,-54.687500
8927,-54.687500
8928,-54.687500
8929,-52.734375
8930,-50.781250
8931,-50.781250
8932,-48.828125
8933,-48.828125
8934,-46.875000
8935,-44.921875
8936,-42.968750
8937,-42.968750
8938,-41.015625
8939,-41.015625
8940,-39.062500
8941,-37.109375
8942,-35.156250
8943,-35.156250
8944,-33.203125
8945,-31.250000
8946,-31.250000
8947,-29.296875
8948,-27.343750
8949,-27.343750
8950,-25.390625
8951,-23.437500
8952,-21.484375
8953,-19.531250
8954,-19.531250
8955,-17.578125
8956,-15.625000
8957,-15.625000
8958,-13.671875
8959,-11.718750
8960,-9.765625
8961,-7.812500
8962,-7.812500
8963,-5.859375
8964,-3.906250
8965,-3.906250
8966,-1.953125
8967,0.000000
8968,0.000000
8969,1.953125
8970,3.906250
8971,5.859375
8972,5.859375
8973,7.812500
8974,9.765625
8975,9.765625
8976,11.718750
8977,13.671875
8978,15.625000
8979,15.625000
8980,17.578125
8981,19.531250
8982,19.531250
8983,21.484375
8984,23.437500
8985,23.437500
8986,25.390625
8987,25.390625
8988,27.343750
8989,27.343750
8990,29.296875
8991,31.250000
8992,31.250000
8993,33.203125
8994,33.203125
8995,35.156250
8996,35.156250
8997,37.109375
8998,37.109375
8999,39.062500
9000,39.062500
9001,41.015625
9002,41.015625
9003,42.968750
9004,42.968750
9005,44.921875
9006,44.921875
9007,44.921875
9008,46.875000
9009,46.875000
9010,48.828125
9011,48.828125
9012,48.828125
9013,48.828125
9014,50.781250
9015,52.734375
9016,52.734375
9017,52.734375
9018,52.734375
9019,52.734375
9020,54.687500
9021,52.734375
9022,54.687500
9023,54.687500
9024,54.687500
9025,54.687500
9026,54.687500
9027,54.687500
9028,54.687500
9029,56.640625
9030,56.640625
9031,56.640625
9032,56.640625
9033,56.640625
9034,56.640625
9035,56.640625
9036,56.640625
9037,56.640625
9038,56.640625
9039,56.640625
9040,54.687500
9041,54.687500
9042,54.687500
9043,54.687500
9044,54.687500
9045,54.687500
9046,52.734375
9047,52.734375
9048,52.734375
9049,52.734375
9050,52.734375
9051,50.781250
9052,50.781250
9053,50.781250
9054,50.781250
9055,48.828125
9056,48.828125
9057,48.828125
9058,46.875000
9059,46.875000
9060,46.875000
9061,44.921875
9062,44.921875
9063,44.921875
9064,42.968750
9065,41.015625
9066,42.968750
9067,41.015625
9068,39.062500
9069,39.062500
9070,39.062500
9071,37.109375
9072,35.156250
9073,35.156250
9074,35.156250
9075,33.203125
9076,31.250000
9077,31.250000
9078,29.296875
9079,29.296875
9080,27.343750
9081,25.390625
9082,25.390625
9083,23.437500
9084,23.437500
9085,21.484375
9086,19.531250
9087,19.531250
9088,17.578125
9089,15.625000
9090,15.625000
9091,13.671875
9092,13.671875
9093,11.718750
9094,9.765625
9095,7.812500
9096,5.859375
9097,5.859375
9098,3.906250
9099,1.953125
9100,0.000000
9101,1.953125
9102,-1.953125
9103,-3.906250
9104,-5.859375
9105,-5.859375
9106,-7.812500
9107,-9.765625
9108,-11.718750
9109,-11.718750
9110,-13.671875
9111,-15.625000
9112,-17.578125
9113,-17.578125
9114,-19.531250
9115,-21.484375
9116,-21.484375
9117,-23.437500
9118,-25.390625
9119,-27.343750
9120,-29.296875
9121,-29.296875
9122,-31.250000
9123,-33.203125
9124,-33.203125
9125,-35.156250
9126,-37.109375
9127,-39.062500
9128,-39.062500
9129,-41.015625
9130,-41.015625
9131,-44.921875
9132,-44.921875
9133,-44.921875
9134,-46.875000
9135,-46.875000
9136,-48.828125
9137,-50.781250
9138,-50.781250
9139,-52.734375
9140,-54.687500
9141,-54.687500
9142,-54.687500
9143,-56.640625
9144,-56.640625
9145,-58.593750
9146,-58.593750
9147,-60.546875
9148,-60.546875
9149,-62.500000
9150,-62.500000
9151,-64.453125
9152,-64.453125
9153,-66.406250
9154,-66.406250
9155,-66.406250
9156,-66.406250
9157,-68.359375
9158,-68.359375
9159,-70.312500
9160,-70.312500
9161,-70.312500
9162,-70.312500
9163,-70.312500
9164,-72.265625
9165,-72.265625
9166,-72.265625
9167,-72.265625
9168,-72.265625
9169,-74.218750
9170,-74.218750
9171,-72.265625
9172,-74.218750
9173,-74.218750
9174,-74.218750
9175,-74.218750
9176,-74.218750
9177,-74.218750
9178,-74.218750
9179,-74.218750
9180,-74.218750
9181,-74.218750
9182,-72.265625
9183,-72.265625
9184,-72.265625
9185,-72.265625
9186,-72.265625
9187,-72.265625
9188,-70.312500
9189,-70.312500
9190,-70.312500
9191,-70.312500
9192,-68.359375
9193,-68.359375
9194,-68.359375
9195,-66.406250
9196,-66.406250
9197,-64.453125
9198,-64.453125
9199,-64.453125
9200,-62.500000
9201,-62.500000
9202,-62.500000
9203,-60.546875
9204,-58.593750
9205,-58.593750
9206,-56.640625
9207,-56.640625
9208,-54.687500
9209,-54.687500
9210,-52.734375
9211,-52.734375
9212,-50.781250
9213,-48.828125
9214,-48.828125
9215,-46.875000
9216,-46.875000
9217,-44.921875
9218,-42.968750
9219,-42.968750
9220,-41.015625
9221,-39.062500
9222,-39.062500
9223,-37.109375
9224,-37.109375
9225,-35.156250
9226,-33.203125
9227,-31.250000
9228,-31.250000
9229,-29.296875
9230,-29.296875
9231,-27.343750
9232,-25.390625
9233,-23.437500
9234,-21.484375
9235,-21.484375
9236,-19.531250
9237,-17.578125
9238,-17.578125
9239,-15.625000
9240,-13.671875
9241,-11.718750
9242,-11.718750
9243,-9.765625
9244,-7.812500
9245,-7.812500
9246,-5.859375
9247,-3.906250
9248,-1.953125
9249,-1.953125
9250,0.000000
9251,1.953125
9252,3.906250
9253,3.906250
9254,5.859375
9255,7.812500
9256,9.765625
9257,9.765625
9258,11.718750
9259,13.671875
9260,15.625000
9261,15.625000
9262,15.625000
9263,17.578125
9264,19.531250
9265,21.484375
9266,21.484375
9267,23.437500
9268,23.437500
9269,25.390625
9270,27.343750
9271,29.296875
9272,29.296875
9273,31.250000
9274,31.250000
9275,33.203125
9276,33.203125
9277,35.156250
9278,35.156250
9279,37.109375
9280,37.109375
9281,39.062500
9282,39.062500
9283,41.015625
9284,41.015625
9285,42.968750
9286,44.921875
9287,44.921875
9288,44.921875
9289,44.921875
9290,46.875000
9291,46.875000
9292,48.828125
9293,48.828125
9294,48.828125
9295,48.828125
9296,50.781250
9297,50.781250
9298,50.781250
9299,52.734375
9300,52.734375
9301,52.734375
9302,52.734375
9303,52.734375
9304,52.734375
9305,54.687500
9306,54.687500
9307,54.687500
9308,54.687500
9309,54.687500
9310,54.687500
9311,54.687500
9312,54.687500
9313,54.687500
9314,56.640625
9315,56.640625
9316,56.640625
9317,54.687500
9318,54.687500
9319,56.640625
9320,54.687500
9321,54.687500
9322,56.640625
9323,54.687500
9324,54.687500
9325,54.687500
9326,54.687500
9327,54.687500
9328,54.687500
9329,52.734375
9330,52.734375
9331,52.734375
9332,52.734375
9333,52.734375
9334,50.781250
9335,50.781250
9336,50.781250
9337,50.781250
9338,50.781250
9339,48.828125
9340,48.828125
9341,46.875000
9342,46.875000
9343,46.875000
9344,44.921875
9345,44.921875
9346,44.921875
9347,42.968750
9348,42.968750
9349,41.015625
9350,41.015625
9351,39.062500
9352,39.062500
9353,37.109375
9354,35.156250
9355,35.156250
9356,33.203125
9357,33.203125
9358,31.250000
9359,31.250000
9360,29.296875
9361,29.296875
9362,27.343750
9363,27.343750
9364,25.390625
9365,23.437500
9366,23.437500
9367,21.484375
9368,21.484375
9369,19.531250
9370,17.578125
9371,15.625000
9372,13.671875
9373,13.671875
9374,13.671875
9375,11.718750
9376,9.765625
9377,7.812500
9378,5.859375
9379,5.859375
9380,3.906250
9381,1.953125
9382,1.953125
9383,-1.953125
9384,-1.953125
9385,-3.906250
9386,-3.906250
9387,-5.859375
9388,-7.812500
9389,-9.765625
9390,-9.765625
9391,-11.718750
9392,-13.671875
9393,-15.625000
9394,-15.625000
9395,-17.578125
9396,-19.531250
9397,-21.484375
9398,-21.484375
9399,-23.437500
9400,-25.390625
9401,-27.343750
9402,-27.343750
9403,-29.296875
9404,-29.296875
9405,-31.250000
9406,-33.203125
9407,-33.203125
9408,-35.156250
9409,-37.109375
9410,-39.062500
9411,-39.062500
9412,-41.015625
9413,-42.968750
9414,-42.968750
9415,-44.921875
9416,-46.875000
9417,-46.875000
9418,-48.828125
9419,-48.828125
9420,-50.781250
9421,-50.781250
9422,-52.734375
9423,-54.687500
9424,-56.640625
9425,-56.640625
9426,-56.640625
9427,-58.593750
9428,-58.593750
9429,-60.546875
9430,-60.546875
9431,-62.500000
9432,-62.500000
9433,-62.500000
9434,-64.453125
9435,-64.453125
9436,-66.406250
9437,-68.359375
9438,-68.359375
9439,-68.359375
9440,-68.359375
9441,-68.359375
9442,-70.312500
9443,-70.312500
9444,-70.312500
9445,-70.312500
9446,-70.312500
9447,-72.265625
9448,-72.265625
9449,-72.265625
9450,-72.265625
9451,-72.265625
9452,-72.265625
9453,-74.218750
9454,-74.218750
9455,-74.218750
9456,-74.218750
9457,-74.218750
9458,-74.218750
9459,-74.218750
9460,-74.218750
9461,-74.218750
9462,-74.218750
9463,-74.218750
9464,-72.265625
9465,-72.265625
9466,-72.265625
9467,-72.265625
9468,-72.265625
9469,-72.265625
9470,-70.312500
9471,-70.312500
9472,-70.312500
9473,-68.359375
9474,-68.359375
9475,-68.359375
9476,-68.359375
9477,-66.406250
9478,-66.406250
9479,-64.453125
9480,-64.453125
9481,-64.453125
9482,-64.453125
9483,-62.500000
9484,-60.546875
9485,-60.546875
9486,-60.546875
9487,-58.593750
9488,-56.640625
9489,-56.640625
9490,-56.640625
9491,-54.687500
9492,-54.687500
9493,-52.734375
9494,-50.781250
9495,-50.781250
9496,-48.828125
9497,-48.828125
9498,-46.875000
9499,-46.875000
9500,-44.921875
9501,-42.968750
9502,-42.968750
9503,-41.015625
9504,-39.062500
9505,-39.062500
9506,-37.109375
9507,-35.156250
9508,-33.203125
9509,-33.203125
9510,-31.250000
9511,-31.250000
9512,-29.296875
9513,-27.343750
9514,-25.390625
9515,-25.390625
9516,-23.437500
9517,-21.484375
9518,-19.531250
9519,-19.531250
9520,-17.578125
9521,-15.625000
9522,-13.671875
9523,-13.671875
9524,-11.718750
9525,-9.765625
9526,-7.812500
9527,-7.812500
9528,-5.859375
9529,-3.906250
9530,-1.953125
9531,-1.953125
9532,0.000000
9533,1.953125
9534,1.953125
9535,3.906250
9536,5.859375
9537,5.859375
9538,7.812500
9539,9.765625
9540,11.718750
9541,13.671875
9542,13.671875
9543,15.625000
9544,17.578125
9545,17.578125
9546,19.531250
9547,19.531250
9548,21.484375
9549,23.437500
9550,23.437500
9551,25.390625
9552,27.343750
9553,27.343750
9554,29.296875
9555,29.296875
9556,31.250000
9557,33.203125
9558,33.203125
9559,35.156250
9560,35.156250
9561,35.156250
9562,37.109375
9563,39.062500
9564,39.062500
9565,39.062500
9566,41.015625
9567,41.015625
9568,42.968750
9569,42.968750
9570,44.921875
9571,44.921875
9572,46.875000
9573,46.875000
9574,46.875000
9575,46.875000
9576,48.828125
9577,48.828125
9578,50.781250
9579,50.781250
9580,50.781250
9581,50.781250
9582,52.734375
9583,52.734375
9584,52.734375
9585,52.734375
9586,54.687500
9587,54.687500
9588,54.687500
9589,54.687500
9590,54.687500
9591,54.687500
9592,54.687500
9593,56.640625
9594,54.687500
9595,56.640625
9596,56.640625
9597,54.687500
9598,56.640625
9599,56.640625
9600,56.640625
9601,56.640625
9602,56.640625
9603,54.687500
9604,56.640625
9605,56.640625
9606,56.640625
9607,54.687500
9608,54.687500
9609,54.687500
9610,52.734375
9611,52.734375
9612,52.734375
9613,52.734375
9614,52.734375
9615,52.734375
9616,52.734375
9617,50.781250
9618,50.781250
9619,48.828125
9620,48.828125
9621,48.828125
9622,48.828125
9623,48.828125
9624,46.875000
9625,46.875000
9626,44.921875
9627,44.921875
9628,42.968750
9629,42.968750
9630,41.015625
9631,41.015625
9632,41.015625
9633,39.062500
9634,39.062500
9635,37.109375
9636,37.109375
9637,37.109375
9638,35.156250
9639,33.203125
9640,33.203125
9641,31.250000
9642,29.296875
9643,29.296875
9644,27.343750
9645,27.343750
9646,25.390625
9647,25.390625
9648,23.437500
9649,21.484375
9650,21.484375
9651,19.531250
9652,19.531250
9653,17.578125
9654,15.625000
9655,13.671875
9656,11.718750
9657,11.718750
9658,9.765625
9659,9.765625
9660,7.812500
9661,5.859375
9662,5.859375
9663,3.906250
9664,1.953125
9665,0.000000
9666,-1.953125
9667,-1.953125
9668,-3.906250
9669,-5.859375
9670,-5.859375
9671,-7.812500
9672,-9.765625
9673,-11.718750
9674,-11.718750
9675,-13.671875
9676,-15.625000
9677,-17.578125
9678,-19.531250
9679,-19.531250
9680,-21.484375
9681,-23.437500
9682,-25.390625
9683,-25.390625
9684,-27.343750
9685,-29.296875
9686,-29.296875
9687,-31.250000
9688,-33.203125
9689,-33.203125
9690,-35.156250
9691,-37.109375
9692,-39.062500
9693,-39.062500
9694,-41.015625
9695,-41.015625
9696,-42.968750
9697,-44.921875
9698,-46.875000
9699,-46.875000
9700,-48.828125
9701,-48.828125
9702,-50.781250
9703,-50.781250
9704,-52.734375
9705,-54.687500
9706,-54.687500
9707,-56.640625
9708,-56.640625
9709,-58.593750
9710,-58.593750
9711,-60.546875
9712,-60.546875
9713,-60.546875
9714,-62.500000
9715,-64.453125
9716,-64.453125
9717,-64.453125
9718,-64.453125
9719,-66.406250
9720,-66.406250
9721,-68.359375
9722,-68.359375
9723,-68.359375
9724,-68.359375
9725,-70.312500
9726,-70.312500
9727,-70.312500
9728,-70.312500
9729,-72.265625
9730,-72.265625
9731,-72.265625
9732,-72.265625
9733,-72.265625
9734,-74.218750
9735,-74.218750
9736,-72.265625
9737,-74.218750
9738,-74.218750
9739,-74.218750
9740,-72.265625
9741,-74.218750
9742,-74.218750
9743,-74.218750
9744,-74.218750
9745,-74.218750
9746,-74.218750
9747,-72.265625
9748,-72.265625
9749,-72.265625
9750,-70.312500
9751,-70.312500
9752,-70.312500
9753,-70.312500
9754,-70.312500
9755,-70.312500
9756,-68.359375
9757,-68.359375
9758,-68.359375
9759,-68.359375
9760,-66.406250
9761,-66.406250
9762,-64.453125
9763,-64.453125
9764,-64.453125
9765,-62.500000
9766,-62.500000
9767,-60.546875
9768,-60.546875
9769,-58.593750
9770,-58.593750
9771,-56.640625
9772,-56.640625
9773,-54.687500
9774,-54.687500
9775,-52.734375
9776,-50.781250
9777,-50.781250
9778,-50.781250
9779,-48.828125
9780,-46.875000
9781,-46.875000
9782,-44.921875
9783,-42.968750
9784,-42.968750
9785,-41.015625
9786,-41.015625
9787,-39.062500
9788,-37.109375
9789,-35.156250
9790,-35.156250
9791,-33.203125
9792,-31.250000
9793,-29.296875
9794,-29.296875
9795,-27.343750
9796,-25.390625
9797,-25.390625
9798,-23.437500
9799,-21.484375
9800,-19.531250
9801,-19.531250
9802,-17.578125
9803,-15.625000
9804,-13.671875
9805,-13.671875
9806,-11.718750
9807,-11.718750
9808,-7.812500
9809,-7.812500
9810,-5.859375
9811,-3.906250
9812,-3.906250
9813,-1.953125
9814,0.000000
9815,1.953125
9816,1.953125
9817,3.906250
9818,5.859375
9819,7.812500
9820,7.812500
9821,7.812500
9822,11.718750
9823,11.718750
9824,13.671875
9825,13.671875
9826,15.625000
9827,17.578125
9828,19.531250
9829,19.531250
9830,21.484375
9831,23.437500
9832,23.437500
9833,25.390625
9834,27.343750
9835,27.343750
9836,29.296875
9837,29.296875
9838,31.250000
9839,31.250000
9840,33.203125
9841,33.203125
9842,35.156250
9843,35.156250
9844,37.109375
9845,39.062500
9846,39.062500
9847,41.015625
9848,41.015625
9849,41.015625
9850,42.968750
9851,42.968750
9852,44.921875
9853,44.921875
9854,44.921875
9855,46.875000
9856,46.875000
9857,48.828125
9858,48.828125
9859,48.828125
9860,48.828125
9861,50.781250
9862,50.781250
9863,52.734375
9864,52.734375
9865,52.734375
9866,52.734375
9867,52.734375
9868,54.687500
9869,54.687500
9870,54.687500
9871,54.687500
9872,54.687500
9873,54.687500
9874,54.687500
9875,56.640625
9876,56.640625
9877,56.640625
9878,56.640625
9879,56.640625
9880,56.640625
9881,56.640625
9882,56.640625
9883,54.687500
9884,56.640625
9885,54.687500
9886,56.640625
9887,56.640625
9888,58.593750
9889,54.687500
9890,54.687500
9891,54.687500
9892,54.687500
9893,54.687500
9894,52.734375
9895,52.734375
9896,52.734375
9897,52.734375
9898,52.734375
9899,50.781250
9900,50.781250
9901,50.781250
9902,48.828125
9903,48.828125
9904,48.828125
9905,48.828125
9906,46.875000
9907,46.875000
9908,44.921875
9909,44.921875
9910,44.921875
9911,42.968750
9912,42.968750
9913,41.015625
9914,41.015625
9915,39.062500
9916,39.062500
9917,37.109375
9918,37.109375
9919,35.156250
9920,35.156250
9921,33.203125
9922,33.203125
9923,33.203125
9924,31.250000
9925,29.296875
9926,29.296875
9927,27.343750
9928,27.343750
9929,25.390625
9930,23.437500
9931,21.484375
9932,21.484375
9933,19.531250
9934,19.531250
9935,17.578125
9936,15.625000
9937,13.671875
9938,13.671875
9939,11.718750
9940,11.718750
9941,9.765625
9942,7.812500
9943,5.859375
9944,5.859375
9945,3.906250
9946,1.953125
9947,0.000000
9948,0.000000
9949,-1.953125
9950,-3.906250
9951,-5.859375
9952,-5.859375
9953,-7.812500
9954,-9.765625
9955,-9.765625
9956,-11.718750
9957,-13.671875
9958,-15.625000
9959,-17.578125
9960,-17.578125
9961,-19.531250
9962,-21.484375
9963,-23.437500
9964,-25.390625
9965,-25.390625
9966,-27.343750
9967,-27.343750
9968,-29.296875
9969,-31.250000
9970,-31.250000
9971,-33.203125
9972,-35.156250
9973,-37.109375
9974,-39.062500
9975,-39.062500
9976,-41.015625
9977,-41.015625
9978,-42.968750
9979,-44.921875
9980,-44.921875
9981,-46.875000
9982,-46.875000
9983,-48.828125
9984,-50.781250
9985,-50.781250
9986,-52.734375
9987,-52.734375
9988,-54.687500
9989,-54.687500
9990,-56.640625
9991,-56.640625
9992,-58.593750
9993,-58.593750
9994,-60.546875
9995,-60.546875
9996,-62.500000
9997,-62.500000
9998,-64.453125
9999,-66.406250
10000,-64.453125
