Channel              :,CH1
Frequency            :,1.759kHz
Period               :,0.568ms
PK-PK                :,144.5mV
Probe attenuation    :,1X
Voltage per ADC value:,0.122070mV
Time interval        :,2.00000us

index,CH1_Voltage(mV)
1,44.921875
2,44.921875
3,44.921875
4,42.968750
5,42.968750
6,41.015625
7,41.015625
8,39.062500
9,39.062500
10,37.109375
11,35.156250
12,35.156250
13,35.156250
14,33.203125
15,31.250000
16,31.250000
17,29.296875
18,27.343750
19,25.390625
20,25.390625
21,25.390625
22,23.437500
23,21.484375
24,19.531250
25,19.531250
26,17.578125
27,15.625000
28,15.625000
29,13.671875
30,11.718750
31,9.765625
32,9.765625
33,7.812500
34,5.859375
35,3.906250
36,3.906250
37,1.953125
38,0.000000
39,0.000000
40,-1.953125
41,-5.859375
42,-5.859375
43,-7.812500
44,-9.765625
45,-9.765625
46,-11.718750
47,-13.671875
48,-15.625000
49,-15.625000
50,-17.578125
51,-19.531250
52,-19.531250
53,-23.437500
54,-23.437500
55,-25.390625
56,-25.390625
57,-29.296875
58,-29.296875
59,-31.250000
60,-33.203125
61,-33.203125
62,-35.156250
63,-37.109375
64,-37.109375
65,-39.062500
66,-41.015625
67,-42.968750
68,-42.968750
69,-44.921875
70,-42.968750
71,-46.875000
72,-48.828125
73,-48.828125
74,-50.781250
75,-50.781250
76,-52.734375
77,-54.687500
78,-54.687500
79,-56.640625
80,-56.640625
81,-58.593750
82,-58.593750
83,-60.546875
84,-60.546875
85,-62.500000
86,-62.500000
87,-64.453125
88,-64.453125
89,-64.453125
90,-66.406250
91,-66.406250
92,-68.359375
93,-68.359375
94,-68.359375
95,-68.359375
96,-68.359375
97,-70.312500
98,-72.265625
99,-72.265625
100,-72.265625
101,-72.265625
102,-72.265625
103,-72.265625
104,-72.265625
105,-74.218750
106,-74.218750
107,-74.218750
108,-74.218750
109,-74.218750
110,-74.218750
111,-74.218750
112,-74.218750
113,-74.218750
114,-74.218750
115,-74.218750
116,-74.218750
117,-74.218750
118,-74.218750
119,-72.265625
120,-72.265625
121,-72.265625
122,-72.265625
123,-72.265625
124,-72.265625
125,-70.312500
126,-70.312500
127,-70.312500
128,-68.359375
129,-68.359375
130,-68.359375
131,-68.359375
132,-66.406250
133,-66.406250
134,-66.406250
135,-64.453125
136,-62.500000
137,-62.500000
138,-62.500000
139,-62.500000
140,-58.593750
141,-58.593750
142,-58.593750
143,-56.640625
144,-56.640625
145,-54.687500
146,-54.687500
147,-52.734375
148,-52.734375
149,-50.781250
150,-48.828125
151,-48.828125
152,-46.875000
153,-46.875000
154,-44.921875
155,-42.968750
156,-41.015625
157,-41.015625
158,-39.062500
159,-39.062500
160,-37.109375
161,-35.156250
162,-35.156250
163,-31.250000
164,-31.250000
165,-31.250000
166,-27.343750
167,-27.343750
168,-25.390625
169,-23.437500
170,-23.437500
171,-21.484375
172,-19.531250
173,-17.578125
174,-15.625000
175,-15.625000
176,-13.671875
177,-11.718750
178,-11.718750
179,-9.765625
180,-7.812500
181,-5.859375
182,-3.906250
183,-3.906250
184,-1.953125
185,0.000000
186,0.000000
187,1.953125
188,3.906250
189,5.859375
190,7.812500
191,7.812500
192,9.765625
193,11.718750
194,11.718750
195,13.671875
196,15.625000
197,17.578125
198,17.578125
199,19.531250
200,21.484375
201,21.484375
202,23.437500
203,25.390625
204,25.390625
205,27.343750
206,29.296875
207,31.250000
208,31.250000
209,33.203125
210,35.156250
211,35.156250
212,35.156250
213,35.156250
214,39.062500
215,39.062500
216,41.015625
217,41.015625
218,41.015625
219,42.968750
220,42.968750
221,44.921875
222,46.875000
223,46.875000
224,46.875000
225,48.828125
226,48.828125
227,50.781250
228,50.781250
229,52.734375
230,52.734375
231,52.734375
232,52.734375
233,52.734375
234,54.687500
235,54.687500
236,54.687500
237,56.640625
238,56.640625
239,58.593750
240,56.640625
241,56.640625
242,58.593750
243,60.546875
244,58.593750
245,58.593750
246,58.593750
247,58.593750
248,60.546875
249,60.546875
250,60.546875
251,60.546875
252,58.593750
253,60.546875
254,60.546875
255,60.546875
256,60.546875
257,60.546875
258,60.546875
259,60.546875
260,60.546875
261,60.546875
262,60.546875
263,58.593750
264,58.593750
265,58.593750
266,58.593750
267,58.593750
268,56.640625
269,56.640625
270,58.593750
271,56.640625
272,56.640625
273,54.687500
274,54.687500
275,54.687500
276,52.734375
277,52.734375
278,52.734375
279,50.781250
280,50.781250
281,50.781250
282,48.828125
283,48.828125
284,46.875000
285,46.875000
286,44.921875
287,44.921875
288,42.968750
289,42.968750
290,41.015625
291,41.015625
292,41.015625
293,39.062500
294,37.109375
295,37.109375
296,31.250000
297,33.203125
298,33.203125
299,31.250000
300,31.250000
301,29.296875
302,29.296875
303,27.343750
304,25.390625
305,25.390625
306,23.437500
307,23.437500
308,19.531250
309,17.578125
310,17.578125
311,15.625000
312,13.671875
313,13.671875
314,11.718750
315,9.765625
316,9.765625
317,7.812500
318,5.859375
319,3.906250
320,3.906250
321,1.953125
322,0.000000
323,-3.906250
324,-1.953125
325,-3.906250
326,-5.859375
327,-7.812500
328,-7.812500
329,-9.765625
330,-11.718750
331,-11.718750
332,-13.671875
333,-15.625000
334,-17.578125
335,-19.531250
336,-19.531250
337,-21.484375
338,-23.437500
339,-25.390625
340,-25.390625
341,-27.343750
342,-29.296875
343,-29.296875
344,-31.250000
345,-33.203125
346,-35.156250
347,-35.156250
348,-37.109375
349,-39.062500
350,-41.015625
351,-42.968750
352,-42.968750
353,-42.968750
354,-44.921875
355,-46.875000
356,-46.875000
357,-48.828125
358,-50.781250
359,-50.781250
360,-52.734375
361,-52.734375
362,-54.687500
363,-54.687500
364,-56.640625
365,-56.640625
366,-56.640625
367,-60.546875
368,-60.546875
369,-60.546875
370,-62.500000
371,-62.500000
372,-66.406250
373,-64.453125
374,-66.406250
375,-66.406250
376,-66.406250
377,-66.406250
378,-68.359375
379,-68.359375
380,-70.312500
381,-70.312500
382,-72.265625
383,-72.265625
384,-72.265625
385,-72.265625
386,-74.218750
387,-72.265625
388,-74.218750
389,-74.218750
390,-72.265625
391,-74.218750
392,-74.218750
393,-74.218750
394,-70.312500
395,-74.218750
396,-74.218750
397,-74.218750
398,-74.218750
399,-74.218750
400,-74.218750
401,-76.171875
402,-74.218750
403,-72.265625
404,-72.265625
405,-72.265625
406,-72.265625
407,-72.265625
408,-72.265625
409,-70.312500
410,-72.265625
411,-70.312500
412,-70.312500
413,-68.359375
414,-68.359375
415,-66.406250
416,-66.406250
417,-66.406250
418,-66.406250
419,-64.453125
420,-64.453125
421,-62.500000
422,-62.500000
423,-62.500000
424,-60.546875
425,-58.593750
426,-58.593750
427,-58.593750
428,-56.640625
429,-56.640625
430,-54.687500
431,-52.734375
432,-52.734375
433,-50.781250
434,-50.781250
435,-48.828125
436,-48.828125
437,-46.875000
438,-44.921875
439,-44.921875
440,-42.968750
441,-42.968750
442,-37.109375
443,-39.062500
444,-37.109375
445,-37.109375
446,-35.156250
447,-33.203125
448,-33.203125
449,-31.250000
450,-29.296875
451,-27.343750
452,-27.343750
453,-25.390625
454,-23.437500
455,-21.484375
456,-21.484375
457,-19.531250
458,-17.578125
459,-15.625000
460,-13.671875
461,-11.718750
462,-11.718750
463,-9.765625
464,-7.812500
465,-7.812500
466,-5.859375
467,-3.906250
468,-1.953125
469,0.000000
470,0.000000
471,1.953125
472,3.906250
473,3.906250
474,5.859375
475,7.812500
476,9.765625
477,9.765625
478,11.718750
479,13.671875
480,15.625000
481,15.625000
482,17.578125
483,19.531250
484,21.484375
485,21.484375
486,23.437500
487,23.437500
488,25.390625
489,27.343750
490,29.296875
491,29.296875
492,31.250000
493,31.250000
494,33.203125
495,33.203125
496,35.156250
497,35.156250
498,37.109375
499,37.109375
500,39.062500
501,41.015625
502,41.015625
503,42.968750
504,42.968750
505,41.015625
506,44.921875
507,46.875000
508,46.875000
509,46.875000
510,48.828125
511,48.828125
512,48.828125
513,50.781250
514,50.781250
515,52.734375
516,52.734375
517,54.687500
518,52.734375
519,54.687500
520,54.687500
521,56.640625
522,56.640625
523,56.640625
524,56.640625
525,58.593750
526,56.640625
527,58.593750
528,58.593750
529,58.593750
530,58.593750
531,60.546875
532,60.546875
533,60.546875
534,60.546875
535,60.546875
536,60.546875
537,60.546875
538,60.546875
539,60.546875
540,60.546875
541,60.546875
542,60.546875
543,60.546875
544,60.546875
545,60.546875
546,58.593750
547,58.593750
548,60.546875
549,58.593750
550,58.593750
551,58.593750
552,56.640625
553,56.640625
554,56.640625
555,56.640625
556,56.640625
557,54.687500
558,54.687500
559,52.734375
560,52.734375
561,52.734375
562,50.781250
563,50.781250
564,50.781250
565,48.828125
566,48.828125
567,46.875000
568,46.875000
569,46.875000
570,44.921875
571,44.921875
572,42.968750
573,42.968750
574,42.968750
575,39.062500
576,39.062500
577,37.109375
578,37.109375
579,37.109375
580,35.156250
581,35.156250
582,33.203125
583,31.250000
584,31.250000
585,29.296875
586,27.343750
587,27.343750
588,25.390625
589,25.390625
590,23.437500
591,21.484375
592,19.531250
593,19.531250
594,17.578125
595,15.625000
596,15.625000
597,13.671875
598,11.718750
599,11.718750
600,9.765625
601,7.812500
602,5.859375
603,5.859375
604,1.953125
605,1.953125
606,0.000000
607,0.000000
608,-1.953125
609,-3.906250
610,-5.859375
611,-7.812500
612,-7.812500
613,-9.765625
614,-11.718750
615,-11.718750
616,-13.671875
617,-15.625000
618,-17.578125
619,-19.531250
620,-21.484375
621,-21.484375
622,-23.437500
623,-25.390625
624,-27.343750
625,-27.343750
626,-29.296875
627,-29.296875
628,-31.250000
629,-33.203125
630,-35.156250
631,-37.109375
632,-37.109375
633,-39.062500
634,-41.015625
635,-41.015625
636,-42.968750
637,-44.921875
638,-44.921875
639,-46.875000
640,-48.828125
641,-48.828125
642,-50.781250
643,-52.734375
644,-52.734375
645,-52.734375
646,-54.687500
647,-56.640625
648,-56.640625
649,-58.593750
650,-58.593750
651,-60.546875
652,-60.546875
653,-60.546875
654,-62.500000
655,-62.500000
656,-64.453125
657,-64.453125
658,-66.406250
659,-66.406250
660,-68.359375
661,-68.359375
662,-68.359375
663,-68.359375
664,-68.359375
665,-70.312500
666,-70.312500
667,-70.312500
668,-72.265625
669,-72.265625
670,-72.265625
671,-72.265625
672,-72.265625
673,-72.265625
674,-74.218750
675,-74.218750
676,-72.265625
677,-74.218750
678,-74.218750
679,-74.218750
680,-74.218750
681,-72.265625
682,-74.218750
683,-74.218750
684,-74.218750
685,-72.265625
686,-74.218750
687,-72.265625
688,-72.265625
689,-72.265625
690,-72.265625
691,-72.265625
692,-72.265625
693,-72.265625
694,-70.312500
695,-70.312500
696,-68.359375
697,-70.312500
698,-68.359375
699,-68.359375
700,-68.359375
701,-66.406250
702,-64.453125
703,-64.453125
704,-64.453125
705,-62.500000
706,-62.500000
707,-60.546875
708,-60.546875
709,-60.546875
710,-58.593750
711,-58.593750
712,-54.687500
713,-54.687500
714,-54.687500
715,-52.734375
716,-52.734375
717,-50.781250
718,-48.828125
719,-48.828125
720,-48.828125
721,-46.875000
722,-44.921875
723,-42.968750
724,-41.015625
725,-41.015625
726,-39.062500
727,-39.062500
728,-37.109375
729,-35.156250
730,-35.156250
731,-33.203125
732,-31.250000
733,-29.296875
734,-29.296875
735,-27.343750
736,-25.390625
737,-23.437500
738,-23.437500
739,-21.484375
740,-19.531250
741,-17.578125
742,-17.578125
743,-15.625000
744,-13.671875
745,-11.718750
746,-11.718750
747,-9.765625
748,-7.812500
749,-5.859375
750,-5.859375
751,-3.906250
752,-1.953125
753,-1.953125
754,0.000000
755,1.953125
756,3.906250
757,3.906250
758,5.859375
759,7.812500
760,9.765625
761,9.765625
762,11.718750
763,13.671875
764,15.625000
765,17.578125
766,17.578125
767,19.531250
768,19.531250
769,21.484375
770,23.437500
771,23.437500
772,25.390625
773,27.343750
774,27.343750
775,29.296875
776,31.250000
777,31.250000
778,33.203125
779,35.156250
780,35.156250
781,37.109375
782,39.062500
783,39.062500
784,39.062500
785,41.015625
786,41.015625
787,42.968750
788,42.968750
789,44.921875
790,44.921875
791,46.875000
792,46.875000
793,48.828125
794,48.828125
795,48.828125
796,50.781250
797,50.781250
798,52.734375
799,52.734375
800,54.687500
801,52.734375
802,54.687500
803,54.687500
804,54.687500
805,56.640625
806,56.640625
807,56.640625
808,58.593750
809,58.593750
810,58.593750
811,58.593750
812,58.593750
813,58.593750
814,58.593750
815,60.546875
816,60.546875
817,58.593750
818,60.546875
819,60.546875
820,60.546875
821,60.546875
822,60.546875
823,58.593750
824,60.546875
825,60.546875
826,60.546875
827,60.546875
828,60.546875
829,58.593750
830,60.546875
831,58.593750
832,58.593750
833,58.593750
834,56.640625
835,58.593750
836,56.640625
837,56.640625
838,56.640625
839,56.640625
840,56.640625
841,54.687500
842,54.687500
843,54.687500
844,52.734375
845,52.734375
846,52.734375
847,50.781250
848,50.781250
849,50.781250
850,48.828125
851,46.875000
852,46.875000
853,46.875000
854,46.875000
855,44.921875
856,44.921875
857,42.968750
858,42.968750
859,41.015625
860,41.015625
861,39.062500
862,37.109375
863,37.109375
864,35.156250
865,35.156250
866,33.203125
867,33.203125
868,31.250000
869,29.296875
870,29.296875
871,27.343750
872,25.390625
873,25.390625
874,23.437500
875,21.484375
876,19.531250
877,19.531250
878,17.578125
879,15.625000
880,15.625000
881,13.671875
882,11.718750
883,9.765625
884,9.765625
885,7.812500
886,5.859375
887,3.906250
888,3.906250
889,1.953125
890,0.000000
891,-1.953125
892,-1.953125
893,-3.906250
894,-5.859375
895,-7.812500
896,-7.812500
897,-9.765625
898,-11.718750
899,-13.671875
900,-13.671875
901,-15.625000
902,-17.578125
903,-19.531250
904,-21.484375
905,-21.484375
906,-23.437500
907,-25.390625
908,-25.390625
909,-27.343750
910,-29.296875
911,-29.296875
912,-31.250000
913,-33.203125
914,-35.156250
915,-37.109375
916,-37.109375
917,-39.062500
918,-39.062500
919,-41.015625
920,-41.015625
921,-44.921875
922,-44.921875
923,-46.875000
924,-46.875000
925,-48.828125
926,-50.781250
927,-50.781250
928,-52.734375
929,-52.734375
930,-54.687500
931,-54.687500
932,-56.640625
933,-58.593750
934,-58.593750
935,-60.546875
936,-60.546875
937,-62.500000
938,-62.500000
939,-64.453125
940,-64.453125
941,-64.453125
942,-66.406250
943,-66.406250
944,-66.406250
945,-68.359375
946,-68.359375
947,-68.359375
948,-70.312500
949,-70.312500
950,-70.312500
951,-72.265625
952,-70.312500
953,-72.265625
954,-72.265625
955,-74.218750
956,-72.265625
957,-72.265625
958,-74.218750
959,-74.218750
960,-74.218750
961,-74.218750
962,-74.218750
963,-74.218750
964,-74.218750
965,-74.218750
966,-74.218750
967,-74.218750
968,-74.218750
969,-74.218750
970,-74.218750
971,-74.218750
972,-74.218750
973,-72.265625
974,-74.218750
975,-72.265625
976,-72.265625
977,-72.265625
978,-70.312500
979,-70.312500
980,-70.312500
981,-68.359375
982,-68.359375
983,-68.359375
984,-66.406250
985,-66.406250
986,-66.406250
987,-64.453125
988,-64.453125
989,-64.453125
990,-66.406250
991,-60.546875
992,-60.546875
993,-60.546875
994,-58.593750
995,-58.593750
996,-56.640625
997,-56.640625
998,-54.687500
999,-52.734375
1000,-52.734375
1001,-52.734375
1002,-50.781250
1003,-48.828125
1004,-48.828125
1005,-46.875000
1006,-44.921875
1007,-44.921875
1008,-42.968750
1009,-42.968750
1010,-41.015625
1011,-39.062500
1012,-39.062500
1013,-37.109375
1014,-35.156250
1015,-35.156250
1016,-33.203125
1017,-31.250000
1018,-29.296875
1019,-29.296875
1020,-27.343750
1021,-25.390625
1022,-23.437500
1023,-23.437500
1024,-21.484375
1025,-19.531250
1026,-19.531250
1027,-15.625000
1028,-15.625000
1029,-13.671875
1030,-11.718750
1031,-9.765625
1032,-9.765625
1033,-7.812500
1034,-5.859375
1035,-3.906250
1036,-1.953125
1037,-1.953125
1038,0.000000
1039,1.953125
1040,3.906250
1041,3.906250
1042,5.859375
1043,7.812500
1044,9.765625
1045,9.765625
1046,11.718750
1047,13.671875
1048,15.625000
1049,15.625000
1050,17.578125
1051,19.531250
1052,19.531250
1053,21.484375
1054,21.484375
1055,23.437500
1056,25.390625
1057,25.390625
1058,27.343750
1059,29.296875
1060,29.296875
1061,31.250000
1062,33.203125
1063,33.203125
1064,35.156250
1065,37.109375
1066,37.109375
1067,39.062500
1068,39.062500
1069,41.015625
1070,42.968750
1071,41.015625
1072,42.968750
1073,44.921875
1074,44.921875
1075,44.921875
1076,46.875000
1077,48.828125
1078,48.828125
1079,48.828125
1080,50.781250
1081,50.781250
1082,54.687500
1083,52.734375
1084,52.734375
1085,54.687500
1086,54.687500
1087,54.687500
1088,54.687500
1089,56.640625
1090,56.640625
1091,56.640625
1092,56.640625
1093,56.640625
1094,58.593750
1095,58.593750
1096,58.593750
1097,58.593750
1098,58.593750
1099,58.593750
1100,58.593750
1101,60.546875
1102,60.546875
1103,60.546875
1104,60.546875
1105,60.546875
1106,60.546875
1107,60.546875
1108,60.546875
1109,60.546875
1110,60.546875
1111,60.546875
1112,60.546875
1113,60.546875
1114,58.593750
1115,60.546875
1116,58.593750
1117,58.593750
1118,58.593750
1119,58.593750
1120,58.593750
1121,56.640625
1122,56.640625
1123,56.640625
1124,56.640625
1125,54.687500
1126,54.687500
1127,54.687500
1128,52.734375
1129,52.734375
1130,52.734375
1131,52.734375
1132,50.781250
1133,48.828125
1134,50.781250
1135,48.828125
1136,46.875000
1137,46.875000
1138,46.875000
1139,44.921875
1140,44.921875
1141,42.968750
1142,42.968750
1143,41.015625
1144,39.062500
1145,39.062500
1146,37.109375
1147,37.109375
1148,35.156250
1149,35.156250
1150,33.203125
1151,33.203125
1152,31.250000
1153,29.296875
1154,29.296875
1155,27.343750
1156,25.390625
1157,25.390625
1158,23.437500
1159,21.484375
1160,21.484375
1161,19.531250
1162,17.578125
1163,17.578125
1164,15.625000
1165,13.671875
1166,13.671875
1167,11.718750
1168,9.765625
1169,7.812500
1170,7.812500
1171,5.859375
1172,3.906250
1173,1.953125
1174,1.953125
1175,-1.953125
1176,-1.953125
1177,-3.906250
1178,-5.859375
1179,-5.859375
1180,-7.812500
1181,-9.765625
1182,-9.765625
1183,-11.718750
1184,-11.718750
1185,-15.625000
1186,-17.578125
1187,-17.578125
1188,-19.531250
1189,-21.484375
1190,-23.437500
1191,-23.437500
1192,-25.390625
1193,-27.343750
1194,-27.343750
1195,-31.250000
1196,-31.250000
1197,-33.203125
1198,-33.203125
1199,-35.156250
1200,-37.109375
1201,-37.109375
1202,-39.062500
1203,-41.015625
1204,-41.015625
1205,-42.968750
1206,-44.921875
1207,-46.875000
1208,-46.875000
1209,-48.828125
1210,-50.781250
1211,-50.781250
1212,-52.734375
1213,-54.687500
1214,-52.734375
1215,-54.687500
1216,-56.640625
1217,-56.640625
1218,-58.593750
1219,-60.546875
1220,-60.546875
1221,-60.546875
1222,-62.500000
1223,-62.500000
1224,-64.453125
1225,-64.453125
1226,-64.453125
1227,-66.406250
1228,-66.406250
1229,-68.359375
1230,-68.359375
1231,-68.359375
1232,-70.312500
1233,-70.312500
1234,-70.312500
1235,-70.312500
1236,-70.312500
1237,-70.312500
1238,-72.265625
1239,-72.265625
1240,-72.265625
1241,-74.218750
1242,-72.265625
1243,-72.265625
1244,-74.218750
1245,-74.218750
1246,-72.265625
1247,-74.218750
1248,-74.218750
1249,-72.265625
1250,-74.218750
1251,-74.218750
1252,-72.265625
1253,-74.218750
1254,-72.265625
1255,-72.265625
1256,-72.265625
1257,-72.265625
1258,-72.265625
1259,-70.312500
1260,-72.265625
1261,-70.312500
1262,-70.312500
1263,-70.312500
1264,-70.312500
1265,-68.359375
1266,-68.359375
1267,-68.359375
1268,-66.406250
1269,-66.406250
1270,-66.406250
1271,-64.453125
1272,-64.453125
1273,-64.453125
1274,-62.500000
1275,-60.546875
1276,-60.546875
1277,-58.593750
1278,-58.593750
1279,-58.593750
1280,-56.640625
1281,-54.687500
1282,-54.687500
1283,-52.734375
1284,-52.734375
1285,-50.781250
1286,-50.781250
1287,-46.875000
1288,-48.828125
1289,-46.875000
1290,-44.921875
1291,-44.921875
1292,-42.968750
1293,-41.015625
1294,-41.015625
1295,-39.062500
1296,-37.109375
1297,-37.109375
1298,-35.156250
1299,-33.203125
1300,-33.203125
1301,-31.250000
1302,-29.296875
1303,-27.343750
1304,-25.390625
1305,-25.390625
1306,-23.437500
1307,-21.484375
1308,-19.531250
1309,-19.531250
1310,-17.578125
1311,-15.625000
1312,-13.671875
1313,-11.718750
1314,-11.718750
1315,-9.765625
1316,-7.812500
1317,-5.859375
1318,-5.859375
1319,-3.906250
1320,-1.953125
1321,0.000000
1322,0.000000
1323,1.953125
1324,3.906250
1325,5.859375
1326,7.812500
1327,7.812500
1328,9.765625
1329,11.718750
1330,11.718750
1331,13.671875
1332,15.625000
1333,15.625000
1334,17.578125
1335,19.531250
1336,19.531250
1337,21.484375
1338,23.437500
1339,23.437500
1340,25.390625
1341,27.343750
1342,29.296875
1343,29.296875
1344,31.250000
1345,33.203125
1346,31.250000
1347,33.203125
1348,35.156250
1349,37.109375
1350,37.109375
1351,37.109375
1352,39.062500
1353,41.015625
1354,42.968750
1355,42.968750
1356,42.968750
1357,44.921875
1358,44.921875
1359,44.921875
1360,46.875000
1361,48.828125
1362,48.828125
1363,50.781250
1364,50.781250
1365,50.781250
1366,52.734375
1367,52.734375
1368,52.734375
1369,54.687500
1370,54.687500
1371,54.687500
1372,56.640625
1373,54.687500
1374,56.640625
1375,58.593750
1376,56.640625
1377,58.593750
1378,58.593750
1379,58.593750
1380,58.593750
1381,58.593750
1382,60.546875
1383,58.593750
1384,60.546875
1385,60.546875
1386,60.546875
1387,60.546875
1388,60.546875
1389,60.546875
1390,60.546875
1391,60.546875
1392,60.546875
1393,60.546875
1394,60.546875
1395,60.546875
1396,60.546875
1397,60.546875
1398,60.546875
1399,58.593750
1400,58.593750
1401,58.593750
1402,58.593750
1403,58.593750
1404,58.593750
1405,56.640625
1406,56.640625
1407,56.640625
1408,56.640625
1409,54.687500
1410,54.687500
1411,52.734375
1412,52.734375
1413,52.734375
1414,52.734375
1415,50.781250
1416,50.781250
1417,50.781250
1418,48.828125
1419,48.828125
1420,46.875000
1421,46.875000
1422,44.921875
1423,44.921875
1424,42.968750
1425,41.015625
1426,42.968750
1427,41.015625
1428,39.062500
1429,39.062500
1430,35.156250
1431,35.156250
1432,35.156250
1433,35.156250
1434,33.203125
1435,33.203125
1436,31.250000
1437,29.296875
1438,29.296875
1439,27.343750
1440,25.390625
1441,25.390625
1442,23.437500
1443,21.484375
1444,21.484375
1445,19.531250
1446,17.578125
1447,17.578125
1448,15.625000
1449,13.671875
1450,13.671875
1451,11.718750
1452,9.765625
1453,9.765625
1454,7.812500
1455,5.859375
1456,3.906250
1457,1.953125
1458,0.000000
1459,0.000000
1460,-1.953125
1461,-3.906250
1462,-3.906250
1463,-5.859375
1464,-7.812500
1465,-9.765625
1466,-11.718750
1467,-11.718750
1468,-13.671875
1469,-15.625000
1470,-17.578125
1471,-19.531250
1472,-19.531250
1473,-21.484375
1474,-23.437500
1475,-23.437500
1476,-25.390625
1477,-27.343750
1478,-29.296875
1479,-29.296875
1480,-33.203125
1481,-33.203125
1482,-35.156250
1483,-35.156250
1484,-37.109375
1485,-39.062500
1486,-41.015625
1487,-41.015625
1488,-42.968750
1489,-42.968750
1490,-44.921875
1491,-46.875000
1492,-48.828125
1493,-48.828125
1494,-48.828125
1495,-50.781250
1496,-52.734375
1497,-52.734375
1498,-54.687500
1499,-54.687500
1500,-56.640625
1501,-56.640625
1502,-58.593750
1503,-58.593750
1504,-60.546875
1505,-62.500000
1506,-62.500000
1507,-62.500000
1508,-64.453125
1509,-64.453125
1510,-66.406250
1511,-66.406250
1512,-66.406250
1513,-68.359375
1514,-68.359375
1515,-68.359375
1516,-68.359375
1517,-70.312500
1518,-70.312500
1519,-70.312500
1520,-72.265625
1521,-72.265625
1522,-72.265625
1523,-72.265625
1524,-72.265625
1525,-74.218750
1526,-74.218750
1527,-72.265625
1528,-74.218750
1529,-74.218750
1530,-74.218750
1531,-74.218750
1532,-74.218750
1533,-74.218750
1534,-74.218750
1535,-74.218750
1536,-74.218750
1537,-74.218750
1538,-74.218750
1539,-74.218750
1540,-74.218750
1541,-72.265625
1542,-72.265625
1543,-72.265625
1544,-72.265625
1545,-72.265625
1546,-70.312500
1547,-70.312500
1548,-70.312500
1549,-70.312500
1550,-70.312500
1551,-68.359375
1552,-68.359375
1553,-66.406250
1554,-70.312500
1555,-64.453125
1556,-64.453125
1557,-64.453125
1558,-62.500000
1559,-62.500000
1560,-62.500000
1561,-60.546875
1562,-58.593750
1563,-58.593750
1564,-56.640625
1565,-56.640625
1566,-54.687500
1567,-52.734375
1568,-52.734375
1569,-52.734375
1570,-50.781250
1571,-52.734375
1572,-44.921875
1573,-46.875000
1574,-44.921875
1575,-44.921875
1576,-42.968750
1577,-41.015625
1578,-39.062500
1579,-39.062500
1580,-37.109375
1581,-35.156250
1582,-35.156250
1583,-33.203125
1584,-31.250000
1585,-31.250000
1586,-29.296875
1587,-27.343750
1588,-27.343750
1589,-25.390625
1590,-23.437500
1591,-23.437500
1592,-21.484375
1593,-19.531250
1594,-17.578125
1595,-17.578125
1596,-13.671875
1597,-13.671875
1598,-11.718750
1599,-9.765625
1600,-9.765625
1601,-7.812500
1602,-5.859375
1603,-5.859375
1604,-1.953125
1605,-1.953125
1606,0.000000
1607,0.000000
1608,1.953125
1609,3.906250
1610,5.859375
1611,7.812500
1612,7.812500
1613,9.765625
1614,9.765625
1615,13.671875
1616,13.671875
1617,15.625000
1618,17.578125
1619,19.531250
1620,19.531250
1621,21.484375
1622,21.484375
1623,23.437500
1624,25.390625
1625,27.343750
1626,25.390625
1627,29.296875
1628,29.296875
1629,31.250000
1630,33.203125
1631,33.203125
1632,35.156250
1633,35.156250
1634,37.109375
1635,39.062500
1636,39.062500
1637,41.015625
1638,41.015625
1639,42.968750
1640,42.968750
1641,44.921875
1642,44.921875
1643,46.875000
1644,46.875000
1645,46.875000
1646,46.875000
1647,50.781250
1648,50.781250
1649,50.781250
1650,52.734375
1651,52.734375
1652,52.734375
1653,52.734375
1654,54.687500
1655,54.687500
1656,54.687500
1657,56.640625
1658,56.640625
1659,56.640625
1660,56.640625
1661,56.640625
1662,58.593750
1663,58.593750
1664,58.593750
1665,58.593750
1666,58.593750
1667,58.593750
1668,58.593750
1669,58.593750
1670,60.546875
1671,60.546875
1672,58.593750
1673,60.546875
1674,60.546875
1675,60.546875
1676,60.546875
1677,60.546875
1678,60.546875
1679,60.546875
1680,60.546875
1681,58.593750
1682,60.546875
1683,58.593750
1684,58.593750
1685,58.593750
1686,58.593750
1687,58.593750
1688,58.593750
1689,56.640625
1690,56.640625
1691,56.640625
1692,56.640625
1693,54.687500
1694,54.687500
1695,54.687500
1696,52.734375
1697,52.734375
1698,52.734375
1699,52.734375
1700,50.781250
1701,52.734375
1702,48.828125
1703,48.828125
1704,48.828125
1705,46.875000
1706,42.968750
1707,44.921875
1708,44.921875
1709,42.968750
1710,42.968750
1711,41.015625
1712,41.015625
1713,39.062500
1714,39.062500
1715,39.062500
1716,35.156250
1717,35.156250
1718,35.156250
1719,31.250000
1720,31.250000
1721,29.296875
1722,29.296875
1723,27.343750
1724,27.343750
1725,25.390625
1726,23.437500
1727,21.484375
1728,21.484375
1729,19.531250
1730,17.578125
1731,17.578125
1732,15.625000
1733,13.671875
1734,13.671875
1735,11.718750
1736,9.765625
1737,7.812500
1738,7.812500
1739,5.859375
1740,3.906250
1741,1.953125
1742,1.953125
1743,0.000000
1744,-1.953125
1745,-3.906250
1746,-5.859375
1747,-5.859375
1748,-7.812500
1749,-7.812500
1750,-11.718750
1751,-11.718750
1752,-13.671875
1753,-15.625000
1754,-17.578125
1755,-15.625000
1756,-19.531250
1757,-21.484375
1758,-23.437500
1759,-23.437500
1760,-25.390625
1761,-27.343750
1762,-27.343750
1763,-31.250000
1764,-31.250000
1765,-33.203125
1766,-33.203125
1767,-35.156250
1768,-37.109375
1769,-37.109375
1770,-39.062500
1771,-41.015625
1772,-41.015625
1773,-42.968750
1774,-44.921875
1775,-44.921875
1776,-46.875000
1777,-46.875000
1778,-48.828125
1779,-50.781250
1780,-50.781250
1781,-52.734375
1782,-54.687500
1783,-54.687500
1784,-56.640625
1785,-56.640625
1786,-58.593750
1787,-58.593750
1788,-62.500000
1789,-60.546875
1790,-60.546875
1791,-62.500000
1792,-64.453125
1793,-64.453125
1794,-64.453125
1795,-66.406250
1796,-66.406250
1797,-68.359375
1798,-68.359375
1799,-70.312500
1800,-68.359375
1801,-70.312500
1802,-70.312500
1803,-70.312500
1804,-72.265625
1805,-72.265625
1806,-72.265625
1807,-72.265625
1808,-72.265625
1809,-74.218750
1810,-74.218750
1811,-74.218750
1812,-74.218750
1813,-74.218750
1814,-74.218750
1815,-74.218750
1816,-74.218750
1817,-74.218750
1818,-74.218750
1819,-74.218750
1820,-74.218750
1821,-74.218750
1822,-72.265625
1823,-72.265625
1824,-72.265625
1825,-72.265625
1826,-72.265625
1827,-72.265625
1828,-72.265625
1829,-70.312500
1830,-70.312500
1831,-70.312500
1832,-70.312500
1833,-70.312500
1834,-68.359375
1835,-68.359375
1836,-66.406250
1837,-66.406250
1838,-66.406250
1839,-64.453125
1840,-62.500000
1841,-64.453125
1842,-62.500000
1843,-62.500000
1844,-60.546875
1845,-60.546875
1846,-58.593750
1847,-58.593750
1848,-56.640625
1849,-54.687500
1850,-54.687500
1851,-52.734375
1852,-52.734375
1853,-50.781250
1854,-50.781250
1855,-48.828125
1856,-46.875000
1857,-46.875000
1858,-44.921875
1859,-42.968750
1860,-42.968750
1861,-42.968750
1862,-41.015625
1863,-39.062500
1864,-37.109375
1865,-37.109375
1866,-35.156250
1867,-33.203125
1868,-33.203125
1869,-31.250000
1870,-29.296875
1871,-29.296875
1872,-27.343750
1873,-25.390625
1874,-23.437500
1875,-23.437500
1876,-21.484375
1877,-19.531250
1878,-17.578125
1879,-17.578125
1880,-15.625000
1881,-13.671875
1882,-11.718750
1883,-11.718750
1884,-9.765625
1885,-7.812500
1886,-5.859375
1887,-3.906250
1888,-1.953125
1889,-1.953125
1890,0.000000
1891,1.953125
1892,3.906250
1893,3.906250
1894,5.859375
1895,7.812500
1896,9.765625
1897,9.765625
1898,11.718750
1899,13.671875
1900,13.671875
1901,15.625000
1902,17.578125
1903,17.578125
1904,19.531250
1905,21.484375
1906,21.484375
1907,23.437500
1908,25.390625
1909,25.390625
1910,27.343750
1911,29.296875
1912,29.296875
1913,31.250000
1914,33.203125
1915,33.203125
1916,35.156250
1917,35.156250
1918,37.109375
1919,39.062500
1920,39.062500
1921,41.015625
1922,41.015625
1923,41.015625
1924,42.968750
1925,44.921875
1926,44.921875
1927,46.875000
1928,46.875000
1929,46.875000
1930,48.828125
1931,48.828125
1932,50.781250
1933,50.781250
1934,50.781250
1935,52.734375
1936,52.734375
1937,54.687500
1938,54.687500
1939,54.687500
1940,56.640625
1941,54.687500
1942,56.640625
1943,56.640625
1944,56.640625
1945,58.593750
1946,56.640625
1947,58.593750
1948,58.593750
1949,58.593750
1950,60.546875
1951,58.593750
1952,60.546875
1953,60.546875
1954,60.546875
1955,60.546875
1956,60.546875
1957,60.546875
1958,60.546875
1959,60.546875
1960,60.546875
1961,60.546875
1962,60.546875
1963,60.546875
1964,60.546875
1965,60.546875
1966,60.546875
1967,58.593750
1968,60.546875
1969,58.593750
1970,58.593750
1971,58.593750
1972,56.640625
1973,56.640625
1974,56.640625
1975,56.640625
1976,54.687500
1977,54.687500
1978,54.687500
1979,54.687500
1980,52.734375
1981,52.734375
1982,52.734375
1983,50.781250
1984,50.781250
1985,50.781250
1986,48.828125
1987,48.828125
1988,46.875000
1989,46.875000
1990,48.828125
1991,44.921875
1992,44.921875
1993,42.968750
1994,41.015625
1995,41.015625
1996,35.156250
1997,39.062500
1998,37.109375
1999,37.109375
2000,35.156250
2001,33.203125
2002,33.203125
2003,33.203125
2004,31.250000
2005,29.296875
2006,29.296875
2007,27.343750
2008,25.390625
2009,23.437500
2010,23.437500
2011,21.484375
2012,21.484375
2013,19.531250
2014,17.578125
2015,17.578125
2016,15.625000
2017,13.671875
2018,11.718750
2019,11.718750
2020,9.765625
2021,7.812500
2022,7.812500
2023,5.859375
2024,3.906250
2025,1.953125
2026,0.000000
2027,0.000000
2028,-1.953125
2029,-3.906250
2030,-5.859375
2031,-5.859375
2032,-7.812500
2033,-9.765625
2034,-9.765625
2035,-11.718750
2036,-13.671875
2037,-15.625000
2038,-17.578125
2039,-17.578125
2040,-19.531250
2041,-21.484375
2042,-23.437500
2043,-27.343750
2044,-25.390625
2045,-27.343750
2046,-29.296875
2047,-29.296875
2048,-31.250000
2049,-33.203125
2050,-33.203125
2051,-35.156250
2052,-37.109375
2053,-39.062500
2054,-39.062500
2055,-41.015625
2056,-42.968750
2057,-42.968750
2058,-44.921875
2059,-46.875000
2060,-46.875000
2061,-48.828125
2062,-50.781250
2063,-50.781250
2064,-52.734375
2065,-52.734375
2066,-54.687500
2067,-54.687500
2068,-56.640625
2069,-56.640625
2070,-58.593750
2071,-58.593750
2072,-60.546875
2073,-60.546875
2074,-62.500000
2075,-62.500000
2076,-64.453125
2077,-64.453125
2078,-66.406250
2079,-66.406250
2080,-66.406250
2081,-66.406250
2082,-66.406250
2083,-70.312500
2084,-70.312500
2085,-70.312500
2086,-72.265625
2087,-70.312500
2088,-70.312500
2089,-72.265625
2090,-72.265625
2091,-72.265625
2092,-72.265625
2093,-72.265625
2094,-72.265625
2095,-72.265625
2096,-74.218750
2097,-74.218750
2098,-74.218750
2099,-74.218750
2100,-72.265625
2101,-72.265625
2102,-74.218750
2103,-74.218750
2104,-74.218750
2105,-74.218750
2106,-74.218750
2107,-72.265625
2108,-72.265625
2109,-72.265625
2110,-72.265625
2111,-72.265625
2112,-70.312500
2113,-72.265625
2114,-70.312500
2115,-70.312500
2116,-70.312500
2117,-68.359375
2118,-68.359375
2119,-68.359375
2120,-68.359375
2121,-66.406250
2122,-66.406250
2123,-66.406250
2124,-64.453125
2125,-64.453125
2126,-62.500000
2127,-62.500000
2128,-60.546875
2129,-60.546875
2130,-58.593750
2131,-58.593750
2132,-56.640625
2133,-56.640625
2134,-54.687500
2135,-54.687500
2136,-52.734375
2137,-52.734375
2138,-50.781250
2139,-48.828125
2140,-48.828125
2141,-46.875000
2142,-46.875000
2143,-44.921875
2144,-42.968750
2145,-41.015625
2146,-41.015625
2147,-42.968750
2148,-37.109375
2149,-37.109375
2150,-35.156250
2151,-33.203125
2152,-31.250000
2153,-31.250000
2154,-29.296875
2155,-27.343750
2156,-27.343750
2157,-25.390625
2158,-25.390625
2159,-21.484375
2160,-21.484375
2161,-19.531250
2162,-17.578125
2163,-15.625000
2164,-13.671875
2165,-13.671875
2166,-11.718750
2167,-9.765625
2168,-7.812500
2169,-7.812500
2170,-5.859375
2171,-3.906250
2172,-3.906250
2173,-1.953125
2174,0.000000
2175,1.953125
2176,3.906250
2177,3.906250
2178,5.859375
2179,7.812500
2180,7.812500
2181,9.765625
2182,11.718750
2183,11.718750
2184,13.671875
2185,15.625000
2186,21.484375
2187,17.578125
2188,19.531250
2189,21.484375
2190,21.484375
2191,23.437500
2192,23.437500
2193,25.390625
2194,27.343750
2195,29.296875
2196,29.296875
2197,29.296875
2198,33.203125
2199,33.203125
2200,35.156250
2201,35.156250
2202,37.109375
2203,37.109375
2204,39.062500
2205,41.015625
2206,41.015625
2207,42.968750
2208,42.968750
2209,44.921875
2210,44.921875
2211,44.921875
2212,46.875000
2213,46.875000
2214,48.828125
2215,50.781250
2216,48.828125
2217,50.781250
2218,52.734375
2219,52.734375
2220,52.734375
2221,52.734375
2222,54.687500
2223,54.687500
2224,54.687500
2225,56.640625
2226,56.640625
2227,56.640625
2228,58.593750
2229,58.593750
2230,58.593750
2231,58.593750
2232,58.593750
2233,60.546875
2234,60.546875
2235,60.546875
2236,62.500000
2237,60.546875
2238,60.546875
2239,60.546875
2240,60.546875
2241,60.546875
2242,60.546875
2243,60.546875
2244,60.546875
2245,60.546875
2246,60.546875
2247,60.546875
2248,58.593750
2249,60.546875
2250,60.546875
2251,58.593750
2252,58.593750
2253,58.593750
2254,58.593750
2255,58.593750
2256,56.640625
2257,58.593750
2258,56.640625
2259,60.546875
2260,56.640625
2261,56.640625
2262,54.687500
2263,54.687500
2264,54.687500
2265,54.687500
2266,52.734375
2267,50.781250
2268,50.781250
2269,48.828125
2270,48.828125
2271,48.828125
2272,48.828125
2273,46.875000
2274,46.875000
2275,44.921875
2276,44.921875
2277,44.921875
2278,42.968750
2279,42.968750
2280,41.015625
2281,39.062500
2282,39.062500
2283,37.109375
2284,37.109375
2285,37.109375
2286,33.203125
2287,33.203125
2288,33.203125
2289,31.250000
2290,31.250000
2291,29.296875
2292,27.343750
2293,25.390625
2294,23.437500
2295,23.437500
2296,21.484375
2297,19.531250
2298,19.531250
2299,17.578125
2300,17.578125
2301,15.625000
2302,13.671875
2303,11.718750
2304,9.765625
2305,9.765625
2306,7.812500
2307,5.859375
2308,3.906250
2309,1.953125
2310,1.953125
2311,0.000000
2312,-1.953125
2313,-3.906250
2314,-3.906250
2315,-5.859375
2316,-7.812500
2317,-7.812500
2318,-9.765625
2319,-11.718750
2320,-13.671875
2321,-15.625000
2322,-17.578125
2323,-17.578125
2324,-19.531250
2325,-21.484375
2326,-23.437500
2327,-27.343750
2328,-25.390625
2329,-25.390625
2330,-29.296875
2331,-29.296875
2332,-31.250000
2333,-31.250000
2334,-33.203125
2335,-35.156250
2336,-37.109375
2337,-37.109375
2338,-39.062500
2339,-39.062500
2340,-42.968750
2341,-42.968750
2342,-42.968750
2343,-48.828125
2344,-46.875000
2345,-46.875000
2346,-48.828125
2347,-50.781250
2348,-52.734375
2349,-54.687500
2350,-52.734375
2351,-54.687500
2352,-54.687500
2353,-56.640625
2354,-58.593750
2355,-58.593750
2356,-60.546875
2357,-60.546875
2358,-62.500000
2359,-62.500000
2360,-64.453125
2361,-64.453125
2362,-64.453125
2363,-66.406250
2364,-66.406250
2365,-66.406250
2366,-68.359375
2367,-68.359375
2368,-70.312500
2369,-70.312500
2370,-74.218750
2371,-70.312500
2372,-70.312500
2373,-72.265625
2374,-72.265625
2375,-66.406250
2376,-74.218750
2377,-72.265625
2378,-72.265625
2379,-70.312500
2380,-76.171875
2381,-74.218750
2382,-74.218750
2383,-74.218750
2384,-74.218750
2385,-74.218750
2386,-74.218750
2387,-74.218750
2388,-72.265625
2389,-74.218750
2390,-74.218750
2391,-74.218750
2392,-72.265625
2393,-72.265625
2394,-74.218750
2395,-72.265625
2396,-72.265625
2397,-70.312500
2398,-70.312500
2399,-70.312500
2400,-70.312500
2401,-70.312500
2402,-68.359375
2403,-68.359375
2404,-68.359375
2405,-66.406250
2406,-66.406250
2407,-64.453125
2408,-64.453125
2409,-62.500000
2410,-62.500000
2411,-62.500000
2412,-60.546875
2413,-58.593750
2414,-58.593750
2415,-58.593750
2416,-56.640625
2417,-56.640625
2418,-54.687500
2419,-54.687500
2420,-52.734375
2421,-50.781250
2422,-50.781250
2423,-48.828125
2424,-48.828125
2425,-46.875000
2426,-44.921875
2427,-44.921875
2428,-42.968750
2429,-42.968750
2430,-41.015625
2431,-39.062500
2432,-37.109375
2433,-37.109375
2434,-35.156250
2435,-33.203125
2436,-33.203125
2437,-31.250000
2438,-31.250000
2439,-29.296875
2440,-27.343750
2441,-25.390625
2442,-25.390625
2443,-23.437500
2444,-19.531250
2445,-21.484375
2446,-17.578125
2447,-17.578125
2448,-15.625000
2449,-13.671875
2450,-13.671875
2451,-11.718750
2452,-9.765625
2453,-7.812500
2454,-5.859375
2455,-5.859375
2456,-3.906250
2457,-1.953125
2458,-1.953125
2459,1.953125
2460,1.953125
2461,3.906250
2462,5.859375
2463,7.812500
2464,7.812500
2465,9.765625
2466,11.718750
2467,13.671875
2468,13.671875
2469,15.625000
2470,17.578125
2471,19.531250
2472,19.531250
2473,21.484375
2474,21.484375
2475,23.437500
2476,25.390625
2477,25.390625
2478,27.343750
2479,29.296875
2480,29.296875
2481,29.296875
2482,33.203125
2483,33.203125
2484,33.203125
2485,35.156250
2486,37.109375
2487,37.109375
2488,39.062500
2489,39.062500
2490,41.015625
2491,42.968750
2492,42.968750
2493,42.968750
2494,44.921875
2495,44.921875
2496,44.921875
2497,46.875000
2498,48.828125
2499,48.828125
2500,48.828125
2501,50.781250
2502,50.781250
2503,52.734375
2504,50.781250
2505,52.734375
2506,52.734375
2507,54.687500
2508,54.687500
2509,54.687500
2510,56.640625
2511,56.640625
2512,56.640625
2513,58.593750
2514,58.593750
2515,58.593750
2516,56.640625
2517,58.593750
2518,58.593750
2519,58.593750
2520,58.593750
2521,58.593750
2522,60.546875
2523,58.593750
2524,60.546875
2525,60.546875
2526,60.546875
2527,60.546875
2528,60.546875
2529,60.546875
2530,60.546875
2531,58.593750
2532,60.546875
2533,60.546875
2534,58.593750
2535,58.593750
2536,60.546875
2537,58.593750
2538,56.640625
2539,58.593750
2540,58.593750
2541,58.593750
2542,56.640625
2543,56.640625
2544,56.640625
2545,56.640625
2546,56.640625
2547,54.687500
2548,54.687500
2549,54.687500
2550,52.734375
2551,50.781250
2552,52.734375
2553,50.781250
2554,48.828125
2555,48.828125
2556,48.828125
2557,46.875000
2558,44.921875
2559,46.875000
2560,44.921875
2561,42.968750
2562,41.015625
2563,41.015625
2564,41.015625
2565,39.062500
2566,37.109375
2567,37.109375
2568,35.156250
2569,35.156250
2570,33.203125
2571,31.250000
2572,31.250000
2573,29.296875
2574,29.296875
2575,27.343750
2576,25.390625
2577,25.390625
2578,23.437500
2579,21.484375
2580,17.578125
2581,19.531250
2582,19.531250
2583,17.578125
2584,15.625000
2585,15.625000
2586,13.671875
2587,11.718750
2588,11.718750
2589,7.812500
2590,7.812500
2591,5.859375
2592,3.906250
2593,3.906250
2594,1.953125
2595,0.000000
2596,-1.953125
2597,-3.906250
2598,-5.859375
2599,-5.859375
2600,-7.812500
2601,-7.812500
2602,-9.765625
2603,-11.718750
2604,-13.671875
2605,-15.625000
2606,-15.625000
2607,-17.578125
2608,-19.531250
2609,-21.484375
2610,-21.484375
2611,-23.437500
2612,-25.390625
2613,-25.390625
2614,-27.343750
2615,-29.296875
2616,-31.250000
2617,-33.203125
2618,-33.203125
2619,-35.156250
2620,-37.109375
2621,-39.062500
2622,-39.062500
2623,-41.015625
2624,-42.968750
2625,-42.968750
2626,-44.921875
2627,-44.921875
2628,-46.875000
2629,-48.828125
2630,-48.828125
2631,-50.781250
2632,-50.781250
2633,-52.734375
2634,-54.687500
2635,-54.687500
2636,-56.640625
2637,-56.640625
2638,-58.593750
2639,-58.593750
2640,-60.546875
2641,-62.500000
2642,-62.500000
2643,-62.500000
2644,-62.500000
2645,-64.453125
2646,-64.453125
2647,-66.406250
2648,-66.406250
2649,-68.359375
2650,-68.359375
2651,-68.359375
2652,-68.359375
2653,-70.312500
2654,-70.312500
2655,-72.265625
2656,-72.265625
2657,-72.265625
2658,-72.265625
2659,-72.265625
2660,-72.265625
2661,-72.265625
2662,-72.265625
2663,-74.218750
2664,-74.218750
2665,-74.218750
2666,-74.218750
2667,-74.218750
2668,-74.218750
2669,-74.218750
2670,-72.265625
2671,-72.265625
2672,-74.218750
2673,-74.218750
2674,-74.218750
2675,-74.218750
2676,-72.265625
2677,-72.265625
2678,-72.265625
2679,-72.265625
2680,-72.265625
2681,-70.312500
2682,-70.312500
2683,-70.312500
2684,-70.312500
2685,-68.359375
2686,-68.359375
2687,-68.359375
2688,-66.406250
2689,-66.406250
2690,-66.406250
2691,-64.453125
2692,-64.453125
2693,-64.453125
2694,-62.500000
2695,-62.500000
2696,-62.500000
2697,-60.546875
2698,-58.593750
2699,-58.593750
2700,-56.640625
2701,-56.640625
2702,-54.687500
2703,-54.687500
2704,-52.734375
2705,-52.734375
2706,-50.781250
2707,-48.828125
2708,-48.828125
2709,-48.828125
2710,-44.921875
2711,-44.921875
2712,-42.968750
2713,-42.968750
2714,-41.015625
2715,-39.062500
2716,-39.062500
2717,-37.109375
2718,-35.156250
2719,-35.156250
2720,-33.203125
2721,-31.250000
2722,-31.250000
2723,-23.437500
2724,-27.343750
2725,-25.390625
2726,-23.437500
2727,-23.437500
2728,-21.484375
2729,-19.531250
2730,-17.578125
2731,-15.625000
2732,-15.625000
2733,-13.671875
2734,-11.718750
2735,-9.765625
2736,-9.765625
2737,-7.812500
2738,-5.859375
2739,-3.906250
2740,-3.906250
2741,-1.953125
2742,0.000000
2743,1.953125
2744,3.906250
2745,3.906250
2746,5.859375
2747,5.859375
2748,9.765625
2749,9.765625
2750,11.718750
2751,13.671875
2752,13.671875
2753,13.671875
2754,17.578125
2755,19.531250
2756,17.578125
2757,19.531250
2758,21.484375
2759,23.437500
2760,25.390625
2761,25.390625
2762,27.343750
2763,29.296875
2764,33.203125
2765,31.250000
2766,33.203125
2767,33.203125
2768,35.156250
2769,35.156250
2770,37.109375
2771,39.062500
2772,39.062500
2773,37.109375
2774,41.015625
2775,41.015625
2776,42.968750
2777,42.968750
2778,44.921875
2779,46.875000
2780,46.875000
2781,46.875000
2782,48.828125
2783,48.828125
2784,50.781250
2785,50.781250
2786,50.781250
2787,52.734375
2788,52.734375
2789,52.734375
2790,54.687500
2791,56.640625
2792,54.687500
2793,54.687500
2794,56.640625
2795,56.640625
2796,56.640625
2797,56.640625
2798,58.593750
2799,58.593750
2800,58.593750
2801,58.593750
2802,58.593750
2803,60.546875
2804,60.546875
2805,60.546875
2806,60.546875
2807,60.546875
2808,62.500000
2809,60.546875
2810,60.546875
2811,62.500000
2812,60.546875
2813,60.546875
2814,60.546875
2815,60.546875
2816,60.546875
2817,58.593750
2818,58.593750
2819,58.593750
2820,60.546875
2821,58.593750
2822,58.593750
2823,58.593750
2824,58.593750
2825,58.593750
2826,56.640625
2827,56.640625
2828,56.640625
2829,54.687500
2830,54.687500
2831,54.687500
2832,54.687500
2833,52.734375
2834,52.734375
2835,50.781250
2836,50.781250
2837,50.781250
2838,50.781250
2839,48.828125
2840,48.828125
2841,46.875000
2842,46.875000
2843,44.921875
2844,42.968750
2845,41.015625
2846,42.968750
2847,41.015625
2848,41.015625
2849,39.062500
2850,37.109375
2851,37.109375
2852,37.109375
2853,35.156250
2854,33.203125
2855,33.203125
2856,31.250000
2857,29.296875
2858,29.296875
2859,27.343750
2860,27.343750
2861,25.390625
2862,25.390625
2863,23.437500
2864,21.484375
2865,21.484375
2866,19.531250
2867,17.578125
2868,15.625000
2869,13.671875
2870,13.671875
2871,13.671875
2872,11.718750
2873,9.765625
2874,7.812500
2875,5.859375
2876,5.859375
2877,3.906250
2878,1.953125
2879,0.000000
2880,0.000000
2881,-1.953125
2882,-3.906250
2883,-5.859375
2884,-5.859375
2885,-7.812500
2886,-9.765625
2887,-11.718750
2888,-13.671875
2889,-15.625000
2890,-15.625000
2891,-15.625000
2892,-19.531250
2893,-21.484375
2894,-21.484375
2895,-23.437500
2896,-25.390625
2897,-27.343750
2898,-29.296875
2899,-29.296875
2900,-31.250000
2901,-31.250000
2902,-33.203125
2903,-35.156250
2904,-37.109375
2905,-37.109375
2906,-39.062500
2907,-41.015625
2908,-41.015625
2909,-42.968750
2910,-42.968750
2911,-44.921875
2912,-46.875000
2913,-48.828125
2914,-48.828125
2915,-50.781250
2916,-50.781250
2917,-52.734375
2918,-54.687500
2919,-54.687500
2920,-56.640625
2921,-56.640625
2922,-58.593750
2923,-58.593750
2924,-58.593750
2925,-60.546875
2926,-60.546875
2927,-62.500000
2928,-64.453125
2929,-64.453125
2930,-64.453125
2931,-66.406250
2932,-66.406250
2933,-66.406250
2934,-68.359375
2935,-68.359375
2936,-68.359375
2937,-70.312500
2938,-70.312500
2939,-70.312500
2940,-70.312500
2941,-72.265625
2942,-72.265625
2943,-72.265625
2944,-72.265625
2945,-72.265625
2946,-72.265625
2947,-72.265625
2948,-72.265625
2949,-72.265625
2950,-74.218750
2951,-74.218750
2952,-74.218750
2953,-74.218750
2954,-74.218750
2955,-74.218750
2956,-74.218750
2957,-74.218750
2958,-74.218750
2959,-74.218750
2960,-72.265625
2961,-74.218750
2962,-72.265625
2963,-72.265625
2964,-72.265625
2965,-72.265625
2966,-70.312500
2967,-70.312500
2968,-70.312500
2969,-70.312500
2970,-68.359375
2971,-68.359375
2972,-68.359375
2973,-66.406250
2974,-66.406250
2975,-66.406250
2976,-64.453125
2977,-64.453125
2978,-62.500000
2979,-62.500000
2980,-62.500000
2981,-60.546875
2982,-60.546875
2983,-58.593750
2984,-56.640625
2985,-56.640625
2986,-56.640625
2987,-54.687500
2988,-50.781250
2989,-52.734375
2990,-50.781250
2991,-50.781250
2992,-48.828125
2993,-46.875000
2994,-44.921875
2995,-44.921875
2996,-42.968750
2997,-42.968750
2998,-41.015625
2999,-39.062500
3000,-37.109375
3001,-37.109375
3002,-35.156250
3003,-35.156250
3004,-33.203125
3005,-31.250000
3006,-31.250000
3007,-29.296875
3008,-27.343750
3009,-25.390625
3010,-23.437500
3011,-23.437500
3012,-21.484375
3013,-19.531250
3014,-17.578125
3015,-17.578125
3016,-15.625000
3017,-13.671875
3018,-13.671875
3019,-11.718750
3020,-9.765625
3021,-7.812500
3022,-5.859375
3023,-3.906250
3024,-3.906250
3025,-1.953125
3026,-1.953125
3027,1.953125
3028,1.953125
3029,3.906250
3030,3.906250
3031,5.859375
3032,7.812500
3033,9.765625
3034,9.765625
3035,11.718750
3036,13.671875
3037,13.671875
3038,15.625000
3039,19.531250
3040,19.531250
3041,19.531250
3042,19.531250
3043,23.437500
3044,25.390625
3045,25.390625
3046,27.343750
3047,27.343750
3048,29.296875
3049,31.250000
3050,33.203125
3051,33.203125
3052,35.156250
3053,35.156250
3054,37.109375
3055,39.062500
3056,39.062500
3057,39.062500
3058,41.015625
3059,42.968750
3060,42.968750
3061,42.968750
3062,44.921875
3063,44.921875
3064,46.875000
3065,46.875000
3066,48.828125
3067,48.828125
3068,48.828125
3069,50.781250
3070,50.781250
3071,52.734375
3072,52.734375
3073,52.734375
3074,54.687500
3075,54.687500
3076,54.687500
3077,56.640625
3078,56.640625
3079,56.640625
3080,56.640625
3081,56.640625
3082,58.593750
3083,58.593750
3084,58.593750
3085,58.593750
3086,58.593750
3087,58.593750
3088,58.593750
3089,60.546875
3090,60.546875
3091,60.546875
3092,60.546875
3093,60.546875
3094,60.546875
3095,60.546875
3096,60.546875
3097,60.546875
3098,60.546875
3099,56.640625
3100,60.546875
3101,58.593750
3102,58.593750
3103,58.593750
3104,58.593750
3105,58.593750
3106,58.593750
3107,58.593750
3108,56.640625
3109,58.593750
3110,56.640625
3111,52.734375
3112,56.640625
3113,54.687500
3114,54.687500
3115,54.687500
3116,52.734375
3117,52.734375
3118,52.734375
3119,52.734375
3120,50.781250
3121,50.781250
3122,48.828125
3123,48.828125
3124,46.875000
3125,46.875000
3126,50.781250
3127,44.921875
3128,44.921875
3129,42.968750
3130,42.968750
3131,41.015625
3132,41.015625
3133,41.015625
3134,39.062500
3135,39.062500
3136,37.109375
3137,35.156250
3138,35.156250
3139,33.203125
3140,35.156250
3141,31.250000
3142,29.296875
3143,27.343750
3144,25.390625
3145,25.390625
3146,23.437500
3147,23.437500
3148,21.484375
3149,19.531250
3150,17.578125
3151,17.578125
3152,15.625000
3153,11.718750
3154,13.671875
3155,13.671875
3156,13.671875
3157,9.765625
3158,7.812500
3159,5.859375
3160,5.859375
3161,3.906250
3162,1.953125
3163,0.000000
3164,0.000000
3165,-1.953125
3166,-3.906250
3167,-5.859375
3168,-7.812500
3169,-9.765625
3170,-9.765625
3171,-11.718750
3172,-13.671875
3173,-13.671875
3174,-15.625000
3175,-17.578125
3176,-17.578125
3177,-21.484375
3178,-21.484375
3179,-23.437500
3180,-25.390625
3181,-25.390625
3182,-27.343750
3183,-27.343750
3184,-31.250000
3185,-31.250000
3186,-33.203125
3187,-35.156250
3188,-35.156250
3189,-37.109375
3190,-39.062500
3191,-39.062500
3192,-41.015625
3193,-42.968750
3194,-42.968750
3195,-44.921875
3196,-46.875000
3197,-48.828125
3198,-48.828125
3199,-48.828125
3200,-50.781250
3201,-52.734375
3202,-54.687500
3203,-54.687500
3204,-54.687500
3205,-50.781250
3206,-56.640625
3207,-58.593750
3208,-58.593750
3209,-60.546875
3210,-62.500000
3211,-62.500000
3212,-62.500000
3213,-64.453125
3214,-64.453125
3215,-66.406250
3216,-66.406250
3217,-66.406250
3218,-68.359375
3219,-68.359375
3220,-68.359375
3221,-70.312500
3222,-70.312500
3223,-70.312500
3224,-70.312500
3225,-72.265625
3226,-72.265625
3227,-72.265625
3228,-74.218750
3229,-74.218750
3230,-74.218750
3231,-74.218750
3232,-72.265625
3233,-74.218750
3234,-74.218750
3235,-74.218750
3236,-74.218750
3237,-74.218750
3238,-74.218750
3239,-74.218750
3240,-74.218750
3241,-74.218750
3242,-72.265625
3243,-72.265625
3244,-72.265625
3245,-72.265625
3246,-72.265625
3247,-72.265625
3248,-72.265625
3249,-72.265625
3250,-70.312500
3251,-70.312500
3252,-68.359375
3253,-68.359375
3254,-68.359375
3255,-68.359375
3256,-66.406250
3257,-66.406250
3258,-66.406250
3259,-66.406250
3260,-64.453125
3261,-62.500000
3262,-62.500000
3263,-62.500000
3264,-60.546875
3265,-60.546875
3266,-58.593750
3267,-58.593750
3268,-56.640625
3269,-56.640625
3270,-54.687500
3271,-54.687500
3272,-52.734375
3273,-50.781250
3274,-50.781250
3275,-50.781250
3276,-48.828125
3277,-46.875000
3278,-46.875000
3279,-44.921875
3280,-42.968750
3281,-42.968750
3282,-41.015625
3283,-41.015625
3284,-39.062500
3285,-37.109375
3286,-35.156250
3287,-35.156250
3288,-33.203125
3289,-31.250000
3290,-31.250000
3291,-29.296875
3292,-27.343750
3293,-25.390625
3294,-23.437500
3295,-21.484375
3296,-21.484375
3297,-21.484375
3298,-19.531250
3299,-17.578125
3300,-15.625000
3301,-11.718750
3302,-13.671875
3303,-11.718750
3304,-3.906250
3305,-7.812500
3306,-5.859375
3307,-3.906250
3308,-3.906250
3309,-1.953125
3310,0.000000
3311,1.953125
3312,3.906250
3313,5.859375
3314,5.859375
3315,5.859375
3316,7.812500
3317,9.765625
3318,11.718750
3319,13.671875
3320,13.671875
3321,15.625000
3322,17.578125
3323,19.531250
3324,21.484375
3325,21.484375
3326,21.484375
3327,23.437500
3328,25.390625
3329,27.343750
3330,27.343750
3331,29.296875
3332,29.296875
3333,31.250000
3334,33.203125
3335,33.203125
3336,35.156250
3337,35.156250
3338,37.109375
3339,37.109375
3340,39.062500
3341,39.062500
3342,41.015625
3343,41.015625
3344,44.921875
3345,44.921875
3346,44.921875
3347,44.921875
3348,46.875000
3349,46.875000
3350,48.828125
3351,48.828125
3352,50.781250
3353,50.781250
3354,52.734375
3355,52.734375
3356,52.734375
3357,52.734375
3358,56.640625
3359,54.687500
3360,54.687500
3361,54.687500
3362,56.640625
3363,56.640625
3364,56.640625
3365,56.640625
3366,58.593750
3367,58.593750
3368,58.593750
3369,58.593750
3370,58.593750
3371,60.546875
3372,60.546875
3373,60.546875
3374,60.546875
3375,60.546875
3376,60.546875
3377,60.546875
3378,60.546875
3379,60.546875
3380,60.546875
3381,60.546875
3382,60.546875
3383,60.546875
3384,58.593750
3385,60.546875
3386,60.546875
3387,60.546875
3388,58.593750
3389,58.593750
3390,58.593750
3391,58.593750
3392,58.593750
3393,58.593750
3394,56.640625
3395,58.593750
3396,56.640625
3397,56.640625
3398,54.687500
3399,54.687500
3400,52.734375
3401,52.734375
3402,52.734375
3403,52.734375
3404,50.781250
3405,50.781250
3406,48.828125
3407,48.828125
3408,48.828125
3409,46.875000
3410,46.875000
3411,44.921875
3412,44.921875
3413,44.921875
3414,42.968750
3415,41.015625
3416,41.015625
3417,42.968750
3418,39.062500
3419,39.062500
3420,37.109375
3421,35.156250
3422,35.156250
3423,33.203125
3424,31.250000
3425,31.250000
3426,29.296875
3427,27.343750
3428,27.343750
3429,25.390625
3430,25.390625
3431,23.437500
3432,21.484375
3433,21.484375
3434,19.531250
3435,17.578125
3436,17.578125
3437,15.625000
3438,13.671875
3439,9.765625
3440,11.718750
3441,9.765625
3442,7.812500
3443,5.859375
3444,5.859375
3445,3.906250
3446,1.953125
3447,0.000000
3448,0.000000
3449,-1.953125
3450,-3.906250
3451,-5.859375
3452,-7.812500
3453,-7.812500
3454,-9.765625
3455,-11.718750
3456,-11.718750
3457,-13.671875
3458,-15.625000
3459,-17.578125
3460,-17.578125
3461,-19.531250
3462,-21.484375
3463,-25.390625
3464,-23.437500
3465,-25.390625
3466,-27.343750
3467,-29.296875
3468,-31.250000
3469,-31.250000
3470,-33.203125
3471,-31.250000
3472,-37.109375
3473,-37.109375
3474,-39.062500
3475,-41.015625
3476,-42.968750
3477,-42.968750
3478,-44.921875
3479,-44.921875
3480,-46.875000
3481,-48.828125
3482,-48.828125
3483,-50.781250
3484,-52.734375
3485,-52.734375
3486,-54.687500
3487,-54.687500
3488,-56.640625
3489,-56.640625
3490,-58.593750
3491,-58.593750
3492,-60.546875
3493,-60.546875
3494,-62.500000
3495,-62.500000
3496,-62.500000
3497,-64.453125
3498,-66.406250
3499,-66.406250
3500,-66.406250
3501,-66.406250
3502,-68.359375
3503,-68.359375
3504,-68.359375
3505,-70.312500
3506,-70.312500
3507,-70.312500
3508,-72.265625
3509,-72.265625
3510,-72.265625
3511,-72.265625
3512,-72.265625
3513,-70.312500
3514,-74.218750
3515,-72.265625
3516,-74.218750
3517,-74.218750
3518,-74.218750
3519,-74.218750
3520,-74.218750
3521,-74.218750
3522,-74.218750
3523,-74.218750
3524,-74.218750
3525,-74.218750
3526,-74.218750
3527,-74.218750
3528,-74.218750
3529,-76.171875
3530,-72.265625
3531,-70.312500
3532,-72.265625
3533,-72.265625
3534,-72.265625
3535,-70.312500
3536,-70.312500
3537,-70.312500
3538,-68.359375
3539,-68.359375
3540,-68.359375
3541,-66.406250
3542,-66.406250
3543,-66.406250
3544,-64.453125
3545,-64.453125
3546,-62.500000
3547,-62.500000
3548,-62.500000
3549,-60.546875
3550,-58.593750
3551,-58.593750
3552,-58.593750
3553,-56.640625
3554,-56.640625
3555,-54.687500
3556,-54.687500
3557,-52.734375
3558,-50.781250
3559,-50.781250
3560,-48.828125
3561,-46.875000
3562,-44.921875
3563,-44.921875
3564,-44.921875
3565,-42.968750
3566,-42.968750
3567,-41.015625
3568,-39.062500
3569,-37.109375
3570,-37.109375
3571,-35.156250
3572,-33.203125
3573,-31.250000
3574,-29.296875
3575,-29.296875
3576,-27.343750
3577,-25.390625
3578,-25.390625
3579,-23.437500
3580,-21.484375
3581,-19.531250
3582,-17.578125
3583,-17.578125
3584,-15.625000
3585,-13.671875
3586,-13.671875
3587,-9.765625
3588,-9.765625
3589,-9.765625
3590,-5.859375
3591,-5.859375
3592,-3.906250
3593,-1.953125
3594,-1.953125
3595,0.000000
3596,1.953125
3597,1.953125
3598,5.859375
3599,5.859375
3600,7.812500
3601,9.765625
3602,9.765625
3603,11.718750
3604,13.671875
3605,15.625000
3606,15.625000
3607,17.578125
3608,19.531250
3609,19.531250
3610,21.484375
3611,23.437500
3612,23.437500
3613,25.390625
3614,27.343750
3615,27.343750
3616,29.296875
3617,31.250000
3618,33.203125
3619,33.203125
3620,33.203125
3621,33.203125
3622,37.109375
3623,37.109375
3624,37.109375
3625,39.062500
3626,41.015625
3627,41.015625
3628,42.968750
3629,42.968750
3630,44.921875
3631,44.921875
3632,46.875000
3633,46.875000
3634,46.875000
3635,48.828125
3636,50.781250
3637,50.781250
3638,50.781250
3639,50.781250
3640,52.734375
3641,50.781250
3642,54.687500
3643,54.687500
3644,54.687500
3645,54.687500
3646,56.640625
3647,56.640625
3648,58.593750
3649,58.593750
3650,58.593750
3651,58.593750
3652,58.593750
3653,58.593750
3654,58.593750
3655,58.593750
3656,60.546875
3657,58.593750
3658,60.546875
3659,60.546875
3660,60.546875
3661,60.546875
3662,60.546875
3663,60.546875
3664,60.546875
3665,60.546875
3666,60.546875
3667,60.546875
3668,60.546875
3669,60.546875
3670,60.546875
3671,58.593750
3672,58.593750
3673,58.593750
3674,58.593750
3675,58.593750
3676,58.593750
3677,56.640625
3678,56.640625
3679,58.593750
3680,56.640625
3681,54.687500
3682,54.687500
3683,54.687500
3684,54.687500
3685,52.734375
3686,52.734375
3687,52.734375
3688,50.781250
3689,50.781250
3690,50.781250
3691,48.828125
3692,48.828125
3693,46.875000
3694,46.875000
3695,46.875000
3696,44.921875
3697,42.968750
3698,42.968750
3699,41.015625
3700,41.015625
3701,41.015625
3702,39.062500
3703,37.109375
3704,37.109375
3705,35.156250
3706,35.156250
3707,33.203125
3708,33.203125
3709,31.250000
3710,29.296875
3711,29.296875
3712,27.343750
3713,27.343750
3714,25.390625
3715,23.437500
3716,21.484375
3717,19.531250
3718,19.531250
3719,19.531250
3720,15.625000
3721,15.625000
3722,13.671875
3723,11.718750
3724,11.718750
3725,9.765625
3726,9.765625
3727,5.859375
3728,5.859375
3729,3.906250
3730,1.953125
3731,0.000000
3732,0.000000
3733,0.000000
3734,-3.906250
3735,-3.906250
3736,-7.812500
3737,-7.812500
3738,-9.765625
3739,-11.718750
3740,-13.671875
3741,-13.671875
3742,-15.625000
3743,-17.578125
3744,-19.531250
3745,-19.531250
3746,-21.484375
3747,-23.437500
3748,-25.390625
3749,-27.343750
3750,-27.343750
3751,-29.296875
3752,-29.296875
3753,-31.250000
3754,-33.203125
3755,-35.156250
3756,-35.156250
3757,-37.109375
3758,-41.015625
3759,-39.062500
3760,-41.015625
3761,-42.968750
3762,-42.968750
3763,-44.921875
3764,-46.875000
3765,-46.875000
3766,-48.828125
3767,-50.781250
3768,-50.781250
3769,-52.734375
3770,-52.734375
3771,-52.734375
3772,-56.640625
3773,-56.640625
3774,-56.640625
3775,-58.593750
3776,-58.593750
3777,-60.546875
3778,-60.546875
3779,-62.500000
3780,-62.500000
3781,-62.500000
3782,-64.453125
3783,-66.406250
3784,-66.406250
3785,-66.406250
3786,-68.359375
3787,-68.359375
3788,-68.359375
3789,-68.359375
3790,-70.312500
3791,-70.312500
3792,-70.312500
3793,-72.265625
3794,-70.312500
3795,-72.265625
3796,-72.265625
3797,-72.265625
3798,-72.265625
3799,-72.265625
3800,-72.265625
3801,-74.218750
3802,-74.218750
3803,-74.218750
3804,-74.218750
3805,-74.218750
3806,-74.218750
3807,-74.218750
3808,-74.218750
3809,-74.218750
3810,-72.265625
3811,-72.265625
3812,-72.265625
3813,-72.265625
3814,-74.218750
3815,-72.265625
3816,-72.265625
3817,-72.265625
3818,-70.312500
3819,-70.312500
3820,-70.312500
3821,-68.359375
3822,-68.359375
3823,-68.359375
3824,-66.406250
3825,-66.406250
3826,-66.406250
3827,-66.406250
3828,-64.453125
3829,-64.453125
3830,-62.500000
3831,-62.500000
3832,-60.546875
3833,-60.546875
3834,-58.593750
3835,-58.593750
3836,-56.640625
3837,-56.640625
3838,-54.687500
3839,-52.734375
3840,-52.734375
3841,-52.734375
3842,-50.781250
3843,-48.828125
3844,-48.828125
3845,-46.875000
3846,-46.875000
3847,-44.921875
3848,-42.968750
3849,-42.968750
3850,-41.015625
3851,-41.015625
3852,-39.062500
3853,-37.109375
3854,-35.156250
3855,-35.156250
3856,-33.203125
3857,-31.250000
3858,-29.296875
3859,-29.296875
3860,-27.343750
3861,-27.343750
3862,-25.390625
3863,-23.437500
3864,-23.437500
3865,-19.531250
3866,-19.531250
3867,-17.578125
3868,-15.625000
3869,-13.671875
3870,-13.671875
3871,-11.718750
3872,-9.765625
3873,-9.765625
3874,-5.859375
3875,-5.859375
3876,-3.906250
3877,-1.953125
3878,0.000000
3879,0.000000
3880,1.953125
3881,3.906250
3882,5.859375
3883,5.859375
3884,7.812500
3885,9.765625
3886,11.718750
3887,11.718750
3888,13.671875
3889,15.625000
3890,15.625000
3891,17.578125
3892,19.531250
3893,19.531250
3894,21.484375
3895,23.437500
3896,23.437500
3897,25.390625
3898,27.343750
3899,29.296875
3900,29.296875
3901,31.250000
3902,33.203125
3903,33.203125
3904,35.156250
3905,35.156250
3906,37.109375
3907,37.109375
3908,39.062500
3909,41.015625
3910,41.015625
3911,41.015625
3912,42.968750
3913,42.968750
3914,44.921875
3915,44.921875
3916,46.875000
3917,46.875000
3918,48.828125
3919,48.828125
3920,48.828125
3921,50.781250
3922,50.781250
3923,52.734375
3924,52.734375
3925,52.734375
3926,54.687500
3927,54.687500
3928,54.687500
3929,56.640625
3930,56.640625
3931,56.640625
3932,58.593750
3933,56.640625
3934,56.640625
3935,56.640625
3936,58.593750
3937,58.593750
3938,58.593750
3939,58.593750
3940,58.593750
3941,58.593750
3942,60.546875
3943,60.546875
3944,60.546875
3945,58.593750
3946,60.546875
3947,60.546875
3948,60.546875
3949,60.546875
3950,60.546875
3951,60.546875
3952,60.546875
3953,60.546875
3954,60.546875
3955,58.593750
3956,58.593750
3957,58.593750
3958,58.593750
3959,58.593750
3960,58.593750
3961,58.593750
3962,56.640625
3963,56.640625
3964,54.687500
3965,56.640625
3966,54.687500
3967,54.687500
3968,54.687500
3969,54.687500
3970,52.734375
3971,52.734375
3972,50.781250
3973,50.781250
3974,50.781250
3975,48.828125
3976,48.828125
3977,46.875000
3978,46.875000
3979,44.921875
3980,44.921875
3981,42.968750
3982,42.968750
3983,42.968750
3984,41.015625
3985,41.015625
3986,39.062500
3987,39.062500
3988,35.156250
3989,35.156250
3990,35.156250
3991,33.203125
3992,31.250000
3993,31.250000
3994,27.343750
3995,27.343750
3996,27.343750
3997,27.343750
3998,23.437500
3999,23.437500
4000,21.484375
4001,19.531250
4002,19.531250
4003,17.578125
4004,15.625000
4005,15.625000
4006,13.671875
4007,11.718750
4008,11.718750
4009,9.765625
4010,9.765625
4011,5.859375
4012,5.859375
4013,3.906250
4014,1.953125
4015,0.000000
4016,-1.953125
4017,-1.953125
4018,-3.906250
4019,-5.859375
4020,-7.812500
4021,-7.812500
4022,-9.765625
4023,-11.718750
4024,-11.718750
4025,-13.671875
4026,-13.671875
4027,-17.578125
4028,-19.531250
4029,-19.531250
4030,-21.484375
4031,-23.437500
4032,-23.437500
4033,-27.343750
4034,-27.343750
4035,-29.296875
4036,-29.296875
4037,-31.250000
4038,-33.203125
4039,-33.203125
4040,-35.156250
4041,-37.109375
4042,-39.062500
4043,-39.062500
4044,-41.015625
4045,-42.968750
4046,-44.921875
4047,-44.921875
4048,-46.875000
4049,-46.875000
4050,-48.828125
4051,-50.781250
4052,-52.734375
4053,-52.734375
4054,-52.734375
4055,-54.687500
4056,-56.640625
4057,-56.640625
4058,-58.593750
4059,-58.593750
4060,-60.546875
4061,-60.546875
4062,-62.500000
4063,-62.500000
4064,-62.500000
4065,-64.453125
4066,-66.406250
4067,-66.406250
4068,-66.406250
4069,-66.406250
4070,-68.359375
4071,-68.359375
4072,-70.312500
4073,-70.312500
4074,-70.312500
4075,-70.312500
4076,-70.312500
4077,-72.265625
4078,-72.265625
4079,-72.265625
4080,-72.265625
4081,-74.218750
4082,-74.218750
4083,-74.218750
4084,-74.218750
4085,-74.218750
4086,-74.218750
4087,-74.218750
4088,-74.218750
4089,-74.218750
4090,-74.218750
4091,-74.218750
4092,-74.218750
4093,-72.265625
4094,-74.218750
4095,-72.265625
4096,-72.265625
4097,-72.265625
4098,-72.265625
4099,-72.265625
4100,-72.265625
4101,-72.265625
4102,-72.265625
4103,-70.312500
4104,-70.312500
4105,-70.312500
4106,-70.312500
4107,-68.359375
4108,-68.359375
4109,-66.406250
4110,-66.406250
4111,-66.406250
4112,-66.406250
4113,-64.453125
4114,-64.453125
4115,-62.500000
4116,-62.500000
4117,-60.546875
4118,-60.546875
4119,-60.546875
4120,-58.593750
4121,-56.640625
4122,-56.640625
4123,-54.687500
4124,-54.687500
4125,-52.734375
4126,-52.734375
4127,-50.781250
4128,-48.828125
4129,-48.828125
4130,-46.875000
4131,-46.875000
4132,-44.921875
4133,-42.968750
4134,-41.015625
4135,-41.015625
4136,-39.062500
4137,-39.062500
4138,-37.109375
4139,-35.156250
4140,-33.203125
4141,-31.250000
4142,-31.250000
4143,-29.296875
4144,-29.296875
4145,-27.343750
4146,-25.390625
4147,-23.437500
4148,-21.484375
4149,-19.531250
4150,-19.531250
4151,-17.578125
4152,-15.625000
4153,-13.671875
4154,-13.671875
4155,-11.718750
4156,-9.765625
4157,-7.812500
4158,-5.859375
4159,-3.906250
4160,-3.906250
4161,-1.953125
4162,-1.953125
4163,0.000000
4164,1.953125
4165,3.906250
4166,3.906250
4167,5.859375
4168,7.812500
4169,9.765625
4170,9.765625
4171,11.718750
4172,13.671875
4173,17.578125
4174,15.625000
4175,17.578125
4176,17.578125
4177,19.531250
4178,21.484375
4179,23.437500
4180,23.437500
4181,25.390625
4182,25.390625
4183,29.296875
4184,29.296875
4185,29.296875
4186,31.250000
4187,33.203125
4188,35.156250
4189,35.156250
4190,37.109375
4191,37.109375
4192,39.062500
4193,39.062500
4194,41.015625
4195,41.015625
4196,42.968750
4197,42.968750
4198,44.921875
4199,44.921875
4200,46.875000
4201,46.875000
4202,46.875000
4203,48.828125
4204,48.828125
4205,50.781250
4206,50.781250
4207,50.781250
4208,52.734375
4209,52.734375
4210,52.734375
4211,54.687500
4212,54.687500
4213,54.687500
4214,56.640625
4215,56.640625
4216,56.640625
4217,58.593750
4218,58.593750
4219,58.593750
4220,58.593750
4221,58.593750
4222,58.593750
4223,60.546875
4224,60.546875
4225,60.546875
4226,56.640625
4227,60.546875
4228,60.546875
4229,60.546875
4230,60.546875
4231,60.546875
4232,60.546875
4233,60.546875
4234,60.546875
4235,62.500000
4236,60.546875
4237,60.546875
4238,60.546875
4239,60.546875
4240,60.546875
4241,58.593750
4242,58.593750
4243,58.593750
4244,58.593750
4245,58.593750
4246,56.640625
4247,56.640625
4248,54.687500
4249,54.687500
4250,54.687500
4251,54.687500
4252,54.687500
4253,54.687500
4254,52.734375
4255,50.781250
4256,52.734375
4257,50.781250
4258,50.781250
4259,48.828125
4260,48.828125
4261,46.875000
4262,46.875000
4263,46.875000
4264,44.921875
4265,44.921875
4266,42.968750
4267,42.968750
4268,41.015625
4269,41.015625
4270,39.062500
4271,39.062500
4272,37.109375
4273,35.156250
4274,35.156250
4275,33.203125
4276,33.203125
4277,31.250000
4278,29.296875
4279,29.296875
4280,27.343750
4281,27.343750
4282,25.390625
4283,23.437500
4284,21.484375
4285,21.484375
4286,19.531250
4287,19.531250
4288,17.578125
4289,15.625000
4290,13.671875
4291,13.671875
4292,11.718750
4293,9.765625
4294,9.765625
4295,7.812500
4296,5.859375
4297,3.906250
4298,1.953125
4299,1.953125
4300,0.000000
4301,-1.953125
4302,-1.953125
4303,-3.906250
4304,-5.859375
4305,-7.812500
4306,-9.765625
4307,-11.718750
4308,-11.718750
4309,-13.671875
4310,-15.625000
4311,-17.578125
4312,-17.578125
4313,-19.531250
4314,-21.484375
4315,-23.437500
4316,-23.437500
4317,-25.390625
4318,-27.343750
4319,-29.296875
4320,-31.250000
4321,-31.250000
4322,-33.203125
4323,-33.203125
4324,-35.156250
4325,-37.109375
4326,-39.062500
4327,-39.062500
4328,-41.015625
4329,-42.968750
4330,-42.968750
4331,-44.921875
4332,-46.875000
4333,-46.875000
4334,-48.828125
4335,-48.828125
4336,-50.781250
4337,-50.781250
4338,-52.734375
4339,-54.687500
4340,-56.640625
4341,-56.640625
4342,-56.640625
4343,-58.593750
4344,-58.593750
4345,-60.546875
4346,-60.546875
4347,-60.546875
4348,-62.500000
4349,-62.500000
4350,-64.453125
4351,-64.453125
4352,-66.406250
4353,-66.406250
4354,-66.406250
4355,-68.359375
4356,-68.359375
4357,-68.359375
4358,-70.312500
4359,-70.312500
4360,-70.312500
4361,-70.312500
4362,-72.265625
4363,-72.265625
4364,-72.265625
4365,-72.265625
4366,-74.218750
4367,-72.265625
4368,-72.265625
4369,-72.265625
4370,-74.218750
4371,-74.218750
4372,-74.218750
4373,-74.218750
4374,-74.218750
4375,-74.218750
4376,-74.218750
4377,-74.218750
4378,-72.265625
4379,-74.218750
4380,-72.265625
4381,-72.265625
4382,-72.265625
4383,-72.265625
4384,-72.265625
4385,-72.265625
4386,-72.265625
4387,-70.312500
4388,-70.312500
4389,-68.359375
4390,-70.312500
4391,-68.359375
4392,-68.359375
4393,-66.406250
4394,-66.406250
4395,-66.406250
4396,-66.406250
4397,-64.453125
4398,-62.500000
4399,-62.500000
4400,-60.546875
4401,-62.500000
4402,-58.593750
4403,-58.593750
4404,-56.640625
4405,-56.640625
4406,-54.687500
4407,-54.687500
4408,-52.734375
4409,-52.734375
4410,-50.781250
4411,-48.828125
4412,-48.828125
4413,-46.875000
4414,-46.875000
4415,-44.921875
4416,-44.921875
4417,-42.968750
4418,-41.015625
4419,-41.015625
4420,-39.062500
4421,-37.109375
4422,-35.156250
4423,-35.156250
4424,-33.203125
4425,-31.250000
4426,-29.296875
4427,-29.296875
4428,-27.343750
4429,-25.390625
4430,-25.390625
4431,-23.437500
4432,-21.484375
4433,-21.484375
4434,-17.578125
4435,-17.578125
4436,-15.625000
4437,-15.625000
4438,-13.671875
4439,-11.718750
4440,-9.765625
4441,-7.812500
4442,-7.812500
4443,-5.859375
4444,-3.906250
4445,-3.906250
4446,0.000000
4447,0.000000
4448,1.953125
4449,1.953125
4450,3.906250
4451,5.859375
4452,7.812500
4453,7.812500
4454,9.765625
4455,11.718750
4456,13.671875
4457,15.625000
4458,15.625000
4459,17.578125
4460,19.531250
4461,15.625000
4462,21.484375
4463,23.437500
4464,23.437500
4465,25.390625
4466,25.390625
4467,27.343750
4468,29.296875
4469,31.250000
4470,31.250000
4471,31.250000
4472,33.203125
4473,35.156250
4474,35.156250
4475,37.109375
4476,39.062500
4477,39.062500
4478,39.062500
4479,41.015625
4480,42.968750
4481,42.968750
4482,44.921875
4483,44.921875
4484,44.921875
4485,46.875000
4486,46.875000
4487,48.828125
4488,48.828125
4489,50.781250
4490,50.781250
4491,50.781250
4492,52.734375
4493,52.734375
4494,54.687500
4495,54.687500
4496,54.687500
4497,54.687500
4498,56.640625
4499,56.640625
4500,56.640625
4501,56.640625
4502,58.593750
4503,58.593750
4504,58.593750
4505,58.593750
4506,58.593750
4507,58.593750
4508,60.546875
4509,60.546875
4510,58.593750
4511,60.546875
4512,60.546875
4513,60.546875
4514,60.546875
4515,60.546875
4516,60.546875
4517,60.546875
4518,60.546875
4519,60.546875
4520,60.546875
4521,58.593750
4522,60.546875
4523,58.593750
4524,58.593750
4525,58.593750
4526,58.593750
4527,58.593750
4528,56.640625
4529,58.593750
4530,56.640625
4531,56.640625
4532,56.640625
4533,56.640625
4534,54.687500
4535,54.687500
4536,54.687500
4537,52.734375
4538,52.734375
4539,52.734375
4540,50.781250
4541,50.781250
4542,50.781250
4543,48.828125
4544,46.875000
4545,46.875000
4546,46.875000
4547,46.875000
4548,44.921875
4549,44.921875
4550,42.968750
4551,42.968750
4552,41.015625
4553,41.015625
4554,39.062500
4555,39.062500
4556,37.109375
4557,35.156250
4558,35.156250
4559,33.203125
4560,31.250000
4561,31.250000
4562,31.250000
4563,29.296875
4564,27.343750
4565,25.390625
4566,25.390625
4567,23.437500
4568,21.484375
4569,21.484375
4570,19.531250
4571,17.578125
4572,15.625000
4573,13.671875
4574,13.671875
4575,11.718750
4576,11.718750
4577,9.765625
4578,7.812500
4579,7.812500
4580,3.906250
4581,3.906250
4582,1.953125
4583,1.953125
4584,0.000000
4585,-1.953125
4586,-3.906250
4587,-5.859375
4588,-5.859375
4589,-7.812500
4590,-9.765625
4591,-9.765625
4592,-11.718750
4593,-13.671875
4594,-15.625000
4595,-17.578125
4596,-19.531250
4597,-19.531250
4598,-21.484375
4599,-23.437500
4600,-25.390625
4601,-25.390625
4602,-27.343750
4603,-29.296875
4604,-29.296875
4605,-31.250000
4606,-31.250000
4607,-33.203125
4608,-35.156250
4609,-37.109375
4610,-39.062500
4611,-39.062500
4612,-41.015625
4613,-41.015625
4614,-42.968750
4615,-44.921875
4616,-46.875000
4617,-46.875000
4618,-48.828125
4619,-48.828125
4620,-50.781250
4621,-52.734375
4622,-52.734375
4623,-54.687500
4624,-54.687500
4625,-56.640625
4626,-56.640625
4627,-58.593750
4628,-58.593750
4629,-60.546875
4630,-60.546875
4631,-62.500000
4632,-62.500000
4633,-64.453125
4634,-64.453125
4635,-64.453125
4636,-66.406250
4637,-68.359375
4638,-68.359375
4639,-68.359375
4640,-68.359375
4641,-70.312500
4642,-70.312500
4643,-70.312500
4644,-72.265625
4645,-72.265625
4646,-72.265625
4647,-72.265625
4648,-72.265625
4649,-72.265625
4650,-72.265625
4651,-72.265625
4652,-74.218750
4653,-74.218750
4654,-74.218750
4655,-74.218750
4656,-74.218750
4657,-74.218750
4658,-74.218750
4659,-74.218750
4660,-74.218750
4661,-74.218750
4662,-74.218750
4663,-74.218750
4664,-74.218750
4665,-72.265625
4666,-72.265625
4667,-72.265625
4668,-72.265625
4669,-72.265625
4670,-72.265625
4671,-70.312500
4672,-70.312500
4673,-70.312500
4674,-70.312500
4675,-68.359375
4676,-68.359375
4677,-68.359375
4678,-68.359375
4679,-66.406250
4680,-66.406250
4681,-64.453125
4682,-62.500000
4683,-62.500000
4684,-62.500000
4685,-60.546875
4686,-60.546875
4687,-58.593750
4688,-58.593750
4689,-56.640625
4690,-56.640625
4691,-54.687500
4692,-54.687500
4693,-52.734375
4694,-52.734375
4695,-50.781250
4696,-48.828125
4697,-48.828125
4698,-46.875000
4699,-46.875000
4700,-42.968750
4701,-42.968750
4702,-41.015625
4703,-44.921875
4704,-41.015625
4705,-39.062500
4706,-37.109375
4707,-33.203125
4708,-33.203125
4709,-33.203125
4710,-31.250000
4711,-31.250000
4712,-27.343750
4713,-27.343750
4714,-25.390625
4715,-25.390625
4716,-21.484375
4717,-19.531250
4718,-19.531250
4719,-17.578125
4720,-17.578125
4721,-15.625000
4722,-13.671875
4723,-11.718750
4724,-9.765625
4725,-9.765625
4726,-5.859375
4727,-5.859375
4728,-3.906250
4729,-3.906250
4730,-1.953125
4731,0.000000
4732,1.953125
4733,3.906250
4734,3.906250
4735,5.859375
4736,7.812500
4737,7.812500
4738,11.718750
4739,11.718750
4740,13.671875
4741,15.625000
4742,15.625000
4743,17.578125
4744,17.578125
4745,19.531250
4746,21.484375
4747,23.437500
4748,25.390625
4749,25.390625
4750,27.343750
4751,29.296875
4752,29.296875
4753,31.250000
4754,31.250000
4755,33.203125
4756,35.156250
4757,35.156250
4758,37.109375
4759,37.109375
4760,39.062500
4761,39.062500
4762,41.015625
4763,41.015625
4764,42.968750
4765,42.968750
4766,44.921875
4767,44.921875
4768,46.875000
4769,46.875000
4770,46.875000
4771,48.828125
4772,48.828125
4773,50.781250
4774,50.781250
4775,50.781250
4776,52.734375
4777,52.734375
4778,52.734375
4779,54.687500
4780,54.687500
4781,56.640625
4782,56.640625
4783,54.687500
4784,56.640625
4785,58.593750
4786,56.640625
4787,58.593750
4788,58.593750
4789,58.593750
4790,60.546875
4791,58.593750
4792,60.546875
4793,60.546875
4794,60.546875
4795,60.546875
4796,60.546875
4797,60.546875
4798,60.546875
4799,60.546875
4800,62.500000
4801,60.546875
4802,60.546875
4803,60.546875
4804,60.546875
4805,60.546875
4806,60.546875
4807,60.546875
4808,60.546875
4809,60.546875
4810,58.593750
4811,58.593750
4812,58.593750
4813,58.593750
4814,56.640625
4815,56.640625
4816,56.640625
4817,56.640625
4818,58.593750
4819,54.687500
4820,54.687500
4821,56.640625
4822,52.734375
4823,52.734375
4824,50.781250
4825,50.781250
4826,50.781250
4827,50.781250
4828,48.828125
4829,48.828125
4830,46.875000
4831,46.875000
4832,44.921875
4833,44.921875
4834,42.968750
4835,42.968750
4836,41.015625
4837,41.015625
4838,41.015625
4839,39.062500
4840,37.109375
4841,35.156250
4842,35.156250
4843,33.203125
4844,33.203125
4845,31.250000
4846,29.296875
4847,29.296875
4848,27.343750
4849,27.343750
4850,25.390625
4851,25.390625
4852,23.437500
4853,21.484375
4854,19.531250
4855,17.578125
4856,17.578125
4857,13.671875
4858,15.625000
4859,13.671875
4860,11.718750
4861,9.765625
4862,9.765625
4863,7.812500
4864,5.859375
4865,3.906250
4866,3.906250
4867,1.953125
4868,1.953125
4869,-1.953125
4870,-1.953125
4871,-3.906250
4872,-5.859375
4873,-7.812500
4874,-7.812500
4875,-9.765625
4876,-11.718750
4877,-13.671875
4878,-13.671875
4879,-15.625000
4880,-17.578125
4881,-19.531250
4882,-19.531250
4883,-21.484375
4884,-23.437500
4885,-23.437500
4886,-25.390625
4887,-27.343750
4888,-29.296875
4889,-31.250000
4890,-31.250000
4891,-33.203125
4892,-35.156250
4893,-35.156250
4894,-37.109375
4895,-39.062500
4896,-41.015625
4897,-41.015625
4898,-42.968750
4899,-44.921875
4900,-42.968750
4901,-46.875000
4902,-48.828125
4903,-48.828125
4904,-50.781250
4905,-52.734375
4906,-54.687500
4907,-54.687500
4908,-54.687500
4909,-56.640625
4910,-56.640625
4911,-58.593750
4912,-58.593750
4913,-60.546875
4914,-60.546875
4915,-62.500000
4916,-62.500000
4917,-64.453125
4918,-64.453125
4919,-64.453125
4920,-66.406250
4921,-66.406250
4922,-66.406250
4923,-68.359375
4924,-68.359375
4925,-68.359375
4926,-70.312500
4927,-70.312500
4928,-70.312500
4929,-70.312500
4930,-72.265625
4931,-70.312500
4932,-72.265625
4933,-72.265625
4934,-72.265625
4935,-74.218750
4936,-72.265625
4937,-74.218750
4938,-74.218750
4939,-74.218750
4940,-74.218750
4941,-74.218750
4942,-74.218750
4943,-74.218750
4944,-74.218750
4945,-74.218750
4946,-72.265625
4947,-74.218750
4948,-72.265625
4949,-74.218750
4950,-72.265625
4951,-72.265625
4952,-72.265625
4953,-72.265625
4954,-70.312500
4955,-70.312500
4956,-70.312500
4957,-70.312500
4958,-70.312500
4959,-68.359375
4960,-68.359375
4961,-68.359375
4962,-66.406250
4963,-66.406250
4964,-64.453125
4965,-58.593750
4966,-64.453125
4967,-62.500000
4968,-62.500000
4969,-60.546875
4970,-58.593750
4971,-58.593750
4972,-58.593750
4973,-58.593750
4974,-56.640625
4975,-54.687500
4976,-54.687500
4977,-52.734375
4978,-50.781250
4979,-50.781250
4980,-48.828125
4981,-48.828125
4982,-46.875000
4983,-44.921875
4984,-44.921875
4985,-42.968750
4986,-41.015625
4987,-41.015625
4988,-39.062500
4989,-39.062500
4990,-37.109375
4991,-35.156250
4992,-33.203125
4993,-31.250000
4994,-31.250000
4995,-29.296875
4996,-27.343750
4997,-27.343750
4998,-25.390625
4999,-23.437500
5000,-21.484375
5001,-21.484375
5002,-19.531250
5003,-17.578125
5004,-15.625000
5005,-15.625000
5006,-13.671875
5007,-11.718750
5008,-9.765625
5009,-9.765625
5010,-7.812500
5011,-5.859375
5012,-3.906250
5013,-1.953125
5014,-1.953125
5015,0.000000
5016,0.000000
5017,1.953125
5018,3.906250
5019,5.859375
5020,7.812500
5021,7.812500
5022,9.765625
5023,11.718750
5024,11.718750
5025,13.671875
5026,15.625000
5027,15.625000
5028,17.578125
5029,19.531250
5030,21.484375
5031,23.437500
5032,23.437500
5033,25.390625
5034,25.390625
5035,27.343750
5036,27.343750
5037,29.296875
5038,31.250000
5039,31.250000
5040,33.203125
5041,35.156250
5042,35.156250
5043,37.109375
5044,37.109375
5045,39.062500
5046,41.015625
5047,41.015625
5048,41.015625
5049,42.968750
5050,44.921875
5051,44.921875
5052,44.921875
5053,46.875000
5054,48.828125
5055,48.828125
5056,48.828125
5057,48.828125
5058,50.781250
5059,52.734375
5060,52.734375
5061,52.734375
5062,54.687500
5063,54.687500
5064,54.687500
5065,54.687500
5066,56.640625
5067,56.640625
5068,58.593750
5069,56.640625
5070,58.593750
5071,58.593750
5072,58.593750
5073,58.593750
5074,58.593750
5075,58.593750
5076,60.546875
5077,60.546875
5078,60.546875
5079,60.546875
5080,60.546875
5081,60.546875
5082,60.546875
5083,60.546875
5084,60.546875
5085,60.546875
5086,60.546875
5087,60.546875
5088,60.546875
5089,58.593750
5090,58.593750
5091,58.593750
5092,58.593750
5093,58.593750
5094,58.593750
5095,58.593750
5096,58.593750
5097,56.640625
5098,56.640625
5099,54.687500
5100,56.640625
5101,54.687500
5102,54.687500
5103,54.687500
5104,52.734375
5105,54.687500
5106,52.734375
5107,52.734375
5108,50.781250
5109,50.781250
5110,48.828125
5111,48.828125
5112,48.828125
5113,48.828125
5114,46.875000
5115,44.921875
5116,44.921875
5117,44.921875
5118,44.921875
5119,42.968750
5120,42.968750
5121,41.015625
5122,39.062500
5123,37.109375
5124,37.109375
5125,37.109375
5126,35.156250
5127,33.203125
5128,33.203125
5129,31.250000
5130,31.250000
5131,29.296875
5132,27.343750
5133,25.390625
5134,25.390625
5135,25.390625
5136,23.437500
5137,21.484375
5138,19.531250
5139,19.531250
5140,17.578125
5141,15.625000
5142,13.671875
5143,13.671875
5144,11.718750
5145,9.765625
5146,7.812500
5147,5.859375
5148,5.859375
5149,3.906250
5150,1.953125
5151,1.953125
5152,0.000000
5153,-1.953125
5154,-3.906250
5155,-5.859375
5156,-5.859375
5157,-7.812500
5158,-9.765625
5159,-9.765625
5160,-13.671875
5161,-13.671875
5162,-15.625000
5163,-17.578125
5164,-17.578125
5165,-19.531250
5166,-21.484375
5167,-21.484375
5168,-23.437500
5169,-25.390625
5170,-27.343750
5171,-29.296875
5172,-29.296875
5173,-31.250000
5174,-33.203125
5175,-33.203125
5176,-35.156250
5177,-37.109375
5178,-39.062500
5179,-39.062500
5180,-41.015625
5181,-41.015625
5182,-42.968750
5183,-42.968750
5184,-44.921875
5185,-46.875000
5186,-48.828125
5187,-48.828125
5188,-50.781250
5189,-52.734375
5190,-52.734375
5191,-54.687500
5192,-54.687500
5193,-56.640625
5194,-56.640625
5195,-58.593750
5196,-58.593750
5197,-60.546875
5198,-60.546875
5199,-62.500000
5200,-62.500000
5201,-64.453125
5202,-64.453125
5203,-64.453125
5204,-64.453125
5205,-66.406250
5206,-66.406250
5207,-68.359375
5208,-68.359375
5209,-68.359375
5210,-70.312500
5211,-70.312500
5212,-70.312500
5213,-70.312500
5214,-72.265625
5215,-72.265625
5216,-72.265625
5217,-72.265625
5218,-72.265625
5219,-72.265625
5220,-74.218750
5221,-74.218750
5222,-72.265625
5223,-74.218750
5224,-74.218750
5225,-74.218750
5226,-72.265625
5227,-74.218750
5228,-74.218750
5229,-74.218750
5230,-74.218750
5231,-74.218750
5232,-74.218750
5233,-72.265625
5234,-72.265625
5235,-72.265625
5236,-72.265625
5237,-74.218750
5238,-72.265625
5239,-70.312500
5240,-70.312500
5241,-70.312500
5242,-70.312500
5243,-68.359375
5244,-68.359375
5245,-68.359375
5246,-66.406250
5247,-66.406250
5248,-64.453125
5249,-64.453125
5250,-62.500000
5251,-62.500000
5252,-62.500000
5253,-60.546875
5254,-60.546875
5255,-58.593750
5256,-58.593750
5257,-56.640625
5258,-56.640625
5259,-54.687500
5260,-54.687500
5261,-52.734375
5262,-50.781250
5263,-50.781250
5264,-48.828125
5265,-48.828125
5266,-46.875000
5267,-46.875000
5268,-42.968750
5269,-42.968750
5270,-41.015625
5271,-41.015625
5272,-39.062500
5273,-37.109375
5274,-37.109375
5275,-35.156250
5276,-33.203125
5277,-35.156250
5278,-31.250000
5279,-29.296875
5280,-27.343750
5281,-27.343750
5282,-25.390625
5283,-25.390625
5284,-23.437500
5285,-21.484375
5286,-21.484375
5287,-19.531250
5288,-15.625000
5289,-15.625000
5290,-13.671875
5291,-11.718750
5292,-9.765625
5293,-9.765625
5294,-7.812500
5295,-5.859375
5296,-5.859375
5297,-1.953125
5298,-1.953125
5299,0.000000
5300,1.953125
5301,1.953125
5302,3.906250
5303,5.859375
5304,5.859375
5305,9.765625
5306,9.765625
5307,11.718750
5308,13.671875
5309,15.625000
5310,15.625000
5311,17.578125
5312,17.578125
5313,19.531250
5314,21.484375
5315,23.437500
5316,23.437500
5317,27.343750
5318,25.390625
5319,25.390625
5320,29.296875
5321,29.296875
5322,31.250000
5323,33.203125
5324,35.156250
5325,35.156250
5326,35.156250
5327,37.109375
5328,39.062500
5329,39.062500
5330,41.015625
5331,42.968750
5332,42.968750
5333,44.921875
5334,44.921875
5335,44.921875
5336,44.921875
5337,46.875000
5338,46.875000
5339,48.828125
5340,48.828125
5341,50.781250
5342,50.781250
5343,52.734375
5344,50.781250
5345,52.734375
5346,54.687500
5347,54.687500
5348,54.687500
5349,54.687500
5350,56.640625
5351,56.640625
5352,56.640625
5353,56.640625
5354,58.593750
5355,58.593750
5356,58.593750
5357,58.593750
5358,58.593750
5359,58.593750
5360,60.546875
5361,58.593750
5362,60.546875
5363,60.546875
5364,60.546875
5365,60.546875
5366,60.546875
5367,60.546875
5368,60.546875
5369,60.546875
5370,60.546875
5371,60.546875
5372,60.546875
5373,60.546875
5374,60.546875
5375,60.546875
5376,60.546875
5377,58.593750
5378,58.593750
5379,58.593750
5380,60.546875
5381,58.593750
5382,58.593750
5383,58.593750
5384,56.640625
5385,56.640625
5386,56.640625
5387,54.687500
5388,54.687500
5389,54.687500
5390,54.687500
5391,56.640625
5392,52.734375
5393,52.734375
5394,50.781250
5395,50.781250
5396,46.875000
5397,48.828125
5398,46.875000
5399,46.875000
5400,46.875000
5401,44.921875
5402,42.968750
5403,42.968750
5404,41.015625
5405,41.015625
5406,41.015625
5407,39.062500
5408,37.109375
5409,37.109375
5410,35.156250
5411,33.203125
5412,33.203125
5413,31.250000
5414,31.250000
5415,29.296875
5416,27.343750
5417,27.343750
5418,25.390625
5419,23.437500
5420,23.437500
5421,21.484375
5422,23.437500
5423,19.531250
5424,17.578125
5425,17.578125
5426,13.671875
5427,13.671875
5428,11.718750
5429,11.718750
5430,9.765625
5431,7.812500
5432,5.859375
5433,3.906250
5434,3.906250
5435,1.953125
5436,0.000000
5437,0.000000
5438,-1.953125
5439,-3.906250
5440,-5.859375
5441,-7.812500
5442,-9.765625
5443,-9.765625
5444,-11.718750
5445,-11.718750
5446,-13.671875
5447,-15.625000
5448,-17.578125
5449,-19.531250
5450,-21.484375
5451,-21.484375
5452,-23.437500
5453,-25.390625
5454,-25.390625
5455,-27.343750
5456,-29.296875
5457,-31.250000
5458,-31.250000
5459,-33.203125
5460,-35.156250
5461,-35.156250
5462,-37.109375
5463,-39.062500
5464,-41.015625
5465,-41.015625
5466,-42.968750
5467,-44.921875
5468,-44.921875
5469,-46.875000
5470,-48.828125
5471,-48.828125
5472,-50.781250
5473,-50.781250
5474,-52.734375
5475,-54.687500
5476,-54.687500
5477,-56.640625
5478,-56.640625
5479,-58.593750
5480,-58.593750
5481,-60.546875
5482,-60.546875
5483,-62.500000
5484,-62.500000
5485,-64.453125
5486,-64.453125
5487,-66.406250
5488,-64.453125
5489,-66.406250
5490,-68.359375
5491,-68.359375
5492,-68.359375
5493,-68.359375
5494,-70.312500
5495,-70.312500
5496,-70.312500
5497,-72.265625
5498,-72.265625
5499,-72.265625
5500,-72.265625
5501,-72.265625
5502,-72.265625
5503,-72.265625
5504,-70.312500
5505,-74.218750
5506,-74.218750
5507,-74.218750
5508,-74.218750
5509,-74.218750
5510,-74.218750
5511,-74.218750
5512,-74.218750
5513,-74.218750
5514,-74.218750
5515,-74.218750
5516,-72.265625
5517,-74.218750
5518,-72.265625
5519,-72.265625
5520,-72.265625
5521,-70.312500
5522,-70.312500
5523,-72.265625
5524,-70.312500
5525,-70.312500
5526,-70.312500
5527,-68.359375
5528,-68.359375
5529,-68.359375
5530,-72.265625
5531,-66.406250
5532,-66.406250
5533,-64.453125
5534,-64.453125
5535,-62.500000
5536,-62.500000
5537,-60.546875
5538,-60.546875
5539,-58.593750
5540,-58.593750
5541,-56.640625
5542,-56.640625
5543,-54.687500
5544,-54.687500
5545,-54.687500
5546,-52.734375
5547,-52.734375
5548,-50.781250
5549,-48.828125
5550,-48.828125
5551,-46.875000
5552,-44.921875
5553,-44.921875
5554,-41.015625
5555,-41.015625
5556,-39.062500
5557,-39.062500
5558,-37.109375
5559,-35.156250
5560,-35.156250
5561,-33.203125
5562,-31.250000
5563,-29.296875
5564,-29.296875
5565,-27.343750
5566,-25.390625
5567,-23.437500
5568,-23.437500
5569,-21.484375
5570,-19.531250
5571,-17.578125
5572,-17.578125
5573,-15.625000
5574,-13.671875
5575,-13.671875
5576,-9.765625
5577,-9.765625
5578,-7.812500
5579,-5.859375
5580,-3.906250
5581,-3.906250
5582,-1.953125
5583,0.000000
5584,1.953125
5585,1.953125
5586,3.906250
5587,5.859375
5588,7.812500
5589,7.812500
5590,9.765625
5591,11.718750
5592,11.718750
5593,13.671875
5594,15.625000
5595,17.578125
5596,17.578125
5597,19.531250
5598,21.484375
5599,21.484375
5600,23.437500
5601,25.390625
5602,25.390625
5603,27.343750
5604,29.296875
5605,29.296875
5606,31.250000
5607,33.203125
5608,33.203125
5609,33.203125
5610,35.156250
5611,37.109375
5612,37.109375
5613,39.062500
5614,39.062500
5615,41.015625
5616,41.015625
5617,42.968750
5618,42.968750
5619,44.921875
5620,44.921875
5621,46.875000
5622,46.875000
5623,46.875000
5624,48.828125
5625,48.828125
5626,50.781250
5627,50.781250
5628,50.781250
5629,52.734375
5630,52.734375
5631,56.640625
5632,54.687500
5633,56.640625
5634,56.640625
5635,56.640625
5636,56.640625
5637,56.640625
5638,58.593750
5639,58.593750
5640,58.593750
5641,58.593750
5642,58.593750
5643,58.593750
5644,60.546875
5645,60.546875
5646,60.546875
5647,60.546875
5648,60.546875
5649,60.546875
5650,60.546875
5651,60.546875
5652,60.546875
5653,60.546875
5654,60.546875
5655,60.546875
5656,60.546875
5657,60.546875
5658,60.546875
5659,58.593750
5660,60.546875
5661,58.593750
5662,58.593750
5663,58.593750
5664,56.640625
5665,56.640625
5666,54.687500
5667,56.640625
5668,56.640625
5669,54.687500
5670,54.687500
5671,54.687500
5672,52.734375
5673,52.734375
5674,52.734375
5675,50.781250
5676,50.781250
5677,50.781250
5678,50.781250
5679,48.828125
5680,48.828125
5681,46.875000
5682,46.875000
5683,44.921875
5684,44.921875
5685,44.921875
5686,42.968750
5687,42.968750
5688,41.015625
5689,39.062500
5690,39.062500
5691,39.062500
5692,37.109375
5693,35.156250
5694,35.156250
5695,33.203125
5696,33.203125
5697,33.203125
5698,31.250000
5699,29.296875
5700,27.343750
5701,27.343750
5702,25.390625
5703,25.390625
5704,23.437500
5705,21.484375
5706,19.531250
5707,19.531250
5708,17.578125
5709,17.578125
5710,15.625000
5711,13.671875
5712,11.718750
5713,9.765625
5714,9.765625
5715,5.859375
5716,5.859375
5717,3.906250
5718,3.906250
5719,1.953125
5720,0.000000
5721,0.000000
5722,-3.906250
5723,-3.906250
5724,-5.859375
5725,-7.812500
5726,-7.812500
5727,-11.718750
5728,-11.718750
5729,-13.671875
5730,-13.671875
5731,-17.578125
5732,-17.578125
5733,-19.531250
5734,-19.531250
5735,-21.484375
5736,-23.437500
5737,-25.390625
5738,-27.343750
5739,-27.343750
5740,-29.296875
5741,-31.250000
5742,-33.203125
5743,-33.203125
5744,-35.156250
5745,-37.109375
5746,-37.109375
5747,-39.062500
5748,-41.015625
5749,-41.015625
5750,-42.968750
5751,-44.921875
5752,-46.875000
5753,-46.875000
5754,-50.781250
5755,-48.828125
5756,-50.781250
5757,-50.781250
5758,-52.734375
5759,-52.734375
5760,-54.687500
5761,-56.640625
5762,-56.640625
5763,-56.640625
5764,-58.593750
5765,-58.593750
5766,-60.546875
5767,-60.546875
5768,-62.500000
5769,-62.500000
5770,-64.453125
5771,-64.453125
5772,-66.406250
5773,-64.453125
5774,-66.406250
5775,-66.406250
5776,-68.359375
5777,-68.359375
5778,-70.312500
5779,-70.312500
5780,-70.312500
5781,-72.265625
5782,-70.312500
5783,-72.265625
5784,-72.265625
5785,-72.265625
5786,-72.265625
5787,-72.265625
5788,-74.218750
5789,-72.265625
5790,-70.312500
5791,-74.218750
5792,-74.218750
5793,-74.218750
5794,-74.218750
5795,-70.312500
5796,-74.218750
5797,-74.218750
5798,-74.218750
5799,-74.218750
5800,-74.218750
5801,-72.265625
5802,-72.265625
5803,-72.265625
5804,-72.265625
5805,-72.265625
5806,-72.265625
5807,-70.312500
5808,-70.312500
5809,-70.312500
5810,-68.359375
5811,-68.359375
5812,-70.312500
5813,-68.359375
5814,-66.406250
5815,-66.406250
5816,-66.406250
5817,-64.453125
5818,-62.500000
5819,-62.500000
5820,-62.500000
5821,-60.546875
5822,-60.546875
5823,-60.546875
5824,-58.593750
5825,-56.640625
5826,-56.640625
5827,-54.687500
5828,-54.687500
5829,-52.734375
5830,-52.734375
5831,-50.781250
5832,-48.828125
5833,-48.828125
5834,-46.875000
5835,-50.781250
5836,-44.921875
5837,-42.968750
5838,-41.015625
5839,-39.062500
5840,-39.062500
5841,-39.062500
5842,-37.109375
5843,-35.156250
5844,-33.203125
5845,-33.203125
5846,-31.250000
5847,-29.296875
5848,-27.343750
5849,-27.343750
5850,-25.390625
5851,-23.437500
5852,-23.437500
5853,-21.484375
5854,-19.531250
5855,-17.578125
5856,-15.625000
5857,-13.671875
5858,-13.671875
5859,-9.765625
5860,-9.765625
5861,-7.812500
5862,-7.812500
5863,-5.859375
5864,-3.906250
5865,-3.906250
5866,-1.953125
5867,0.000000
5868,0.000000
5869,1.953125
5870,3.906250
5871,5.859375
5872,7.812500
5873,7.812500
5874,9.765625
5875,11.718750
5876,13.671875
5877,13.671875
5878,15.625000
5879,15.625000
5880,17.578125
5881,19.531250
5882,21.484375
5883,21.484375
5884,23.437500
5885,25.390625
5886,25.390625
5887,27.343750
5888,29.296875
5889,29.296875
5890,31.250000
5891,33.203125
5892,33.203125
5893,35.156250
5894,35.156250
5895,37.109375
5896,37.109375
5897,39.062500
5898,39.062500
5899,41.015625
5900,42.968750
5901,44.921875
5902,44.921875
5903,44.921875
5904,44.921875
5905,46.875000
5906,48.828125
5907,48.828125
5908,48.828125
5909,48.828125
5910,50.781250
5911,50.781250
5912,52.734375
5913,52.734375
5914,54.687500
5915,54.687500
5916,54.687500
5917,54.687500
5918,56.640625
5919,56.640625
5920,56.640625
5921,56.640625
5922,56.640625
5923,58.593750
5924,58.593750
5925,58.593750
5926,60.546875
5927,58.593750
5928,58.593750
5929,58.593750
5930,60.546875
5931,60.546875
5932,60.546875
5933,60.546875
5934,60.546875
5935,60.546875
5936,60.546875
5937,60.546875
5938,60.546875
5939,60.546875
5940,58.593750
5941,58.593750
5942,60.546875
5943,60.546875
5944,60.546875
5945,58.593750
5946,58.593750
5947,58.593750
5948,58.593750
5949,58.593750
5950,58.593750
5951,56.640625
5952,56.640625
5953,56.640625
5954,54.687500
5955,56.640625
5956,54.687500
5957,54.687500
5958,52.734375
5959,52.734375
5960,50.781250
5961,52.734375
5962,50.781250
5963,50.781250
5964,48.828125
5965,48.828125
5966,46.875000
5967,46.875000
5968,46.875000
5969,44.921875
5970,44.921875
5971,42.968750
5972,41.015625
5973,41.015625
5974,37.109375
5975,39.062500
5976,39.062500
5977,39.062500
5978,33.203125
5979,35.156250
5980,33.203125
5981,31.250000
5982,31.250000
5983,31.250000
5984,27.343750
5985,27.343750
5986,25.390625
5987,23.437500
5988,21.484375
5989,21.484375
5990,21.484375
5991,19.531250
5992,15.625000
5993,13.671875
5994,15.625000
5995,13.671875
5996,11.718750
5997,11.718750
5998,9.765625
5999,7.812500
6000,7.812500
6001,3.906250
6002,3.906250
6003,1.953125
6004,0.000000
6005,-1.953125
6006,-3.906250
6007,-5.859375
6008,-9.765625
6009,-7.812500
6010,-7.812500
6011,-9.765625
6012,-7.812500
6013,-13.671875
6014,-13.671875
6015,-15.625000
6016,-17.578125
6017,-19.531250
6018,-19.531250
6019,-21.484375
6020,-23.437500
6021,-25.390625
6022,-27.343750
6023,-27.343750
6024,-29.296875
6025,-29.296875
6026,-31.250000
6027,-33.203125
6028,-35.156250
6029,-35.156250
6030,-37.109375
6031,-39.062500
6032,-39.062500
6033,-41.015625
6034,-42.968750
6035,-44.921875
6036,-44.921875
6037,-46.875000
6038,-48.828125
6039,-48.828125
6040,-50.781250
6041,-50.781250
6042,-52.734375
6043,-52.734375
6044,-56.640625
6045,-56.640625
6046,-56.640625
6047,-58.593750
6048,-58.593750
6049,-60.546875
6050,-60.546875
6051,-62.500000
6052,-62.500000
6053,-64.453125
6054,-64.453125
6055,-64.453125
6056,-66.406250
6057,-66.406250
6058,-68.359375
6059,-68.359375
6060,-68.359375
6061,-74.218750
6062,-70.312500
6063,-70.312500
6064,-70.312500
6065,-72.265625
6066,-72.265625
6067,-72.265625
6068,-72.265625
6069,-72.265625
6070,-74.218750
6071,-74.218750
6072,-74.218750
6073,-74.218750
6074,-74.218750
6075,-74.218750
6076,-74.218750
6077,-74.218750
6078,-74.218750
6079,-74.218750
6080,-74.218750
6081,-74.218750
6082,-74.218750
6083,-74.218750
6084,-72.265625
6085,-72.265625
6086,-72.265625
6087,-72.265625
6088,-72.265625
6089,-72.265625
6090,-72.265625
6091,-72.265625
6092,-70.312500
6093,-70.312500
6094,-68.359375
6095,-68.359375
6096,-68.359375
6097,-68.359375
6098,-66.406250
6099,-66.406250
6100,-64.453125
6101,-64.453125
6102,-64.453125
6103,-62.500000
6104,-62.500000
6105,-60.546875
6106,-60.546875
6107,-60.546875
6108,-58.593750
6109,-58.593750
6110,-56.640625
6111,-56.640625
6112,-54.687500
6113,-54.687500
6114,-52.734375
6115,-50.781250
6116,-50.781250
6117,-48.828125
6118,-46.875000
6119,-46.875000
6120,-44.921875
6121,-42.968750
6122,-42.968750
6123,-41.015625
6124,-41.015625
6125,-39.062500
6126,-41.015625
6127,-37.109375
6128,-35.156250
6129,-33.203125
6130,-31.250000
6131,-31.250000
6132,-29.296875
6133,-27.343750
6134,-25.390625
6135,-25.390625
6136,-23.437500
6137,-21.484375
6138,-19.531250
6139,-17.578125
6140,-17.578125
6141,-15.625000
6142,-13.671875
6143,-13.671875
6144,-11.718750
6145,-9.765625
6146,-7.812500
6147,-5.859375
6148,-5.859375
6149,-3.906250
6150,-1.953125
6151,0.000000
6152,1.953125
6153,1.953125
6154,3.906250
6155,0.000000
6156,5.859375
6157,7.812500
6158,9.765625
6159,9.765625
6160,13.671875
6161,13.671875
6162,15.625000
6163,17.578125
6164,17.578125
6165,19.531250
6166,21.484375
6167,21.484375
6168,23.437500
6169,25.390625
6170,25.390625
6171,27.343750
6172,29.296875
6173,31.250000
6174,31.250000
6175,33.203125
6176,33.203125
6177,35.156250
6178,35.156250
6179,37.109375
6180,37.109375
6181,39.062500
6182,39.062500
6183,41.015625
6184,41.015625
6185,42.968750
6186,42.968750
6187,44.921875
6188,44.921875
6189,46.875000
6190,46.875000
6191,48.828125
6192,48.828125
6193,48.828125
6194,50.781250
6195,50.781250
6196,50.781250
6197,52.734375
6198,52.734375
6199,52.734375
6200,54.687500
6201,54.687500
6202,54.687500
6203,56.640625
6204,56.640625
6205,56.640625
6206,56.640625
6207,56.640625
6208,58.593750
6209,58.593750
6210,58.593750
6211,58.593750
6212,58.593750
6213,60.546875
6214,60.546875
6215,60.546875
6216,60.546875
6217,60.546875
6218,60.546875
6219,60.546875
6220,60.546875
6221,60.546875
6222,60.546875
6223,60.546875
6224,60.546875
6225,58.593750
6226,60.546875
6227,60.546875
6228,60.546875
6229,58.593750
6230,58.593750
6231,58.593750
6232,58.593750
6233,58.593750
6234,58.593750
6235,56.640625
6236,56.640625
6237,56.640625
6238,56.640625
6239,56.640625
6240,54.687500
6241,54.687500
6242,52.734375
6243,52.734375
6244,52.734375
6245,50.781250
6246,50.781250
6247,48.828125
6248,48.828125
6249,48.828125
6250,46.875000
6251,44.921875
6252,46.875000
6253,44.921875
6254,42.968750
6255,42.968750
6256,41.015625
6257,41.015625
6258,39.062500
6259,39.062500
6260,37.109375
6261,35.156250
6262,35.156250
6263,35.156250
6264,33.203125
6265,31.250000
6266,31.250000
6267,29.296875
6268,29.296875
6269,27.343750
6270,25.390625
6271,23.437500
6272,21.484375
6273,23.437500
6274,19.531250
6275,19.531250
6276,17.578125
6277,15.625000
6278,15.625000
6279,13.671875
6280,11.718750
6281,11.718750
6282,9.765625
6283,7.812500
6284,7.812500
6285,5.859375
6286,3.906250
6287,1.953125
6288,0.000000
6289,0.000000
6290,-1.953125
6291,-3.906250
6292,-3.906250
6293,-5.859375
6294,-7.812500
6295,-9.765625
6296,-11.718750
6297,-11.718750
6298,-13.671875
6299,-15.625000
6300,-17.578125
6301,-17.578125
6302,-19.531250
6303,-21.484375
6304,-23.437500
6305,-23.437500
6306,-25.390625
6307,-27.343750
6308,-29.296875
6309,-29.296875
6310,-31.250000
6311,-33.203125
6312,-35.156250
6313,-35.156250
6314,-37.109375
6315,-39.062500
6316,-41.015625
6317,-41.015625
6318,-42.968750
6319,-42.968750
6320,-42.968750
6321,-46.875000
6322,-46.875000
6323,-48.828125
6324,-48.828125
6325,-50.781250
6326,-52.734375
6327,-52.734375
6328,-54.687500
6329,-54.687500
6330,-56.640625
6331,-58.593750
6332,-58.593750
6333,-58.593750
6334,-60.546875
6335,-62.500000
6336,-62.500000
6337,-62.500000
6338,-64.453125
6339,-64.453125
6340,-66.406250
6341,-66.406250
6342,-66.406250
6343,-68.359375
6344,-68.359375
6345,-68.359375
6346,-68.359375
6347,-68.359375
6348,-70.312500
6349,-70.312500
6350,-70.312500
6351,-72.265625
6352,-72.265625
6353,-72.265625
6354,-72.265625
6355,-72.265625
6356,-72.265625
6357,-74.218750
6358,-74.218750
6359,-74.218750
6360,-72.265625
6361,-72.265625
6362,-74.218750
6363,-74.218750
6364,-72.265625
6365,-74.218750
6366,-74.218750
6367,-72.265625
6368,-72.265625
6369,-74.218750
6370,-72.265625
6371,-72.265625
6372,-72.265625
6373,-72.265625
6374,-70.312500
6375,-70.312500
6376,-70.312500
6377,-70.312500
6378,-68.359375
6379,-68.359375
6380,-68.359375
6381,-68.359375
6382,-66.406250
6383,-66.406250
6384,-64.453125
6385,-64.453125
6386,-64.453125
6387,-62.500000
6388,-62.500000
6389,-60.546875
6390,-60.546875
6391,-58.593750
6392,-58.593750
6393,-54.687500
6394,-56.640625
6395,-56.640625
6396,-52.734375
6397,-52.734375
6398,-52.734375
6399,-50.781250
6400,-48.828125
6401,-48.828125
6402,-46.875000
6403,-46.875000
6404,-44.921875
6405,-42.968750
6406,-42.968750
6407,-41.015625
6408,-39.062500
6409,-39.062500
6410,-37.109375
6411,-35.156250
6412,-33.203125
6413,-33.203125
6414,-31.250000
6415,-29.296875
6416,-29.296875
6417,-27.343750
6418,-25.390625
6419,-23.437500
6420,-23.437500
6421,-21.484375
6422,-19.531250
6423,-17.578125
6424,-17.578125
6425,-13.671875
6426,-13.671875
6427,-13.671875
6428,-11.718750
6429,-9.765625
6430,-7.812500
6431,-5.859375
6432,-5.859375
6433,-3.906250
6434,-1.953125
6435,0.000000
6436,0.000000
6437,1.953125
6438,3.906250
6439,5.859375
6440,5.859375
6441,7.812500
6442,9.765625
6443,11.718750
6444,11.718750
6445,13.671875
6446,15.625000
6447,15.625000
6448,17.578125
6449,19.531250
6450,19.531250
6451,21.484375
6452,23.437500
6453,23.437500
6454,25.390625
6455,27.343750
6456,27.343750
6457,29.296875
6458,31.250000
6459,31.250000
6460,33.203125
6461,33.203125
6462,35.156250
6463,35.156250
6464,39.062500
6465,39.062500
6466,39.062500
6467,41.015625
6468,41.015625
6469,41.015625
6470,44.921875
6471,44.921875
6472,44.921875
6473,46.875000
6474,46.875000
6475,48.828125
6476,50.781250
6477,50.781250
6478,50.781250
6479,52.734375
6480,52.734375
6481,52.734375
6482,52.734375
6483,54.687500
6484,54.687500
6485,54.687500
6486,56.640625
6487,56.640625
6488,56.640625
6489,56.640625
6490,58.593750
6491,56.640625
6492,58.593750
6493,58.593750
6494,58.593750
6495,58.593750
6496,60.546875
6497,60.546875
6498,58.593750
6499,60.546875
6500,60.546875
6501,60.546875
6502,60.546875
6503,60.546875
6504,60.546875
6505,60.546875
6506,60.546875
6507,60.546875
6508,66.406250
6509,60.546875
6510,60.546875
6511,60.546875
6512,58.593750
6513,58.593750
6514,58.593750
6515,58.593750
6516,58.593750
6517,58.593750
6518,56.640625
6519,56.640625
6520,56.640625
6521,56.640625
6522,56.640625
6523,54.687500
6524,54.687500
6525,54.687500
6526,52.734375
6527,52.734375
6528,50.781250
6529,50.781250
6530,50.781250
6531,48.828125
6532,48.828125
6533,48.828125
6534,46.875000
6535,46.875000
6536,44.921875
6537,44.921875
6538,44.921875
6539,42.968750
6540,41.015625
6541,41.015625
6542,39.062500
6543,39.062500
6544,37.109375
6545,37.109375
6546,35.156250
6547,35.156250
6548,33.203125
6549,33.203125
6550,31.250000
6551,29.296875
6552,29.296875
6553,27.343750
6554,25.390625
6555,23.437500
6556,23.437500
6557,21.484375
6558,21.484375
6559,19.531250
6560,17.578125
6561,15.625000
6562,15.625000
6563,15.625000
6564,11.718750
6565,11.718750
6566,9.765625
6567,9.765625
6568,5.859375
6569,3.906250
6570,3.906250
6571,1.953125
6572,0.000000
6573,-1.953125
6574,-1.953125
6575,-3.906250
6576,-5.859375
6577,-7.812500
6578,-7.812500
6579,-11.718750
6580,-11.718750
6581,-13.671875
6582,-15.625000
6583,-15.625000
6584,-17.578125
6585,-17.578125
6586,-21.484375
6587,-23.437500
6588,-23.437500
6589,-25.390625
6590,-27.343750
6591,-27.343750
6592,-29.296875
6593,-29.296875
6594,-33.203125
6595,-33.203125
6596,-35.156250
6597,-37.109375
6598,-35.156250
6599,-39.062500
6600,-39.062500
6601,-41.015625
6602,-42.968750
6603,-42.968750
6604,-44.921875
6605,-46.875000
6606,-46.875000
6607,-48.828125
6608,-48.828125
6609,-50.781250
6610,-52.734375
6611,-52.734375
6612,-54.687500
6613,-56.640625
6614,-56.640625
6615,-56.640625
6616,-58.593750
6617,-60.546875
6618,-60.546875
6619,-62.500000
6620,-62.500000
6621,-62.500000
6622,-64.453125
6623,-64.453125
6624,-66.406250
6625,-66.406250
6626,-66.406250
6627,-68.359375
6628,-70.312500
6629,-68.359375
6630,-68.359375
6631,-70.312500
6632,-70.312500
6633,-72.265625
6634,-72.265625
6635,-72.265625
6636,-74.218750
6637,-72.265625
6638,-74.218750
6639,-74.218750
6640,-74.218750
6641,-74.218750
6642,-74.218750
6643,-74.218750
6644,-74.218750
6645,-74.218750
6646,-74.218750
6647,-74.218750
6648,-74.218750
6649,-74.218750
6650,-74.218750
6651,-74.218750
6652,-74.218750
6653,-74.218750
6654,-72.265625
6655,-74.218750
6656,-72.265625
6657,-72.265625
6658,-72.265625
6659,-72.265625
6660,-72.265625
6661,-70.312500
6662,-70.312500
6663,-68.359375
6664,-68.359375
6665,-68.359375
6666,-66.406250
6667,-66.406250
6668,-66.406250
6669,-64.453125
6670,-64.453125
6671,-62.500000
6672,-62.500000
6673,-62.500000
6674,-60.546875
6675,-60.546875
6676,-58.593750
6677,-56.640625
6678,-56.640625
6679,-56.640625
6680,-54.687500
6681,-52.734375
6682,-52.734375
6683,-50.781250
6684,-48.828125
6685,-46.875000
6686,-48.828125
6687,-46.875000
6688,-44.921875
6689,-44.921875
6690,-42.968750
6691,-41.015625
6692,-39.062500
6693,-39.062500
6694,-37.109375
6695,-37.109375
6696,-35.156250
6697,-33.203125
6698,-33.203125
6699,-29.296875
6700,-29.296875
6701,-27.343750
6702,-27.343750
6703,-25.390625
6704,-23.437500
6705,-21.484375
6706,-21.484375
6707,-19.531250
6708,-17.578125
6709,-15.625000
6710,-15.625000
6711,-13.671875
6712,-11.718750
6713,-9.765625
6714,-7.812500
6715,-7.812500
6716,-5.859375
6717,-3.906250
6718,-1.953125
6719,-1.953125
6720,0.000000
6721,1.953125
6722,3.906250
6723,3.906250
6724,5.859375
6725,7.812500
6726,9.765625
6727,9.765625
6728,11.718750
6729,13.671875
6730,15.625000
6731,17.578125
6732,19.531250
6733,19.531250
6734,19.531250
6735,23.437500
6736,23.437500
6737,25.390625
6738,25.390625
6739,27.343750
6740,29.296875
6741,29.296875
6742,31.250000
6743,31.250000
6744,33.203125
6745,33.203125
6746,35.156250
6747,37.109375
6748,39.062500
6749,39.062500
6750,39.062500
6751,41.015625
6752,42.968750
6753,42.968750
6754,42.968750
6755,44.921875
6756,44.921875
6757,46.875000
6758,46.875000
6759,46.875000
6760,48.828125
6761,50.781250
6762,50.781250
6763,50.781250
6764,50.781250
6765,52.734375
6766,52.734375
6767,52.734375
6768,54.687500
6769,54.687500
6770,54.687500
6771,56.640625
6772,56.640625
6773,58.593750
6774,56.640625
6775,58.593750
6776,58.593750
6777,58.593750
6778,58.593750
6779,58.593750
6780,58.593750
6781,58.593750
6782,60.546875
6783,58.593750
6784,60.546875
6785,60.546875
6786,60.546875
6787,60.546875
6788,60.546875
6789,60.546875
6790,60.546875
6791,60.546875
6792,64.453125
6793,60.546875
6794,60.546875
6795,60.546875
6796,60.546875
6797,60.546875
6798,58.593750
6799,58.593750
6800,58.593750
6801,58.593750
6802,58.593750
6803,56.640625
6804,56.640625
6805,56.640625
6806,56.640625
6807,54.687500
6808,54.687500
6809,54.687500
6810,52.734375
6811,52.734375
6812,52.734375
6813,52.734375
6814,50.781250
6815,50.781250
6816,48.828125
6817,48.828125
6818,46.875000
6819,46.875000
6820,44.921875
6821,44.921875
6822,44.921875
6823,42.968750
6824,41.015625
6825,42.968750
6826,41.015625
6827,39.062500
6828,37.109375
6829,37.109375
6830,35.156250
6831,35.156250
6832,33.203125
6833,33.203125
6834,31.250000
6835,29.296875
6836,27.343750
6837,27.343750
6838,25.390625
6839,25.390625
6840,23.437500
6841,21.484375
6842,21.484375
6843,19.531250
6844,17.578125
6845,17.578125
6846,15.625000
6847,13.671875
6848,13.671875
6849,9.765625
6850,9.765625
6851,7.812500
6852,7.812500
6853,5.859375
6854,3.906250
6855,3.906250
6856,0.000000
6857,-1.953125
6858,-1.953125
6859,-3.906250
6860,-5.859375
6861,-5.859375
6862,-7.812500
6863,-9.765625
6864,-11.718750
6865,-11.718750
6866,-13.671875
6867,-15.625000
6868,-17.578125
6869,-17.578125
6870,-19.531250
6871,-21.484375
6872,-23.437500
6873,-23.437500
6874,-25.390625
6875,-27.343750
6876,-27.343750
6877,-29.296875
6878,-31.250000
6879,-33.203125
6880,-33.203125
6881,-35.156250
6882,-37.109375
6883,-35.156250
6884,-39.062500
6885,-41.015625
6886,-42.968750
6887,-42.968750
6888,-42.968750
6889,-44.921875
6890,-46.875000
6891,-48.828125
6892,-48.828125
6893,-50.781250
6894,-52.734375
6895,-52.734375
6896,-52.734375
6897,-56.640625
6898,-56.640625
6899,-56.640625
6900,-58.593750
6901,-60.546875
6902,-60.546875
6903,-60.546875
6904,-62.500000
6905,-62.500000
6906,-64.453125
6907,-64.453125
6908,-66.406250
6909,-66.406250
6910,-66.406250
6911,-68.359375
6912,-68.359375
6913,-68.359375
6914,-68.359375
6915,-70.312500
6916,-70.312500
6917,-70.312500
6918,-72.265625
6919,-72.265625
6920,-72.265625
6921,-72.265625
6922,-72.265625
6923,-72.265625
6924,-72.265625
6925,-74.218750
6926,-74.218750
6927,-72.265625
6928,-74.218750
6929,-74.218750
6930,-74.218750
6931,-74.218750
6932,-72.265625
6933,-72.265625
6934,-74.218750
6935,-72.265625
6936,-74.218750
6937,-72.265625
6938,-72.265625
6939,-72.265625
6940,-70.312500
6941,-72.265625
6942,-72.265625
6943,-70.312500
6944,-70.312500
6945,-70.312500
6946,-68.359375
6947,-68.359375
6948,-68.359375
6949,-66.406250
6950,-66.406250
6951,-66.406250
6952,-64.453125
6953,-64.453125
6954,-64.453125
6955,-62.500000
6956,-62.500000
6957,-60.546875
6958,-60.546875
6959,-58.593750
6960,-58.593750
6961,-56.640625
6962,-56.640625
6963,-54.687500
6964,-54.687500
6965,-52.734375
6966,-52.734375
6967,-52.734375
6968,-48.828125
6969,-48.828125
6970,-46.875000
6971,-46.875000
6972,-44.921875
6973,-44.921875
6974,-42.968750
6975,-41.015625
6976,-41.015625
6977,-39.062500
6978,-37.109375
6979,-37.109375
6980,-35.156250
6981,-33.203125
6982,-31.250000
6983,-29.296875
6984,-29.296875
6985,-27.343750
6986,-27.343750
6987,-25.390625
6988,-23.437500
6989,-21.484375
6990,-19.531250
6991,-19.531250
6992,-17.578125
6993,-15.625000
6994,-15.625000
6995,-13.671875
6996,-11.718750
6997,-9.765625
6998,-7.812500
6999,-7.812500
7000,-5.859375
7001,-3.906250
7002,-1.953125
7003,0.000000
7004,1.953125
7005,1.953125
7006,3.906250
7007,5.859375
7008,5.859375
7009,7.812500
7010,9.765625
7011,11.718750
7012,11.718750
7013,13.671875
7014,15.625000
7015,15.625000
7016,17.578125
7017,19.531250
7018,19.531250
7019,21.484375
7020,21.484375
7021,23.437500
7022,25.390625
7023,27.343750
7024,27.343750
7025,29.296875
7026,29.296875
7027,31.250000
7028,33.203125
7029,33.203125
7030,35.156250
7031,35.156250
7032,37.109375
7033,39.062500
7034,39.062500
7035,41.015625
7036,41.015625
7037,42.968750
7038,42.968750
7039,42.968750
7040,44.921875
7041,46.875000
7042,46.875000
7043,41.015625
7044,48.828125
7045,48.828125
7046,50.781250
7047,50.781250
7048,50.781250
7049,52.734375
7050,52.734375
7051,54.687500
7052,54.687500
7053,54.687500
7054,54.687500
7055,56.640625
7056,56.640625
7057,56.640625
7058,56.640625
7059,58.593750
7060,58.593750
7061,58.593750
7062,58.593750
7063,58.593750
7064,58.593750
7065,60.546875
7066,60.546875
7067,58.593750
7068,60.546875
7069,60.546875
7070,60.546875
7071,60.546875
7072,60.546875
7073,60.546875
7074,60.546875
7075,60.546875
7076,60.546875
7077,60.546875
7078,60.546875
7079,60.546875
7080,58.593750
7081,58.593750
7082,58.593750
7083,58.593750
7084,58.593750
7085,58.593750
7086,58.593750
7087,56.640625
7088,56.640625
7089,56.640625
7090,54.687500
7091,54.687500
7092,52.734375
7093,54.687500
7094,52.734375
7095,52.734375
7096,50.781250
7097,50.781250
7098,50.781250
7099,48.828125
7100,48.828125
7101,48.828125
7102,46.875000
7103,44.921875
7104,44.921875
7105,44.921875
7106,42.968750
7107,42.968750
7108,41.015625
7109,41.015625
7110,39.062500
7111,39.062500
7112,37.109375
7113,37.109375
7114,35.156250
7115,35.156250
7116,33.203125
7117,33.203125
7118,31.250000
7119,29.296875
7120,29.296875
7121,27.343750
7122,25.390625
7123,23.437500
7124,23.437500
7125,21.484375
7126,21.484375
7127,19.531250
7128,17.578125
7129,17.578125
7130,15.625000
7131,11.718750
7132,13.671875
7133,11.718750
7134,9.765625
7135,7.812500
7136,5.859375
7137,5.859375
7138,3.906250
7139,1.953125
7140,0.000000
7141,0.000000
7142,-3.906250
7143,-3.906250
7144,-5.859375
7145,-7.812500
7146,-7.812500
7147,-9.765625
7148,-9.765625
7149,-13.671875
7150,-13.671875
7151,-15.625000
7152,-17.578125
7153,-19.531250
7154,-19.531250
7155,-21.484375
7156,-23.437500
7157,-25.390625
7158,-25.390625
7159,-27.343750
7160,-29.296875
7161,-31.250000
7162,-31.250000
7163,-33.203125
7164,-35.156250
7165,-33.203125
7166,-37.109375
7167,-39.062500
7168,-41.015625
7169,-41.015625
7170,-42.968750
7171,-42.968750
7172,-44.921875
7173,-46.875000
7174,-48.828125
7175,-48.828125
7176,-48.828125
7177,-50.781250
7178,-52.734375
7179,-52.734375
7180,-54.687500
7181,-54.687500
7182,-56.640625
7183,-58.593750
7184,-58.593750
7185,-58.593750
7186,-60.546875
7187,-60.546875
7188,-62.500000
7189,-62.500000
7190,-64.453125
7191,-66.406250
7192,-66.406250
7193,-66.406250
7194,-66.406250
7195,-68.359375
7196,-68.359375
7197,-68.359375
7198,-70.312500
7199,-70.312500
7200,-70.312500
7201,-72.265625
7202,-70.312500
7203,-72.265625
7204,-72.265625
7205,-72.265625
7206,-74.218750
7207,-72.265625
7208,-74.218750
7209,-74.218750
7210,-74.218750
7211,-74.218750
7212,-74.218750
7213,-74.218750
7214,-74.218750
7215,-74.218750
7216,-74.218750
7217,-74.218750
7218,-74.218750
7219,-74.218750
7220,-74.218750
7221,-74.218750
7222,-74.218750
7223,-72.265625
7224,-72.265625
7225,-72.265625
7226,-70.312500
7227,-72.265625
7228,-72.265625
7229,-70.312500
7230,-70.312500
7231,-70.312500
7232,-68.359375
7233,-68.359375
7234,-66.406250
7235,-66.406250
7236,-66.406250
7237,-64.453125
7238,-64.453125
7239,-64.453125
7240,-62.500000
7241,-62.500000
7242,-62.500000
7243,-60.546875
7244,-58.593750
7245,-58.593750
7246,-56.640625
7247,-54.687500
7248,-54.687500
7249,-54.687500
7250,-52.734375
7251,-50.781250
7252,-50.781250
7253,-48.828125
7254,-48.828125
7255,-46.875000
7256,-44.921875
7257,-44.921875
7258,-42.968750
7259,-41.015625
7260,-41.015625
7261,-39.062500
7262,-37.109375
7263,-35.156250
7264,-35.156250
7265,-33.203125
7266,-31.250000
7267,-31.250000
7268,-29.296875
7269,-27.343750
7270,-27.343750
7271,-25.390625
7272,-23.437500
7273,-21.484375
7274,-21.484375
7275,-19.531250
7276,-17.578125
7277,-15.625000
7278,-15.625000
7279,-13.671875
7280,-11.718750
7281,-11.718750
7282,-7.812500
7283,-7.812500
7284,-5.859375
7285,-3.906250
7286,-1.953125
7287,-1.953125
7288,0.000000
7289,1.953125
7290,3.906250
7291,3.906250
7292,5.859375
7293,7.812500
7294,9.765625
7295,9.765625
7296,11.718750
7297,13.671875
7298,15.625000
7299,15.625000
7300,17.578125
7301,19.531250
7302,19.531250
7303,21.484375
7304,23.437500
7305,23.437500
7306,25.390625
7307,27.343750
7308,27.343750
7309,29.296875
7310,31.250000
7311,31.250000
7312,33.203125
7313,33.203125
7314,35.156250
7315,35.156250
7316,37.109375
7317,39.062500
7318,39.062500
7319,41.015625
7320,41.015625
7321,42.968750
7322,42.968750
7323,44.921875
7324,46.875000
7325,46.875000
7326,46.875000
7327,48.828125
7328,48.828125
7329,48.828125
7330,50.781250
7331,50.781250
7332,50.781250
7333,52.734375
7334,52.734375
7335,54.687500
7336,54.687500
7337,54.687500
7338,56.640625
7339,56.640625
7340,56.640625
7341,56.640625
7342,56.640625
7343,58.593750
7344,58.593750
7345,58.593750
7346,58.593750
7347,58.593750
7348,58.593750
7349,58.593750
7350,60.546875
7351,60.546875
7352,60.546875
7353,60.546875
7354,60.546875
7355,60.546875
7356,62.500000
7357,60.546875
7358,60.546875
7359,60.546875
7360,60.546875
7361,60.546875
7362,60.546875
7363,60.546875
7364,60.546875
7365,58.593750
7366,58.593750
7367,58.593750
7368,58.593750
7369,58.593750
7370,58.593750
7371,58.593750
7372,56.640625
7373,56.640625
7374,56.640625
7375,56.640625
7376,54.687500
7377,54.687500
7378,54.687500
7379,52.734375
7380,52.734375
7381,52.734375
7382,50.781250
7383,50.781250
7384,50.781250
7385,48.828125
7386,46.875000
7387,46.875000
7388,46.875000
7389,44.921875
7390,44.921875
7391,42.968750
7392,42.968750
7393,41.015625
7394,41.015625
7395,39.062500
7396,39.062500
7397,37.109375
7398,37.109375
7399,35.156250
7400,33.203125
7401,31.250000
7402,31.250000
7403,31.250000
7404,29.296875
7405,27.343750
7406,27.343750
7407,25.390625
7408,23.437500
7409,23.437500
7410,21.484375
7411,19.531250
7412,17.578125
7413,17.578125
7414,15.625000
7415,13.671875
7416,13.671875
7417,11.718750
7418,9.765625
7419,9.765625
7420,7.812500
7421,5.859375
7422,3.906250
7423,1.953125
7424,1.953125
7425,0.000000
7426,-1.953125
7427,-1.953125
7428,-5.859375
7429,-5.859375
7430,-5.859375
7431,-9.765625
7432,-9.765625
7433,-11.718750
7434,-13.671875
7435,-15.625000
7436,-17.578125
7437,-17.578125
7438,-19.531250
7439,-21.484375
7440,-21.484375
7441,-23.437500
7442,-25.390625
7443,-27.343750
7444,-27.343750
7445,-29.296875
7446,-31.250000
7447,-33.203125
7448,-33.203125
7449,-35.156250
7450,-37.109375
7451,-37.109375
7452,-39.062500
7453,-41.015625
7454,-42.968750
7455,-42.968750
7456,-44.921875
7457,-44.921875
7458,-48.828125
7459,-46.875000
7460,-48.828125
7461,-50.781250
7462,-52.734375
7463,-52.734375
7464,-54.687500
7465,-54.687500
7466,-56.640625
7467,-56.640625
7468,-58.593750
7469,-58.593750
7470,-60.546875
7471,-60.546875
7472,-62.500000
7473,-62.500000
7474,-62.500000
7475,-64.453125
7476,-66.406250
7477,-66.406250
7478,-66.406250
7479,-68.359375
7480,-68.359375
7481,-68.359375
7482,-70.312500
7483,-70.312500
7484,-70.312500
7485,-70.312500
7486,-72.265625
7487,-72.265625
7488,-72.265625
7489,-72.265625
7490,-74.218750
7491,-72.265625
7492,-74.218750
7493,-74.218750
7494,-74.218750
7495,-74.218750
7496,-74.218750
7497,-74.218750
7498,-74.218750
7499,-74.218750
7500,-74.218750
7501,-74.218750
7502,-74.218750
7503,-74.218750
7504,-74.218750
7505,-72.265625
7506,-72.265625
7507,-72.265625
7508,-72.265625
7509,-72.265625
7510,-72.265625
7511,-70.312500
7512,-70.312500
7513,-70.312500
7514,-70.312500
7515,-68.359375
7516,-68.359375
7517,-68.359375
7518,-66.406250
7519,-66.406250
7520,-64.453125
7521,-64.453125
7522,-64.453125
7523,-62.500000
7524,-62.500000
7525,-62.500000
7526,-60.546875
7527,-58.593750
7528,-58.593750
7529,-56.640625
7530,-56.640625
7531,-56.640625
7532,-54.687500
7533,-52.734375
7534,-52.734375
7535,-50.781250
7536,-50.781250
7537,-48.828125
7538,-46.875000
7539,-46.875000
7540,-44.921875
7541,-44.921875
7542,-42.968750
7543,-41.015625
7544,-41.015625
7545,-39.062500
7546,-39.062500
7547,-37.109375
7548,-35.156250
7549,-33.203125
7550,-33.203125
7551,-31.250000
7552,-29.296875
7553,-29.296875
7554,-27.343750
7555,-27.343750
7556,-21.484375
7557,-23.437500
7558,-19.531250
7559,-19.531250
7560,-17.578125
7561,-17.578125
7562,-15.625000
7563,-13.671875
7564,-11.718750
7565,-11.718750
7566,-9.765625
7567,-7.812500
7568,-5.859375
7569,-3.906250
7570,-1.953125
7571,-1.953125
7572,0.000000
7573,5.859375
7574,3.906250
7575,3.906250
7576,5.859375
7577,7.812500
7578,7.812500
7579,11.718750
7580,11.718750
7581,13.671875
7582,13.671875
7583,17.578125
7584,17.578125
7585,17.578125
7586,19.531250
7587,21.484375
7588,23.437500
7589,23.437500
7590,25.390625
7591,27.343750
7592,27.343750
7593,29.296875
7594,29.296875
7595,31.250000
7596,33.203125
7597,31.250000
7598,35.156250
7599,35.156250
7600,37.109375
7601,39.062500
7602,39.062500
7603,39.062500
7604,41.015625
7605,42.968750
7606,42.968750
7607,42.968750
7608,44.921875
7609,44.921875
7610,46.875000
7611,46.875000
7612,48.828125
7613,48.828125
7614,48.828125
7615,50.781250
7616,50.781250
7617,52.734375
7618,52.734375
7619,52.734375
7620,54.687500
7621,54.687500
7622,52.734375
7623,56.640625
7624,56.640625
7625,56.640625
7626,56.640625
7627,56.640625
7628,58.593750
7629,58.593750
7630,56.640625
7631,58.593750
7632,58.593750
7633,60.546875
7634,60.546875
7635,58.593750
7636,60.546875
7637,60.546875
7638,60.546875
7639,60.546875
7640,60.546875
7641,60.546875
7642,60.546875
7643,60.546875
7644,60.546875
7645,60.546875
7646,60.546875
7647,58.593750
7648,58.593750
7649,60.546875
7650,58.593750
7651,58.593750
7652,58.593750
7653,58.593750
7654,56.640625
7655,58.593750
7656,56.640625
7657,56.640625
7658,54.687500
7659,54.687500
7660,54.687500
7661,52.734375
7662,52.734375
7663,52.734375
7664,52.734375
7665,50.781250
7666,50.781250
7667,48.828125
7668,48.828125
7669,46.875000
7670,46.875000
7671,46.875000
7672,44.921875
7673,44.921875
7674,44.921875
7675,42.968750
7676,41.015625
7677,41.015625
7678,41.015625
7679,39.062500
7680,37.109375
7681,35.156250
7682,35.156250
7683,33.203125
7684,33.203125
7685,31.250000
7686,31.250000
7687,29.296875
7688,27.343750
7689,27.343750
7690,25.390625
7691,25.390625
7692,23.437500
7693,21.484375
7694,21.484375
7695,19.531250
7696,17.578125
7697,19.531250
7698,13.671875
7699,13.671875
7700,11.718750
7701,11.718750
7702,9.765625
7703,7.812500
7704,7.812500
7705,5.859375
7706,3.906250
7707,1.953125
7708,1.953125
7709,0.000000
7710,-1.953125
7711,-3.906250
7712,-3.906250
7713,-5.859375
7714,-7.812500
7715,-5.859375
7716,-9.765625
7717,-11.718750
7718,-13.671875
7719,-15.625000
7720,-17.578125
7721,-19.531250
7722,-19.531250
7723,-19.531250
7724,-23.437500
7725,-23.437500
7726,-23.437500
7727,-27.343750
7728,-29.296875
7729,-31.250000
7730,-31.250000
7731,-33.203125
7732,-35.156250
7733,-35.156250
7734,-37.109375
7735,-39.062500
7736,-39.062500
7737,-41.015625
7738,-42.968750
7739,-42.968750
7740,-44.921875
7741,-46.875000
7742,-46.875000
7743,-48.828125
7744,-50.781250
7745,-52.734375
7746,-52.734375
7747,-52.734375
7748,-50.781250
7749,-56.640625
7750,-56.640625
7751,-56.640625
7752,-58.593750
7753,-60.546875
7754,-60.546875
7755,-60.546875
7756,-62.500000
7757,-64.453125
7758,-64.453125
7759,-64.453125
7760,-64.453125
7761,-66.406250
7762,-68.359375
7763,-68.359375
7764,-68.359375
7765,-68.359375
7766,-70.312500
7767,-70.312500
7768,-70.312500
7769,-70.312500
7770,-70.312500
7771,-72.265625
7772,-72.265625
7773,-72.265625
7774,-72.265625
7775,-72.265625
7776,-74.218750
7777,-72.265625
7778,-72.265625
7779,-76.171875
7780,-74.218750
7781,-74.218750
7782,-74.218750
7783,-74.218750
7784,-76.171875
7785,-74.218750
7786,-74.218750
7787,-74.218750
7788,-74.218750
7789,-74.218750
7790,-72.265625
7791,-72.265625
7792,-70.312500
7793,-72.265625
7794,-72.265625
7795,-70.312500
7796,-70.312500
7797,-70.312500
7798,-70.312500
7799,-68.359375
7800,-68.359375
7801,-68.359375
7802,-66.406250
7803,-66.406250
7804,-66.406250
7805,-66.406250
7806,-64.453125
7807,-64.453125
7808,-62.500000
7809,-62.500000
7810,-60.546875
7811,-60.546875
7812,-58.593750
7813,-58.593750
7814,-58.593750
7815,-56.640625
7816,-54.687500
7817,-54.687500
7818,-52.734375
7819,-52.734375
7820,-50.781250
7821,-48.828125
7822,-48.828125
7823,-46.875000
7824,-46.875000
7825,-44.921875
7826,-42.968750
7827,-41.015625
7828,-41.015625
7829,-39.062500
7830,-39.062500
7831,-37.109375
7832,-35.156250
7833,-33.203125
7834,-31.250000
7835,-31.250000
7836,-29.296875
7837,-27.343750
7838,-27.343750
7839,-25.390625
7840,-23.437500
7841,-21.484375
7842,-21.484375
7843,-19.531250
7844,-17.578125
7845,-15.625000
7846,-15.625000
7847,-13.671875
7848,-11.718750
7849,-9.765625
7850,-9.765625
7851,-7.812500
7852,-5.859375
7853,-3.906250
7854,-3.906250
7855,-1.953125
7856,0.000000
7857,1.953125
7858,1.953125
7859,3.906250
7860,5.859375
7861,7.812500
7862,7.812500
7863,9.765625
7864,11.718750
7865,13.671875
7866,13.671875
7867,15.625000
7868,17.578125
7869,17.578125
7870,19.531250
7871,21.484375
7872,21.484375
7873,23.437500
7874,23.437500
7875,27.343750
7876,27.343750
7877,29.296875
7878,29.296875
7879,31.250000
7880,33.203125
7881,33.203125
7882,35.156250
7883,35.156250
7884,37.109375
7885,39.062500
7886,39.062500
7887,41.015625
7888,41.015625
7889,42.968750
7890,42.968750
7891,44.921875
7892,44.921875
7893,46.875000
7894,46.875000
7895,46.875000
7896,48.828125
7897,48.828125
7898,50.781250
7899,50.781250
7900,50.781250
7901,52.734375
7902,52.734375
7903,54.687500
7904,54.687500
7905,54.687500
7906,56.640625
7907,56.640625
7908,56.640625
7909,56.640625
7910,56.640625
7911,58.593750
7912,60.546875
7913,58.593750
7914,58.593750
7915,58.593750
7916,60.546875
7917,60.546875
7918,60.546875
7919,58.593750
7920,60.546875
7921,60.546875
7922,60.546875
7923,60.546875
7924,60.546875
7925,60.546875
7926,60.546875
7927,60.546875
7928,60.546875
7929,60.546875
7930,60.546875
7931,60.546875
7932,60.546875
7933,58.593750
7934,58.593750
7935,58.593750
7936,58.593750
7937,58.593750
7938,56.640625
7939,58.593750
7940,56.640625
7941,56.640625
7942,56.640625
7943,56.640625
7944,54.687500
7945,54.687500
7946,54.687500
7947,52.734375
7948,52.734375
7949,52.734375
7950,50.781250
7951,50.781250
7952,48.828125
7953,48.828125
7954,48.828125
7955,46.875000
7956,46.875000
7957,44.921875
7958,44.921875
7959,42.968750
7960,42.968750
7961,42.968750
7962,41.015625
7963,39.062500
7964,39.062500
7965,37.109375
7966,37.109375
7967,35.156250
7968,35.156250
7969,33.203125
7970,31.250000
7971,29.296875
7972,29.296875
7973,27.343750
7974,27.343750
7975,25.390625
7976,25.390625
7977,23.437500
7978,21.484375
7979,19.531250
7980,19.531250
7981,17.578125
7982,15.625000
7983,15.625000
7984,13.671875
7985,11.718750
7986,9.765625
7987,7.812500
7988,7.812500
7989,5.859375
7990,3.906250
7991,3.906250
7992,1.953125
7993,0.000000
7994,-1.953125
7995,-3.906250
7996,-3.906250
7997,-5.859375
7998,-7.812500
7999,-9.765625
8000,-9.765625
8001,-11.718750
8002,-13.671875
8003,-15.625000
8004,-17.578125
8005,-17.578125
8006,-19.531250
8007,-21.484375
8008,-23.437500
8009,-23.437500
8010,-25.390625
8011,-27.343750
8012,-29.296875
8013,-29.296875
8014,-31.250000
8015,-31.250000
8016,-33.203125
8017,-35.156250
8018,-35.156250
8019,-37.109375
8020,-39.062500
8021,-41.015625
8022,-42.968750
8023,-42.968750
8024,-44.921875
8025,-44.921875
8026,-46.875000
8027,-46.875000
8028,-48.828125
8029,-50.781250
8030,-52.734375
8031,-54.687500
8032,-54.687500
8033,-54.687500
8034,-54.687500
8035,-56.640625
8036,-56.640625
8037,-58.593750
8038,-60.546875
8039,-60.546875
8040,-62.500000
8041,-62.500000
8042,-64.453125
8043,-64.453125
8044,-64.453125
8045,-66.406250
8046,-66.406250
8047,-66.406250
8048,-68.359375
8049,-68.359375
8050,-70.312500
8051,-70.312500
8052,-70.312500
8053,-70.312500
8054,-72.265625
8055,-72.265625
8056,-72.265625
8057,-72.265625
8058,-72.265625
8059,-74.218750
8060,-74.218750
8061,-74.218750
8062,-74.218750
8063,-74.218750
8064,-74.218750
8065,-74.218750
8066,-74.218750
8067,-74.218750
8068,-74.218750
8069,-74.218750
8070,-74.218750
8071,-74.218750
8072,-74.218750
8073,-74.218750
8074,-72.265625
8075,-74.218750
8076,-72.265625
8077,-72.265625
8078,-72.265625
8079,-70.312500
8080,-70.312500
8081,-70.312500
8082,-70.312500
8083,-70.312500
8084,-68.359375
8085,-68.359375
8086,-66.406250
8087,-66.406250
8088,-66.406250
8089,-66.406250
8090,-64.453125
8091,-62.500000
8092,-62.500000
8093,-62.500000
8094,-60.546875
8095,-60.546875
8096,-58.593750
8097,-58.593750
8098,-52.734375
8099,-56.640625
8100,-54.687500
8101,-54.687500
8102,-52.734375
8103,-52.734375
8104,-50.781250
8105,-48.828125
8106,-48.828125
8107,-46.875000
8108,-46.875000
8109,-44.921875
8110,-42.968750
8111,-42.968750
8112,-41.015625
8113,-39.062500
8114,-37.109375
8115,-37.109375
8116,-35.156250
8117,-35.156250
8118,-33.203125
8119,-31.250000
8120,-29.296875
8121,-29.296875
8122,-27.343750
8123,-25.390625
8124,-23.437500
8125,-21.484375
8126,-21.484375
8127,-19.531250
8128,-17.578125
8129,-15.625000
8130,-15.625000
8131,-15.625000
8132,-11.718750
8133,-9.765625
8134,-9.765625
8135,-7.812500
8136,-5.859375
8137,-5.859375
8138,-3.906250
8139,-1.953125
8140,0.000000
8141,0.000000
8142,1.953125
8143,3.906250
8144,5.859375
8145,5.859375
8146,7.812500
8147,9.765625
8148,11.718750
8149,11.718750
8150,13.671875
8151,15.625000
8152,17.578125
8153,17.578125
8154,19.531250
8155,21.484375
8156,21.484375
8157,23.437500
8158,25.390625
8159,25.390625
8160,27.343750
8161,29.296875
8162,29.296875
8163,31.250000
8164,31.250000
8165,33.203125
8166,35.156250
8167,35.156250
8168,37.109375
8169,37.109375
8170,39.062500
8171,39.062500
8172,41.015625
8173,42.968750
8174,42.968750
8175,42.968750
8176,44.921875
8177,46.875000
8178,44.921875
8179,46.875000
8180,48.828125
8181,48.828125
8182,50.781250
8183,52.734375
8184,50.781250
8185,52.734375
8186,52.734375
8187,52.734375
8188,54.687500
8189,54.687500
8190,54.687500
8191,54.687500
8192,56.640625
8193,56.640625
8194,58.593750
8195,56.640625
8196,56.640625
8197,58.593750
8198,58.593750
8199,58.593750
8200,58.593750
8201,58.593750
8202,58.593750
8203,58.593750
8204,60.546875
8205,60.546875
8206,60.546875
8207,60.546875
8208,58.593750
8209,60.546875
8210,60.546875
8211,60.546875
8212,60.546875
8213,60.546875
8214,60.546875
8215,60.546875
8216,58.593750
8217,60.546875
8218,58.593750
8219,58.593750
8220,58.593750
8221,58.593750
8222,58.593750
8223,56.640625
8224,56.640625
8225,56.640625
8226,56.640625
8227,54.687500
8228,54.687500
8229,54.687500
8230,52.734375
8231,52.734375
8232,52.734375
8233,52.734375
8234,52.734375
8235,48.828125
8236,48.828125
8237,48.828125
8238,48.828125
8239,46.875000
8240,46.875000
8241,44.921875
8242,42.968750
8243,42.968750
8244,42.968750
8245,41.015625
8246,41.015625
8247,39.062500
8248,37.109375
8249,37.109375
8250,37.109375
8251,35.156250
8252,33.203125
8253,31.250000
8254,31.250000
8255,31.250000
8256,29.296875
8257,27.343750
8258,25.390625
8259,25.390625
8260,25.390625
8261,21.484375
8262,21.484375
8263,19.531250
8264,19.531250
8265,17.578125
8266,15.625000
8267,13.671875
8268,13.671875
8269,11.718750
8270,9.765625
8271,9.765625
8272,7.812500
8273,5.859375
8274,5.859375
8275,3.906250
8276,0.000000
8277,0.000000
8278,-1.953125
8279,-1.953125
8280,-3.906250
8281,-5.859375
8282,-7.812500
8283,-7.812500
8284,-9.765625
8285,-11.718750
8286,-13.671875
8287,-13.671875
8288,-15.625000
8289,-17.578125
8290,-19.531250
8291,-21.484375
8292,-21.484375
8293,-23.437500
8294,-25.390625
8295,-25.390625
8296,-27.343750
8297,-29.296875
8298,-31.250000
8299,-31.250000
8300,-33.203125
8301,-35.156250
8302,-37.109375
8303,-37.109375
8304,-39.062500
8305,-41.015625
8306,-41.015625
8307,-41.015625
8308,-44.921875
8309,-44.921875
8310,-46.875000
8311,-46.875000
8312,-50.781250
8313,-48.828125
8314,-50.781250
8315,-52.734375
8316,-54.687500
8317,-54.687500
8318,-56.640625
8319,-56.640625
8320,-58.593750
8321,-58.593750
8322,-60.546875
8323,-60.546875
8324,-60.546875
8325,-62.500000
8326,-62.500000
8327,-64.453125
8328,-66.406250
8329,-66.406250
8330,-66.406250
8331,-66.406250
8332,-68.359375
8333,-70.312500
8334,-68.359375
8335,-70.312500
8336,-70.312500
8337,-70.312500
8338,-70.312500
8339,-72.265625
8340,-72.265625
8341,-72.265625
8342,-72.265625
8343,-72.265625
8344,-72.265625
8345,-74.218750
8346,-74.218750
8347,-74.218750
8348,-72.265625
8349,-74.218750
8350,-74.218750
8351,-74.218750
8352,-74.218750
8353,-72.265625
8354,-74.218750
8355,-74.218750
8356,-72.265625
8357,-74.218750
8358,-72.265625
8359,-72.265625
8360,-72.265625
8361,-72.265625
8362,-72.265625
8363,-70.312500
8364,-72.265625
8365,-70.312500
8366,-70.312500
8367,-68.359375
8368,-68.359375
8369,-68.359375
8370,-66.406250
8371,-66.406250
8372,-66.406250
8373,-68.359375
8374,-64.453125
8375,-64.453125
8376,-62.500000
8377,-62.500000
8378,-60.546875
8379,-60.546875
8380,-58.593750
8381,-58.593750
8382,-58.593750
8383,-56.640625
8384,-54.687500
8385,-54.687500
8386,-52.734375
8387,-52.734375
8388,-50.781250
8389,-48.828125
8390,-42.968750
8391,-46.875000
8392,-46.875000
8393,-44.921875
8394,-42.968750
8395,-42.968750
8396,-41.015625
8397,-39.062500
8398,-37.109375
8399,-37.109375
8400,-35.156250
8401,-35.156250
8402,-31.250000
8403,-31.250000
8404,-29.296875
8405,-29.296875
8406,-27.343750
8407,-27.343750
8408,-23.437500
8409,-23.437500
8410,-21.484375
8411,-19.531250
8412,-17.578125
8413,-17.578125
8414,-15.625000
8415,-13.671875
8416,-11.718750
8417,-9.765625
8418,-9.765625
8419,-7.812500
8420,-5.859375
8421,-3.906250
8422,-3.906250
8423,-1.953125
8424,0.000000
8425,1.953125
8426,1.953125
8427,3.906250
8428,5.859375
8429,5.859375
8430,7.812500
8431,9.765625
8432,11.718750
8433,13.671875
8434,13.671875
8435,15.625000
8436,17.578125
8437,19.531250
8438,19.531250
8439,21.484375
8440,21.484375
8441,23.437500
8442,25.390625
8443,27.343750
8444,27.343750
8445,29.296875
8446,29.296875
8447,31.250000
8448,33.203125
8449,33.203125
8450,35.156250
8451,35.156250
8452,37.109375
8453,37.109375
8454,39.062500
8455,41.015625
8456,41.015625
8457,41.015625
8458,42.968750
8459,44.921875
8460,44.921875
8461,44.921875
8462,46.875000
8463,48.828125
8464,48.828125
8465,48.828125
8466,50.781250
8467,50.781250
8468,50.781250
8469,52.734375
8470,52.734375
8471,54.687500
8472,54.687500
8473,54.687500
8474,56.640625
8475,56.640625
8476,56.640625
8477,56.640625
8478,58.593750
8479,58.593750
8480,58.593750
8481,58.593750
8482,58.593750
8483,58.593750
8484,60.546875
8485,58.593750
8486,60.546875
8487,60.546875
8488,60.546875
8489,60.546875
8490,60.546875
8491,60.546875
8492,62.500000
8493,62.500000
8494,60.546875
8495,60.546875
8496,60.546875
8497,60.546875
8498,60.546875
8499,60.546875
8500,60.546875
8501,60.546875
8502,60.546875
8503,58.593750
8504,58.593750
8505,56.640625
8506,58.593750
8507,58.593750
8508,56.640625
8509,56.640625
8510,56.640625
8511,56.640625
8512,54.687500
8513,54.687500
8514,54.687500
8515,52.734375
8516,52.734375
8517,50.781250
8518,50.781250
8519,50.781250
8520,48.828125
8521,48.828125
8522,48.828125
8523,46.875000
8524,46.875000
8525,44.921875
8526,42.968750
8527,42.968750
8528,42.968750
8529,41.015625
8530,41.015625
8531,39.062500
8532,39.062500
8533,37.109375
8534,35.156250
8535,35.156250
8536,35.156250
8537,33.203125
8538,31.250000
8539,31.250000
8540,29.296875
8541,29.296875
8542,27.343750
8543,25.390625
8544,25.390625
8545,23.437500
8546,21.484375
8547,19.531250
8548,19.531250
8549,19.531250
8550,15.625000
8551,13.671875
8552,13.671875
8553,11.718750
8554,9.765625
8555,9.765625
8556,7.812500
8557,5.859375
8558,3.906250
8559,3.906250
8560,1.953125
8561,0.000000
8562,-1.953125
8563,-1.953125
8564,-3.906250
8565,-5.859375
8566,-7.812500
8567,-7.812500
8568,-9.765625
8569,-11.718750
8570,-13.671875
8571,-15.625000
8572,-13.671875
8573,-17.578125
8574,-19.531250
8575,-21.484375
8576,-21.484375
8577,-23.437500
8578,-25.390625
8579,-27.343750
8580,-27.343750
8581,-27.343750
8582,-31.250000
8583,-33.203125
8584,-33.203125
8585,-35.156250
8586,-37.109375
8587,-37.109375
8588,-39.062500
8589,-41.015625
8590,-41.015625
8591,-42.968750
8592,-44.921875
8593,-44.921875
8594,-46.875000
8595,-48.828125
8596,-50.781250
8597,-50.781250
8598,-50.781250
8599,-52.734375
8600,-54.687500
8601,-54.687500
8602,-56.640625
8603,-56.640625
8604,-56.640625
8605,-58.593750
8606,-60.546875
8607,-60.546875
8608,-62.500000
8609,-62.500000
8610,-62.500000
8611,-64.453125
8612,-64.453125
8613,-66.406250
8614,-66.406250
8615,-66.406250
8616,-66.406250
8617,-68.359375
8618,-70.312500
8619,-70.312500
8620,-70.312500
8621,-70.312500
8622,-70.312500
8623,-72.265625
8624,-72.265625
8625,-72.265625
8626,-74.218750
8627,-72.265625
8628,-72.265625
8629,-74.218750
8630,-74.218750
8631,-74.218750
8632,-74.218750
8633,-74.218750
8634,-74.218750
8635,-74.218750
8636,-74.218750
8637,-74.218750
8638,-74.218750
8639,-74.218750
8640,-72.265625
8641,-74.218750
8642,-72.265625
8643,-74.218750
8644,-72.265625
8645,-72.265625
8646,-72.265625
8647,-72.265625
8648,-72.265625
8649,-70.312500
8650,-70.312500
8651,-70.312500
8652,-70.312500
8653,-68.359375
8654,-68.359375
8655,-66.406250
8656,-66.406250
8657,-66.406250
8658,-64.453125
8659,-64.453125
8660,-62.500000
8661,-62.500000
8662,-60.546875
8663,-60.546875
8664,-58.593750
8665,-58.593750
8666,-58.593750
8667,-56.640625
8668,-56.640625
8669,-52.734375
8670,-52.734375
8671,-54.687500
8672,-50.781250
8673,-48.828125
8674,-48.828125
8675,-46.875000
8676,-46.875000
8677,-44.921875
8678,-42.968750
8679,-41.015625
8680,-41.015625
8681,-41.015625
8682,-37.109375
8683,-37.109375
8684,-35.156250
8685,-33.203125
8686,-33.203125
8687,-31.250000
8688,-29.296875
8689,-27.343750
8690,-27.343750
8691,-27.343750
8692,-25.390625
8693,-23.437500
8694,-21.484375
8695,-19.531250
8696,-19.531250
8697,-17.578125
8698,-15.625000
8699,-13.671875
8700,-13.671875
8701,-11.718750
8702,-9.765625
8703,-7.812500
8704,-5.859375
8705,-5.859375
8706,-3.906250
8707,-1.953125
8708,-1.953125
8709,0.000000
8710,1.953125
8711,3.906250
8712,3.906250
8713,5.859375
8714,7.812500
8715,9.765625
8716,11.718750
8717,11.718750
8718,13.671875
8719,15.625000
8720,15.625000
8721,17.578125
8722,19.531250
8723,21.484375
8724,21.484375
8725,23.437500
8726,23.437500
8727,25.390625
8728,27.343750
8729,29.296875
8730,29.296875
8731,33.203125
8732,31.250000
8733,33.203125
8734,33.203125
8735,35.156250
8736,37.109375
8737,39.062500
8738,39.062500
8739,39.062500
8740,39.062500
8741,41.015625
8742,42.968750
8743,42.968750
8744,44.921875
8745,44.921875
8746,46.875000
8747,46.875000
8748,48.828125
8749,48.828125
8750,48.828125
8751,50.781250
8752,50.781250
8753,50.781250
8754,52.734375
8755,52.734375
8756,54.687500
8757,54.687500
8758,54.687500
8759,54.687500
8760,56.640625
8761,56.640625
8762,56.640625
8763,58.593750
8764,56.640625
8765,58.593750
8766,58.593750
8767,58.593750
8768,58.593750
8769,58.593750
8770,60.546875
8771,60.546875
8772,58.593750
8773,60.546875
8774,58.593750
8775,60.546875
8776,60.546875
8777,60.546875
8778,60.546875
8779,58.593750
8780,60.546875
8781,60.546875
8782,60.546875
8783,60.546875
8784,58.593750
8785,58.593750
8786,58.593750
8787,58.593750
8788,58.593750
8789,58.593750
8790,58.593750
8791,54.687500
8792,56.640625
8793,56.640625
8794,56.640625
8795,56.640625
8796,54.687500
8797,54.687500
8798,54.687500
8799,54.687500
8800,52.734375
8801,52.734375
8802,50.781250
8803,50.781250
8804,50.781250
8805,48.828125
8806,48.828125
8807,48.828125
8808,46.875000
8809,44.921875
8810,44.921875
8811,42.968750
8812,42.968750
8813,41.015625
8814,41.015625
8815,39.062500
8816,39.062500
8817,37.109375
8818,37.109375
8819,35.156250
8820,35.156250
8821,33.203125
8822,31.250000
8823,31.250000
8824,29.296875
8825,27.343750
8826,27.343750
8827,27.343750
8828,23.437500
8829,23.437500
8830,21.484375
8831,19.531250
8832,19.531250
8833,17.578125
8834,15.625000
8835,15.625000
8836,13.671875
8837,11.718750
8838,9.765625
8839,9.765625
8840,7.812500
8841,5.859375
8842,3.906250
8843,3.906250
8844,1.953125
8845,0.000000
8846,0.000000
8847,-1.953125
8848,-3.906250
8849,-5.859375
8850,-7.812500
8851,-7.812500
8852,-9.765625
8853,-11.718750
8854,-11.718750
8855,-13.671875
8856,-15.625000
8857,-17.578125
8858,-17.578125
8859,-21.484375
8860,-21.484375
8861,-23.437500
8862,-25.390625
8863,-25.390625
8864,-27.343750
8865,-27.343750
8866,-29.296875
8867,-31.250000
8868,-33.203125
8869,-35.156250
8870,-35.156250
8871,-37.109375
8872,-39.062500
8873,-39.062500
8874,-41.015625
8875,-42.968750
8876,-42.968750
8877,-44.921875
8878,-46.875000
8879,-46.875000
8880,-48.828125
8881,-50.781250
8882,-50.781250
8883,-52.734375
8884,-52.734375
8885,-54.687500
8886,-56.640625
8887,-56.640625
8888,-58.593750
8889,-58.593750
8890,-60.546875
8891,-60.546875
8892,-62.500000
8893,-62.500000
8894,-62.500000
8895,-62.500000
8896,-64.453125
8897,-66.406250
8898,-66.406250
8899,-66.406250
8900,-68.359375
8901,-68.359375
8902,-68.359375
8903,-68.359375
8904,-70.312500
8905,-70.312500
8906,-70.312500
8907,-70.312500
8908,-72.265625
8909,-72.265625
8910,-72.265625
8911,-72.265625
8912,-74.218750
8913,-72.265625
8914,-74.218750
8915,-72.265625
8916,-74.218750
8917,-74.218750
8918,-74.218750
8919,-74.218750
8920,-74.218750
8921,-74.218750
8922,-74.218750
8923,-74.218750
8924,-74.218750
8925,-72.265625
8926,-72.265625
8927,-72.265625
8928,-72.265625
8929,-72.265625
8930,-72.265625
8931,-70.312500
8932,-72.265625
8933,-70.312500
8934,-70.312500
8935,-68.359375
8936,-68.359375
8937,-68.359375
8938,-66.406250
8939,-66.406250
8940,-66.406250
8941,-64.453125
8942,-64.453125
8943,-66.406250
8944,-62.500000
8945,-62.500000
8946,-60.546875
8947,-60.546875
8948,-58.593750
8949,-56.640625
8950,-56.640625
8951,-56.640625
8952,-56.640625
8953,-54.687500
8954,-52.734375
8955,-50.781250
8956,-50.781250
8957,-50.781250
8958,-48.828125
8959,-46.875000
8960,-46.875000
8961,-42.968750
8962,-42.968750
8963,-42.968750
8964,-41.015625
8965,-41.015625
8966,-37.109375
8967,-37.109375
8968,-35.156250
8969,-33.203125
8970,-31.250000
8971,-33.203125
8972,-31.250000
8973,-29.296875
8974,-27.343750
8975,-25.390625
8976,-25.390625
8977,-23.437500
8978,-21.484375
8979,-19.531250
8980,-19.531250
8981,-15.625000
8982,-15.625000
8983,-13.671875
8984,-11.718750
8985,-9.765625
8986,-9.765625
8987,-7.812500
8988,-5.859375
8989,-3.906250
8990,-3.906250
8991,-1.953125
8992,-1.953125
8993,1.953125
8994,3.906250
8995,3.906250
8996,5.859375
8997,5.859375
8998,7.812500
8999,9.765625
9000,11.718750
9001,11.718750
9002,13.671875
9003,15.625000
9004,15.625000
9005,19.531250
9006,19.531250
9007,21.484375
9008,21.484375
9009,23.437500
9010,25.390625
9011,25.390625
9012,27.343750
9013,29.296875
9014,29.296875
9015,31.250000
9016,33.203125
9017,33.203125
9018,35.156250
9019,35.156250
9020,37.109375
9021,39.062500
9022,39.062500
9023,39.062500
9024,41.015625
9025,42.968750
9026,42.968750
9027,42.968750
9028,44.921875
9029,46.875000
9030,46.875000
9031,46.875000
9032,46.875000
9033,48.828125
9034,50.781250
9035,50.781250
9036,52.734375
9037,50.781250
9038,52.734375
9039,52.734375
9040,54.687500
9041,54.687500
9042,54.687500
9043,56.640625
9044,56.640625
9045,56.640625
9046,58.593750
9047,58.593750
9048,58.593750
9049,58.593750
9050,58.593750
9051,58.593750
9052,60.546875
9053,60.546875
9054,60.546875
9055,60.546875
9056,60.546875
9057,60.546875
9058,60.546875
9059,60.546875
9060,60.546875
9061,60.546875
9062,60.546875
9063,60.546875
9064,60.546875
9065,60.546875
9066,60.546875
9067,60.546875
9068,60.546875
9069,60.546875
9070,60.546875
9071,58.593750
9072,58.593750
9073,58.593750
9074,58.593750
9075,58.593750
9076,58.593750
9077,56.640625
9078,56.640625
9079,56.640625
9080,56.640625
9081,54.687500
9082,54.687500
9083,52.734375
9084,52.734375
9085,52.734375
9086,50.781250
9087,50.781250
9088,48.828125
9089,48.828125
9090,48.828125
9091,46.875000
9092,46.875000
9093,44.921875
9094,44.921875
9095,42.968750
9096,42.968750
9097,42.968750
9098,41.015625
9099,39.062500
9100,39.062500
9101,39.062500
9102,37.109375
9103,35.156250
9104,33.203125
9105,33.203125
9106,31.250000
9107,31.250000
9108,29.296875
9109,29.296875
9110,27.343750
9111,25.390625
9112,23.437500
9113,23.437500
9114,21.484375
9115,21.484375
9116,19.531250
9117,17.578125
9118,15.625000
9119,15.625000
9120,13.671875
9121,11.718750
9122,9.765625
9123,9.765625
9124,7.812500
9125,5.859375
9126,5.859375
9127,3.906250
9128,1.953125
9129,0.000000
9130,0.000000
9131,-1.953125
9132,-3.906250
9133,-5.859375
9134,-5.859375
9135,-7.812500
9136,-9.765625
9137,-11.718750
9138,-13.671875
9139,-13.671875
9140,-15.625000
9141,-17.578125
9142,-19.531250
9143,-19.531250
9144,-21.484375
9145,-23.437500
9146,-25.390625
9147,-25.390625
9148,-27.343750
9149,-29.296875
9150,-33.203125
9151,-31.250000
9152,-35.156250
9153,-35.156250
9154,-37.109375
9155,-37.109375
9156,-39.062500
9157,-41.015625
9158,-41.015625
9159,-42.968750
9160,-44.921875
9161,-46.875000
9162,-46.875000
9163,-50.781250
9164,-48.828125
9165,-50.781250
9166,-52.734375
9167,-52.734375
9168,-54.687500
9169,-54.687500
9170,-56.640625
9171,-56.640625
9172,-58.593750
9173,-58.593750
9174,-60.546875
9175,-60.546875
9176,-62.500000
9177,-62.500000
9178,-64.453125
9179,-64.453125
9180,-64.453125
9181,-64.453125
9182,-66.406250
9183,-66.406250
9184,-68.359375
9185,-68.359375
9186,-68.359375
9187,-70.312500
9188,-70.312500
9189,-70.312500
9190,-70.312500
9191,-72.265625
9192,-72.265625
9193,-72.265625
9194,-72.265625
9195,-74.218750
9196,-74.218750
9197,-74.218750
9198,-74.218750
9199,-74.218750
9200,-74.218750
9201,-74.218750
9202,-74.218750
9203,-74.218750
9204,-74.218750
9205,-74.218750
9206,-74.218750
9207,-74.218750
9208,-74.218750
9209,-74.218750
9210,-74.218750
9211,-72.265625
9212,-72.265625
9213,-72.265625
9214,-72.265625
9215,-72.265625
9216,-72.265625
9217,-70.312500
9218,-70.312500
9219,-70.312500
9220,-68.359375
9221,-68.359375
9222,-66.406250
9223,-68.359375
9224,-66.406250
9225,-66.406250
9226,-64.453125
9227,-64.453125
9228,-64.453125
9229,-62.500000
9230,-60.546875
9231,-60.546875
9232,-60.546875
9233,-58.593750
9234,-58.593750
9235,-56.640625
9236,-54.687500
9237,-54.687500
9238,-52.734375
9239,-52.734375
9240,-50.781250
9241,-50.781250
9242,-48.828125
9243,-46.875000
9244,-46.875000
9245,-44.921875
9246,-44.921875
9247,-42.968750
9248,-41.015625
9249,-41.015625
9250,-39.062500
9251,-37.109375
9252,-35.156250
9253,-35.156250
9254,-33.203125
9255,-31.250000
9256,-29.296875
9257,-29.296875
9258,-27.343750
9259,-27.343750
9260,-23.437500
9261,-23.437500
9262,-21.484375
9263,-19.531250
9264,-17.578125
9265,-17.578125
9266,-15.625000
9267,-13.671875
9268,-13.671875
9269,-9.765625
9270,-9.765625
9271,-7.812500
9272,-7.812500
9273,-5.859375
9274,-3.906250
9275,-1.953125
9276,-1.953125
9277,0.000000
9278,1.953125
9279,3.906250
9280,3.906250
9281,5.859375
9282,7.812500
9283,9.765625
9284,9.765625
9285,11.718750
9286,13.671875
9287,15.625000
9288,15.625000
9289,17.578125
9290,19.531250
9291,19.531250
9292,21.484375
9293,23.437500
9294,23.437500
9295,25.390625
9296,27.343750
9297,27.343750
9298,29.296875
9299,31.250000
9300,31.250000
9301,33.203125
9302,33.203125
9303,35.156250
9304,37.109375
9305,37.109375
9306,39.062500
9307,39.062500
9308,41.015625
9309,41.015625
9310,42.968750
9311,42.968750
9312,44.921875
9313,46.875000
9314,46.875000
9315,46.875000
9316,48.828125
9317,48.828125
9318,50.781250
9319,50.781250
9320,50.781250
9321,52.734375
9322,52.734375
9323,52.734375
9324,54.687500
9325,54.687500
9326,54.687500
9327,56.640625
9328,56.640625
9329,56.640625
9330,58.593750
9331,56.640625
9332,58.593750
9333,58.593750
9334,58.593750
9335,60.546875
9336,58.593750
9337,58.593750
9338,60.546875
9339,60.546875
9340,60.546875
9341,60.546875
9342,60.546875
9343,60.546875
9344,60.546875
9345,60.546875
9346,60.546875
9347,60.546875
9348,60.546875
9349,60.546875
9350,60.546875
9351,60.546875
9352,58.593750
9353,58.593750
9354,58.593750
9355,58.593750
9356,58.593750
9357,58.593750
9358,58.593750
9359,56.640625
9360,58.593750
9361,56.640625
9362,56.640625
9363,56.640625
9364,54.687500
9365,52.734375
9366,54.687500
9367,52.734375
9368,52.734375
9369,52.734375
9370,50.781250
9371,50.781250
9372,50.781250
9373,48.828125
9374,48.828125
9375,48.828125
9376,46.875000
9377,44.921875
9378,44.921875
9379,44.921875
9380,44.921875
9381,42.968750
9382,41.015625
9383,41.015625
9384,39.062500
9385,37.109375
9386,37.109375
9387,37.109375
9388,35.156250
9389,33.203125
9390,33.203125
9391,31.250000
9392,29.296875
9393,29.296875
9394,27.343750
9395,25.390625
9396,25.390625
9397,23.437500
9398,21.484375
9399,21.484375
9400,19.531250
9401,17.578125
9402,17.578125
9403,15.625000
9404,13.671875
9405,11.718750
9406,11.718750
9407,9.765625
9408,7.812500
9409,7.812500
9410,5.859375
9411,3.906250
9412,1.953125
9413,0.000000
9414,-1.953125
9415,-1.953125
9416,-3.906250
9417,-5.859375
9418,-7.812500
9419,-9.765625
9420,-7.812500
9421,-11.718750
9422,-13.671875
9423,-13.671875
9424,-15.625000
9425,-17.578125
9426,-19.531250
9427,-19.531250
9428,-21.484375
9429,-23.437500
9430,-23.437500
9431,-25.390625
9432,-27.343750
9433,-27.343750
9434,-29.296875
9435,-31.250000
9436,-33.203125
9437,-35.156250
9438,-35.156250
9439,-37.109375
9440,-39.062500
9441,-39.062500
9442,-41.015625
9443,-41.015625
9444,-42.968750
9445,-44.921875
9446,-44.921875
9447,-46.875000
9448,-48.828125
9449,-48.828125
9450,-50.781250
9451,-50.781250
9452,-52.734375
9453,-54.687500
9454,-54.687500
9455,-54.687500
9456,-56.640625
9457,-58.593750
9458,-58.593750
9459,-58.593750
9460,-60.546875
9461,-62.500000
9462,-62.500000
9463,-62.500000
9464,-64.453125
9465,-66.406250
9466,-66.406250
9467,-66.406250
9468,-66.406250
9469,-68.359375
9470,-68.359375
9471,-68.359375
9472,-68.359375
9473,-70.312500
9474,-70.312500
9475,-72.265625
9476,-72.265625
9477,-72.265625
9478,-72.265625
9479,-72.265625
9480,-72.265625
9481,-74.218750
9482,-74.218750
9483,-74.218750
9484,-74.218750
9485,-74.218750
9486,-74.218750
9487,-74.218750
9488,-74.218750
9489,-74.218750
9490,-76.171875
9491,-74.218750
9492,-72.265625
9493,-72.265625
9494,-72.265625
9495,-72.265625
9496,-72.265625
9497,-72.265625
9498,-72.265625
9499,-70.312500
9500,-70.312500
9501,-70.312500
9502,-70.312500
9503,-68.359375
9504,-68.359375
9505,-68.359375
9506,-66.406250
9507,-64.453125
9508,-66.406250
9509,-64.453125
9510,-64.453125
9511,-64.453125
9512,-62.500000
9513,-62.500000
9514,-60.546875
9515,-60.546875
9516,-58.593750
9517,-58.593750
9518,-58.593750
9519,-56.640625
9520,-54.687500
9521,-54.687500
9522,-52.734375
9523,-52.734375
9524,-52.734375
9525,-48.828125
9526,-48.828125
9527,-46.875000
9528,-46.875000
9529,-44.921875
9530,-42.968750
9531,-42.968750
9532,-41.015625
9533,-41.015625
9534,-39.062500
9535,-37.109375
9536,-35.156250
9537,-35.156250
9538,-33.203125
9539,-31.250000
9540,-29.296875
9541,-29.296875
9542,-27.343750
9543,-27.343750
9544,-25.390625
9545,-23.437500
9546,-23.437500
9547,-21.484375
9548,-19.531250
9549,-17.578125
9550,-17.578125
9551,-13.671875
9552,-11.718750
9553,-11.718750
9554,-9.765625
9555,-9.765625
9556,-7.812500
9557,-5.859375
9558,-3.906250
9559,-3.906250
9560,0.000000
9561,0.000000
9562,1.953125
9563,3.906250
9564,3.906250
9565,7.812500
9566,7.812500
9567,7.812500
9568,9.765625
9569,13.671875
9570,13.671875
9571,15.625000
9572,15.625000
9573,17.578125
9574,19.531250
9575,21.484375
9576,23.437500
9577,23.437500
9578,23.437500
9579,25.390625
9580,27.343750
9581,27.343750
9582,29.296875
9583,31.250000
9584,31.250000
9585,33.203125
9586,35.156250
9587,35.156250
9588,37.109375
9589,37.109375
9590,39.062500
9591,39.062500
9592,41.015625
9593,42.968750
9594,42.968750
9595,42.968750
9596,44.921875
9597,44.921875
9598,46.875000
9599,46.875000
9600,48.828125
9601,48.828125
9602,48.828125
9603,50.781250
9604,50.781250
9605,52.734375
9606,52.734375
9607,52.734375
9608,60.546875
9609,54.687500
9610,54.687500
9611,54.687500
9612,54.687500
9613,56.640625
9614,56.640625
9615,56.640625
9616,58.593750
9617,58.593750
9618,58.593750
9619,58.593750
9620,58.593750
9621,58.593750
9622,60.546875
9623,60.546875
9624,60.546875
9625,60.546875
9626,60.546875
9627,60.546875
9628,58.593750
9629,60.546875
9630,60.546875
9631,60.546875
9632,60.546875
9633,60.546875
9634,60.546875
9635,60.546875
9636,58.593750
9637,58.593750
9638,60.546875
9639,58.593750
9640,58.593750
9641,58.593750
9642,58.593750
9643,58.593750
9644,58.593750
9645,56.640625
9646,56.640625
9647,56.640625
9648,54.687500
9649,54.687500
9650,54.687500
9651,52.734375
9652,52.734375
9653,52.734375
9654,50.781250
9655,50.781250
9656,50.781250
9657,48.828125
9658,48.828125
9659,48.828125
9660,46.875000
9661,44.921875
9662,44.921875
9663,42.968750
9664,42.968750
9665,41.015625
9666,41.015625
9667,39.062500
9668,39.062500
9669,37.109375
9670,37.109375
9671,35.156250
9672,33.203125
9673,33.203125
9674,33.203125
9675,29.296875
9676,29.296875
9677,27.343750
9678,27.343750
9679,25.390625
9680,25.390625
9681,21.484375
9682,21.484375
9683,21.484375
9684,19.531250
9685,17.578125
9686,15.625000
9687,15.625000
9688,13.671875
9689,11.718750
9690,9.765625
9691,9.765625
9692,7.812500
9693,7.812500
9694,3.906250
9695,3.906250
9696,1.953125
9697,0.000000
9698,0.000000
9699,-1.953125
9700,-3.906250
9701,-5.859375
9702,-7.812500
9703,-7.812500
9704,-9.765625
9705,-11.718750
9706,-13.671875
9707,-13.671875
9708,-15.625000
9709,-17.578125
9710,-19.531250
9711,-19.531250
9712,-21.484375
9713,-23.437500
9714,-25.390625
9715,-25.390625
9716,-27.343750
9717,-29.296875
9718,-31.250000
9719,-31.250000
9720,-33.203125
9721,-35.156250
9722,-35.156250
9723,-37.109375
9724,-39.062500
9725,-39.062500
9726,-41.015625
9727,-42.968750
9728,-44.921875
9729,-44.921875
9730,-46.875000
9731,-48.828125
9732,-48.828125
9733,-50.781250
9734,-50.781250
9735,-52.734375
9736,-52.734375
9737,-54.687500
9738,-54.687500
9739,-56.640625
9740,-58.593750
9741,-58.593750
9742,-58.593750
9743,-60.546875
9744,-62.500000
9745,-62.500000
9746,-62.500000
9747,-64.453125
9748,-64.453125
9749,-66.406250
9750,-66.406250
9751,-66.406250
9752,-68.359375
9753,-68.359375
9754,-70.312500
9755,-68.359375
9756,-70.312500
9757,-72.265625
9758,-72.265625
9759,-72.265625
9760,-72.265625
9761,-72.265625
9762,-74.218750
9763,-72.265625
9764,-74.218750
9765,-72.265625
9766,-74.218750
9767,-74.218750
9768,-74.218750
9769,-74.218750
9770,-74.218750
9771,-74.218750
9772,-74.218750
9773,-74.218750
9774,-74.218750
9775,-74.218750
9776,-74.218750
9777,-74.218750
9778,-74.218750
9779,-72.265625
9780,-72.265625
9781,-72.265625
9782,-72.265625
9783,-72.265625
9784,-72.265625
9785,-70.312500
9786,-70.312500
9787,-70.312500
9788,-70.312500
9789,-68.359375
9790,-68.359375
9791,-66.406250
9792,-66.406250
9793,-66.406250
9794,-64.453125
9795,-64.453125
9796,-62.500000
9797,-62.500000
9798,-62.500000
9799,-60.546875
9800,-58.593750
9801,-58.593750
9802,-58.593750
9803,-56.640625
9804,-56.640625
9805,-54.687500
9806,-54.687500
9807,-52.734375
9808,-52.734375
9809,-50.781250
9810,-48.828125
9811,-48.828125
9812,-46.875000
9813,-44.921875
9814,-44.921875
9815,-42.968750
9816,-41.015625
9817,-41.015625
9818,-39.062500
9819,-37.109375
9820,-37.109375
9821,-35.156250
9822,-33.203125
9823,-33.203125
9824,-29.296875
9825,-29.296875
9826,-27.343750
9827,-27.343750
9828,-25.390625
9829,-23.437500
9830,-21.484375
9831,-19.531250
9832,-19.531250
9833,-17.578125
9834,-15.625000
9835,-13.671875
9836,-11.718750
9837,-11.718750
9838,-9.765625
9839,-7.812500
9840,-5.859375
9841,-5.859375
9842,-3.906250
9843,-1.953125
9844,-1.953125
9845,0.000000
9846,1.953125
9847,0.000000
9848,5.859375
9849,5.859375
9850,7.812500
9851,9.765625
9852,13.671875
9853,11.718750
9854,13.671875
9855,13.671875
9856,15.625000
9857,17.578125
9858,19.531250
9859,19.531250
9860,21.484375
9861,23.437500
9862,23.437500
9863,25.390625
9864,27.343750
9865,29.296875
9866,29.296875
9867,31.250000
9868,31.250000
9869,33.203125
9870,33.203125
9871,35.156250
9872,37.109375
9873,37.109375
9874,37.109375
9875,39.062500
9876,41.015625
9877,41.015625
9878,42.968750
9879,42.968750
9880,44.921875
9881,44.921875
9882,44.921875
9883,46.875000
9884,48.828125
9885,48.828125
9886,52.734375
9887,50.781250
9888,50.781250
9889,52.734375
9890,52.734375
9891,50.781250
9892,54.687500
9893,54.687500
9894,54.687500
9895,56.640625
9896,56.640625
9897,56.640625
9898,56.640625
9899,56.640625
9900,58.593750
9901,58.593750
9902,58.593750
9903,58.593750
9904,58.593750
9905,58.593750
9906,60.546875
9907,60.546875
9908,60.546875
9909,60.546875
9910,60.546875
9911,60.546875
9912,60.546875
9913,60.546875
9914,60.546875
9915,60.546875
9916,60.546875
9917,60.546875
9918,60.546875
9919,60.546875
9920,60.546875
9921,58.593750
9922,60.546875
9923,58.593750
9924,58.593750
9925,58.593750
9926,58.593750
9927,58.593750
9928,56.640625
9929,56.640625
9930,54.687500
9931,56.640625
9932,54.687500
9933,54.687500
9934,54.687500
9935,56.640625
9936,52.734375
9937,52.734375
9938,50.781250
9939,50.781250
9940,48.828125
9941,50.781250
9942,48.828125
9943,46.875000
9944,46.875000
9945,46.875000
9946,44.921875
9947,42.968750
9948,42.968750
9949,42.968750
9950,41.015625
9951,41.015625
9952,39.062500
9953,37.109375
9954,37.109375
9955,35.156250
9956,35.156250
9957,33.203125
9958,33.203125
9959,31.250000
9960,31.250000
9961,29.296875
9962,27.343750
9963,27.343750
9964,25.390625
9965,23.437500
9966,23.437500
9967,21.484375
9968,21.484375
9969,19.531250
9970,17.578125
9971,15.625000
9972,15.625000
9973,13.671875
9974,9.765625
9975,9.765625
9976,9.765625
9977,7.812500
9978,5.859375
9979,3.906250
9980,3.906250
9981,1.953125
9982,0.000000
9983,-1.953125
9984,-1.953125
9985,-5.859375
9986,-5.859375
9987,-9.765625
9988,-7.812500
9989,-11.718750
9990,-11.718750
9991,-13.671875
9992,-15.625000
9993,-19.531250
9994,-19.531250
9995,-19.531250
9996,-19.531250
9997,-23.437500
9998,-25.390625
9999,-25.390625
10000,-27.343750
