Channel              :,CH1
Frequency            :,1.762kHz
Period               :,0.568ms
PK-PK                :,111.3mV
Probe attenuation    :,1X
Voltage per ADC value:,0.122070mV
Time interval        :,2.00000us

index,CH1_Voltage(mV)
1,37.109375
2,37.109375
3,37.109375
4,35.156250
5,35.156250
6,35.156250
7,33.203125
8,33.203125
9,33.203125
10,31.250000
11,31.250000
12,29.296875
13,27.343750
14,27.343750
15,25.390625
16,25.390625
17,25.390625
18,23.437500
19,23.437500
20,21.484375
21,21.484375
22,19.531250
23,19.531250
24,17.578125
25,17.578125
26,15.625000
27,13.671875
28,13.671875
29,11.718750
30,11.718750
31,9.765625
32,7.812500
33,7.812500
34,5.859375
35,5.859375
36,3.906250
37,1.953125
38,1.953125
39,0.000000
40,0.000000
41,-1.953125
42,-1.953125
43,-3.906250
44,-5.859375
45,-5.859375
46,-7.812500
47,-9.765625
48,-9.765625
49,-11.718750
50,-11.718750
51,-13.671875
52,-15.625000
53,-15.625000
54,-17.578125
55,-19.531250
56,-19.531250
57,-21.484375
58,-21.484375
59,-23.437500
60,-25.390625
61,-25.390625
62,-27.343750
63,-27.343750
64,-29.296875
65,-31.250000
66,-31.250000
67,-31.250000
68,-33.203125
69,-35.156250
70,-35.156250
71,-37.109375
72,-37.109375
73,-39.062500
74,-39.062500
75,-41.015625
76,-41.015625
77,-42.968750
78,-42.968750
79,-44.921875
80,-44.921875
81,-44.921875
82,-46.875000
83,-46.875000
84,-48.828125
85,-48.828125
86,-48.828125
87,-50.781250
88,-50.781250
89,-50.781250
90,-50.781250
91,-52.734375
92,-52.734375
93,-52.734375
94,-54.687500
95,-54.687500
96,-54.687500
97,-54.687500
98,-56.640625
99,-56.640625
100,-56.640625
101,-58.593750
102,-58.593750
103,-58.593750
104,-58.593750
105,-58.593750
106,-58.593750
107,-58.593750
108,-58.593750
109,-60.546875
110,-58.593750
111,-60.546875
112,-60.546875
113,-58.593750
114,-60.546875
115,-60.546875
116,-58.593750
117,-60.546875
118,-60.546875
119,-58.593750
120,-58.593750
121,-58.593750
122,-58.593750
123,-58.593750
124,-58.593750
125,-58.593750
126,-56.640625
127,-56.640625
128,-56.640625
129,-56.640625
130,-56.640625
131,-54.687500
132,-56.640625
133,-56.640625
134,-54.687500
135,-52.734375
136,-52.734375
137,-52.734375
138,-52.734375
139,-50.781250
140,-50.781250
141,-48.828125
142,-50.781250
143,-46.875000
144,-46.875000
145,-46.875000
146,-44.921875
147,-44.921875
148,-42.968750
149,-42.968750
150,-42.968750
151,-41.015625
152,-39.062500
153,-39.062500
154,-37.109375
155,-37.109375
156,-37.109375
157,-35.156250
158,-33.203125
159,-33.203125
160,-33.203125
161,-31.250000
162,-29.296875
163,-29.296875
164,-27.343750
165,-27.343750
166,-25.390625
167,-25.390625
168,-23.437500
169,-21.484375
170,-21.484375
171,-19.531250
172,-17.578125
173,-17.578125
174,-17.578125
175,-15.625000
176,-13.671875
177,-13.671875
178,-11.718750
179,-9.765625
180,-9.765625
181,-7.812500
182,-7.812500
183,-5.859375
184,-3.906250
185,-3.906250
186,-1.953125
187,0.000000
188,0.000000
189,1.953125
190,1.953125
191,3.906250
192,5.859375
193,5.859375
194,9.765625
195,7.812500
196,9.765625
197,9.765625
198,11.718750
199,13.671875
200,13.671875
201,13.671875
202,15.625000
203,17.578125
204,17.578125
205,19.531250
206,19.531250
207,21.484375
208,21.484375
209,23.437500
210,23.437500
211,25.390625
212,27.343750
213,27.343750
214,29.296875
215,29.296875
216,29.296875
217,31.250000
218,31.250000
219,33.203125
220,33.203125
221,35.156250
222,35.156250
223,35.156250
224,37.109375
225,37.109375
226,39.062500
227,39.062500
228,39.062500
229,41.015625
230,39.062500
231,41.015625
232,41.015625
233,42.968750
234,42.968750
235,42.968750
236,44.921875
237,44.921875
238,44.921875
239,44.921875
240,44.921875
241,44.921875
242,46.875000
243,46.875000
244,46.875000
245,46.875000
246,46.875000
247,46.875000
248,46.875000
249,46.875000
250,48.828125
251,48.828125
252,48.828125
253,46.875000
254,48.828125
255,48.828125
256,48.828125
257,48.828125
258,48.828125
259,48.828125
260,48.828125
261,46.875000
262,46.875000
263,46.875000
264,46.875000
265,46.875000
266,46.875000
267,46.875000
268,44.921875
269,46.875000
270,46.875000
271,44.921875
272,44.921875
273,44.921875
274,44.921875
275,44.921875
276,42.968750
277,42.968750
278,42.968750
279,42.968750
280,41.015625
281,41.015625
282,41.015625
283,41.015625
284,39.062500
285,39.062500
286,37.109375
287,37.109375
288,35.156250
289,35.156250
290,35.156250
291,33.203125
292,33.203125
293,33.203125
294,31.250000
295,31.250000
296,29.296875
297,29.296875
298,29.296875
299,27.343750
300,25.390625
301,25.390625
302,23.437500
303,23.437500
304,21.484375
305,21.484375
306,19.531250
307,19.531250
308,17.578125
309,15.625000
310,15.625000
311,13.671875
312,13.671875
313,11.718750
314,11.718750
315,9.765625
316,9.765625
317,7.812500
318,5.859375
319,5.859375
320,3.906250
321,1.953125
322,1.953125
323,0.000000
324,0.000000
325,-1.953125
326,-1.953125
327,-3.906250
328,-5.859375
329,-7.812500
330,-7.812500
331,-7.812500
332,-9.765625
333,-11.718750
334,-11.718750
335,-13.671875
336,-17.578125
337,-15.625000
338,-17.578125
339,-17.578125
340,-19.531250
341,-21.484375
342,-21.484375
343,-23.437500
344,-23.437500
345,-25.390625
346,-27.343750
347,-27.343750
348,-29.296875
349,-29.296875
350,-31.250000
351,-31.250000
352,-33.203125
353,-33.203125
354,-35.156250
355,-35.156250
356,-37.109375
357,-39.062500
358,-39.062500
359,-41.015625
360,-41.015625
361,-41.015625
362,-42.968750
363,-42.968750
364,-44.921875
365,-44.921875
366,-46.875000
367,-46.875000
368,-48.828125
369,-48.828125
370,-48.828125
371,-50.781250
372,-50.781250
373,-50.781250
374,-52.734375
375,-54.687500
376,-52.734375
377,-54.687500
378,-54.687500
379,-54.687500
380,-56.640625
381,-56.640625
382,-56.640625
383,-56.640625
384,-56.640625
385,-58.593750
386,-58.593750
387,-58.593750
388,-58.593750
389,-58.593750
390,-58.593750
391,-58.593750
392,-60.546875
393,-60.546875
394,-60.546875
395,-60.546875
396,-60.546875
397,-60.546875
398,-58.593750
399,-60.546875
400,-60.546875
401,-60.546875
402,-60.546875
403,-58.593750
404,-60.546875
405,-58.593750
406,-58.593750
407,-58.593750
408,-58.593750
409,-58.593750
410,-58.593750
411,-56.640625
412,-56.640625
413,-56.640625
414,-56.640625
415,-54.687500
416,-54.687500
417,-54.687500
418,-54.687500
419,-54.687500
420,-52.734375
421,-52.734375
422,-52.734375
423,-50.781250
424,-50.781250
425,-48.828125
426,-48.828125
427,-48.828125
428,-46.875000
429,-46.875000
430,-46.875000
431,-44.921875
432,-44.921875
433,-42.968750
434,-42.968750
435,-41.015625
436,-41.015625
437,-39.062500
438,-39.062500
439,-37.109375
440,-37.109375
441,-35.156250
442,-35.156250
443,-33.203125
444,-33.203125
445,-31.250000
446,-29.296875
447,-29.296875
448,-29.296875
449,-27.343750
450,-25.390625
451,-25.390625
452,-25.390625
453,-23.437500
454,-21.484375
455,-19.531250
456,-19.531250
457,-17.578125
458,-17.578125
459,-15.625000
460,-13.671875
461,-13.671875
462,-11.718750
463,-11.718750
464,-9.765625
465,-7.812500
466,-7.812500
467,-5.859375
468,-3.906250
469,-3.906250
470,-1.953125
471,-1.953125
472,0.000000
473,1.953125
474,1.953125
475,3.906250
476,3.906250
477,5.859375
478,7.812500
479,7.812500
480,9.765625
481,9.765625
482,11.718750
483,13.671875
484,13.671875
485,15.625000
486,15.625000
487,17.578125
488,17.578125
489,19.531250
490,19.531250
491,21.484375
492,21.484375
493,23.437500
494,23.437500
495,25.390625
496,25.390625
497,27.343750
498,27.343750
499,29.296875
500,29.296875
501,31.250000
502,31.250000
503,33.203125
504,33.203125
505,33.203125
506,35.156250
507,35.156250
508,35.156250
509,37.109375
510,37.109375
511,39.062500
512,39.062500
513,39.062500
514,41.015625
515,41.015625
516,41.015625
517,42.968750
518,42.968750
519,42.968750
520,42.968750
521,44.921875
522,44.921875
523,44.921875
524,44.921875
525,44.921875
526,44.921875
527,46.875000
528,46.875000
529,46.875000
530,48.828125
531,46.875000
532,48.828125
533,46.875000
534,46.875000
535,48.828125
536,48.828125
537,48.828125
538,48.828125
539,48.828125
540,48.828125
541,48.828125
542,48.828125
543,48.828125
544,48.828125
545,48.828125
546,46.875000
547,46.875000
548,48.828125
549,46.875000
550,46.875000
551,46.875000
552,46.875000
553,46.875000
554,46.875000
555,44.921875
556,44.921875
557,44.921875
558,44.921875
559,44.921875
560,42.968750
561,42.968750
562,42.968750
563,41.015625
564,41.015625
565,41.015625
566,41.015625
567,39.062500
568,39.062500
569,37.109375
570,37.109375
571,37.109375
572,35.156250
573,35.156250
574,33.203125
575,33.203125
576,33.203125
577,31.250000
578,31.250000
579,31.250000
580,29.296875
581,29.296875
582,27.343750
583,27.343750
584,25.390625
585,23.437500
586,23.437500
587,23.437500
588,21.484375
589,21.484375
590,19.531250
591,17.578125
592,17.578125
593,17.578125
594,15.625000
595,13.671875
596,13.671875
597,11.718750
598,11.718750
599,9.765625
600,9.765625
601,7.812500
602,5.859375
603,5.859375
604,3.906250
605,3.906250
606,1.953125
607,1.953125
608,0.000000
609,-1.953125
610,-3.906250
611,-3.906250
612,-5.859375
613,-5.859375
614,-7.812500
615,-9.765625
616,-9.765625
617,-11.718750
618,-11.718750
619,-13.671875
620,-15.625000
621,-15.625000
622,-17.578125
623,-19.531250
624,-19.531250
625,-21.484375
626,-21.484375
627,-23.437500
628,-25.390625
629,-25.390625
630,-27.343750
631,-27.343750
632,-29.296875
633,-29.296875
634,-31.250000
635,-31.250000
636,-33.203125
637,-33.203125
638,-35.156250
639,-35.156250
640,-37.109375
641,-39.062500
642,-39.062500
643,-41.015625
644,-41.015625
645,-41.015625
646,-42.968750
647,-42.968750
648,-44.921875
649,-44.921875
650,-46.875000
651,-46.875000
652,-48.828125
653,-48.828125
654,-48.828125
655,-48.828125
656,-50.781250
657,-52.734375
658,-52.734375
659,-52.734375
660,-52.734375
661,-52.734375
662,-54.687500
663,-54.687500
664,-54.687500
665,-56.640625
666,-56.640625
667,-56.640625
668,-56.640625
669,-56.640625
670,-58.593750
671,-58.593750
672,-58.593750
673,-58.593750
674,-58.593750
675,-58.593750
676,-58.593750
677,-60.546875
678,-60.546875
679,-60.546875
680,-58.593750
681,-60.546875
682,-60.546875
683,-60.546875
684,-58.593750
685,-60.546875
686,-58.593750
687,-58.593750
688,-58.593750
689,-60.546875
690,-58.593750
691,-58.593750
692,-58.593750
693,-58.593750
694,-58.593750
695,-56.640625
696,-56.640625
697,-56.640625
698,-56.640625
699,-54.687500
700,-54.687500
701,-54.687500
702,-54.687500
703,-54.687500
704,-52.734375
705,-52.734375
706,-52.734375
707,-50.781250
708,-50.781250
709,-50.781250
710,-48.828125
711,-48.828125
712,-46.875000
713,-46.875000
714,-46.875000
715,-44.921875
716,-44.921875
717,-42.968750
718,-42.968750
719,-41.015625
720,-41.015625
721,-39.062500
722,-39.062500
723,-37.109375
724,-37.109375
725,-35.156250
726,-35.156250
727,-33.203125
728,-33.203125
729,-31.250000
730,-29.296875
731,-29.296875
732,-27.343750
733,-27.343750
734,-25.390625
735,-25.390625
736,-23.437500
737,-23.437500
738,-21.484375
739,-19.531250
740,-19.531250
741,-17.578125
742,-15.625000
743,-15.625000
744,-13.671875
745,-13.671875
746,-11.718750
747,-9.765625
748,-9.765625
749,-7.812500
750,-7.812500
751,-5.859375
752,-5.859375
753,-3.906250
754,-1.953125
755,-1.953125
756,0.000000
757,1.953125
758,1.953125
759,3.906250
760,3.906250
761,5.859375
762,7.812500
763,7.812500
764,7.812500
765,9.765625
766,11.718750
767,11.718750
768,13.671875
769,15.625000
770,15.625000
771,17.578125
772,17.578125
773,19.531250
774,19.531250
775,21.484375
776,21.484375
777,23.437500
778,25.390625
779,25.390625
780,25.390625
781,27.343750
782,27.343750
783,29.296875
784,29.296875
785,31.250000
786,31.250000
787,31.250000
788,33.203125
789,33.203125
790,35.156250
791,35.156250
792,37.109375
793,37.109375
794,37.109375
795,39.062500
796,39.062500
797,39.062500
798,41.015625
799,41.015625
800,41.015625
801,42.968750
802,42.968750
803,42.968750
804,42.968750
805,44.921875
806,44.921875
807,44.921875
808,44.921875
809,44.921875
810,46.875000
811,46.875000
812,46.875000
813,46.875000
814,46.875000
815,48.828125
816,46.875000
817,46.875000
818,46.875000
819,48.828125
820,48.828125
821,48.828125
822,48.828125
823,48.828125
824,48.828125
825,48.828125
826,48.828125
827,48.828125
828,46.875000
829,46.875000
830,46.875000
831,46.875000
832,46.875000
833,46.875000
834,46.875000
835,46.875000
836,46.875000
837,46.875000
838,44.921875
839,44.921875
840,44.921875
841,44.921875
842,44.921875
843,42.968750
844,42.968750
845,42.968750
846,42.968750
847,41.015625
848,41.015625
849,41.015625
850,39.062500
851,39.062500
852,39.062500
853,39.062500
854,37.109375
855,37.109375
856,37.109375
857,35.156250
858,35.156250
859,33.203125
860,33.203125
861,31.250000
862,31.250000
863,31.250000
864,29.296875
865,29.296875
866,29.296875
867,27.343750
868,27.343750
869,25.390625
870,23.437500
871,23.437500
872,23.437500
873,21.484375
874,19.531250
875,19.531250
876,17.578125
877,15.625000
878,15.625000
879,15.625000
880,13.671875
881,13.671875
882,11.718750
883,9.765625
884,9.765625
885,7.812500
886,5.859375
887,5.859375
888,3.906250
889,3.906250
890,1.953125
891,0.000000
892,0.000000
893,-1.953125
894,-3.906250
895,-3.906250
896,-5.859375
897,-7.812500
898,-7.812500
899,-9.765625
900,-9.765625
901,-11.718750
902,-11.718750
903,-13.671875
904,-15.625000
905,-15.625000
906,-17.578125
907,-19.531250
908,-19.531250
909,-21.484375
910,-21.484375
911,-23.437500
912,-23.437500
913,-25.390625
914,-27.343750
915,-27.343750
916,-29.296875
917,-29.296875
918,-31.250000
919,-33.203125
920,-35.156250
921,-35.156250
922,-35.156250
923,-37.109375
924,-37.109375
925,-37.109375
926,-39.062500
927,-41.015625
928,-41.015625
929,-42.968750
930,-42.968750
931,-42.968750
932,-44.921875
933,-44.921875
934,-44.921875
935,-46.875000
936,-46.875000
937,-48.828125
938,-48.828125
939,-50.781250
940,-50.781250
941,-50.781250
942,-50.781250
943,-52.734375
944,-52.734375
945,-52.734375
946,-54.687500
947,-54.687500
948,-54.687500
949,-56.640625
950,-56.640625
951,-56.640625
952,-56.640625
953,-58.593750
954,-58.593750
955,-58.593750
956,-58.593750
957,-58.593750
958,-58.593750
959,-60.546875
960,-58.593750
961,-60.546875
962,-60.546875
963,-60.546875
964,-60.546875
965,-60.546875
966,-60.546875
967,-60.546875
968,-60.546875
969,-60.546875
970,-60.546875
971,-60.546875
972,-60.546875
973,-60.546875
974,-58.593750
975,-58.593750
976,-58.593750
977,-58.593750
978,-58.593750
979,-58.593750
980,-58.593750
981,-56.640625
982,-56.640625
983,-56.640625
984,-54.687500
985,-54.687500
986,-54.687500
987,-52.734375
988,-52.734375
989,-52.734375
990,-52.734375
991,-50.781250
992,-50.781250
993,-50.781250
994,-48.828125
995,-48.828125
996,-46.875000
997,-46.875000
998,-46.875000
999,-44.921875
1000,-44.921875
1001,-42.968750
1002,-42.968750
1003,-41.015625
1004,-41.015625
1005,-39.062500
1006,-39.062500
1007,-37.109375
1008,-37.109375
1009,-35.156250
1010,-33.203125
1011,-33.203125
1012,-33.203125
1013,-31.250000
1014,-29.296875
1015,-29.296875
1016,-29.296875
1017,-27.343750
1018,-25.390625
1019,-25.390625
1020,-23.437500
1021,-23.437500
1022,-21.484375
1023,-21.484375
1024,-19.531250
1025,-17.578125
1026,-17.578125
1027,-15.625000
1028,-15.625000
1029,-13.671875
1030,-11.718750
1031,-11.718750
1032,-9.765625
1033,-7.812500
1034,-7.812500
1035,-5.859375
1036,-5.859375
1037,-3.906250
1038,-3.906250
1039,-1.953125
1040,0.000000
1041,1.953125
1042,1.953125
1043,3.906250
1044,3.906250
1045,5.859375
1046,5.859375
1047,7.812500
1048,9.765625
1049,9.765625
1050,11.718750
1051,11.718750
1052,13.671875
1053,15.625000
1054,15.625000
1055,15.625000
1056,17.578125
1057,19.531250
1058,21.484375
1059,21.484375
1060,21.484375
1061,23.437500
1062,23.437500
1063,25.390625
1064,27.343750
1065,27.343750
1066,27.343750
1067,29.296875
1068,29.296875
1069,31.250000
1070,31.250000
1071,33.203125
1072,33.203125
1073,35.156250
1074,35.156250
1075,35.156250
1076,37.109375
1077,37.109375
1078,37.109375
1079,39.062500
1080,39.062500
1081,39.062500
1082,41.015625
1083,41.015625
1084,41.015625
1085,42.968750
1086,42.968750
1087,42.968750
1088,42.968750
1089,42.968750
1090,44.921875
1091,44.921875
1092,44.921875
1093,44.921875
1094,44.921875
1095,46.875000
1096,46.875000
1097,46.875000
1098,48.828125
1099,46.875000
1100,46.875000
1101,46.875000
1102,46.875000
1103,46.875000
1104,48.828125
1105,48.828125
1106,48.828125
1107,48.828125
1108,48.828125
1109,48.828125
1110,48.828125
1111,48.828125
1112,48.828125
1113,48.828125
1114,48.828125
1115,46.875000
1116,48.828125
1117,46.875000
1118,46.875000
1119,46.875000
1120,46.875000
1121,46.875000
1122,46.875000
1123,44.921875
1124,44.921875
1125,44.921875
1126,44.921875
1127,44.921875
1128,44.921875
1129,42.968750
1130,42.968750
1131,42.968750
1132,41.015625
1133,41.015625
1134,41.015625
1135,39.062500
1136,39.062500
1137,39.062500
1138,39.062500
1139,37.109375
1140,37.109375
1141,35.156250
1142,35.156250
1143,33.203125
1144,33.203125
1145,33.203125
1146,31.250000
1147,31.250000
1148,29.296875
1149,29.296875
1150,27.343750
1151,27.343750
1152,25.390625
1153,25.390625
1154,23.437500
1155,23.437500
1156,21.484375
1157,21.484375
1158,19.531250
1159,17.578125
1160,17.578125
1161,17.578125
1162,15.625000
1163,13.671875
1164,13.671875
1165,11.718750
1166,11.718750
1167,9.765625
1168,9.765625
1169,7.812500
1170,5.859375
1171,5.859375
1172,3.906250
1173,1.953125
1174,1.953125
1175,0.000000
1176,0.000000
1177,-1.953125
1178,-3.906250
1179,-3.906250
1180,-5.859375
1181,-5.859375
1182,-7.812500
1183,-7.812500
1184,-9.765625
1185,-11.718750
1186,-11.718750
1187,-13.671875
1188,-15.625000
1189,-15.625000
1190,-17.578125
1191,-17.578125
1192,-19.531250
1193,-19.531250
1194,-21.484375
1195,-23.437500
1196,-23.437500
1197,-25.390625
1198,-25.390625
1199,-27.343750
1200,-29.296875
1201,-29.296875
1202,-31.250000
1203,-31.250000
1204,-33.203125
1205,-33.203125
1206,-35.156250
1207,-35.156250
1208,-37.109375
1209,-39.062500
1210,-39.062500
1211,-39.062500
1212,-41.015625
1213,-42.968750
1214,-42.968750
1215,-44.921875
1216,-44.921875
1217,-44.921875
1218,-46.875000
1219,-46.875000
1220,-48.828125
1221,-46.875000
1222,-48.828125
1223,-50.781250
1224,-50.781250
1225,-52.734375
1226,-52.734375
1227,-52.734375
1228,-52.734375
1229,-54.687500
1230,-54.687500
1231,-54.687500
1232,-54.687500
1233,-56.640625
1234,-56.640625
1235,-56.640625
1236,-56.640625
1237,-58.593750
1238,-58.593750
1239,-58.593750
1240,-58.593750
1241,-58.593750
1242,-58.593750
1243,-58.593750
1244,-60.546875
1245,-60.546875
1246,-60.546875
1247,-58.593750
1248,-60.546875
1249,-58.593750
1250,-58.593750
1251,-60.546875
1252,-60.546875
1253,-58.593750
1254,-60.546875
1255,-58.593750
1256,-58.593750
1257,-58.593750
1258,-58.593750
1259,-58.593750
1260,-58.593750
1261,-58.593750
1262,-58.593750
1263,-56.640625
1264,-56.640625
1265,-56.640625
1266,-56.640625
1267,-56.640625
1268,-54.687500
1269,-54.687500
1270,-54.687500
1271,-54.687500
1272,-52.734375
1273,-52.734375
1274,-52.734375
1275,-50.781250
1276,-50.781250
1277,-50.781250
1278,-48.828125
1279,-48.828125
1280,-48.828125
1281,-46.875000
1282,-46.875000
1283,-44.921875
1284,-44.921875
1285,-42.968750
1286,-42.968750
1287,-41.015625
1288,-41.015625
1289,-39.062500
1290,-39.062500
1291,-37.109375
1292,-37.109375
1293,-35.156250
1294,-35.156250
1295,-33.203125
1296,-33.203125
1297,-31.250000
1298,-31.250000
1299,-29.296875
1300,-27.343750
1301,-27.343750
1302,-25.390625
1303,-25.390625
1304,-23.437500
1305,-23.437500
1306,-21.484375
1307,-19.531250
1308,-19.531250
1309,-19.531250
1310,-17.578125
1311,-15.625000
1312,-13.671875
1313,-13.671875
1314,-11.718750
1315,-11.718750
1316,-9.765625
1317,-7.812500
1318,-7.812500
1319,-5.859375
1320,-3.906250
1321,-3.906250
1322,-1.953125
1323,-1.953125
1324,0.000000
1325,1.953125
1326,1.953125
1327,3.906250
1328,3.906250
1329,5.859375
1330,5.859375
1331,7.812500
1332,9.765625
1333,9.765625
1334,11.718750
1335,11.718750
1336,13.671875
1337,15.625000
1338,15.625000
1339,15.625000
1340,17.578125
1341,19.531250
1342,19.531250
1343,21.484375
1344,21.484375
1345,23.437500
1346,23.437500
1347,25.390625
1348,25.390625
1349,27.343750
1350,27.343750
1351,29.296875
1352,29.296875
1353,29.296875
1354,31.250000
1355,33.203125
1356,33.203125
1357,33.203125
1358,35.156250
1359,35.156250
1360,35.156250
1361,37.109375
1362,37.109375
1363,39.062500
1364,39.062500
1365,39.062500
1366,41.015625
1367,41.015625
1368,41.015625
1369,41.015625
1370,41.015625
1371,42.968750
1372,42.968750
1373,42.968750
1374,44.921875
1375,44.921875
1376,44.921875
1377,44.921875
1378,44.921875
1379,46.875000
1380,46.875000
1381,46.875000
1382,46.875000
1383,46.875000
1384,46.875000
1385,46.875000
1386,46.875000
1387,48.828125
1388,48.828125
1389,48.828125
1390,48.828125
1391,48.828125
1392,48.828125
1393,48.828125
1394,46.875000
1395,48.828125
1396,46.875000
1397,48.828125
1398,48.828125
1399,48.828125
1400,46.875000
1401,46.875000
1402,46.875000
1403,46.875000
1404,44.921875
1405,46.875000
1406,44.921875
1407,44.921875
1408,44.921875
1409,44.921875
1410,44.921875
1411,44.921875
1412,42.968750
1413,42.968750
1414,42.968750
1415,41.015625
1416,41.015625
1417,41.015625
1418,39.062500
1419,39.062500
1420,39.062500
1421,37.109375
1422,37.109375
1423,37.109375
1424,35.156250
1425,35.156250
1426,35.156250
1427,35.156250
1428,33.203125
1429,33.203125
1430,31.250000
1431,31.250000
1432,29.296875
1433,29.296875
1434,27.343750
1435,27.343750
1436,25.390625
1437,25.390625
1438,23.437500
1439,23.437500
1440,21.484375
1441,21.484375
1442,19.531250
1443,19.531250
1444,17.578125
1445,17.578125
1446,15.625000
1447,13.671875
1448,13.671875
1449,11.718750
1450,11.718750
1451,9.765625
1452,9.765625
1453,7.812500
1454,5.859375
1455,5.859375
1456,3.906250
1457,3.906250
1458,1.953125
1459,0.000000
1460,0.000000
1461,-1.953125
1462,-1.953125
1463,-3.906250
1464,-3.906250
1465,-5.859375
1466,-7.812500
1467,-7.812500
1468,-9.765625
1469,-9.765625
1470,-11.718750
1471,-13.671875
1472,-15.625000
1473,-15.625000
1474,-17.578125
1475,-19.531250
1476,-19.531250
1477,-19.531250
1478,-21.484375
1479,-23.437500
1480,-23.437500
1481,-25.390625
1482,-27.343750
1483,-27.343750
1484,-29.296875
1485,-29.296875
1486,-31.250000
1487,-31.250000
1488,-33.203125
1489,-33.203125
1490,-35.156250
1491,-37.109375
1492,-37.109375
1493,-39.062500
1494,-39.062500
1495,-39.062500
1496,-41.015625
1497,-41.015625
1498,-42.968750
1499,-42.968750
1500,-44.921875
1501,-44.921875
1502,-42.968750
1503,-46.875000
1504,-46.875000
1505,-48.828125
1506,-48.828125
1507,-48.828125
1508,-50.781250
1509,-52.734375
1510,-52.734375
1511,-52.734375
1512,-52.734375
1513,-52.734375
1514,-54.687500
1515,-54.687500
1516,-54.687500
1517,-56.640625
1518,-56.640625
1519,-56.640625
1520,-56.640625
1521,-56.640625
1522,-56.640625
1523,-58.593750
1524,-58.593750
1525,-58.593750
1526,-58.593750
1527,-58.593750
1528,-58.593750
1529,-58.593750
1530,-58.593750
1531,-60.546875
1532,-58.593750
1533,-60.546875
1534,-60.546875
1535,-60.546875
1536,-60.546875
1537,-60.546875
1538,-60.546875
1539,-60.546875
1540,-60.546875
1541,-58.593750
1542,-58.593750
1543,-58.593750
1544,-58.593750
1545,-60.546875
1546,-58.593750
1547,-58.593750
1548,-56.640625
1549,-56.640625
1550,-56.640625
1551,-56.640625
1552,-56.640625
1553,-54.687500
1554,-54.687500
1555,-54.687500
1556,-54.687500
1557,-52.734375
1558,-52.734375
1559,-50.781250
1560,-50.781250
1561,-50.781250
1562,-48.828125
1563,-48.828125
1564,-48.828125
1565,-46.875000
1566,-46.875000
1567,-44.921875
1568,-44.921875
1569,-42.968750
1570,-42.968750
1571,-41.015625
1572,-41.015625
1573,-41.015625
1574,-39.062500
1575,-37.109375
1576,-37.109375
1577,-35.156250
1578,-35.156250
1579,-33.203125
1580,-33.203125
1581,-31.250000
1582,-31.250000
1583,-29.296875
1584,-27.343750
1585,-27.343750
1586,-25.390625
1587,-25.390625
1588,-25.390625
1589,-23.437500
1590,-21.484375
1591,-19.531250
1592,-19.531250
1593,-17.578125
1594,-17.578125
1595,-15.625000
1596,-15.625000
1597,-13.671875
1598,-13.671875
1599,-11.718750
1600,-9.765625
1601,-9.765625
1602,-7.812500
1603,-5.859375
1604,-5.859375
1605,-3.906250
1606,-3.906250
1607,-1.953125
1608,0.000000
1609,0.000000
1610,1.953125
1611,3.906250
1612,3.906250
1613,5.859375
1614,5.859375
1615,7.812500
1616,9.765625
1617,9.765625
1618,11.718750
1619,11.718750
1620,13.671875
1621,13.671875
1622,15.625000
1623,17.578125
1624,17.578125
1625,19.531250
1626,19.531250
1627,21.484375
1628,21.484375
1629,23.437500
1630,23.437500
1631,25.390625
1632,25.390625
1633,27.343750
1634,27.343750
1635,29.296875
1636,29.296875
1637,31.250000
1638,31.250000
1639,33.203125
1640,33.203125
1641,33.203125
1642,35.156250
1643,35.156250
1644,35.156250
1645,35.156250
1646,37.109375
1647,39.062500
1648,39.062500
1649,39.062500
1650,41.015625
1651,41.015625
1652,41.015625
1653,42.968750
1654,42.968750
1655,42.968750
1656,42.968750
1657,42.968750
1658,44.921875
1659,44.921875
1660,44.921875
1661,44.921875
1662,44.921875
1663,46.875000
1664,46.875000
1665,46.875000
1666,46.875000
1667,46.875000
1668,46.875000
1669,46.875000
1670,48.828125
1671,48.828125
1672,48.828125
1673,48.828125
1674,48.828125
1675,46.875000
1676,48.828125
1677,46.875000
1678,48.828125
1679,48.828125
1680,46.875000
1681,46.875000
1682,46.875000
1683,48.828125
1684,48.828125
1685,46.875000
1686,46.875000
1687,46.875000
1688,46.875000
1689,46.875000
1690,46.875000
1691,44.921875
1692,44.921875
1693,44.921875
1694,44.921875
1695,44.921875
1696,42.968750
1697,42.968750
1698,42.968750
1699,42.968750
1700,41.015625
1701,41.015625
1702,41.015625
1703,39.062500
1704,39.062500
1705,39.062500
1706,37.109375
1707,37.109375
1708,37.109375
1709,35.156250
1710,35.156250
1711,33.203125
1712,33.203125
1713,33.203125
1714,31.250000
1715,31.250000
1716,29.296875
1717,29.296875
1718,27.343750
1719,27.343750
1720,25.390625
1721,25.390625
1722,25.390625
1723,23.437500
1724,21.484375
1725,21.484375
1726,19.531250
1727,19.531250
1728,17.578125
1729,17.578125
1730,15.625000
1731,15.625000
1732,13.671875
1733,11.718750
1734,11.718750
1735,9.765625
1736,9.765625
1737,7.812500
1738,5.859375
1739,5.859375
1740,3.906250
1741,3.906250
1742,1.953125
1743,0.000000
1744,0.000000
1745,-1.953125
1746,-1.953125
1747,-3.906250
1748,-5.859375
1749,-5.859375
1750,-7.812500
1751,-7.812500
1752,-9.765625
1753,-11.718750
1754,-11.718750
1755,-13.671875
1756,-13.671875
1757,-15.625000
1758,-17.578125
1759,-19.531250
1760,-19.531250
1761,-19.531250
1762,-21.484375
1763,-21.484375
1764,-23.437500
1765,-25.390625
1766,-27.343750
1767,-27.343750
1768,-29.296875
1769,-29.296875
1770,-31.250000
1771,-31.250000
1772,-33.203125
1773,-33.203125
1774,-35.156250
1775,-35.156250
1776,-37.109375
1777,-37.109375
1778,-39.062500
1779,-41.015625
1780,-39.062500
1781,-41.015625
1782,-42.968750
1783,-42.968750
1784,-44.921875
1785,-44.921875
1786,-46.875000
1787,-46.875000
1788,-46.875000
1789,-48.828125
1790,-48.828125
1791,-50.781250
1792,-50.781250
1793,-50.781250
1794,-52.734375
1795,-52.734375
1796,-54.687500
1797,-52.734375
1798,-54.687500
1799,-54.687500
1800,-56.640625
1801,-56.640625
1802,-56.640625
1803,-56.640625
1804,-56.640625
1805,-58.593750
1806,-58.593750
1807,-58.593750
1808,-58.593750
1809,-58.593750
1810,-60.546875
1811,-58.593750
1812,-58.593750
1813,-60.546875
1814,-60.546875
1815,-60.546875
1816,-60.546875
1817,-60.546875
1818,-60.546875
1819,-60.546875
1820,-60.546875
1821,-60.546875
1822,-60.546875
1823,-60.546875
1824,-60.546875
1825,-58.593750
1826,-58.593750
1827,-58.593750
1828,-58.593750
1829,-58.593750
1830,-58.593750
1831,-56.640625
1832,-56.640625
1833,-56.640625
1834,-56.640625
1835,-56.640625
1836,-54.687500
1837,-54.687500
1838,-54.687500
1839,-54.687500
1840,-52.734375
1841,-52.734375
1842,-50.781250
1843,-50.781250
1844,-50.781250
1845,-50.781250
1846,-48.828125
1847,-48.828125
1848,-46.875000
1849,-44.921875
1850,-46.875000
1851,-44.921875
1852,-44.921875
1853,-42.968750
1854,-42.968750
1855,-42.968750
1856,-41.015625
1857,-41.015625
1858,-39.062500
1859,-37.109375
1860,-37.109375
1861,-37.109375
1862,-35.156250
1863,-33.203125
1864,-33.203125
1865,-33.203125
1866,-31.250000
1867,-29.296875
1868,-29.296875
1869,-27.343750
1870,-27.343750
1871,-25.390625
1872,-25.390625
1873,-23.437500
1874,-21.484375
1875,-21.484375
1876,-19.531250
1877,-19.531250
1878,-17.578125
1879,-15.625000
1880,-15.625000
1881,-13.671875
1882,-11.718750
1883,-11.718750
1884,-9.765625
1885,-7.812500
1886,-7.812500
1887,-5.859375
1888,-3.906250
1889,-3.906250
1890,-3.906250
1891,-1.953125
1892,0.000000
1893,0.000000
1894,1.953125
1895,3.906250
1896,3.906250
1897,5.859375
1898,5.859375
1899,5.859375
1900,9.765625
1901,9.765625
1902,11.718750
1903,11.718750
1904,13.671875
1905,13.671875
1906,15.625000
1907,15.625000
1908,17.578125
1909,19.531250
1910,19.531250
1911,21.484375
1912,21.484375
1913,23.437500
1914,23.437500
1915,25.390625
1916,25.390625
1917,27.343750
1918,27.343750
1919,29.296875
1920,29.296875
1921,29.296875
1922,31.250000
1923,31.250000
1924,33.203125
1925,33.203125
1926,35.156250
1927,35.156250
1928,35.156250
1929,37.109375
1930,37.109375
1931,37.109375
1932,39.062500
1933,39.062500
1934,39.062500
1935,41.015625
1936,41.015625
1937,41.015625
1938,42.968750
1939,42.968750
1940,42.968750
1941,42.968750
1942,44.921875
1943,44.921875
1944,44.921875
1945,44.921875
1946,44.921875
1947,46.875000
1948,46.875000
1949,44.921875
1950,46.875000
1951,46.875000
1952,46.875000
1953,46.875000
1954,48.828125
1955,48.828125
1956,48.828125
1957,48.828125
1958,46.875000
1959,48.828125
1960,48.828125
1961,48.828125
1962,48.828125
1963,48.828125
1964,48.828125
1965,48.828125
1966,48.828125
1967,46.875000
1968,46.875000
1969,46.875000
1970,46.875000
1971,46.875000
1972,46.875000
1973,46.875000
1974,44.921875
1975,44.921875
1976,44.921875
1977,44.921875
1978,44.921875
1979,44.921875
1980,42.968750
1981,42.968750
1982,42.968750
1983,41.015625
1984,41.015625
1985,41.015625
1986,41.015625
1987,39.062500
1988,39.062500
1989,39.062500
1990,37.109375
1991,37.109375
1992,35.156250
1993,35.156250
1994,35.156250
1995,33.203125
1996,33.203125
1997,31.250000
1998,31.250000
1999,31.250000
2000,29.296875
2001,29.296875
2002,27.343750
2003,25.390625
2004,25.390625
2005,25.390625
2006,23.437500
2007,23.437500
2008,21.484375
2009,21.484375
2010,19.531250
2011,19.531250
2012,17.578125
2013,17.578125
2014,15.625000
2015,13.671875
2016,13.671875
2017,11.718750
2018,11.718750
2019,9.765625
2020,9.765625
2021,7.812500
2022,7.812500
2023,5.859375
2024,5.859375
2025,3.906250
2026,1.953125
2027,1.953125
2028,0.000000
2029,-1.953125
2030,-1.953125
2031,-3.906250
2032,-5.859375
2033,-5.859375
2034,-5.859375
2035,-7.812500
2036,-9.765625
2037,-11.718750
2038,-11.718750
2039,-13.671875
2040,-13.671875
2041,-15.625000
2042,-17.578125
2043,-17.578125
2044,-19.531250
2045,-21.484375
2046,-21.484375
2047,-21.484375
2048,-23.437500
2049,-25.390625
2050,-25.390625
2051,-27.343750
2052,-29.296875
2053,-29.296875
2054,-31.250000
2055,-31.250000
2056,-33.203125
2057,-35.156250
2058,-35.156250
2059,-37.109375
2060,-39.062500
2061,-37.109375
2062,-39.062500
2063,-41.015625
2064,-41.015625
2065,-42.968750
2066,-42.968750
2067,-42.968750
2068,-44.921875
2069,-44.921875
2070,-46.875000
2071,-46.875000
2072,-46.875000
2073,-48.828125
2074,-48.828125
2075,-50.781250
2076,-50.781250
2077,-50.781250
2078,-52.734375
2079,-52.734375
2080,-52.734375
2081,-52.734375
2082,-52.734375
2083,-54.687500
2084,-54.687500
2085,-56.640625
2086,-56.640625
2087,-56.640625
2088,-56.640625
2089,-58.593750
2090,-56.640625
2091,-58.593750
2092,-58.593750
2093,-58.593750
2094,-58.593750
2095,-58.593750
2096,-58.593750
2097,-58.593750
2098,-60.546875
2099,-58.593750
2100,-58.593750
2101,-60.546875
2102,-60.546875
2103,-60.546875
2104,-60.546875
2105,-58.593750
2106,-58.593750
2107,-58.593750
2108,-58.593750
2109,-58.593750
2110,-58.593750
2111,-58.593750
2112,-58.593750
2113,-58.593750
2114,-58.593750
2115,-58.593750
2116,-56.640625
2117,-56.640625
2118,-56.640625
2119,-56.640625
2120,-54.687500
2121,-56.640625
2122,-54.687500
2123,-54.687500
2124,-52.734375
2125,-52.734375
2126,-52.734375
2127,-52.734375
2128,-50.781250
2129,-50.781250
2130,-48.828125
2131,-48.828125
2132,-48.828125
2133,-46.875000
2134,-46.875000
2135,-44.921875
2136,-44.921875
2137,-44.921875
2138,-42.968750
2139,-41.015625
2140,-41.015625
2141,-41.015625
2142,-39.062500
2143,-39.062500
2144,-37.109375
2145,-37.109375
2146,-35.156250
2147,-35.156250
2148,-33.203125
2149,-33.203125
2150,-29.296875
2151,-29.296875
2152,-29.296875
2153,-27.343750
2154,-25.390625
2155,-25.390625
2156,-23.437500
2157,-23.437500
2158,-21.484375
2159,-21.484375
2160,-19.531250
2161,-17.578125
2162,-17.578125
2163,-15.625000
2164,-15.625000
2165,-13.671875
2166,-11.718750
2167,-11.718750
2168,-9.765625
2169,-9.765625
2170,-7.812500
2171,-5.859375
2172,-5.859375
2173,-3.906250
2174,-1.953125
2175,-1.953125
2176,0.000000
2177,0.000000
2178,1.953125
2179,1.953125
2180,3.906250
2181,5.859375
2182,5.859375
2183,7.812500
2184,7.812500
2185,9.765625
2186,9.765625
2187,11.718750
2188,13.671875
2189,13.671875
2190,13.671875
2191,17.578125
2192,19.531250
2193,17.578125
2194,19.531250
2195,19.531250
2196,21.484375
2197,23.437500
2198,23.437500
2199,25.390625
2200,25.390625
2201,27.343750
2202,27.343750
2203,29.296875
2204,29.296875
2205,31.250000
2206,31.250000
2207,31.250000
2208,33.203125
2209,33.203125
2210,35.156250
2211,35.156250
2212,35.156250
2213,37.109375
2214,37.109375
2215,39.062500
2216,39.062500
2217,39.062500
2218,41.015625
2219,41.015625
2220,41.015625
2221,42.968750
2222,42.968750
2223,42.968750
2224,42.968750
2225,42.968750
2226,44.921875
2227,46.875000
2228,44.921875
2229,46.875000
2230,44.921875
2231,46.875000
2232,46.875000
2233,46.875000
2234,46.875000
2235,46.875000
2236,46.875000
2237,48.828125
2238,48.828125
2239,48.828125
2240,46.875000
2241,48.828125
2242,48.828125
2243,48.828125
2244,48.828125
2245,48.828125
2246,48.828125
2247,48.828125
2248,48.828125
2249,48.828125
2250,46.875000
2251,48.828125
2252,46.875000
2253,46.875000
2254,46.875000
2255,46.875000
2256,46.875000
2257,46.875000
2258,44.921875
2259,44.921875
2260,44.921875
2261,44.921875
2262,44.921875
2263,44.921875
2264,42.968750
2265,42.968750
2266,42.968750
2267,41.015625
2268,42.968750
2269,41.015625
2270,41.015625
2271,39.062500
2272,39.062500
2273,39.062500
2274,37.109375
2275,37.109375
2276,35.156250
2277,35.156250
2278,35.156250
2279,35.156250
2280,33.203125
2281,33.203125
2282,31.250000
2283,31.250000
2284,31.250000
2285,29.296875
2286,29.296875
2287,27.343750
2288,25.390625
2289,25.390625
2290,25.390625
2291,25.390625
2292,23.437500
2293,21.484375
2294,19.531250
2295,19.531250
2296,19.531250
2297,17.578125
2298,15.625000
2299,15.625000
2300,13.671875
2301,11.718750
2302,11.718750
2303,9.765625
2304,9.765625
2305,7.812500
2306,7.812500
2307,5.859375
2308,1.953125
2309,3.906250
2310,1.953125
2311,1.953125
2312,0.000000
2313,0.000000
2314,-1.953125
2315,-3.906250
2316,-5.859375
2317,-5.859375
2318,-7.812500
2319,-9.765625
2320,-9.765625
2321,-11.718750
2322,-11.718750
2323,-13.671875
2324,-13.671875
2325,-15.625000
2326,-17.578125
2327,-17.578125
2328,-19.531250
2329,-21.484375
2330,-21.484375
2331,-23.437500
2332,-23.437500
2333,-25.390625
2334,-25.390625
2335,-27.343750
2336,-29.296875
2337,-29.296875
2338,-31.250000
2339,-31.250000
2340,-33.203125
2341,-33.203125
2342,-35.156250
2343,-35.156250
2344,-37.109375
2345,-37.109375
2346,-39.062500
2347,-39.062500
2348,-41.015625
2349,-42.968750
2350,-42.968750
2351,-42.968750
2352,-44.921875
2353,-44.921875
2354,-46.875000
2355,-46.875000
2356,-46.875000
2357,-48.828125
2358,-48.828125
2359,-48.828125
2360,-50.781250
2361,-50.781250
2362,-50.781250
2363,-52.734375
2364,-52.734375
2365,-52.734375
2366,-54.687500
2367,-54.687500
2368,-54.687500
2369,-54.687500
2370,-54.687500
2371,-56.640625
2372,-56.640625
2373,-58.593750
2374,-58.593750
2375,-58.593750
2376,-58.593750
2377,-58.593750
2378,-60.546875
2379,-60.546875
2380,-60.546875
2381,-58.593750
2382,-60.546875
2383,-60.546875
2384,-60.546875
2385,-60.546875
2386,-58.593750
2387,-60.546875
2388,-60.546875
2389,-60.546875
2390,-60.546875
2391,-60.546875
2392,-60.546875
2393,-60.546875
2394,-58.593750
2395,-58.593750
2396,-58.593750
2397,-58.593750
2398,-58.593750
2399,-58.593750
2400,-58.593750
2401,-56.640625
2402,-56.640625
2403,-56.640625
2404,-54.687500
2405,-54.687500
2406,-54.687500
2407,-54.687500
2408,-52.734375
2409,-52.734375
2410,-52.734375
2411,-50.781250
2412,-50.781250
2413,-50.781250
2414,-48.828125
2415,-48.828125
2416,-48.828125
2417,-46.875000
2418,-46.875000
2419,-44.921875
2420,-44.921875
2421,-42.968750
2422,-42.968750
2423,-42.968750
2424,-41.015625
2425,-39.062500
2426,-39.062500
2427,-39.062500
2428,-39.062500
2429,-35.156250
2430,-35.156250
2431,-35.156250
2432,-33.203125
2433,-33.203125
2434,-31.250000
2435,-31.250000
2436,-29.296875
2437,-27.343750
2438,-27.343750
2439,-25.390625
2440,-25.390625
2441,-23.437500
2442,-23.437500
2443,-21.484375
2444,-21.484375
2445,-19.531250
2446,-17.578125
2447,-15.625000
2448,-15.625000
2449,-13.671875
2450,-11.718750
2451,-11.718750
2452,-9.765625
2453,-9.765625
2454,-7.812500
2455,-5.859375
2456,-5.859375
2457,-3.906250
2458,-3.906250
2459,-1.953125
2460,-1.953125
2461,0.000000
2462,1.953125
2463,3.906250
2464,3.906250
2465,5.859375
2466,5.859375
2467,7.812500
2468,7.812500
2469,9.765625
2470,11.718750
2471,11.718750
2472,13.671875
2473,13.671875
2474,15.625000
2475,15.625000
2476,17.578125
2477,19.531250
2478,19.531250
2479,21.484375
2480,21.484375
2481,21.484375
2482,25.390625
2483,25.390625
2484,25.390625
2485,25.390625
2486,27.343750
2487,27.343750
2488,29.296875
2489,29.296875
2490,31.250000
2491,31.250000
2492,33.203125
2493,33.203125
2494,35.156250
2495,35.156250
2496,35.156250
2497,37.109375
2498,37.109375
2499,37.109375
2500,39.062500
2501,39.062500
2502,39.062500
2503,41.015625
2504,39.062500
2505,41.015625
2506,42.968750
2507,42.968750
2508,42.968750
2509,42.968750
2510,44.921875
2511,44.921875
2512,44.921875
2513,44.921875
2514,44.921875
2515,46.875000
2516,46.875000
2517,46.875000
2518,46.875000
2519,46.875000
2520,46.875000
2521,48.828125
2522,48.828125
2523,48.828125
2524,46.875000
2525,48.828125
2526,48.828125
2527,48.828125
2528,48.828125
2529,48.828125
2530,48.828125
2531,48.828125
2532,48.828125
2533,46.875000
2534,46.875000
2535,46.875000
2536,46.875000
2537,46.875000
2538,46.875000
2539,46.875000
2540,46.875000
2541,46.875000
2542,46.875000
2543,46.875000
2544,44.921875
2545,44.921875
2546,44.921875
2547,44.921875
2548,42.968750
2549,42.968750
2550,42.968750
2551,42.968750
2552,42.968750
2553,41.015625
2554,39.062500
2555,39.062500
2556,39.062500
2557,39.062500
2558,37.109375
2559,37.109375
2560,37.109375
2561,35.156250
2562,35.156250
2563,33.203125
2564,33.203125
2565,33.203125
2566,31.250000
2567,31.250000
2568,31.250000
2569,29.296875
2570,27.343750
2571,27.343750
2572,27.343750
2573,25.390625
2574,25.390625
2575,23.437500
2576,21.484375
2577,21.484375
2578,19.531250
2579,19.531250
2580,17.578125
2581,17.578125
2582,15.625000
2583,15.625000
2584,13.671875
2585,11.718750
2586,11.718750
2587,9.765625
2588,9.765625
2589,7.812500
2590,7.812500
2591,5.859375
2592,3.906250
2593,3.906250
2594,1.953125
2595,1.953125
2596,0.000000
2597,0.000000
2598,-1.953125
2599,-3.906250
2600,-3.906250
2601,-5.859375
2602,-5.859375
2603,-7.812500
2604,-7.812500
2605,-11.718750
2606,-11.718750
2607,-13.671875
2608,-13.671875
2609,-15.625000
2610,-17.578125
2611,-17.578125
2612,-17.578125
2613,-19.531250
2614,-21.484375
2615,-23.437500
2616,-23.437500
2617,-23.437500
2618,-25.390625
2619,-27.343750
2620,-27.343750
2621,-29.296875
2622,-31.250000
2623,-31.250000
2624,-33.203125
2625,-33.203125
2626,-35.156250
2627,-35.156250
2628,-37.109375
2629,-39.062500
2630,-39.062500
2631,-39.062500
2632,-41.015625
2633,-41.015625
2634,-42.968750
2635,-42.968750
2636,-44.921875
2637,-44.921875
2638,-46.875000
2639,-44.921875
2640,-46.875000
2641,-48.828125
2642,-48.828125
2643,-48.828125
2644,-50.781250
2645,-50.781250
2646,-50.781250
2647,-52.734375
2648,-52.734375
2649,-54.687500
2650,-54.687500
2651,-54.687500
2652,-54.687500
2653,-54.687500
2654,-58.593750
2655,-56.640625
2656,-56.640625
2657,-58.593750
2658,-56.640625
2659,-58.593750
2660,-58.593750
2661,-54.687500
2662,-58.593750
2663,-58.593750
2664,-58.593750
2665,-58.593750
2666,-58.593750
2667,-60.546875
2668,-60.546875
2669,-60.546875
2670,-60.546875
2671,-60.546875
2672,-60.546875
2673,-60.546875
2674,-58.593750
2675,-58.593750
2676,-58.593750
2677,-58.593750
2678,-58.593750
2679,-58.593750
2680,-58.593750
2681,-58.593750
2682,-58.593750
2683,-56.640625
2684,-56.640625
2685,-56.640625
2686,-56.640625
2687,-54.687500
2688,-54.687500
2689,-54.687500
2690,-54.687500
2691,-54.687500
2692,-52.734375
2693,-52.734375
2694,-52.734375
2695,-52.734375
2696,-50.781250
2697,-50.781250
2698,-50.781250
2699,-48.828125
2700,-48.828125
2701,-46.875000
2702,-46.875000
2703,-46.875000
2704,-44.921875
2705,-44.921875
2706,-41.015625
2707,-42.968750
2708,-42.968750
2709,-41.015625
2710,-39.062500
2711,-39.062500
2712,-37.109375
2713,-37.109375
2714,-35.156250
2715,-35.156250
2716,-33.203125
2717,-33.203125
2718,-31.250000
2719,-29.296875
2720,-29.296875
2721,-29.296875
2722,-27.343750
2723,-25.390625
2724,-25.390625
2725,-23.437500
2726,-21.484375
2727,-21.484375
2728,-19.531250
2729,-19.531250
2730,-17.578125
2731,-17.578125
2732,-15.625000
2733,-13.671875
2734,-13.671875
2735,-11.718750
2736,-9.765625
2737,-9.765625
2738,-7.812500
2739,-5.859375
2740,-5.859375
2741,-3.906250
2742,-1.953125
2743,-1.953125
2744,0.000000
2745,0.000000
2746,1.953125
2747,3.906250
2748,3.906250
2749,3.906250
2750,5.859375
2751,7.812500
2752,7.812500
2753,9.765625
2754,9.765625
2755,11.718750
2756,13.671875
2757,13.671875
2758,15.625000
2759,15.625000
2760,17.578125
2761,19.531250
2762,19.531250
2763,19.531250
2764,21.484375
2765,23.437500
2766,23.437500
2767,23.437500
2768,25.390625
2769,27.343750
2770,27.343750
2771,27.343750
2772,29.296875
2773,29.296875
2774,31.250000
2775,31.250000
2776,31.250000
2777,33.203125
2778,35.156250
2779,35.156250
2780,35.156250
2781,37.109375
2782,37.109375
2783,37.109375
2784,39.062500
2785,39.062500
2786,39.062500
2787,39.062500
2788,42.968750
2789,41.015625
2790,42.968750
2791,42.968750
2792,42.968750
2793,44.921875
2794,44.921875
2795,44.921875
2796,44.921875
2797,44.921875
2798,46.875000
2799,46.875000
2800,46.875000
2801,46.875000
2802,46.875000
2803,46.875000
2804,46.875000
2805,48.828125
2806,48.828125
2807,48.828125
2808,48.828125
2809,48.828125
2810,48.828125
2811,48.828125
2812,48.828125
2813,48.828125
2814,48.828125
2815,48.828125
2816,48.828125
2817,48.828125
2818,48.828125
2819,46.875000
2820,46.875000
2821,46.875000
2822,46.875000
2823,46.875000
2824,46.875000
2825,46.875000
2826,44.921875
2827,44.921875
2828,44.921875
2829,44.921875
2830,44.921875
2831,42.968750
2832,44.921875
2833,42.968750
2834,42.968750
2835,42.968750
2836,41.015625
2837,41.015625
2838,41.015625
2839,39.062500
2840,39.062500
2841,39.062500
2842,39.062500
2843,37.109375
2844,37.109375
2845,35.156250
2846,35.156250
2847,35.156250
2848,33.203125
2849,33.203125
2850,31.250000
2851,31.250000
2852,31.250000
2853,29.296875
2854,27.343750
2855,27.343750
2856,25.390625
2857,29.296875
2858,25.390625
2859,23.437500
2860,23.437500
2861,21.484375
2862,21.484375
2863,19.531250
2864,17.578125
2865,17.578125
2866,15.625000
2867,15.625000
2868,13.671875
2869,13.671875
2870,11.718750
2871,11.718750
2872,9.765625
2873,9.765625
2874,7.812500
2875,5.859375
2876,5.859375
2877,3.906250
2878,1.953125
2879,1.953125
2880,0.000000
2881,-1.953125
2882,-1.953125
2883,-1.953125
2884,-3.906250
2885,-5.859375
2886,-5.859375
2887,-7.812500
2888,-9.765625
2889,-11.718750
2890,-11.718750
2891,-13.671875
2892,-15.625000
2893,-15.625000
2894,-15.625000
2895,-17.578125
2896,-17.578125
2897,-19.531250
2898,-21.484375
2899,-23.437500
2900,-23.437500
2901,-25.390625
2902,-25.390625
2903,-27.343750
2904,-29.296875
2905,-29.296875
2906,-29.296875
2907,-35.156250
2908,-31.250000
2909,-33.203125
2910,-35.156250
2911,-35.156250
2912,-37.109375
2913,-37.109375
2914,-39.062500
2915,-39.062500
2916,-41.015625
2917,-41.015625
2918,-42.968750
2919,-42.968750
2920,-44.921875
2921,-44.921875
2922,-44.921875
2923,-46.875000
2924,-46.875000
2925,-46.875000
2926,-48.828125
2927,-50.781250
2928,-50.781250
2929,-50.781250
2930,-50.781250
2931,-52.734375
2932,-52.734375
2933,-54.687500
2934,-54.687500
2935,-54.687500
2936,-56.640625
2937,-56.640625
2938,-56.640625
2939,-56.640625
2940,-56.640625
2941,-58.593750
2942,-58.593750
2943,-58.593750
2944,-58.593750
2945,-58.593750
2946,-58.593750
2947,-58.593750
2948,-58.593750
2949,-58.593750
2950,-60.546875
2951,-60.546875
2952,-60.546875
2953,-60.546875
2954,-60.546875
2955,-60.546875
2956,-60.546875
2957,-60.546875
2958,-60.546875
2959,-60.546875
2960,-60.546875
2961,-60.546875
2962,-60.546875
2963,-58.593750
2964,-58.593750
2965,-58.593750
2966,-58.593750
2967,-58.593750
2968,-58.593750
2969,-56.640625
2970,-56.640625
2971,-56.640625
2972,-56.640625
2973,-54.687500
2974,-54.687500
2975,-54.687500
2976,-54.687500
2977,-52.734375
2978,-52.734375
2979,-52.734375
2980,-50.781250
2981,-50.781250
2982,-48.828125
2983,-48.828125
2984,-48.828125
2985,-46.875000
2986,-46.875000
2987,-44.921875
2988,-44.921875
2989,-44.921875
2990,-42.968750
2991,-41.015625
2992,-41.015625
2993,-41.015625
2994,-39.062500
2995,-39.062500
2996,-37.109375
2997,-35.156250
2998,-35.156250
2999,-33.203125
3000,-33.203125
3001,-31.250000
3002,-31.250000
3003,-31.250000
3004,-29.296875
3005,-27.343750
3006,-27.343750
3007,-25.390625
3008,-23.437500
3009,-25.390625
3010,-23.437500
3011,-21.484375
3012,-19.531250
3013,-19.531250
3014,-19.531250
3015,-15.625000
3016,-15.625000
3017,-13.671875
3018,-11.718750
3019,-11.718750
3020,-9.765625
3021,-9.765625
3022,-7.812500
3023,-7.812500
3024,-5.859375
3025,-3.906250
3026,-3.906250
3027,-1.953125
3028,-1.953125
3029,0.000000
3030,1.953125
3031,1.953125
3032,3.906250
3033,3.906250
3034,5.859375
3035,5.859375
3036,7.812500
3037,9.765625
3038,9.765625
3039,11.718750
3040,11.718750
3041,13.671875
3042,15.625000
3043,15.625000
3044,17.578125
3045,19.531250
3046,19.531250
3047,19.531250
3048,21.484375
3049,21.484375
3050,23.437500
3051,25.390625
3052,25.390625
3053,29.296875
3054,27.343750
3055,27.343750
3056,29.296875
3057,31.250000
3058,31.250000
3059,31.250000
3060,33.203125
3061,33.203125
3062,35.156250
3063,35.156250
3064,35.156250
3065,37.109375
3066,37.109375
3067,37.109375
3068,39.062500
3069,39.062500
3070,39.062500
3071,41.015625
3072,41.015625
3073,41.015625
3074,42.968750
3075,41.015625
3076,44.921875
3077,42.968750
3078,42.968750
3079,44.921875
3080,44.921875
3081,44.921875
3082,44.921875
3083,46.875000
3084,46.875000
3085,46.875000
3086,46.875000
3087,46.875000
3088,46.875000
3089,46.875000
3090,46.875000
3091,46.875000
3092,46.875000
3093,46.875000
3094,48.828125
3095,46.875000
3096,48.828125
3097,48.828125
3098,48.828125
3099,48.828125
3100,46.875000
3101,46.875000
3102,46.875000
3103,46.875000
3104,46.875000
3105,46.875000
3106,46.875000
3107,46.875000
3108,46.875000
3109,46.875000
3110,44.921875
3111,46.875000
3112,44.921875
3113,44.921875
3114,44.921875
3115,44.921875
3116,44.921875
3117,42.968750
3118,42.968750
3119,42.968750
3120,42.968750
3121,41.015625
3122,41.015625
3123,39.062500
3124,39.062500
3125,41.015625
3126,39.062500
3127,37.109375
3128,37.109375
3129,37.109375
3130,35.156250
3131,35.156250
3132,33.203125
3133,33.203125
3134,33.203125
3135,31.250000
3136,29.296875
3137,29.296875
3138,29.296875
3139,27.343750
3140,27.343750
3141,25.390625
3142,25.390625
3143,23.437500
3144,23.437500
3145,21.484375
3146,19.531250
3147,19.531250
3148,17.578125
3149,17.578125
3150,15.625000
3151,15.625000
3152,13.671875
3153,13.671875
3154,11.718750
3155,9.765625
3156,9.765625
3157,7.812500
3158,7.812500
3159,5.859375
3160,5.859375
3161,3.906250
3162,1.953125
3163,0.000000
3164,0.000000
3165,-1.953125
3166,-1.953125
3167,-3.906250
3168,-3.906250
3169,-5.859375
3170,-5.859375
3171,-7.812500
3172,-9.765625
3173,-11.718750
3174,-13.671875
3175,-13.671875
3176,-13.671875
3177,-15.625000
3178,-15.625000
3179,-17.578125
3180,-19.531250
3181,-19.531250
3182,-21.484375
3183,-21.484375
3184,-23.437500
3185,-25.390625
3186,-25.390625
3187,-25.390625
3188,-27.343750
3189,-29.296875
3190,-29.296875
3191,-31.250000
3192,-33.203125
3193,-33.203125
3194,-35.156250
3195,-35.156250
3196,-35.156250
3197,-37.109375
3198,-37.109375
3199,-39.062500
3200,-39.062500
3201,-41.015625
3202,-41.015625
3203,-42.968750
3204,-44.921875
3205,-44.921875
3206,-46.875000
3207,-46.875000
3208,-46.875000
3209,-48.828125
3210,-50.781250
3211,-50.781250
3212,-50.781250
3213,-50.781250
3214,-50.781250
3215,-52.734375
3216,-52.734375
3217,-54.687500
3218,-54.687500
3219,-54.687500
3220,-56.640625
3221,-56.640625
3222,-56.640625
3223,-56.640625
3224,-56.640625
3225,-58.593750
3226,-56.640625
3227,-58.593750
3228,-58.593750
3229,-58.593750
3230,-58.593750
3231,-58.593750
3232,-58.593750
3233,-62.500000
3234,-58.593750
3235,-60.546875
3236,-60.546875
3237,-60.546875
3238,-60.546875
3239,-60.546875
3240,-60.546875
3241,-60.546875
3242,-58.593750
3243,-60.546875
3244,-62.500000
3245,-58.593750
3246,-58.593750
3247,-58.593750
3248,-58.593750
3249,-58.593750
3250,-58.593750
3251,-58.593750
3252,-58.593750
3253,-56.640625
3254,-56.640625
3255,-56.640625
3256,-54.687500
3257,-56.640625
3258,-54.687500
3259,-54.687500
3260,-52.734375
3261,-52.734375
3262,-52.734375
3263,-50.781250
3264,-50.781250
3265,-50.781250
3266,-48.828125
3267,-48.828125
3268,-48.828125
3269,-46.875000
3270,-46.875000
3271,-46.875000
3272,-44.921875
3273,-44.921875
3274,-42.968750
3275,-42.968750
3276,-41.015625
3277,-41.015625
3278,-39.062500
3279,-39.062500
3280,-37.109375
3281,-37.109375
3282,-35.156250
3283,-35.156250
3284,-33.203125
3285,-33.203125
3286,-31.250000
3287,-31.250000
3288,-29.296875
3289,-29.296875
3290,-27.343750
3291,-27.343750
3292,-25.390625
3293,-23.437500
3294,-21.484375
3295,-21.484375
3296,-19.531250
3297,-19.531250
3298,-17.578125
3299,-17.578125
3300,-15.625000
3301,-13.671875
3302,-13.671875
3303,-11.718750
3304,-11.718750
3305,-9.765625
3306,-7.812500
3307,-5.859375
3308,-5.859375
3309,-3.906250
3310,-3.906250
3311,-1.953125
3312,-1.953125
3313,0.000000
3314,1.953125
3315,1.953125
3316,3.906250
3317,5.859375
3318,5.859375
3319,7.812500
3320,7.812500
3321,9.765625
3322,9.765625
3323,11.718750
3324,13.671875
3325,13.671875
3326,15.625000
3327,15.625000
3328,17.578125
3329,17.578125
3330,19.531250
3331,19.531250
3332,21.484375
3333,21.484375
3334,23.437500
3335,23.437500
3336,25.390625
3337,27.343750
3338,27.343750
3339,29.296875
3340,29.296875
3341,29.296875
3342,29.296875
3343,31.250000
3344,33.203125
3345,33.203125
3346,33.203125
3347,35.156250
3348,35.156250
3349,37.109375
3350,37.109375
3351,37.109375
3352,37.109375
3353,39.062500
3354,41.015625
3355,41.015625
3356,41.015625
3357,41.015625
3358,42.968750
3359,42.968750
3360,42.968750
3361,42.968750
3362,42.968750
3363,42.968750
3364,44.921875
3365,44.921875
3366,44.921875
3367,44.921875
3368,44.921875
3369,46.875000
3370,46.875000
3371,46.875000
3372,46.875000
3373,46.875000
3374,48.828125
3375,48.828125
3376,46.875000
3377,48.828125
3378,48.828125
3379,46.875000
3380,48.828125
3381,48.828125
3382,48.828125
3383,48.828125
3384,48.828125
3385,48.828125
3386,48.828125
3387,48.828125
3388,46.875000
3389,46.875000
3390,46.875000
3391,46.875000
3392,46.875000
3393,46.875000
3394,44.921875
3395,44.921875
3396,44.921875
3397,44.921875
3398,44.921875
3399,44.921875
3400,44.921875
3401,42.968750
3402,42.968750
3403,42.968750
3404,41.015625
3405,41.015625
3406,41.015625
3407,39.062500
3408,39.062500
3409,39.062500
3410,39.062500
3411,37.109375
3412,37.109375
3413,35.156250
3414,35.156250
3415,35.156250
3416,33.203125
3417,33.203125
3418,31.250000
3419,31.250000
3420,29.296875
3421,29.296875
3422,29.296875
3423,27.343750
3424,27.343750
3425,25.390625
3426,25.390625
3427,23.437500
3428,21.484375
3429,21.484375
3430,21.484375
3431,19.531250
3432,17.578125
3433,17.578125
3434,15.625000
3435,15.625000
3436,13.671875
3437,13.671875
3438,11.718750
3439,11.718750
3440,9.765625
3441,7.812500
3442,7.812500
3443,5.859375
3444,5.859375
3445,3.906250
3446,1.953125
3447,1.953125
3448,0.000000
3449,0.000000
3450,-1.953125
3451,-1.953125
3452,-5.859375
3453,-5.859375
3454,-5.859375
3455,-7.812500
3456,-9.765625
3457,-9.765625
3458,-11.718750
3459,-11.718750
3460,-13.671875
3461,-15.625000
3462,-15.625000
3463,-17.578125
3464,-19.531250
3465,-19.531250
3466,-21.484375
3467,-23.437500
3468,-23.437500
3469,-25.390625
3470,-25.390625
3471,-27.343750
3472,-29.296875
3473,-29.296875
3474,-29.296875
3475,-31.250000
3476,-31.250000
3477,-33.203125
3478,-35.156250
3479,-35.156250
3480,-37.109375
3481,-37.109375
3482,-39.062500
3483,-39.062500
3484,-41.015625
3485,-41.015625
3486,-42.968750
3487,-42.968750
3488,-42.968750
3489,-44.921875
3490,-46.875000
3491,-46.875000
3492,-46.875000
3493,-48.828125
3494,-48.828125
3495,-48.828125
3496,-50.781250
3497,-50.781250
3498,-52.734375
3499,-52.734375
3500,-52.734375
3501,-54.687500
3502,-52.734375
3503,-54.687500
3504,-54.687500
3505,-54.687500
3506,-56.640625
3507,-56.640625
3508,-56.640625
3509,-58.593750
3510,-58.593750
3511,-58.593750
3512,-58.593750
3513,-58.593750
3514,-58.593750
3515,-58.593750
3516,-58.593750
3517,-60.546875
3518,-60.546875
3519,-60.546875
3520,-60.546875
3521,-60.546875
3522,-60.546875
3523,-60.546875
3524,-60.546875
3525,-60.546875
3526,-60.546875
3527,-58.593750
3528,-58.593750
3529,-58.593750
3530,-58.593750
3531,-58.593750
3532,-58.593750
3533,-58.593750
3534,-58.593750
3535,-58.593750
3536,-58.593750
3537,-56.640625
3538,-56.640625
3539,-56.640625
3540,-56.640625
3541,-56.640625
3542,-54.687500
3543,-54.687500
3544,-54.687500
3545,-52.734375
3546,-52.734375
3547,-52.734375
3548,-50.781250
3549,-50.781250
3550,-50.781250
3551,-48.828125
3552,-48.828125
3553,-46.875000
3554,-46.875000
3555,-46.875000
3556,-44.921875
3557,-44.921875
3558,-42.968750
3559,-42.968750
3560,-42.968750
3561,-41.015625
3562,-39.062500
3563,-39.062500
3564,-37.109375
3565,-37.109375
3566,-35.156250
3567,-35.156250
3568,-33.203125
3569,-33.203125
3570,-31.250000
3571,-29.296875
3572,-29.296875
3573,-27.343750
3574,-27.343750
3575,-25.390625
3576,-25.390625
3577,-23.437500
3578,-21.484375
3579,-21.484375
3580,-19.531250
3581,-17.578125
3582,-17.578125
3583,-17.578125
3584,-15.625000
3585,-13.671875
3586,-13.671875
3587,-11.718750
3588,-9.765625
3589,-9.765625
3590,-7.812500
3591,-7.812500
3592,-5.859375
3593,-5.859375
3594,-3.906250
3595,-1.953125
3596,-1.953125
3597,0.000000
3598,0.000000
3599,1.953125
3600,3.906250
3601,3.906250
3602,5.859375
3603,7.812500
3604,7.812500
3605,9.765625
3606,11.718750
3607,11.718750
3608,11.718750
3609,13.671875
3610,13.671875
3611,15.625000
3612,17.578125
3613,17.578125
3614,19.531250
3615,19.531250
3616,21.484375
3617,21.484375
3618,23.437500
3619,23.437500
3620,25.390625
3621,25.390625
3622,27.343750
3623,29.296875
3624,29.296875
3625,29.296875
3626,31.250000
3627,31.250000
3628,31.250000
3629,33.203125
3630,33.203125
3631,35.156250
3632,35.156250
3633,35.156250
3634,37.109375
3635,37.109375
3636,39.062500
3637,39.062500
3638,41.015625
3639,41.015625
3640,41.015625
3641,41.015625
3642,42.968750
3643,42.968750
3644,42.968750
3645,42.968750
3646,44.921875
3647,44.921875
3648,44.921875
3649,44.921875
3650,44.921875
3651,46.875000
3652,46.875000
3653,46.875000
3654,46.875000
3655,46.875000
3656,46.875000
3657,46.875000
3658,46.875000
3659,48.828125
3660,46.875000
3661,46.875000
3662,48.828125
3663,48.828125
3664,48.828125
3665,48.828125
3666,46.875000
3667,46.875000
3668,46.875000
3669,46.875000
3670,48.828125
3671,46.875000
3672,48.828125
3673,46.875000
3674,46.875000
3675,48.828125
3676,46.875000
3677,44.921875
3678,46.875000
3679,44.921875
3680,44.921875
3681,44.921875
3682,44.921875
3683,44.921875
3684,42.968750
3685,42.968750
3686,42.968750
3687,41.015625
3688,41.015625
3689,41.015625
3690,41.015625
3691,39.062500
3692,39.062500
3693,39.062500
3694,39.062500
3695,37.109375
3696,37.109375
3697,35.156250
3698,35.156250
3699,35.156250
3700,33.203125
3701,33.203125
3702,31.250000
3703,31.250000
3704,31.250000
3705,29.296875
3706,29.296875
3707,27.343750
3708,27.343750
3709,25.390625
3710,25.390625
3711,23.437500
3712,23.437500
3713,21.484375
3714,21.484375
3715,19.531250
3716,19.531250
3717,17.578125
3718,17.578125
3719,15.625000
3720,15.625000
3721,13.671875
3722,11.718750
3723,11.718750
3724,9.765625
3725,7.812500
3726,7.812500
3727,5.859375
3728,5.859375
3729,3.906250
3730,1.953125
3731,1.953125
3732,0.000000
3733,0.000000
3734,-1.953125
3735,-3.906250
3736,-3.906250
3737,-5.859375
3738,-5.859375
3739,-7.812500
3740,-9.765625
3741,-9.765625
3742,-11.718750
3743,-13.671875
3744,-13.671875
3745,-15.625000
3746,-15.625000
3747,-17.578125
3748,-19.531250
3749,-19.531250
3750,-21.484375
3751,-21.484375
3752,-23.437500
3753,-23.437500
3754,-25.390625
3755,-27.343750
3756,-27.343750
3757,-29.296875
3758,-29.296875
3759,-31.250000
3760,-31.250000
3761,-33.203125
3762,-33.203125
3763,-35.156250
3764,-35.156250
3765,-37.109375
3766,-39.062500
3767,-39.062500
3768,-39.062500
3769,-41.015625
3770,-41.015625
3771,-42.968750
3772,-42.968750
3773,-44.921875
3774,-44.921875
3775,-46.875000
3776,-46.875000
3777,-46.875000
3778,-48.828125
3779,-48.828125
3780,-50.781250
3781,-52.734375
3782,-52.734375
3783,-50.781250
3784,-52.734375
3785,-52.734375
3786,-54.687500
3787,-54.687500
3788,-54.687500
3789,-54.687500
3790,-54.687500
3791,-56.640625
3792,-56.640625
3793,-56.640625
3794,-58.593750
3795,-58.593750
3796,-58.593750
3797,-58.593750
3798,-58.593750
3799,-58.593750
3800,-58.593750
3801,-60.546875
3802,-60.546875
3803,-60.546875
3804,-60.546875
3805,-60.546875
3806,-60.546875
3807,-60.546875
3808,-60.546875
3809,-60.546875
3810,-60.546875
3811,-60.546875
3812,-60.546875
3813,-58.593750
3814,-58.593750
3815,-58.593750
3816,-58.593750
3817,-58.593750
3818,-58.593750
3819,-58.593750
3820,-56.640625
3821,-56.640625
3822,-56.640625
3823,-56.640625
3824,-56.640625
3825,-54.687500
3826,-54.687500
3827,-54.687500
3828,-52.734375
3829,-52.734375
3830,-52.734375
3831,-52.734375
3832,-50.781250
3833,-50.781250
3834,-50.781250
3835,-48.828125
3836,-48.828125
3837,-46.875000
3838,-46.875000
3839,-46.875000
3840,-44.921875
3841,-44.921875
3842,-41.015625
3843,-42.968750
3844,-41.015625
3845,-41.015625
3846,-39.062500
3847,-39.062500
3848,-39.062500
3849,-37.109375
3850,-35.156250
3851,-35.156250
3852,-33.203125
3853,-33.203125
3854,-31.250000
3855,-29.296875
3856,-29.296875
3857,-29.296875
3858,-27.343750
3859,-25.390625
3860,-25.390625
3861,-23.437500
3862,-23.437500
3863,-21.484375
3864,-21.484375
3865,-19.531250
3866,-17.578125
3867,-17.578125
3868,-15.625000
3869,-15.625000
3870,-13.671875
3871,-11.718750
3872,-11.718750
3873,-9.765625
3874,-7.812500
3875,-7.812500
3876,-5.859375
3877,-5.859375
3878,-3.906250
3879,-1.953125
3880,-1.953125
3881,0.000000
3882,0.000000
3883,1.953125
3884,3.906250
3885,3.906250
3886,5.859375
3887,5.859375
3888,7.812500
3889,9.765625
3890,11.718750
3891,11.718750
3892,11.718750
3893,13.671875
3894,15.625000
3895,15.625000
3896,17.578125
3897,17.578125
3898,19.531250
3899,19.531250
3900,21.484375
3901,21.484375
3902,23.437500
3903,23.437500
3904,25.390625
3905,25.390625
3906,27.343750
3907,27.343750
3908,29.296875
3909,31.250000
3910,29.296875
3911,31.250000
3912,33.203125
3913,33.203125
3914,35.156250
3915,35.156250
3916,35.156250
3917,35.156250
3918,37.109375
3919,37.109375
3920,39.062500
3921,39.062500
3922,39.062500
3923,39.062500
3924,41.015625
3925,41.015625
3926,41.015625
3927,42.968750
3928,42.968750
3929,42.968750
3930,42.968750
3931,44.921875
3932,44.921875
3933,44.921875
3934,44.921875
3935,44.921875
3936,46.875000
3937,46.875000
3938,46.875000
3939,46.875000
3940,46.875000
3941,46.875000
3942,48.828125
3943,46.875000
3944,48.828125
3945,48.828125
3946,46.875000
3947,48.828125
3948,48.828125
3949,48.828125
3950,48.828125
3951,48.828125
3952,48.828125
3953,48.828125
3954,48.828125
3955,48.828125
3956,46.875000
3957,46.875000
3958,46.875000
3959,46.875000
3960,46.875000
3961,46.875000
3962,46.875000
3963,44.921875
3964,44.921875
3965,44.921875
3966,44.921875
3967,44.921875
3968,44.921875
3969,42.968750
3970,42.968750
3971,42.968750
3972,41.015625
3973,41.015625
3974,41.015625
3975,39.062500
3976,39.062500
3977,37.109375
3978,37.109375
3979,37.109375
3980,37.109375
3981,35.156250
3982,35.156250
3983,33.203125
3984,33.203125
3985,33.203125
3986,31.250000
3987,31.250000
3988,29.296875
3989,29.296875
3990,29.296875
3991,27.343750
3992,27.343750
3993,25.390625
3994,25.390625
3995,23.437500
3996,23.437500
3997,21.484375
3998,19.531250
3999,19.531250
4000,19.531250
4001,17.578125
4002,15.625000
4003,15.625000
4004,13.671875
4005,13.671875
4006,11.718750
4007,11.718750
4008,9.765625
4009,9.765625
4010,7.812500
4011,5.859375
4012,5.859375
4013,3.906250
4014,1.953125
4015,1.953125
4016,1.953125
4017,0.000000
4018,-1.953125
4019,-1.953125
4020,-3.906250
4021,-5.859375
4022,-7.812500
4023,-7.812500
4024,-7.812500
4025,-9.765625
4026,-11.718750
4027,-11.718750
4028,-13.671875
4029,-15.625000
4030,-15.625000
4031,-17.578125
4032,-19.531250
4033,-19.531250
4034,-21.484375
4035,-21.484375
4036,-23.437500
4037,-23.437500
4038,-25.390625
4039,-27.343750
4040,-27.343750
4041,-29.296875
4042,-29.296875
4043,-31.250000
4044,-31.250000
4045,-33.203125
4046,-33.203125
4047,-35.156250
4048,-37.109375
4049,-37.109375
4050,-37.109375
4051,-39.062500
4052,-39.062500
4053,-41.015625
4054,-42.968750
4055,-42.968750
4056,-42.968750
4057,-44.921875
4058,-44.921875
4059,-46.875000
4060,-46.875000
4061,-46.875000
4062,-48.828125
4063,-50.781250
4064,-50.781250
4065,-50.781250
4066,-52.734375
4067,-52.734375
4068,-52.734375
4069,-52.734375
4070,-54.687500
4071,-54.687500
4072,-56.640625
4073,-56.640625
4074,-56.640625
4075,-56.640625
4076,-56.640625
4077,-58.593750
4078,-58.593750
4079,-58.593750
4080,-56.640625
4081,-58.593750
4082,-58.593750
4083,-58.593750
4084,-58.593750
4085,-58.593750
4086,-58.593750
4087,-60.546875
4088,-60.546875
4089,-60.546875
4090,-60.546875
4091,-60.546875
4092,-60.546875
4093,-60.546875
4094,-60.546875
4095,-58.593750
4096,-60.546875
4097,-60.546875
4098,-58.593750
4099,-58.593750
4100,-58.593750
4101,-58.593750
4102,-58.593750
4103,-58.593750
4104,-56.640625
4105,-56.640625
4106,-56.640625
4107,-56.640625
4108,-56.640625
4109,-56.640625
4110,-54.687500
4111,-54.687500
4112,-54.687500
4113,-52.734375
4114,-52.734375
4115,-52.734375
4116,-50.781250
4117,-50.781250
4118,-50.781250
4119,-48.828125
4120,-48.828125
4121,-48.828125
4122,-46.875000
4123,-46.875000
4124,-44.921875
4125,-44.921875
4126,-42.968750
4127,-42.968750
4128,-42.968750
4129,-41.015625
4130,-39.062500
4131,-39.062500
4132,-37.109375
4133,-37.109375
4134,-37.109375
4135,-35.156250
4136,-33.203125
4137,-33.203125
4138,-31.250000
4139,-31.250000
4140,-29.296875
4141,-27.343750
4142,-27.343750
4143,-25.390625
4144,-25.390625
4145,-23.437500
4146,-23.437500
4147,-21.484375
4148,-19.531250
4149,-19.531250
4150,-17.578125
4151,-15.625000
4152,-15.625000
4153,-13.671875
4154,-13.671875
4155,-11.718750
4156,-11.718750
4157,-9.765625
4158,-7.812500
4159,-7.812500
4160,-5.859375
4161,-3.906250
4162,-3.906250
4163,-1.953125
4164,-1.953125
4165,0.000000
4166,1.953125
4167,1.953125
4168,3.906250
4169,3.906250
4170,5.859375
4171,5.859375
4172,7.812500
4173,9.765625
4174,9.765625
4175,11.718750
4176,11.718750
4177,13.671875
4178,13.671875
4179,15.625000
4180,17.578125
4181,17.578125
4182,19.531250
4183,19.531250
4184,21.484375
4185,23.437500
4186,23.437500
4187,23.437500
4188,25.390625
4189,25.390625
4190,27.343750
4191,27.343750
4192,29.296875
4193,29.296875
4194,31.250000
4195,31.250000
4196,31.250000
4197,35.156250
4198,33.203125
4199,35.156250
4200,33.203125
4201,37.109375
4202,37.109375
4203,37.109375
4204,39.062500
4205,39.062500
4206,39.062500
4207,39.062500
4208,41.015625
4209,41.015625
4210,42.968750
4211,42.968750
4212,42.968750
4213,42.968750
4214,44.921875
4215,44.921875
4216,44.921875
4217,44.921875
4218,44.921875
4219,44.921875
4220,46.875000
4221,46.875000
4222,46.875000
4223,46.875000
4224,46.875000
4225,46.875000
4226,48.828125
4227,46.875000
4228,46.875000
4229,48.828125
4230,48.828125
4231,48.828125
4232,48.828125
4233,48.828125
4234,46.875000
4235,48.828125
4236,48.828125
4237,48.828125
4238,46.875000
4239,46.875000
4240,48.828125
4241,46.875000
4242,46.875000
4243,46.875000
4244,46.875000
4245,44.921875
4246,46.875000
4247,44.921875
4248,44.921875
4249,44.921875
4250,44.921875
4251,42.968750
4252,42.968750
4253,44.921875
4254,42.968750
4255,41.015625
4256,41.015625
4257,41.015625
4258,41.015625
4259,39.062500
4260,39.062500
4261,39.062500
4262,39.062500
4263,37.109375
4264,37.109375
4265,35.156250
4266,35.156250
4267,35.156250
4268,33.203125
4269,33.203125
4270,33.203125
4271,31.250000
4272,31.250000
4273,29.296875
4274,29.296875
4275,27.343750
4276,25.390625
4277,25.390625
4278,25.390625
4279,25.390625
4280,23.437500
4281,21.484375
4282,21.484375
4283,19.531250
4284,19.531250
4285,17.578125
4286,17.578125
4287,15.625000
4288,15.625000
4289,13.671875
4290,11.718750
4291,11.718750
4292,9.765625
4293,9.765625
4294,7.812500
4295,5.859375
4296,5.859375
4297,3.906250
4298,3.906250
4299,1.953125
4300,1.953125
4301,0.000000
4302,-1.953125
4303,-3.906250
4304,-3.906250
4305,-5.859375
4306,-5.859375
4307,-7.812500
4308,-9.765625
4309,-9.765625
4310,-11.718750
4311,-11.718750
4312,-13.671875
4313,-15.625000
4314,-15.625000
4315,-17.578125
4316,-17.578125
4317,-19.531250
4318,-21.484375
4319,-21.484375
4320,-23.437500
4321,-23.437500
4322,-25.390625
4323,-27.343750
4324,-27.343750
4325,-29.296875
4326,-29.296875
4327,-31.250000
4328,-33.203125
4329,-33.203125
4330,-33.203125
4331,-35.156250
4332,-35.156250
4333,-37.109375
4334,-37.109375
4335,-39.062500
4336,-39.062500
4337,-41.015625
4338,-41.015625
4339,-42.968750
4340,-42.968750
4341,-44.921875
4342,-44.921875
4343,-46.875000
4344,-46.875000
4345,-48.828125
4346,-48.828125
4347,-48.828125
4348,-50.781250
4349,-50.781250
4350,-50.781250
4351,-52.734375
4352,-52.734375
4353,-52.734375
4354,-52.734375
4355,-54.687500
4356,-54.687500
4357,-54.687500
4358,-56.640625
4359,-56.640625
4360,-56.640625
4361,-56.640625
4362,-56.640625
4363,-58.593750
4364,-58.593750
4365,-58.593750
4366,-58.593750
4367,-58.593750
4368,-58.593750
4369,-58.593750
4370,-60.546875
4371,-60.546875
4372,-60.546875
4373,-60.546875
4374,-60.546875
4375,-60.546875
4376,-60.546875
4377,-60.546875
4378,-60.546875
4379,-60.546875
4380,-60.546875
4381,-60.546875
4382,-58.593750
4383,-58.593750
4384,-58.593750
4385,-58.593750
4386,-58.593750
4387,-58.593750
4388,-58.593750
4389,-56.640625
4390,-56.640625
4391,-56.640625
4392,-56.640625
4393,-56.640625
4394,-54.687500
4395,-54.687500
4396,-56.640625
4397,-52.734375
4398,-52.734375
4399,-52.734375
4400,-50.781250
4401,-50.781250
4402,-50.781250
4403,-48.828125
4404,-48.828125
4405,-48.828125
4406,-46.875000
4407,-46.875000
4408,-44.921875
4409,-44.921875
4410,-42.968750
4411,-42.968750
4412,-41.015625
4413,-41.015625
4414,-39.062500
4415,-39.062500
4416,-37.109375
4417,-37.109375
4418,-35.156250
4419,-35.156250
4420,-35.156250
4421,-33.203125
4422,-31.250000
4423,-31.250000
4424,-29.296875
4425,-29.296875
4426,-27.343750
4427,-27.343750
4428,-25.390625
4429,-23.437500
4430,-23.437500
4431,-21.484375
4432,-19.531250
4433,-19.531250
4434,-19.531250
4435,-17.578125
4436,-15.625000
4437,-13.671875
4438,-13.671875
4439,-11.718750
4440,-11.718750
4441,-11.718750
4442,-9.765625
4443,-7.812500
4444,-5.859375
4445,-5.859375
4446,-3.906250
4447,-3.906250
4448,-1.953125
4449,0.000000
4450,0.000000
4451,1.953125
4452,1.953125
4453,3.906250
4454,5.859375
4455,5.859375
4456,7.812500
4457,9.765625
4458,9.765625
4459,11.718750
4460,11.718750
4461,13.671875
4462,13.671875
4463,15.625000
4464,17.578125
4465,17.578125
4466,17.578125
4467,19.531250
4468,19.531250
4469,21.484375
4470,23.437500
4471,23.437500
4472,25.390625
4473,25.390625
4474,27.343750
4475,27.343750
4476,29.296875
4477,29.296875
4478,31.250000
4479,31.250000
4480,31.250000
4481,33.203125
4482,33.203125
4483,35.156250
4484,35.156250
4485,35.156250
4486,37.109375
4487,37.109375
4488,39.062500
4489,39.062500
4490,39.062500
4491,41.015625
4492,41.015625
4493,41.015625
4494,41.015625
4495,42.968750
4496,42.968750
4497,42.968750
4498,44.921875
4499,42.968750
4500,44.921875
4501,44.921875
4502,44.921875
4503,44.921875
4504,44.921875
4505,46.875000
4506,46.875000
4507,46.875000
4508,46.875000
4509,46.875000
4510,46.875000
4511,46.875000
4512,46.875000
4513,46.875000
4514,48.828125
4515,46.875000
4516,46.875000
4517,48.828125
4518,48.828125
4519,48.828125
4520,46.875000
4521,46.875000
4522,46.875000
4523,48.828125
4524,46.875000
4525,46.875000
4526,46.875000
4527,46.875000
4528,46.875000
4529,46.875000
4530,46.875000
4531,46.875000
4532,44.921875
4533,44.921875
4534,44.921875
4535,44.921875
4536,42.968750
4537,42.968750
4538,42.968750
4539,42.968750
4540,42.968750
4541,41.015625
4542,41.015625
4543,41.015625
4544,41.015625
4545,39.062500
4546,39.062500
4547,37.109375
4548,37.109375
4549,37.109375
4550,35.156250
4551,35.156250
4552,33.203125
4553,33.203125
4554,33.203125
4555,33.203125
4556,31.250000
4557,29.296875
4558,29.296875
4559,27.343750
4560,27.343750
4561,27.343750
4562,25.390625
4563,23.437500
4564,23.437500
4565,21.484375
4566,21.484375
4567,19.531250
4568,19.531250
4569,17.578125
4570,17.578125
4571,15.625000
4572,13.671875
4573,13.671875
4574,11.718750
4575,11.718750
4576,9.765625
4577,9.765625
4578,7.812500
4579,5.859375
4580,5.859375
4581,3.906250
4582,1.953125
4583,1.953125
4584,0.000000
4585,0.000000
4586,-1.953125
4587,-1.953125
4588,-3.906250
4589,-5.859375
4590,-5.859375
4591,-7.812500
4592,-7.812500
4593,-9.765625
4594,-11.718750
4595,-13.671875
4596,-13.671875
4597,-13.671875
4598,-15.625000
4599,-17.578125
4600,-19.531250
4601,-19.531250
4602,-21.484375
4603,-21.484375
4604,-23.437500
4605,-25.390625
4606,-23.437500
4607,-25.390625
4608,-27.343750
4609,-29.296875
4610,-29.296875
4611,-31.250000
4612,-31.250000
4613,-33.203125
4614,-33.203125
4615,-35.156250
4616,-35.156250
4617,-37.109375
4618,-37.109375
4619,-39.062500
4620,-39.062500
4621,-41.015625
4622,-41.015625
4623,-42.968750
4624,-42.968750
4625,-44.921875
4626,-44.921875
4627,-46.875000
4628,-46.875000
4629,-48.828125
4630,-48.828125
4631,-48.828125
4632,-50.781250
4633,-50.781250
4634,-50.781250
4635,-52.734375
4636,-52.734375
4637,-52.734375
4638,-54.687500
4639,-54.687500
4640,-54.687500
4641,-56.640625
4642,-56.640625
4643,-56.640625
4644,-56.640625
4645,-58.593750
4646,-58.593750
4647,-58.593750
4648,-58.593750
4649,-58.593750
4650,-58.593750
4651,-58.593750
4652,-58.593750
4653,-60.546875
4654,-60.546875
4655,-60.546875
4656,-60.546875
4657,-60.546875
4658,-60.546875
4659,-60.546875
4660,-60.546875
4661,-60.546875
4662,-58.593750
4663,-60.546875
4664,-60.546875
4665,-58.593750
4666,-58.593750
4667,-58.593750
4668,-58.593750
4669,-58.593750
4670,-58.593750
4671,-58.593750
4672,-56.640625
4673,-56.640625
4674,-56.640625
4675,-56.640625
4676,-56.640625
4677,-54.687500
4678,-54.687500
4679,-54.687500
4680,-54.687500
4681,-52.734375
4682,-52.734375
4683,-52.734375
4684,-50.781250
4685,-50.781250
4686,-50.781250
4687,-48.828125
4688,-48.828125
4689,-48.828125
4690,-46.875000
4691,-46.875000
4692,-44.921875
4693,-44.921875
4694,-42.968750
4695,-42.968750
4696,-41.015625
4697,-41.015625
4698,-41.015625
4699,-39.062500
4700,-39.062500
4701,-37.109375
4702,-37.109375
4703,-35.156250
4704,-33.203125
4705,-33.203125
4706,-31.250000
4707,-31.250000
4708,-31.250000
4709,-29.296875
4710,-27.343750
4711,-27.343750
4712,-25.390625
4713,-25.390625
4714,-23.437500
4715,-21.484375
4716,-21.484375
4717,-19.531250
4718,-19.531250
4719,-17.578125
4720,-15.625000
4721,-15.625000
4722,-13.671875
4723,-11.718750
4724,-11.718750
4725,-9.765625
4726,-9.765625
4727,-7.812500
4728,-5.859375
4729,-5.859375
4730,-3.906250
4731,-1.953125
4732,-1.953125
4733,0.000000
4734,1.953125
4735,1.953125
4736,3.906250
4737,3.906250
4738,5.859375
4739,7.812500
4740,7.812500
4741,9.765625
4742,9.765625
4743,11.718750
4744,11.718750
4745,13.671875
4746,13.671875
4747,15.625000
4748,17.578125
4749,17.578125
4750,19.531250
4751,21.484375
4752,21.484375
4753,21.484375
4754,23.437500
4755,23.437500
4756,25.390625
4757,25.390625
4758,27.343750
4759,27.343750
4760,29.296875
4761,29.296875
4762,31.250000
4763,31.250000
4764,31.250000
4765,33.203125
4766,33.203125
4767,35.156250
4768,35.156250
4769,35.156250
4770,35.156250
4771,37.109375
4772,39.062500
4773,39.062500
4774,39.062500
4775,39.062500
4776,41.015625
4777,41.015625
4778,42.968750
4779,42.968750
4780,42.968750
4781,42.968750
4782,42.968750
4783,41.015625
4784,44.921875
4785,44.921875
4786,41.015625
4787,46.875000
4788,46.875000
4789,46.875000
4790,46.875000
4791,46.875000
4792,46.875000
4793,48.828125
4794,48.828125
4795,48.828125
4796,48.828125
4797,48.828125
4798,48.828125
4799,48.828125
4800,48.828125
4801,48.828125
4802,48.828125
4803,48.828125
4804,48.828125
4805,48.828125
4806,48.828125
4807,46.875000
4808,48.828125
4809,46.875000
4810,46.875000
4811,46.875000
4812,46.875000
4813,46.875000
4814,46.875000
4815,46.875000
4816,44.921875
4817,44.921875
4818,44.921875
4819,44.921875
4820,42.968750
4821,42.968750
4822,42.968750
4823,42.968750
4824,41.015625
4825,41.015625
4826,41.015625
4827,39.062500
4828,39.062500
4829,39.062500
4830,37.109375
4831,37.109375
4832,37.109375
4833,35.156250
4834,35.156250
4835,35.156250
4836,33.203125
4837,33.203125
4838,31.250000
4839,31.250000
4840,31.250000
4841,29.296875
4842,29.296875
4843,27.343750
4844,27.343750
4845,25.390625
4846,25.390625
4847,23.437500
4848,23.437500
4849,21.484375
4850,21.484375
4851,19.531250
4852,19.531250
4853,17.578125
4854,17.578125
4855,15.625000
4856,13.671875
4857,13.671875
4858,11.718750
4859,11.718750
4860,9.765625
4861,9.765625
4862,7.812500
4863,7.812500
4864,5.859375
4865,3.906250
4866,3.906250
4867,1.953125
4868,0.000000
4869,-1.953125
4870,-1.953125
4871,-1.953125
4872,-3.906250
4873,-5.859375
4874,-5.859375
4875,-7.812500
4876,-9.765625
4877,-9.765625
4878,-11.718750
4879,-11.718750
4880,-13.671875
4881,-15.625000
4882,-15.625000
4883,-17.578125
4884,-17.578125
4885,-19.531250
4886,-19.531250
4887,-21.484375
4888,-23.437500
4889,-23.437500
4890,-25.390625
4891,-27.343750
4892,-27.343750
4893,-27.343750
4894,-29.296875
4895,-31.250000
4896,-33.203125
4897,-33.203125
4898,-33.203125
4899,-35.156250
4900,-37.109375
4901,-37.109375
4902,-37.109375
4903,-39.062500
4904,-39.062500
4905,-41.015625
4906,-42.968750
4907,-42.968750
4908,-42.968750
4909,-44.921875
4910,-44.921875
4911,-46.875000
4912,-46.875000
4913,-48.828125
4914,-48.828125
4915,-48.828125
4916,-50.781250
4917,-50.781250
4918,-50.781250
4919,-50.781250
4920,-52.734375
4921,-52.734375
4922,-52.734375
4923,-54.687500
4924,-54.687500
4925,-54.687500
4926,-56.640625
4927,-56.640625
4928,-56.640625
4929,-56.640625
4930,-58.593750
4931,-56.640625
4932,-58.593750
4933,-58.593750
4934,-58.593750
4935,-58.593750
4936,-58.593750
4937,-60.546875
4938,-58.593750
4939,-60.546875
4940,-60.546875
4941,-58.593750
4942,-60.546875
4943,-60.546875
4944,-60.546875
4945,-60.546875
4946,-60.546875
4947,-60.546875
4948,-60.546875
4949,-58.593750
4950,-58.593750
4951,-58.593750
4952,-58.593750
4953,-58.593750
4954,-58.593750
4955,-58.593750
4956,-58.593750
4957,-58.593750
4958,-56.640625
4959,-56.640625
4960,-56.640625
4961,-54.687500
4962,-54.687500
4963,-54.687500
4964,-54.687500
4965,-52.734375
4966,-52.734375
4967,-52.734375
4968,-50.781250
4969,-50.781250
4970,-50.781250
4971,-50.781250
4972,-48.828125
4973,-46.875000
4974,-46.875000
4975,-46.875000
4976,-44.921875
4977,-44.921875
4978,-44.921875
4979,-42.968750
4980,-42.968750
4981,-41.015625
4982,-41.015625
4983,-37.109375
4984,-39.062500
4985,-37.109375
4986,-35.156250
4987,-35.156250
4988,-35.156250
4989,-33.203125
4990,-33.203125
4991,-31.250000
4992,-29.296875
4993,-29.296875
4994,-27.343750
4995,-25.390625
4996,-25.390625
4997,-25.390625
4998,-23.437500
4999,-21.484375
5000,-21.484375
5001,-19.531250
5002,-19.531250
5003,-17.578125
5004,-15.625000
5005,-13.671875
5006,-13.671875
5007,-13.671875
5008,-11.718750
5009,-11.718750
5010,-7.812500
5011,-7.812500
5012,-7.812500
5013,-5.859375
5014,-3.906250
5015,-5.859375
5016,-1.953125
5017,0.000000
5018,1.953125
5019,1.953125
5020,1.953125
5021,5.859375
5022,3.906250
5023,5.859375
5024,7.812500
5025,7.812500
5026,9.765625
5027,9.765625
5028,11.718750
5029,13.671875
5030,13.671875
5031,15.625000
5032,17.578125
5033,17.578125
5034,19.531250
5035,19.531250
5036,19.531250
5037,21.484375
5038,23.437500
5039,23.437500
5040,23.437500
5041,25.390625
5042,27.343750
5043,27.343750
5044,27.343750
5045,29.296875
5046,31.250000
5047,31.250000
5048,31.250000
5049,33.203125
5050,33.203125
5051,33.203125
5052,35.156250
5053,35.156250
5054,37.109375
5055,37.109375
5056,39.062500
5057,39.062500
5058,39.062500
5059,39.062500
5060,41.015625
5061,41.015625
5062,41.015625
5063,42.968750
5064,42.968750
5065,42.968750
5066,42.968750
5067,44.921875
5068,44.921875
5069,44.921875
5070,44.921875
5071,44.921875
5072,44.921875
5073,46.875000
5074,46.875000
5075,46.875000
5076,46.875000
5077,46.875000
5078,46.875000
5079,48.828125
5080,48.828125
5081,46.875000
5082,46.875000
5083,48.828125
5084,48.828125
5085,46.875000
5086,48.828125
5087,48.828125
5088,46.875000
5089,48.828125
5090,48.828125
5091,46.875000
5092,46.875000
5093,46.875000
5094,46.875000
5095,46.875000
5096,46.875000
5097,46.875000
5098,44.921875
5099,46.875000
5100,44.921875
5101,44.921875
5102,44.921875
5103,44.921875
5104,44.921875
5105,42.968750
5106,42.968750
5107,42.968750
5108,42.968750
5109,41.015625
5110,41.015625
5111,39.062500
5112,39.062500
5113,39.062500
5114,39.062500
5115,37.109375
5116,37.109375
5117,37.109375
5118,35.156250
5119,35.156250
5120,33.203125
5121,33.203125
5122,33.203125
5123,31.250000
5124,31.250000
5125,29.296875
5126,29.296875
5127,29.296875
5128,27.343750
5129,25.390625
5130,25.390625
5131,23.437500
5132,23.437500
5133,23.437500
5134,21.484375
5135,19.531250
5136,19.531250
5137,19.531250
5138,17.578125
5139,15.625000
5140,15.625000
5141,13.671875
5142,13.671875
5143,11.718750
5144,11.718750
5145,9.765625
5146,7.812500
5147,5.859375
5148,5.859375
5149,3.906250
5150,3.906250
5151,1.953125
5152,0.000000
5153,0.000000
5154,-1.953125
5155,-1.953125
5156,-3.906250
5157,-3.906250
5158,-5.859375
5159,-7.812500
5160,-7.812500
5161,-9.765625
5162,-11.718750
5163,-11.718750
5164,-13.671875
5165,-15.625000
5166,-15.625000
5167,-15.625000
5168,-19.531250
5169,-19.531250
5170,-21.484375
5171,-21.484375
5172,-23.437500
5173,-23.437500
5174,-27.343750
5175,-25.390625
5176,-27.343750
5177,-29.296875
5178,-29.296875
5179,-31.250000
5180,-31.250000
5181,-33.203125
5182,-33.203125
5183,-37.109375
5184,-35.156250
5185,-37.109375
5186,-37.109375
5187,-39.062500
5188,-39.062500
5189,-41.015625
5190,-41.015625
5191,-42.968750
5192,-42.968750
5193,-44.921875
5194,-44.921875
5195,-44.921875
5196,-46.875000
5197,-48.828125
5198,-48.828125
5199,-48.828125
5200,-50.781250
5201,-50.781250
5202,-50.781250
5203,-52.734375
5204,-52.734375
5205,-52.734375
5206,-54.687500
5207,-54.687500
5208,-54.687500
5209,-56.640625
5210,-56.640625
5211,-56.640625
5212,-56.640625
5213,-56.640625
5214,-58.593750
5215,-58.593750
5216,-58.593750
5217,-58.593750
5218,-58.593750
5219,-58.593750
5220,-60.546875
5221,-60.546875
5222,-60.546875
5223,-60.546875
5224,-60.546875
5225,-60.546875
5226,-60.546875
5227,-60.546875
5228,-60.546875
5229,-60.546875
5230,-58.593750
5231,-60.546875
5232,-58.593750
5233,-60.546875
5234,-60.546875
5235,-58.593750
5236,-58.593750
5237,-58.593750
5238,-58.593750
5239,-58.593750
5240,-58.593750
5241,-56.640625
5242,-56.640625
5243,-56.640625
5244,-56.640625
5245,-54.687500
5246,-54.687500
5247,-54.687500
5248,-54.687500
5249,-54.687500
5250,-52.734375
5251,-52.734375
5252,-52.734375
5253,-50.781250
5254,-50.781250
5255,-48.828125
5256,-48.828125
5257,-48.828125
5258,-46.875000
5259,-46.875000
5260,-44.921875
5261,-44.921875
5262,-44.921875
5263,-42.968750
5264,-41.015625
5265,-41.015625
5266,-41.015625
5267,-39.062500
5268,-39.062500
5269,-37.109375
5270,-37.109375
5271,-35.156250
5272,-35.156250
5273,-33.203125
5274,-31.250000
5275,-31.250000
5276,-29.296875
5277,-29.296875
5278,-27.343750
5279,-27.343750
5280,-25.390625
5281,-25.390625
5282,-23.437500
5283,-21.484375
5284,-21.484375
5285,-19.531250
5286,-19.531250
5287,-17.578125
5288,-15.625000
5289,-15.625000
5290,-13.671875
5291,-13.671875
5292,-11.718750
5293,-9.765625
5294,-9.765625
5295,-7.812500
5296,-7.812500
5297,-5.859375
5298,-3.906250
5299,-3.906250
5300,-1.953125
5301,-1.953125
5302,0.000000
5303,1.953125
5304,3.906250
5305,3.906250
5306,5.859375
5307,5.859375
5308,7.812500
5309,7.812500
5310,9.765625
5311,11.718750
5312,11.718750
5313,13.671875
5314,13.671875
5315,15.625000
5316,15.625000
5317,17.578125
5318,19.531250
5319,19.531250
5320,19.531250
5321,21.484375
5322,23.437500
5323,23.437500
5324,25.390625
5325,25.390625
5326,27.343750
5327,27.343750
5328,29.296875
5329,29.296875
5330,29.296875
5331,31.250000
5332,33.203125
5333,33.203125
5334,33.203125
5335,33.203125
5336,35.156250
5337,37.109375
5338,37.109375
5339,37.109375
5340,37.109375
5341,39.062500
5342,39.062500
5343,39.062500
5344,41.015625
5345,41.015625
5346,41.015625
5347,42.968750
5348,42.968750
5349,42.968750
5350,44.921875
5351,44.921875
5352,44.921875
5353,44.921875
5354,44.921875
5355,46.875000
5356,44.921875
5357,46.875000
5358,46.875000
5359,46.875000
5360,46.875000
5361,46.875000
5362,46.875000
5363,46.875000
5364,48.828125
5365,46.875000
5366,48.828125
5367,48.828125
5368,46.875000
5369,48.828125
5370,48.828125
5371,48.828125
5372,48.828125
5373,48.828125
5374,48.828125
5375,46.875000
5376,46.875000
5377,46.875000
5378,46.875000
5379,46.875000
5380,46.875000
5381,46.875000
5382,44.921875
5383,46.875000
5384,44.921875
5385,44.921875
5386,44.921875
5387,44.921875
5388,44.921875
5389,44.921875
5390,42.968750
5391,42.968750
5392,41.015625
5393,41.015625
5394,41.015625
5395,41.015625
5396,39.062500
5397,39.062500
5398,39.062500
5399,39.062500
5400,37.109375
5401,37.109375
5402,37.109375
5403,35.156250
5404,35.156250
5405,33.203125
5406,33.203125
5407,31.250000
5408,31.250000
5409,29.296875
5410,29.296875
5411,27.343750
5412,27.343750
5413,27.343750
5414,25.390625
5415,23.437500
5416,23.437500
5417,23.437500
5418,21.484375
5419,19.531250
5420,19.531250
5421,17.578125
5422,17.578125
5423,15.625000
5424,13.671875
5425,13.671875
5426,13.671875
5427,11.718750
5428,9.765625
5429,9.765625
5430,7.812500
5431,7.812500
5432,5.859375
5433,3.906250
5434,3.906250
5435,1.953125
5436,1.953125
5437,0.000000
5438,-1.953125
5439,-1.953125
5440,-3.906250
5441,-5.859375
5442,-5.859375
5443,-7.812500
5444,-7.812500
5445,-9.765625
5446,-11.718750
5447,-11.718750
5448,-11.718750
5449,-13.671875
5450,-15.625000
5451,-15.625000
5452,-17.578125
5453,-19.531250
5454,-19.531250
5455,-21.484375
5456,-23.437500
5457,-23.437500
5458,-25.390625
5459,-25.390625
5460,-27.343750
5461,-27.343750
5462,-29.296875
5463,-29.296875
5464,-31.250000
5465,-33.203125
5466,-33.203125
5467,-35.156250
5468,-35.156250
5469,-37.109375
5470,-39.062500
5471,-39.062500
5472,-41.015625
5473,-41.015625
5474,-42.968750
5475,-42.968750
5476,-42.968750
5477,-44.921875
5478,-44.921875
5479,-46.875000
5480,-46.875000
5481,-46.875000
5482,-48.828125
5483,-48.828125
5484,-50.781250
5485,-48.828125
5486,-50.781250
5487,-52.734375
5488,-52.734375
5489,-52.734375
5490,-52.734375
5491,-54.687500
5492,-54.687500
5493,-56.640625
5494,-56.640625
5495,-56.640625
5496,-56.640625
5497,-56.640625
5498,-58.593750
5499,-58.593750
5500,-58.593750
5501,-58.593750
5502,-58.593750
5503,-58.593750
5504,-58.593750
5505,-58.593750
5506,-60.546875
5507,-58.593750
5508,-60.546875
5509,-60.546875
5510,-60.546875
5511,-58.593750
5512,-60.546875
5513,-60.546875
5514,-60.546875
5515,-60.546875
5516,-58.593750
5517,-58.593750
5518,-58.593750
5519,-58.593750
5520,-58.593750
5521,-58.593750
5522,-58.593750
5523,-58.593750
5524,-56.640625
5525,-56.640625
5526,-56.640625
5527,-56.640625
5528,-56.640625
5529,-54.687500
5530,-54.687500
5531,-54.687500
5532,-54.687500
5533,-52.734375
5534,-52.734375
5535,-52.734375
5536,-52.734375
5537,-52.734375
5538,-50.781250
5539,-48.828125
5540,-48.828125
5541,-48.828125
5542,-46.875000
5543,-46.875000
5544,-46.875000
5545,-44.921875
5546,-44.921875
5547,-42.968750
5548,-42.968750
5549,-41.015625
5550,-41.015625
5551,-39.062500
5552,-39.062500
5553,-37.109375
5554,-37.109375
5555,-35.156250
5556,-35.156250
5557,-33.203125
5558,-33.203125
5559,-31.250000
5560,-31.250000
5561,-29.296875
5562,-27.343750
5563,-29.296875
5564,-25.390625
5565,-25.390625
5566,-23.437500
5567,-21.484375
5568,-21.484375
5569,-19.531250
5570,-17.578125
5571,-17.578125
5572,-17.578125
5573,-15.625000
5574,-13.671875
5575,-11.718750
5576,-11.718750
5577,-9.765625
5578,-7.812500
5579,-7.812500
5580,-7.812500
5581,-5.859375
5582,-3.906250
5583,-3.906250
5584,-1.953125
5585,0.000000
5586,0.000000
5587,1.953125
5588,3.906250
5589,3.906250
5590,3.906250
5591,5.859375
5592,7.812500
5593,9.765625
5594,9.765625
5595,11.718750
5596,11.718750
5597,13.671875
5598,13.671875
5599,15.625000
5600,15.625000
5601,17.578125
5602,17.578125
5603,19.531250
5604,21.484375
5605,21.484375
5606,21.484375
5607,23.437500
5608,25.390625
5609,25.390625
5610,25.390625
5611,27.343750
5612,27.343750
5613,29.296875
5614,31.250000
5615,31.250000
5616,31.250000
5617,33.203125
5618,33.203125
5619,33.203125
5620,35.156250
5621,35.156250
5622,35.156250
5623,37.109375
5624,39.062500
5625,39.062500
5626,39.062500
5627,39.062500
5628,41.015625
5629,41.015625
5630,41.015625
5631,42.968750
5632,42.968750
5633,42.968750
5634,44.921875
5635,44.921875
5636,44.921875
5637,44.921875
5638,44.921875
5639,44.921875
5640,46.875000
5641,46.875000
5642,46.875000
5643,46.875000
5644,46.875000
5645,46.875000
5646,46.875000
5647,48.828125
5648,48.828125
5649,48.828125
5650,48.828125
5651,46.875000
5652,46.875000
5653,48.828125
5654,48.828125
5655,48.828125
5656,48.828125
5657,46.875000
5658,48.828125
5659,46.875000
5660,46.875000
5661,46.875000
5662,46.875000
5663,46.875000
5664,46.875000
5665,46.875000
5666,46.875000
5667,44.921875
5668,44.921875
5669,44.921875
5670,44.921875
5671,42.968750
5672,42.968750
5673,42.968750
5674,42.968750
5675,42.968750
5676,41.015625
5677,41.015625
5678,41.015625
5679,39.062500
5680,39.062500
5681,39.062500
5682,39.062500
5683,37.109375
5684,37.109375
5685,37.109375
5686,35.156250
5687,35.156250
5688,33.203125
5689,33.203125
5690,31.250000
5691,31.250000
5692,31.250000
5693,29.296875
5694,29.296875
5695,27.343750
5696,27.343750
5697,27.343750
5698,25.390625
5699,25.390625
5700,23.437500
5701,21.484375
5702,21.484375
5703,21.484375
5704,19.531250
5705,19.531250
5706,17.578125
5707,15.625000
5708,15.625000
5709,15.625000
5710,13.671875
5711,11.718750
5712,9.765625
5713,9.765625
5714,9.765625
5715,7.812500
5716,5.859375
5717,5.859375
5718,3.906250
5719,1.953125
5720,1.953125
5721,0.000000
5722,-1.953125
5723,-1.953125
5724,-3.906250
5725,-5.859375
5726,-5.859375
5727,-7.812500
5728,-7.812500
5729,-9.765625
5730,-9.765625
5731,-11.718750
5732,-13.671875
5733,-13.671875
5734,-15.625000
5735,-17.578125
5736,-17.578125
5737,-19.531250
5738,-21.484375
5739,-21.484375
5740,-23.437500
5741,-23.437500
5742,-25.390625
5743,-25.390625
5744,-27.343750
5745,-27.343750
5746,-29.296875
5747,-31.250000
5748,-31.250000
5749,-33.203125
5750,-33.203125
5751,-35.156250
5752,-35.156250
5753,-37.109375
5754,-37.109375
5755,-39.062500
5756,-39.062500
5757,-41.015625
5758,-41.015625
5759,-42.968750
5760,-42.968750
5761,-42.968750
5762,-44.921875
5763,-44.921875
5764,-46.875000
5765,-46.875000
5766,-50.781250
5767,-48.828125
5768,-48.828125
5769,-50.781250
5770,-50.781250
5771,-50.781250
5772,-52.734375
5773,-52.734375
5774,-52.734375
5775,-54.687500
5776,-54.687500
5777,-54.687500
5778,-56.640625
5779,-56.640625
5780,-56.640625
5781,-56.640625
5782,-56.640625
5783,-58.593750
5784,-58.593750
5785,-58.593750
5786,-58.593750
5787,-60.546875
5788,-58.593750
5789,-60.546875
5790,-58.593750
5791,-58.593750
5792,-60.546875
5793,-60.546875
5794,-60.546875
5795,-60.546875
5796,-60.546875
5797,-60.546875
5798,-60.546875
5799,-60.546875
5800,-60.546875
5801,-58.593750
5802,-60.546875
5803,-60.546875
5804,-58.593750
5805,-58.593750
5806,-58.593750
5807,-58.593750
5808,-58.593750
5809,-58.593750
5810,-56.640625
5811,-56.640625
5812,-56.640625
5813,-56.640625
5814,-54.687500
5815,-54.687500
5816,-54.687500
5817,-52.734375
5818,-52.734375
5819,-52.734375
5820,-52.734375
5821,-50.781250
5822,-50.781250
5823,-48.828125
5824,-48.828125
5825,-48.828125
5826,-46.875000
5827,-46.875000
5828,-44.921875
5829,-44.921875
5830,-44.921875
5831,-42.968750
5832,-42.968750
5833,-41.015625
5834,-41.015625
5835,-39.062500
5836,-39.062500
5837,-37.109375
5838,-37.109375
5839,-35.156250
5840,-35.156250
5841,-33.203125
5842,-33.203125
5843,-31.250000
5844,-31.250000
5845,-29.296875
5846,-27.343750
5847,-27.343750
5848,-25.390625
5849,-25.390625
5850,-23.437500
5851,-21.484375
5852,-21.484375
5853,-19.531250
5854,-19.531250
5855,-15.625000
5856,-15.625000
5857,-15.625000
5858,-15.625000
5859,-13.671875
5860,-11.718750
5861,-9.765625
5862,-9.765625
5863,-7.812500
5864,-5.859375
5865,-5.859375
5866,-5.859375
5867,-3.906250
5868,-1.953125
5869,-1.953125
5870,0.000000
5871,1.953125
5872,1.953125
5873,3.906250
5874,5.859375
5875,5.859375
5876,5.859375
5877,7.812500
5878,9.765625
5879,9.765625
5880,11.718750
5881,13.671875
5882,13.671875
5883,13.671875
5884,15.625000
5885,17.578125
5886,17.578125
5887,19.531250
5888,21.484375
5889,21.484375
5890,23.437500
5891,23.437500
5892,23.437500
5893,25.390625
5894,27.343750
5895,27.343750
5896,27.343750
5897,29.296875
5898,31.250000
5899,31.250000
5900,31.250000
5901,33.203125
5902,33.203125
5903,35.156250
5904,35.156250
5905,35.156250
5906,37.109375
5907,37.109375
5908,39.062500
5909,39.062500
5910,39.062500
5911,39.062500
5912,41.015625
5913,41.015625
5914,41.015625
5915,42.968750
5916,42.968750
5917,42.968750
5918,42.968750
5919,44.921875
5920,44.921875
5921,44.921875
5922,44.921875
5923,42.968750
5924,44.921875
5925,46.875000
5926,46.875000
5927,46.875000
5928,46.875000
5929,46.875000
5930,46.875000
5931,48.828125
5932,46.875000
5933,46.875000
5934,48.828125
5935,46.875000
5936,48.828125
5937,48.828125
5938,48.828125
5939,48.828125
5940,48.828125
5941,48.828125
5942,42.968750
5943,48.828125
5944,48.828125
5945,46.875000
5946,46.875000
5947,46.875000
5948,46.875000
5949,46.875000
5950,46.875000
5951,44.921875
5952,44.921875
5953,44.921875
5954,44.921875
5955,44.921875
5956,44.921875
5957,42.968750
5958,42.968750
5959,42.968750
5960,37.109375
5961,41.015625
5962,41.015625
5963,41.015625
5964,41.015625
5965,39.062500
5966,39.062500
5967,39.062500
5968,37.109375
5969,37.109375
5970,37.109375
5971,35.156250
5972,33.203125
5973,35.156250
5974,33.203125
5975,31.250000
5976,31.250000
5977,31.250000
5978,29.296875
5979,29.296875
5980,27.343750
5981,25.390625
5982,25.390625
5983,25.390625
5984,23.437500
5985,23.437500
5986,21.484375
5987,21.484375
5988,19.531250
5989,17.578125
5990,21.484375
5991,15.625000
5992,15.625000
5993,13.671875
5994,11.718750
5995,11.718750
5996,11.718750
5997,9.765625
5998,7.812500
5999,7.812500
6000,5.859375
6001,3.906250
6002,3.906250
6003,1.953125
6004,1.953125
6005,0.000000
6006,-1.953125
6007,-1.953125
6008,-3.906250
6009,-1.953125
6010,-5.859375
6011,-7.812500
6012,-7.812500
6013,-9.765625
6014,-9.765625
6015,-11.718750
6016,-13.671875
6017,-13.671875
6018,-15.625000
6019,-17.578125
6020,-17.578125
6021,-19.531250
6022,-19.531250
6023,-21.484375
6024,-23.437500
6025,-23.437500
6026,-25.390625
6027,-25.390625
6028,-27.343750
6029,-27.343750
6030,-29.296875
6031,-29.296875
6032,-31.250000
6033,-33.203125
6034,-33.203125
6035,-35.156250
6036,-35.156250
6037,-37.109375
6038,-37.109375
6039,-39.062500
6040,-39.062500
6041,-39.062500
6042,-41.015625
6043,-42.968750
6044,-44.921875
6045,-44.921875
6046,-44.921875
6047,-44.921875
6048,-46.875000
6049,-46.875000
6050,-48.828125
6051,-48.828125
6052,-50.781250
6053,-50.781250
6054,-50.781250
6055,-50.781250
6056,-52.734375
6057,-52.734375
6058,-54.687500
6059,-54.687500
6060,-54.687500
6061,-56.640625
6062,-56.640625
6063,-56.640625
6064,-56.640625
6065,-56.640625
6066,-56.640625
6067,-58.593750
6068,-58.593750
6069,-58.593750
6070,-58.593750
6071,-58.593750
6072,-60.546875
6073,-60.546875
6074,-60.546875
6075,-60.546875
6076,-60.546875
6077,-60.546875
6078,-60.546875
6079,-60.546875
6080,-60.546875
6081,-60.546875
6082,-60.546875
6083,-60.546875
6084,-60.546875
6085,-58.593750
6086,-58.593750
6087,-58.593750
6088,-58.593750
6089,-58.593750
6090,-58.593750
6091,-58.593750
6092,-58.593750
6093,-56.640625
6094,-56.640625
6095,-56.640625
6096,-56.640625
6097,-54.687500
6098,-54.687500
6099,-54.687500
6100,-54.687500
6101,-54.687500
6102,-52.734375
6103,-52.734375
6104,-50.781250
6105,-50.781250
6106,-50.781250
6107,-48.828125
6108,-48.828125
6109,-48.828125
6110,-46.875000
6111,-46.875000
6112,-44.921875
6113,-44.921875
6114,-42.968750
6115,-42.968750
6116,-42.968750
6117,-41.015625
6118,-41.015625
6119,-39.062500
6120,-39.062500
6121,-37.109375
6122,-37.109375
6123,-35.156250
6124,-35.156250
6125,-33.203125
6126,-33.203125
6127,-31.250000
6128,-31.250000
6129,-29.296875
6130,-27.343750
6131,-27.343750
6132,-25.390625
6133,-25.390625
6134,-23.437500
6135,-23.437500
6136,-21.484375
6137,-19.531250
6138,-19.531250
6139,-17.578125
6140,-15.625000
6141,-15.625000
6142,-13.671875
6143,-13.671875
6144,-11.718750
6145,-9.765625
6146,-9.765625
6147,-7.812500
6148,-7.812500
6149,-5.859375
6150,-3.906250
6151,-3.906250
6152,-1.953125
6153,0.000000
6154,0.000000
6155,1.953125
6156,1.953125
6157,3.906250
6158,5.859375
6159,5.859375
6160,7.812500
6161,7.812500
6162,9.765625
6163,11.718750
6164,13.671875
6165,13.671875
6166,13.671875
6167,15.625000
6168,15.625000
6169,17.578125
6170,19.531250
6171,19.531250
6172,19.531250
6173,21.484375
6174,23.437500
6175,23.437500
6176,23.437500
6177,25.390625
6178,25.390625
6179,27.343750
6180,29.296875
6181,29.296875
6182,29.296875
6183,31.250000
6184,31.250000
6185,33.203125
6186,33.203125
6187,33.203125
6188,35.156250
6189,35.156250
6190,35.156250
6191,35.156250
6192,37.109375
6193,37.109375
6194,39.062500
6195,39.062500
6196,41.015625
6197,41.015625
6198,41.015625
6199,41.015625
6200,42.968750
6201,42.968750
6202,42.968750
6203,44.921875
6204,44.921875
6205,44.921875
6206,44.921875
6207,44.921875
6208,44.921875
6209,44.921875
6210,46.875000
6211,46.875000
6212,46.875000
6213,46.875000
6214,46.875000
6215,46.875000
6216,48.828125
6217,48.828125
6218,48.828125
6219,48.828125
6220,46.875000
6221,48.828125
6222,48.828125
6223,48.828125
6224,48.828125
6225,48.828125
6226,48.828125
6227,48.828125
6228,48.828125
6229,46.875000
6230,48.828125
6231,46.875000
6232,46.875000
6233,46.875000
6234,46.875000
6235,46.875000
6236,46.875000
6237,44.921875
6238,44.921875
6239,44.921875
6240,44.921875
6241,42.968750
6242,42.968750
6243,42.968750
6244,42.968750
6245,42.968750
6246,41.015625
6247,41.015625
6248,39.062500
6249,39.062500
6250,39.062500
6251,37.109375
6252,37.109375
6253,35.156250
6254,35.156250
6255,35.156250
6256,35.156250
6257,33.203125
6258,33.203125
6259,31.250000
6260,31.250000
6261,29.296875
6262,29.296875
6263,27.343750
6264,27.343750
6265,25.390625
6266,25.390625
6267,25.390625
6268,23.437500
6269,23.437500
6270,21.484375
6271,21.484375
6272,19.531250
6273,19.531250
6274,17.578125
6275,17.578125
6276,15.625000
6277,13.671875
6278,11.718750
6279,11.718750
6280,11.718750
6281,9.765625
6282,9.765625
6283,7.812500
6284,5.859375
6285,5.859375
6286,3.906250
6287,3.906250
6288,1.953125
6289,0.000000
6290,0.000000
6291,-1.953125
6292,-3.906250
6293,-3.906250
6294,-5.859375
6295,-5.859375
6296,-7.812500
6297,-7.812500
6298,-9.765625
6299,-11.718750
6300,-11.718750
6301,-13.671875
6302,-15.625000
6303,-15.625000
6304,-17.578125
6305,-19.531250
6306,-19.531250
6307,-21.484375
6308,-21.484375
6309,-23.437500
6310,-23.437500
6311,-25.390625
6312,-27.343750
6313,-27.343750
6314,-29.296875
6315,-29.296875
6316,-31.250000
6317,-31.250000
6318,-33.203125
6319,-35.156250
6320,-35.156250
6321,-37.109375
6322,-37.109375
6323,-39.062500
6324,-39.062500
6325,-41.015625
6326,-41.015625
6327,-42.968750
6328,-42.968750
6329,-44.921875
6330,-44.921875
6331,-46.875000
6332,-46.875000
6333,-46.875000
6334,-46.875000
6335,-48.828125
6336,-48.828125
6337,-50.781250
6338,-50.781250
6339,-52.734375
6340,-52.734375
6341,-52.734375
6342,-52.734375
6343,-52.734375
6344,-54.687500
6345,-54.687500
6346,-54.687500
6347,-54.687500
6348,-56.640625
6349,-56.640625
6350,-56.640625
6351,-58.593750
6352,-58.593750
6353,-58.593750
6354,-58.593750
6355,-58.593750
6356,-58.593750
6357,-58.593750
6358,-60.546875
6359,-60.546875
6360,-58.593750
6361,-60.546875
6362,-58.593750
6363,-60.546875
6364,-60.546875
6365,-60.546875
6366,-58.593750
6367,-60.546875
6368,-60.546875
6369,-58.593750
6370,-58.593750
6371,-58.593750
6372,-58.593750
6373,-58.593750
6374,-58.593750
6375,-58.593750
6376,-58.593750
6377,-58.593750
6378,-56.640625
6379,-56.640625
6380,-56.640625
6381,-56.640625
6382,-56.640625
6383,-54.687500
6384,-54.687500
6385,-54.687500
6386,-52.734375
6387,-52.734375
6388,-52.734375
6389,-50.781250
6390,-50.781250
6391,-50.781250
6392,-48.828125
6393,-48.828125
6394,-46.875000
6395,-46.875000
6396,-46.875000
6397,-44.921875
6398,-44.921875
6399,-42.968750
6400,-42.968750
6401,-41.015625
6402,-41.015625
6403,-39.062500
6404,-39.062500
6405,-37.109375
6406,-37.109375
6407,-35.156250
6408,-35.156250
6409,-33.203125
6410,-33.203125
6411,-31.250000
6412,-29.296875
6413,-29.296875
6414,-27.343750
6415,-27.343750
6416,-25.390625
6417,-25.390625
6418,-23.437500
6419,-21.484375
6420,-21.484375
6421,-19.531250
6422,-19.531250
6423,-17.578125
6424,-15.625000
6425,-15.625000
6426,-13.671875
6427,-13.671875
6428,-11.718750
6429,-11.718750
6430,-9.765625
6431,-7.812500
6432,-5.859375
6433,-5.859375
6434,-3.906250
6435,-3.906250
6436,-1.953125
6437,-1.953125
6438,0.000000
6439,1.953125
6440,1.953125
6441,3.906250
6442,5.859375
6443,5.859375
6444,7.812500
6445,7.812500
6446,9.765625
6447,11.718750
6448,11.718750
6449,11.718750
6450,13.671875
6451,13.671875
6452,15.625000
6453,17.578125
6454,17.578125
6455,19.531250
6456,19.531250
6457,21.484375
6458,21.484375
6459,23.437500
6460,25.390625
6461,25.390625
6462,25.390625
6463,27.343750
6464,27.343750
6465,29.296875
6466,29.296875
6467,31.250000
6468,31.250000
6469,33.203125
6470,33.203125
6471,35.156250
6472,35.156250
6473,35.156250
6474,35.156250
6475,37.109375
6476,37.109375
6477,37.109375
6478,39.062500
6479,39.062500
6480,41.015625
6481,41.015625
6482,41.015625
6483,42.968750
6484,42.968750
6485,42.968750
6486,42.968750
6487,44.921875
6488,44.921875
6489,44.921875
6490,44.921875
6491,44.921875
6492,46.875000
6493,46.875000
6494,46.875000
6495,46.875000
6496,46.875000
6497,46.875000
6498,46.875000
6499,46.875000
6500,46.875000
6501,48.828125
6502,48.828125
6503,48.828125
6504,48.828125
6505,48.828125
6506,48.828125
6507,46.875000
6508,48.828125
6509,48.828125
6510,46.875000
6511,46.875000
6512,46.875000
6513,46.875000
6514,46.875000
6515,46.875000
6516,46.875000
6517,46.875000
6518,46.875000
6519,46.875000
6520,44.921875
6521,44.921875
6522,44.921875
6523,44.921875
6524,42.968750
6525,44.921875
6526,42.968750
6527,42.968750
6528,44.921875
6529,42.968750
6530,41.015625
6531,41.015625
6532,39.062500
6533,39.062500
6534,39.062500
6535,39.062500
6536,37.109375
6537,37.109375
6538,35.156250
6539,35.156250
6540,35.156250
6541,33.203125
6542,33.203125
6543,33.203125
6544,31.250000
6545,29.296875
6546,29.296875
6547,29.296875
6548,27.343750
6549,27.343750
6550,25.390625
6551,25.390625
6552,23.437500
6553,21.484375
6554,21.484375
6555,21.484375
6556,19.531250
6557,19.531250
6558,17.578125
6559,15.625000
6560,15.625000
6561,15.625000
6562,13.671875
6563,11.718750
6564,11.718750
6565,9.765625
6566,9.765625
6567,7.812500
6568,5.859375
6569,3.906250
6570,3.906250
6571,1.953125
6572,1.953125
6573,0.000000
6574,0.000000
6575,-1.953125
6576,-3.906250
6577,-3.906250
6578,-7.812500
6579,-5.859375
6580,-7.812500
6581,-9.765625
6582,-9.765625
6583,-11.718750
6584,-13.671875
6585,-13.671875
6586,-15.625000
6587,-17.578125
6588,-17.578125
6589,-19.531250
6590,-19.531250
6591,-21.484375
6592,-23.437500
6593,-23.437500
6594,-25.390625
6595,-25.390625
6596,-25.390625
6597,-29.296875
6598,-29.296875
6599,-31.250000
6600,-31.250000
6601,-31.250000
6602,-33.203125
6603,-35.156250
6604,-35.156250
6605,-35.156250
6606,-37.109375
6607,-37.109375
6608,-39.062500
6609,-41.015625
6610,-41.015625
6611,-42.968750
6612,-42.968750
6613,-44.921875
6614,-44.921875
6615,-44.921875
6616,-46.875000
6617,-46.875000
6618,-48.828125
6619,-48.828125
6620,-48.828125
6621,-50.781250
6622,-50.781250
6623,-50.781250
6624,-52.734375
6625,-52.734375
6626,-54.687500
6627,-54.687500
6628,-54.687500
6629,-54.687500
6630,-54.687500
6631,-54.687500
6632,-56.640625
6633,-56.640625
6634,-56.640625
6635,-58.593750
6636,-58.593750
6637,-58.593750
6638,-58.593750
6639,-58.593750
6640,-58.593750
6641,-60.546875
6642,-58.593750
6643,-60.546875
6644,-60.546875
6645,-60.546875
6646,-60.546875
6647,-60.546875
6648,-60.546875
6649,-60.546875
6650,-60.546875
6651,-60.546875
6652,-60.546875
6653,-58.593750
6654,-58.593750
6655,-58.593750
6656,-58.593750
6657,-58.593750
6658,-58.593750
6659,-58.593750
6660,-58.593750
6661,-56.640625
6662,-56.640625
6663,-56.640625
6664,-56.640625
6665,-54.687500
6666,-54.687500
6667,-54.687500
6668,-54.687500
6669,-52.734375
6670,-52.734375
6671,-52.734375
6672,-50.781250
6673,-50.781250
6674,-50.781250
6675,-48.828125
6676,-48.828125
6677,-48.828125
6678,-46.875000
6679,-46.875000
6680,-44.921875
6681,-44.921875
6682,-44.921875
6683,-42.968750
6684,-42.968750
6685,-41.015625
6686,-41.015625
6687,-39.062500
6688,-39.062500
6689,-37.109375
6690,-37.109375
6691,-35.156250
6692,-35.156250
6693,-33.203125
6694,-33.203125
6695,-31.250000
6696,-29.296875
6697,-29.296875
6698,-29.296875
6699,-27.343750
6700,-25.390625
6701,-23.437500
6702,-23.437500
6703,-23.437500
6704,-21.484375
6705,-19.531250
6706,-19.531250
6707,-17.578125
6708,-15.625000
6709,-15.625000
6710,-13.671875
6711,-13.671875
6712,-11.718750
6713,-11.718750
6714,-9.765625
6715,-7.812500
6716,-7.812500
6717,-5.859375
6718,-5.859375
6719,-3.906250
6720,-1.953125
6721,-1.953125
6722,0.000000
6723,0.000000
6724,1.953125
6725,3.906250
6726,3.906250
6727,5.859375
6728,7.812500
6729,7.812500
6730,9.765625
6731,9.765625
6732,11.718750
6733,13.671875
6734,13.671875
6735,15.625000
6736,15.625000
6737,17.578125
6738,17.578125
6739,19.531250
6740,19.531250
6741,21.484375
6742,23.437500
6743,23.437500
6744,25.390625
6745,25.390625
6746,25.390625
6747,27.343750
6748,29.296875
6749,29.296875
6750,29.296875
6751,31.250000
6752,31.250000
6753,33.203125
6754,33.203125
6755,35.156250
6756,35.156250
6757,35.156250
6758,35.156250
6759,37.109375
6760,37.109375
6761,39.062500
6762,39.062500
6763,39.062500
6764,41.015625
6765,41.015625
6766,41.015625
6767,41.015625
6768,42.968750
6769,42.968750
6770,42.968750
6771,44.921875
6772,44.921875
6773,44.921875
6774,44.921875
6775,44.921875
6776,46.875000
6777,46.875000
6778,46.875000
6779,46.875000
6780,46.875000
6781,46.875000
6782,46.875000
6783,46.875000
6784,46.875000
6785,46.875000
6786,46.875000
6787,48.828125
6788,48.828125
6789,48.828125
6790,48.828125
6791,48.828125
6792,48.828125
6793,48.828125
6794,48.828125
6795,48.828125
6796,46.875000
6797,46.875000
6798,46.875000
6799,46.875000
6800,46.875000
6801,46.875000
6802,46.875000
6803,46.875000
6804,44.921875
6805,44.921875
6806,44.921875
6807,44.921875
6808,44.921875
6809,42.968750
6810,42.968750
6811,42.968750
6812,42.968750
6813,41.015625
6814,41.015625
6815,41.015625
6816,41.015625
6817,39.062500
6818,39.062500
6819,39.062500
6820,37.109375
6821,37.109375
6822,35.156250
6823,35.156250
6824,35.156250
6825,33.203125
6826,33.203125
6827,33.203125
6828,31.250000
6829,29.296875
6830,29.296875
6831,29.296875
6832,27.343750
6833,27.343750
6834,25.390625
6835,25.390625
6836,23.437500
6837,23.437500
6838,21.484375
6839,21.484375
6840,19.531250
6841,19.531250
6842,17.578125
6843,17.578125
6844,15.625000
6845,13.671875
6846,13.671875
6847,11.718750
6848,11.718750
6849,9.765625
6850,7.812500
6851,7.812500
6852,5.859375
6853,5.859375
6854,3.906250
6855,3.906250
6856,1.953125
6857,1.953125
6858,0.000000
6859,-1.953125
6860,-1.953125
6861,-3.906250
6862,-3.906250
6863,-5.859375
6864,-7.812500
6865,-9.765625
6866,-9.765625
6867,-11.718750
6868,-11.718750
6869,-13.671875
6870,-15.625000
6871,-15.625000
6872,-17.578125
6873,-17.578125
6874,-19.531250
6875,-21.484375
6876,-21.484375
6877,-23.437500
6878,-23.437500
6879,-25.390625
6880,-25.390625
6881,-27.343750
6882,-29.296875
6883,-29.296875
6884,-31.250000
6885,-31.250000
6886,-33.203125
6887,-33.203125
6888,-35.156250
6889,-37.109375
6890,-37.109375
6891,-39.062500
6892,-39.062500
6893,-39.062500
6894,-41.015625
6895,-42.968750
6896,-42.968750
6897,-44.921875
6898,-44.921875
6899,-44.921875
6900,-46.875000
6901,-46.875000
6902,-48.828125
6903,-48.828125
6904,-48.828125
6905,-50.781250
6906,-50.781250
6907,-50.781250
6908,-52.734375
6909,-52.734375
6910,-54.687500
6911,-54.687500
6912,-54.687500
6913,-54.687500
6914,-54.687500
6915,-56.640625
6916,-56.640625
6917,-56.640625
6918,-56.640625
6919,-58.593750
6920,-58.593750
6921,-58.593750
6922,-58.593750
6923,-58.593750
6924,-58.593750
6925,-58.593750
6926,-60.546875
6927,-58.593750
6928,-60.546875
6929,-60.546875
6930,-60.546875
6931,-60.546875
6932,-60.546875
6933,-60.546875
6934,-60.546875
6935,-58.593750
6936,-60.546875
6937,-60.546875
6938,-58.593750
6939,-58.593750
6940,-58.593750
6941,-58.593750
6942,-58.593750
6943,-58.593750
6944,-58.593750
6945,-56.640625
6946,-56.640625
6947,-56.640625
6948,-56.640625
6949,-56.640625
6950,-54.687500
6951,-54.687500
6952,-54.687500
6953,-52.734375
6954,-52.734375
6955,-52.734375
6956,-52.734375
6957,-50.781250
6958,-50.781250
6959,-50.781250
6960,-48.828125
6961,-48.828125
6962,-46.875000
6963,-46.875000
6964,-46.875000
6965,-44.921875
6966,-44.921875
6967,-42.968750
6968,-42.968750
6969,-42.968750
6970,-41.015625
6971,-39.062500
6972,-39.062500
6973,-39.062500
6974,-37.109375
6975,-35.156250
6976,-35.156250
6977,-35.156250
6978,-33.203125
6979,-33.203125
6980,-31.250000
6981,-29.296875
6982,-29.296875
6983,-27.343750
6984,-27.343750
6985,-25.390625
6986,-23.437500
6987,-21.484375
6988,-21.484375
6989,-19.531250
6990,-19.531250
6991,-17.578125
6992,-17.578125
6993,-15.625000
6994,-13.671875
6995,-13.671875
6996,-11.718750
6997,-9.765625
6998,-9.765625
6999,-7.812500
7000,-7.812500
7001,-5.859375
7002,-5.859375
7003,-3.906250
7004,-1.953125
7005,-1.953125
7006,0.000000
7007,0.000000
7008,1.953125
7009,3.906250
7010,3.906250
7011,5.859375
7012,5.859375
7013,7.812500
7014,9.765625
7015,9.765625
7016,11.718750
7017,11.718750
7018,13.671875
7019,15.625000
7020,15.625000
7021,17.578125
7022,17.578125
7023,19.531250
7024,19.531250
7025,21.484375
7026,21.484375
7027,23.437500
7028,23.437500
7029,25.390625
7030,25.390625
7031,27.343750
7032,27.343750
7033,29.296875
7034,29.296875
7035,31.250000
7036,31.250000
7037,31.250000
7038,33.203125
7039,33.203125
7040,35.156250
7041,35.156250
7042,35.156250
7043,37.109375
7044,37.109375
7045,37.109375
7046,39.062500
7047,39.062500
7048,41.015625
7049,41.015625
7050,41.015625
7051,41.015625
7052,42.968750
7053,42.968750
7054,42.968750
7055,44.921875
7056,44.921875
7057,44.921875
7058,44.921875
7059,46.875000
7060,46.875000
7061,46.875000
7062,46.875000
7063,46.875000
7064,46.875000
7065,46.875000
7066,46.875000
7067,46.875000
7068,48.828125
7069,48.828125
7070,48.828125
7071,48.828125
7072,48.828125
7073,48.828125
7074,48.828125
7075,48.828125
7076,48.828125
7077,48.828125
7078,48.828125
7079,48.828125
7080,48.828125
7081,46.875000
7082,46.875000
7083,46.875000
7084,46.875000
7085,46.875000
7086,46.875000
7087,46.875000
7088,46.875000
7089,46.875000
7090,44.921875
7091,44.921875
7092,44.921875
7093,44.921875
7094,42.968750
7095,42.968750
7096,42.968750
7097,42.968750
7098,41.015625
7099,41.015625
7100,41.015625
7101,39.062500
7102,39.062500
7103,37.109375
7104,37.109375
7105,37.109375
7106,37.109375
7107,35.156250
7108,35.156250
7109,33.203125
7110,33.203125
7111,33.203125
7112,31.250000
7113,31.250000
7114,29.296875
7115,29.296875
7116,27.343750
7117,27.343750
7118,25.390625
7119,25.390625
7120,23.437500
7121,23.437500
7122,21.484375
7123,21.484375
7124,19.531250
7125,19.531250
7126,17.578125
7127,17.578125
7128,15.625000
7129,15.625000
7130,13.671875
7131,13.671875
7132,11.718750
7133,9.765625
7134,9.765625
7135,7.812500
7136,7.812500
7137,5.859375
7138,3.906250
7139,3.906250
7140,1.953125
7141,1.953125
7142,0.000000
7143,-1.953125
7144,-3.906250
7145,-3.906250
7146,-5.859375
7147,-5.859375
7148,-7.812500
7149,-7.812500
7150,-9.765625
7151,-11.718750
7152,-11.718750
7153,-13.671875
7154,-15.625000
7155,-15.625000
7156,-17.578125
7157,-19.531250
7158,-19.531250
7159,-21.484375
7160,-21.484375
7161,-23.437500
7162,-25.390625
7163,-25.390625
7164,-27.343750
7165,-27.343750
7166,-29.296875
7167,-29.296875
7168,-31.250000
7169,-33.203125
7170,-33.203125
7171,-35.156250
7172,-35.156250
7173,-37.109375
7174,-37.109375
7175,-39.062500
7176,-39.062500
7177,-39.062500
7178,-41.015625
7179,-41.015625
7180,-42.968750
7181,-42.968750
7182,-44.921875
7183,-44.921875
7184,-46.875000
7185,-46.875000
7186,-46.875000
7187,-48.828125
7188,-48.828125
7189,-48.828125
7190,-50.781250
7191,-50.781250
7192,-52.734375
7193,-52.734375
7194,-52.734375
7195,-52.734375
7196,-54.687500
7197,-54.687500
7198,-54.687500
7199,-54.687500
7200,-56.640625
7201,-56.640625
7202,-56.640625
7203,-56.640625
7204,-58.593750
7205,-58.593750
7206,-58.593750
7207,-58.593750
7208,-58.593750
7209,-60.546875
7210,-58.593750
7211,-58.593750
7212,-60.546875
7213,-60.546875
7214,-58.593750
7215,-58.593750
7216,-60.546875
7217,-60.546875
7218,-60.546875
7219,-60.546875
7220,-60.546875
7221,-60.546875
7222,-60.546875
7223,-60.546875
7224,-58.593750
7225,-58.593750
7226,-58.593750
7227,-58.593750
7228,-58.593750
7229,-58.593750
7230,-56.640625
7231,-56.640625
7232,-56.640625
7233,-56.640625
7234,-56.640625
7235,-54.687500
7236,-54.687500
7237,-54.687500
7238,-52.734375
7239,-52.734375
7240,-52.734375
7241,-50.781250
7242,-50.781250
7243,-50.781250
7244,-48.828125
7245,-48.828125
7246,-46.875000
7247,-46.875000
7248,-46.875000
7249,-44.921875
7250,-44.921875
7251,-42.968750
7252,-42.968750
7253,-41.015625
7254,-41.015625
7255,-39.062500
7256,-39.062500
7257,-37.109375
7258,-37.109375
7259,-35.156250
7260,-35.156250
7261,-33.203125
7262,-33.203125
7263,-31.250000
7264,-29.296875
7265,-29.296875
7266,-27.343750
7267,-27.343750
7268,-25.390625
7269,-25.390625
7270,-23.437500
7271,-23.437500
7272,-21.484375
7273,-19.531250
7274,-19.531250
7275,-17.578125
7276,-17.578125
7277,-15.625000
7278,-13.671875
7279,-13.671875
7280,-11.718750
7281,-9.765625
7282,-9.765625
7283,-7.812500
7284,-7.812500
7285,-5.859375
7286,-5.859375
7287,-3.906250
7288,-1.953125
7289,-1.953125
7290,0.000000
7291,0.000000
7292,1.953125
7293,1.953125
7294,3.906250
7295,5.859375
7296,7.812500
7297,7.812500
7298,9.765625
7299,9.765625
7300,9.765625
7301,11.718750
7302,13.671875
7303,15.625000
7304,15.625000
7305,15.625000
7306,17.578125
7307,19.531250
7308,19.531250
7309,21.484375
7310,23.437500
7311,23.437500
7312,23.437500
7313,25.390625
7314,25.390625
7315,27.343750
7316,27.343750
7317,29.296875
7318,29.296875
7319,31.250000
7320,31.250000
7321,33.203125
7322,33.203125
7323,33.203125
7324,35.156250
7325,35.156250
7326,37.109375
7327,37.109375
7328,37.109375
7329,39.062500
7330,39.062500
7331,39.062500
7332,39.062500
7333,41.015625
7334,41.015625
7335,42.968750
7336,42.968750
7337,42.968750
7338,42.968750
7339,44.921875
7340,44.921875
7341,44.921875
7342,44.921875
7343,44.921875
7344,46.875000
7345,46.875000
7346,46.875000
7347,46.875000
7348,46.875000
7349,46.875000
7350,46.875000
7351,48.828125
7352,46.875000
7353,48.828125
7354,48.828125
7355,46.875000
7356,48.828125
7357,48.828125
7358,48.828125
7359,48.828125
7360,48.828125
7361,48.828125
7362,46.875000
7363,48.828125
7364,48.828125
7365,46.875000
7366,46.875000
7367,46.875000
7368,46.875000
7369,46.875000
7370,46.875000
7371,46.875000
7372,46.875000
7373,44.921875
7374,44.921875
7375,44.921875
7376,44.921875
7377,42.968750
7378,42.968750
7379,42.968750
7380,42.968750
7381,41.015625
7382,41.015625
7383,41.015625
7384,41.015625
7385,39.062500
7386,39.062500
7387,39.062500
7388,37.109375
7389,37.109375
7390,37.109375
7391,35.156250
7392,35.156250
7393,33.203125
7394,33.203125
7395,31.250000
7396,31.250000
7397,31.250000
7398,29.296875
7399,29.296875
7400,27.343750
7401,27.343750
7402,27.343750
7403,25.390625
7404,23.437500
7405,23.437500
7406,21.484375
7407,21.484375
7408,19.531250
7409,19.531250
7410,17.578125
7411,17.578125
7412,15.625000
7413,13.671875
7414,13.671875
7415,11.718750
7416,11.718750
7417,9.765625
7418,7.812500
7419,7.812500
7420,7.812500
7421,5.859375
7422,3.906250
7423,3.906250
7424,1.953125
7425,0.000000
7426,0.000000
7427,-1.953125
7428,-1.953125
7429,-3.906250
7430,-5.859375
7431,-5.859375
7432,-7.812500
7433,-9.765625
7434,-9.765625
7435,-9.765625
7436,-11.718750
7437,-13.671875
7438,-15.625000
7439,-15.625000
7440,-17.578125
7441,-17.578125
7442,-19.531250
7443,-21.484375
7444,-21.484375
7445,-23.437500
7446,-23.437500
7447,-25.390625
7448,-27.343750
7449,-27.343750
7450,-27.343750
7451,-29.296875
7452,-31.250000
7453,-31.250000
7454,-33.203125
7455,-33.203125
7456,-35.156250
7457,-35.156250
7458,-37.109375
7459,-37.109375
7460,-39.062500
7461,-39.062500
7462,-41.015625
7463,-41.015625
7464,-42.968750
7465,-42.968750
7466,-44.921875
7467,-44.921875
7468,-46.875000
7469,-46.875000
7470,-46.875000
7471,-48.828125
7472,-48.828125
7473,-48.828125
7474,-50.781250
7475,-50.781250
7476,-52.734375
7477,-52.734375
7478,-52.734375
7479,-52.734375
7480,-54.687500
7481,-54.687500
7482,-54.687500
7483,-56.640625
7484,-56.640625
7485,-56.640625
7486,-56.640625
7487,-58.593750
7488,-58.593750
7489,-58.593750
7490,-58.593750
7491,-58.593750
7492,-58.593750
7493,-60.546875
7494,-60.546875
7495,-60.546875
7496,-60.546875
7497,-60.546875
7498,-58.593750
7499,-60.546875
7500,-60.546875
7501,-58.593750
7502,-60.546875
7503,-60.546875
7504,-60.546875
7505,-60.546875
7506,-58.593750
7507,-58.593750
7508,-58.593750
7509,-58.593750
7510,-58.593750
7511,-58.593750
7512,-58.593750
7513,-58.593750
7514,-58.593750
7515,-56.640625
7516,-56.640625
7517,-54.687500
7518,-54.687500
7519,-54.687500
7520,-54.687500
7521,-54.687500
7522,-52.734375
7523,-52.734375
7524,-52.734375
7525,-50.781250
7526,-50.781250
7527,-48.828125
7528,-48.828125
7529,-48.828125
7530,-48.828125
7531,-46.875000
7532,-46.875000
7533,-44.921875
7534,-44.921875
7535,-42.968750
7536,-42.968750
7537,-41.015625
7538,-41.015625
7539,-39.062500
7540,-39.062500
7541,-37.109375
7542,-37.109375
7543,-35.156250
7544,-35.156250
7545,-35.156250
7546,-33.203125
7547,-33.203125
7548,-31.250000
7549,-29.296875
7550,-29.296875
7551,-27.343750
7552,-25.390625
7553,-25.390625
7554,-23.437500
7555,-23.437500
7556,-21.484375
7557,-21.484375
7558,-19.531250
7559,-17.578125
7560,-17.578125
7561,-15.625000
7562,-15.625000
7563,-13.671875
7564,-11.718750
7565,-11.718750
7566,-9.765625
7567,-7.812500
7568,-7.812500
7569,-5.859375
7570,-5.859375
7571,-3.906250
7572,-1.953125
7573,-1.953125
7574,0.000000
7575,0.000000
7576,1.953125
7577,3.906250
7578,3.906250
7579,5.859375
7580,5.859375
7581,7.812500
7582,9.765625
7583,9.765625
7584,11.718750
7585,11.718750
7586,13.671875
7587,13.671875
7588,15.625000
7589,17.578125
7590,17.578125
7591,19.531250
7592,19.531250
7593,21.484375
7594,21.484375
7595,23.437500
7596,23.437500
7597,25.390625
7598,27.343750
7599,27.343750
7600,27.343750
7601,29.296875
7602,29.296875
7603,29.296875
7604,31.250000
7605,31.250000
7606,33.203125
7607,33.203125
7608,33.203125
7609,35.156250
7610,37.109375
7611,37.109375
7612,37.109375
7613,39.062500
7614,39.062500
7615,39.062500
7616,39.062500
7617,41.015625
7618,41.015625
7619,41.015625
7620,42.968750
7621,42.968750
7622,42.968750
7623,42.968750
7624,44.921875
7625,44.921875
7626,44.921875
7627,44.921875
7628,44.921875
7629,46.875000
7630,46.875000
7631,46.875000
7632,46.875000
7633,46.875000
7634,46.875000
7635,46.875000
7636,48.828125
7637,46.875000
7638,48.828125
7639,48.828125
7640,48.828125
7641,48.828125
7642,48.828125
7643,48.828125
7644,48.828125
7645,48.828125
7646,50.781250
7647,48.828125
7648,48.828125
7649,48.828125
7650,46.875000
7651,48.828125
7652,46.875000
7653,46.875000
7654,48.828125
7655,46.875000
7656,42.968750
7657,44.921875
7658,44.921875
7659,44.921875
7660,44.921875
7661,44.921875
7662,42.968750
7663,44.921875
7664,42.968750
7665,41.015625
7666,41.015625
7667,41.015625
7668,41.015625
7669,39.062500
7670,39.062500
7671,37.109375
7672,37.109375
7673,37.109375
7674,37.109375
7675,35.156250
7676,35.156250
7677,33.203125
7678,33.203125
7679,33.203125
7680,31.250000
7681,31.250000
7682,29.296875
7683,29.296875
7684,27.343750
7685,27.343750
7686,25.390625
7687,25.390625
7688,23.437500
7689,23.437500
7690,21.484375
7691,17.578125
7692,19.531250
7693,19.531250
7694,17.578125
7695,15.625000
7696,21.484375
7697,15.625000
7698,13.671875
7699,13.671875
7700,11.718750
7701,9.765625
7702,9.765625
7703,7.812500
7704,7.812500
7705,5.859375
7706,3.906250
7707,3.906250
7708,1.953125
7709,1.953125
7710,0.000000
7711,0.000000
7712,-1.953125
7713,-1.953125
7714,-3.906250
7715,-5.859375
7716,-7.812500
7717,-7.812500
7718,-9.765625
7719,-11.718750
7720,-11.718750
7721,-11.718750
7722,-13.671875
7723,-15.625000
7724,-15.625000
7725,-17.578125
7726,-17.578125
7727,-19.531250
7728,-21.484375
7729,-23.437500
7730,-25.390625
7731,-25.390625
7732,-25.390625
7733,-27.343750
7734,-27.343750
7735,-29.296875
7736,-31.250000
7737,-31.250000
7738,-31.250000
7739,-33.203125
7740,-35.156250
7741,-35.156250
7742,-37.109375
7743,-37.109375
7744,-39.062500
7745,-39.062500
7746,-41.015625
7747,-42.968750
7748,-42.968750
7749,-42.968750
7750,-44.921875
7751,-44.921875
7752,-46.875000
7753,-46.875000
7754,-46.875000
7755,-48.828125
7756,-48.828125
7757,-48.828125
7758,-50.781250
7759,-50.781250
7760,-50.781250
7761,-52.734375
7762,-52.734375
7763,-52.734375
7764,-54.687500
7765,-54.687500
7766,-54.687500
7767,-54.687500
7768,-56.640625
7769,-56.640625
7770,-56.640625
7771,-56.640625
7772,-58.593750
7773,-58.593750
7774,-58.593750
7775,-58.593750
7776,-58.593750
7777,-58.593750
7778,-58.593750
7779,-58.593750
7780,-58.593750
7781,-60.546875
7782,-60.546875
7783,-58.593750
7784,-60.546875
7785,-60.546875
7786,-60.546875
7787,-60.546875
7788,-58.593750
7789,-60.546875
7790,-60.546875
7791,-58.593750
7792,-58.593750
7793,-58.593750
7794,-58.593750
7795,-58.593750
7796,-58.593750
7797,-56.640625
7798,-56.640625
7799,-56.640625
7800,-56.640625
7801,-56.640625
7802,-54.687500
7803,-54.687500
7804,-54.687500
7805,-52.734375
7806,-52.734375
7807,-52.734375
7808,-52.734375
7809,-50.781250
7810,-50.781250
7811,-50.781250
7812,-48.828125
7813,-48.828125
7814,-48.828125
7815,-46.875000
7816,-46.875000
7817,-44.921875
7818,-44.921875
7819,-42.968750
7820,-42.968750
7821,-41.015625
7822,-41.015625
7823,-39.062500
7824,-39.062500
7825,-39.062500
7826,-37.109375
7827,-35.156250
7828,-35.156250
7829,-35.156250
7830,-33.203125
7831,-31.250000
7832,-31.250000
7833,-29.296875
7834,-27.343750
7835,-27.343750
7836,-25.390625
7837,-25.390625
7838,-23.437500
7839,-21.484375
7840,-21.484375
7841,-19.531250
7842,-19.531250
7843,-17.578125
7844,-15.625000
7845,-15.625000
7846,-13.671875
7847,-13.671875
7848,-11.718750
7849,-9.765625
7850,-9.765625
7851,-7.812500
7852,-7.812500
7853,-5.859375
7854,-5.859375
7855,-3.906250
7856,-3.906250
7857,-1.953125
7858,0.000000
7859,1.953125
7860,1.953125
7861,3.906250
7862,3.906250
7863,5.859375
7864,5.859375
7865,7.812500
7866,9.765625
7867,9.765625
7868,11.718750
7869,11.718750
7870,13.671875
7871,13.671875
7872,15.625000
7873,17.578125
7874,17.578125
7875,17.578125
7876,19.531250
7877,19.531250
7878,21.484375
7879,23.437500
7880,23.437500
7881,25.390625
7882,25.390625
7883,27.343750
7884,27.343750
7885,27.343750
7886,29.296875
7887,31.250000
7888,31.250000
7889,31.250000
7890,33.203125
7891,31.250000
7892,35.156250
7893,35.156250
7894,35.156250
7895,37.109375
7896,35.156250
7897,37.109375
7898,39.062500
7899,39.062500
7900,41.015625
7901,41.015625
7902,41.015625
7903,42.968750
7904,42.968750
7905,42.968750
7906,42.968750
7907,44.921875
7908,44.921875
7909,44.921875
7910,44.921875
7911,46.875000
7912,46.875000
7913,46.875000
7914,46.875000
7915,48.828125
7916,46.875000
7917,46.875000
7918,46.875000
7919,48.828125
7920,48.828125
7921,46.875000
7922,48.828125
7923,48.828125
7924,50.781250
7925,48.828125
7926,48.828125
7927,48.828125
7928,46.875000
7929,48.828125
7930,48.828125
7931,46.875000
7932,48.828125
7933,46.875000
7934,46.875000
7935,46.875000
7936,46.875000
7937,46.875000
7938,46.875000
7939,46.875000
7940,46.875000
7941,44.921875
7942,44.921875
7943,44.921875
7944,42.968750
7945,42.968750
7946,42.968750
7947,42.968750
7948,42.968750
7949,41.015625
7950,41.015625
7951,41.015625
7952,41.015625
7953,39.062500
7954,39.062500
7955,39.062500
7956,39.062500
7957,37.109375
7958,37.109375
7959,35.156250
7960,35.156250
7961,33.203125
7962,33.203125
7963,33.203125
7964,31.250000
7965,31.250000
7966,29.296875
7967,29.296875
7968,27.343750
7969,27.343750
7970,27.343750
7971,25.390625
7972,25.390625
7973,23.437500
7974,23.437500
7975,21.484375
7976,19.531250
7977,19.531250
7978,17.578125
7979,17.578125
7980,15.625000
7981,15.625000
7982,13.671875
7983,13.671875
7984,11.718750
7985,11.718750
7986,9.765625
7987,7.812500
7988,7.812500
7989,5.859375
7990,3.906250
7991,3.906250
7992,1.953125
7993,1.953125
7994,0.000000
7995,0.000000
7996,-1.953125
7997,-3.906250
7998,-3.906250
7999,-5.859375
8000,-7.812500
8001,-9.765625
8002,-9.765625
8003,-9.765625
8004,-11.718750
8005,-13.671875
8006,-15.625000
8007,-15.625000
8008,-17.578125
8009,-17.578125
8010,-19.531250
8011,-21.484375
8012,-21.484375
8013,-21.484375
8014,-23.437500
8015,-25.390625
8016,-25.390625
8017,-27.343750
8018,-29.296875
8019,-29.296875
8020,-31.250000
8021,-31.250000
8022,-33.203125
8023,-33.203125
8024,-35.156250
8025,-35.156250
8026,-37.109375
8027,-39.062500
8028,-39.062500
8029,-39.062500
8030,-41.015625
8031,-41.015625
8032,-42.968750
8033,-42.968750
8034,-42.968750
8035,-44.921875
8036,-46.875000
8037,-46.875000
8038,-46.875000
8039,-48.828125
8040,-48.828125
8041,-48.828125
8042,-50.781250
8043,-50.781250
8044,-52.734375
8045,-52.734375
8046,-52.734375
8047,-52.734375
8048,-54.687500
8049,-54.687500
8050,-54.687500
8051,-56.640625
8052,-56.640625
8053,-56.640625
8054,-56.640625
8055,-56.640625
8056,-58.593750
8057,-58.593750
8058,-58.593750
8059,-58.593750
8060,-58.593750
8061,-58.593750
8062,-58.593750
8063,-58.593750
8064,-58.593750
8065,-60.546875
8066,-60.546875
8067,-60.546875
8068,-60.546875
8069,-60.546875
8070,-60.546875
8071,-60.546875
8072,-60.546875
8073,-60.546875
8074,-58.593750
8075,-58.593750
8076,-60.546875
8077,-58.593750
8078,-58.593750
8079,-58.593750
8080,-58.593750
8081,-58.593750
8082,-56.640625
8083,-56.640625
8084,-56.640625
8085,-56.640625
8086,-54.687500
8087,-54.687500
8088,-54.687500
8089,-54.687500
8090,-52.734375
8091,-52.734375
8092,-52.734375
8093,-50.781250
8094,-50.781250
8095,-48.828125
8096,-46.875000
8097,-48.828125
8098,-48.828125
8099,-46.875000
8100,-46.875000
8101,-44.921875
8102,-44.921875
8103,-42.968750
8104,-42.968750
8105,-41.015625
8106,-42.968750
8107,-41.015625
8108,-39.062500
8109,-37.109375
8110,-37.109375
8111,-37.109375
8112,-35.156250
8113,-33.203125
8114,-33.203125
8115,-31.250000
8116,-31.250000
8117,-29.296875
8118,-29.296875
8119,-27.343750
8120,-27.343750
8121,-25.390625
8122,-23.437500
8123,-23.437500
8124,-23.437500
8125,-21.484375
8126,-19.531250
8127,-19.531250
8128,-17.578125
8129,-15.625000
8130,-13.671875
8131,-13.671875
8132,-13.671875
8133,-11.718750
8134,-9.765625
8135,-9.765625
8136,-7.812500
8137,-7.812500
8138,-5.859375
8139,-3.906250
8140,-1.953125
8141,-1.953125
8142,0.000000
8143,0.000000
8144,1.953125
8145,3.906250
8146,3.906250
8147,5.859375
8148,5.859375
8149,7.812500
8150,7.812500
8151,9.765625
8152,11.718750
8153,11.718750
8154,13.671875
8155,13.671875
8156,15.625000
8157,15.625000
8158,17.578125
8159,17.578125
8160,19.531250
8161,21.484375
8162,21.484375
8163,21.484375
8164,23.437500
8165,25.390625
8166,25.390625
8167,27.343750
8168,27.343750
8169,29.296875
8170,29.296875
8171,31.250000
8172,31.250000
8173,31.250000
8174,33.203125
8175,33.203125
8176,35.156250
8177,35.156250
8178,35.156250
8179,37.109375
8180,37.109375
8181,37.109375
8182,39.062500
8183,39.062500
8184,41.015625
8185,41.015625
8186,41.015625
8187,41.015625
8188,42.968750
8189,42.968750
8190,42.968750
8191,42.968750
8192,42.968750
8193,44.921875
8194,44.921875
8195,44.921875
8196,44.921875
8197,46.875000
8198,46.875000
8199,46.875000
8200,46.875000
8201,46.875000
8202,46.875000
8203,46.875000
8204,46.875000
8205,46.875000
8206,48.828125
8207,48.828125
8208,48.828125
8209,48.828125
8210,48.828125
8211,48.828125
8212,48.828125
8213,48.828125
8214,48.828125
8215,48.828125
8216,48.828125
8217,46.875000
8218,46.875000
8219,46.875000
8220,46.875000
8221,46.875000
8222,46.875000
8223,46.875000
8224,46.875000
8225,44.921875
8226,44.921875
8227,44.921875
8228,44.921875
8229,44.921875
8230,42.968750
8231,42.968750
8232,42.968750
8233,42.968750
8234,41.015625
8235,41.015625
8236,41.015625
8237,41.015625
8238,39.062500
8239,39.062500
8240,39.062500
8241,37.109375
8242,37.109375
8243,35.156250
8244,35.156250
8245,33.203125
8246,33.203125
8247,33.203125
8248,31.250000
8249,31.250000
8250,31.250000
8251,29.296875
8252,29.296875
8253,27.343750
8254,25.390625
8255,25.390625
8256,25.390625
8257,23.437500
8258,21.484375
8259,21.484375
8260,21.484375
8261,19.531250
8262,17.578125
8263,17.578125
8264,15.625000
8265,15.625000
8266,13.671875
8267,13.671875
8268,11.718750
8269,9.765625
8270,9.765625
8271,7.812500
8272,7.812500
8273,5.859375
8274,5.859375
8275,3.906250
8276,1.953125
8277,1.953125
8278,0.000000
8279,-1.953125
8280,-1.953125
8281,-3.906250
8282,-3.906250
8283,-5.859375
8284,-7.812500
8285,-7.812500
8286,-9.765625
8287,-9.765625
8288,-11.718750
8289,-11.718750
8290,-13.671875
8291,-15.625000
8292,-17.578125
8293,-17.578125
8294,-17.578125
8295,-19.531250
8296,-21.484375
8297,-21.484375
8298,-23.437500
8299,-25.390625
8300,-25.390625
8301,-27.343750
8302,-27.343750
8303,-29.296875
8304,-29.296875
8305,-31.250000
8306,-33.203125
8307,-33.203125
8308,-35.156250
8309,-35.156250
8310,-37.109375
8311,-37.109375
8312,-39.062500
8313,-37.109375
8314,-41.015625
8315,-41.015625
8316,-42.968750
8317,-42.968750
8318,-44.921875
8319,-44.921875
8320,-46.875000
8321,-46.875000
8322,-46.875000
8323,-48.828125
8324,-48.828125
8325,-50.781250
8326,-50.781250
8327,-50.781250
8328,-52.734375
8329,-52.734375
8330,-52.734375
8331,-54.687500
8332,-54.687500
8333,-54.687500
8334,-54.687500
8335,-54.687500
8336,-56.640625
8337,-56.640625
8338,-56.640625
8339,-58.593750
8340,-58.593750
8341,-58.593750
8342,-58.593750
8343,-58.593750
8344,-58.593750
8345,-58.593750
8346,-58.593750
8347,-58.593750
8348,-58.593750
8349,-60.546875
8350,-58.593750
8351,-58.593750
8352,-60.546875
8353,-60.546875
8354,-58.593750
8355,-60.546875
8356,-58.593750
8357,-60.546875
8358,-58.593750
8359,-58.593750
8360,-58.593750
8361,-58.593750
8362,-58.593750
8363,-58.593750
8364,-58.593750
8365,-58.593750
8366,-56.640625
8367,-56.640625
8368,-56.640625
8369,-56.640625
8370,-54.687500
8371,-54.687500
8372,-54.687500
8373,-54.687500
8374,-52.734375
8375,-52.734375
8376,-52.734375
8377,-50.781250
8378,-50.781250
8379,-50.781250
8380,-48.828125
8381,-48.828125
8382,-48.828125
8383,-46.875000
8384,-46.875000
8385,-44.921875
8386,-44.921875
8387,-42.968750
8388,-42.968750
8389,-42.968750
8390,-41.015625
8391,-41.015625
8392,-39.062500
8393,-37.109375
8394,-37.109375
8395,-37.109375
8396,-35.156250
8397,-33.203125
8398,-33.203125
8399,-33.203125
8400,-31.250000
8401,-29.296875
8402,-29.296875
8403,-27.343750
8404,-27.343750
8405,-25.390625
8406,-25.390625
8407,-23.437500
8408,-21.484375
8409,-21.484375
8410,-19.531250
8411,-17.578125
8412,-17.578125
8413,-15.625000
8414,-13.671875
8415,-13.671875
8416,-13.671875
8417,-11.718750
8418,-9.765625
8419,-9.765625
8420,-7.812500
8421,-5.859375
8422,-3.906250
8423,-3.906250
8424,-1.953125
8425,-1.953125
8426,0.000000
8427,0.000000
8428,1.953125
8429,1.953125
8430,3.906250
8431,5.859375
8432,5.859375
8433,7.812500
8434,9.765625
8435,9.765625
8436,11.718750
8437,11.718750
8438,13.671875
8439,13.671875
8440,15.625000
8441,15.625000
8442,17.578125
8443,17.578125
8444,19.531250
8445,19.531250
8446,21.484375
8447,23.437500
8448,23.437500
8449,25.390625
8450,25.390625
8451,25.390625
8452,27.343750
8453,29.296875
8454,29.296875
8455,31.250000
8456,31.250000
8457,31.250000
8458,33.203125
8459,33.203125
8460,35.156250
8461,35.156250
8462,35.156250
8463,37.109375
8464,37.109375
8465,37.109375
8466,39.062500
8467,39.062500
8468,41.015625
8469,41.015625
8470,41.015625
8471,41.015625
8472,42.968750
8473,42.968750
8474,42.968750
8475,44.921875
8476,44.921875
8477,44.921875
8478,44.921875
8479,44.921875
8480,44.921875
8481,46.875000
8482,46.875000
8483,46.875000
8484,46.875000
8485,48.828125
8486,46.875000
8487,46.875000
8488,48.828125
8489,48.828125
8490,48.828125
8491,48.828125
8492,48.828125
8493,48.828125
8494,48.828125
8495,48.828125
8496,48.828125
8497,48.828125
8498,48.828125
8499,48.828125
8500,48.828125
8501,46.875000
8502,48.828125
8503,46.875000
8504,46.875000
8505,46.875000
8506,46.875000
8507,46.875000
8508,44.921875
8509,44.921875
8510,44.921875
8511,44.921875
8512,44.921875
8513,44.921875
8514,42.968750
8515,42.968750
8516,42.968750
8517,41.015625
8518,41.015625
8519,41.015625
8520,41.015625
8521,39.062500
8522,39.062500
8523,39.062500
8524,37.109375
8525,37.109375
8526,37.109375
8527,35.156250
8528,35.156250
8529,33.203125
8530,33.203125
8531,33.203125
8532,31.250000
8533,31.250000
8534,29.296875
8535,29.296875
8536,27.343750
8537,27.343750
8538,27.343750
8539,25.390625
8540,25.390625
8541,23.437500
8542,21.484375
8543,21.484375
8544,19.531250
8545,19.531250
8546,19.531250
8547,17.578125
8548,15.625000
8549,15.625000
8550,13.671875
8551,13.671875
8552,11.718750
8553,9.765625
8554,9.765625
8555,7.812500
8556,7.812500
8557,5.859375
8558,3.906250
8559,3.906250
8560,1.953125
8561,1.953125
8562,0.000000
8563,0.000000
8564,-1.953125
8565,-3.906250
8566,-3.906250
8567,-5.859375
8568,-5.859375
8569,-7.812500
8570,-9.765625
8571,-9.765625
8572,-11.718750
8573,-11.718750
8574,-15.625000
8575,-15.625000
8576,-15.625000
8577,-17.578125
8578,-19.531250
8579,-19.531250
8580,-21.484375
8581,-23.437500
8582,-23.437500
8583,-25.390625
8584,-25.390625
8585,-27.343750
8586,-29.296875
8587,-29.296875
8588,-29.296875
8589,-31.250000
8590,-33.203125
8591,-33.203125
8592,-35.156250
8593,-35.156250
8594,-37.109375
8595,-37.109375
8596,-39.062500
8597,-39.062500
8598,-39.062500
8599,-41.015625
8600,-42.968750
8601,-42.968750
8602,-42.968750
8603,-44.921875
8604,-46.875000
8605,-46.875000
8606,-46.875000
8607,-46.875000
8608,-48.828125
8609,-48.828125
8610,-48.828125
8611,-50.781250
8612,-52.734375
8613,-52.734375
8614,-52.734375
8615,-52.734375
8616,-52.734375
8617,-54.687500
8618,-54.687500
8619,-54.687500
8620,-56.640625
8621,-56.640625
8622,-56.640625
8623,-56.640625
8624,-56.640625
8625,-58.593750
8626,-58.593750
8627,-58.593750
8628,-58.593750
8629,-58.593750
8630,-58.593750
8631,-58.593750
8632,-58.593750
8633,-58.593750
8634,-60.546875
8635,-58.593750
8636,-60.546875
8637,-60.546875
8638,-60.546875
8639,-60.546875
8640,-60.546875
8641,-60.546875
8642,-60.546875
8643,-58.593750
8644,-58.593750
8645,-58.593750
8646,-58.593750
8647,-58.593750
8648,-58.593750
8649,-58.593750
8650,-58.593750
8651,-56.640625
8652,-56.640625
8653,-56.640625
8654,-56.640625
8655,-54.687500
8656,-54.687500
8657,-54.687500
8658,-52.734375
8659,-52.734375
8660,-50.781250
8661,-50.781250
8662,-50.781250
8663,-50.781250
8664,-48.828125
8665,-48.828125
8666,-46.875000
8667,-46.875000
8668,-46.875000
8669,-44.921875
8670,-44.921875
8671,-42.968750
8672,-42.968750
8673,-41.015625
8674,-41.015625
8675,-39.062500
8676,-39.062500
8677,-39.062500
8678,-37.109375
8679,-37.109375
8680,-35.156250
8681,-33.203125
8682,-33.203125
8683,-31.250000
8684,-31.250000
8685,-29.296875
8686,-27.343750
8687,-27.343750
8688,-25.390625
8689,-25.390625
8690,-23.437500
8691,-21.484375
8692,-21.484375
8693,-19.531250
8694,-19.531250
8695,-17.578125
8696,-17.578125
8697,-15.625000
8698,-15.625000
8699,-13.671875
8700,-11.718750
8701,-11.718750
8702,-9.765625
8703,-7.812500
8704,-7.812500
8705,-5.859375
8706,-5.859375
8707,-3.906250
8708,-1.953125
8709,-1.953125
8710,0.000000
8711,0.000000
8712,1.953125
8713,1.953125
8714,3.906250
8715,3.906250
8716,5.859375
8717,7.812500
8718,7.812500
8719,9.765625
8720,11.718750
8721,11.718750
8722,11.718750
8723,13.671875
8724,15.625000
8725,15.625000
8726,17.578125
8727,19.531250
8728,19.531250
8729,19.531250
8730,21.484375
8731,23.437500
8732,23.437500
8733,23.437500
8734,25.390625
8735,27.343750
8736,27.343750
8737,29.296875
8738,29.296875
8739,31.250000
8740,31.250000
8741,31.250000
8742,33.203125
8743,33.203125
8744,35.156250
8745,35.156250
8746,37.109375
8747,37.109375
8748,37.109375
8749,37.109375
8750,39.062500
8751,39.062500
8752,41.015625
8753,41.015625
8754,41.015625
8755,41.015625
8756,42.968750
8757,42.968750
8758,42.968750
8759,42.968750
8760,44.921875
8761,44.921875
8762,44.921875
8763,44.921875
8764,46.875000
8765,46.875000
8766,46.875000
8767,46.875000
8768,46.875000
8769,46.875000
8770,46.875000
8771,46.875000
8772,46.875000
8773,48.828125
8774,48.828125
8775,48.828125
8776,48.828125
8777,48.828125
8778,48.828125
8779,48.828125
8780,48.828125
8781,48.828125
8782,48.828125
8783,46.875000
8784,48.828125
8785,46.875000
8786,48.828125
8787,46.875000
8788,46.875000
8789,46.875000
8790,46.875000
8791,46.875000
8792,44.921875
8793,44.921875
8794,44.921875
8795,44.921875
8796,44.921875
8797,44.921875
8798,42.968750
8799,42.968750
8800,42.968750
8801,42.968750
8802,41.015625
8803,41.015625
8804,41.015625
8805,39.062500
8806,39.062500
8807,39.062500
8808,39.062500
8809,37.109375
8810,37.109375
8811,35.156250
8812,35.156250
8813,35.156250
8814,33.203125
8815,33.203125
8816,31.250000
8817,31.250000
8818,31.250000
8819,29.296875
8820,29.296875
8821,27.343750
8822,25.390625
8823,25.390625
8824,25.390625
8825,23.437500
8826,23.437500
8827,21.484375
8828,21.484375
8829,19.531250
8830,17.578125
8831,17.578125
8832,17.578125
8833,15.625000
8834,13.671875
8835,13.671875
8836,11.718750
8837,11.718750
8838,9.765625
8839,9.765625
8840,7.812500
8841,5.859375
8842,5.859375
8843,3.906250
8844,1.953125
8845,1.953125
8846,0.000000
8847,-1.953125
8848,-1.953125
8849,-3.906250
8850,-3.906250
8851,-5.859375
8852,-5.859375
8853,-7.812500
8854,-9.765625
8855,-9.765625
8856,-11.718750
8857,-13.671875
8858,-13.671875
8859,-13.671875
8860,-15.625000
8861,-17.578125
8862,-17.578125
8863,-19.531250
8864,-19.531250
8865,-21.484375
8866,-23.437500
8867,-25.390625
8868,-25.390625
8869,-27.343750
8870,-27.343750
8871,-29.296875
8872,-29.296875
8873,-31.250000
8874,-31.250000
8875,-33.203125
8876,-33.203125
8877,-35.156250
8878,-35.156250
8879,-37.109375
8880,-37.109375
8881,-39.062500
8882,-41.015625
8883,-42.968750
8884,-42.968750
8885,-42.968750
8886,-42.968750
8887,-44.921875
8888,-44.921875
8889,-46.875000
8890,-46.875000
8891,-46.875000
8892,-48.828125
8893,-50.781250
8894,-50.781250
8895,-50.781250
8896,-50.781250
8897,-52.734375
8898,-52.734375
8899,-52.734375
8900,-54.687500
8901,-54.687500
8902,-54.687500
8903,-54.687500
8904,-56.640625
8905,-56.640625
8906,-56.640625
8907,-56.640625
8908,-58.593750
8909,-58.593750
8910,-58.593750
8911,-58.593750
8912,-58.593750
8913,-60.546875
8914,-58.593750
8915,-60.546875
8916,-58.593750
8917,-60.546875
8918,-60.546875
8919,-60.546875
8920,-58.593750
8921,-60.546875
8922,-60.546875
8923,-60.546875
8924,-60.546875
8925,-58.593750
8926,-60.546875
8927,-58.593750
8928,-58.593750
8929,-58.593750
8930,-58.593750
8931,-58.593750
8932,-56.640625
8933,-58.593750
8934,-56.640625
8935,-56.640625
8936,-56.640625
8937,-54.687500
8938,-54.687500
8939,-54.687500
8940,-54.687500
8941,-54.687500
8942,-52.734375
8943,-52.734375
8944,-52.734375
8945,-50.781250
8946,-50.781250
8947,-50.781250
8948,-48.828125
8949,-48.828125
8950,-48.828125
8951,-46.875000
8952,-46.875000
8953,-46.875000
8954,-44.921875
8955,-42.968750
8956,-42.968750
8957,-42.968750
8958,-41.015625
8959,-41.015625
8960,-39.062500
8961,-39.062500
8962,-37.109375
8963,-37.109375
8964,-35.156250
8965,-35.156250
8966,-33.203125
8967,-33.203125
8968,-31.250000
8969,-31.250000
8970,-29.296875
8971,-29.296875
8972,-27.343750
8973,-25.390625
8974,-25.390625
8975,-23.437500
8976,-23.437500
8977,-21.484375
8978,-19.531250
8979,-19.531250
8980,-17.578125
8981,-15.625000
8982,-15.625000
8983,-13.671875
8984,-13.671875
8985,-11.718750
8986,-9.765625
8987,-9.765625
8988,-7.812500
8989,-7.812500
8990,-5.859375
8991,-3.906250
8992,-3.906250
8993,-1.953125
8994,0.000000
8995,0.000000
8996,1.953125
8997,3.906250
8998,3.906250
8999,5.859375
9000,5.859375
9001,7.812500
9002,9.765625
9003,9.765625
9004,11.718750
9005,11.718750
9006,13.671875
9007,13.671875
9008,15.625000
9009,15.625000
9010,17.578125
9011,19.531250
9012,19.531250
9013,21.484375
9014,21.484375
9015,23.437500
9016,23.437500
9017,25.390625
9018,25.390625
9019,27.343750
9020,27.343750
9021,29.296875
9022,29.296875
9023,29.296875
9024,31.250000
9025,31.250000
9026,33.203125
9027,33.203125
9028,35.156250
9029,35.156250
9030,35.156250
9031,37.109375
9032,37.109375
9033,37.109375
9034,39.062500
9035,39.062500
9036,39.062500
9037,41.015625
9038,41.015625
9039,41.015625
9040,42.968750
9041,42.968750
9042,42.968750
9043,42.968750
9044,44.921875
9045,44.921875
9046,44.921875
9047,44.921875
9048,44.921875
9049,46.875000
9050,46.875000
9051,46.875000
9052,46.875000
9053,46.875000
9054,46.875000
9055,48.828125
9056,48.828125
9057,46.875000
9058,48.828125
9059,48.828125
9060,48.828125
9061,46.875000
9062,48.828125
9063,48.828125
9064,48.828125
9065,48.828125
9066,48.828125
9067,48.828125
9068,48.828125
9069,48.828125
9070,48.828125
9071,46.875000
9072,46.875000
9073,46.875000
9074,46.875000
9075,46.875000
9076,46.875000
9077,44.921875
9078,46.875000
9079,44.921875
9080,44.921875
9081,44.921875
9082,42.968750
9083,42.968750
9084,42.968750
9085,42.968750
9086,42.968750
9087,41.015625
9088,41.015625
9089,41.015625
9090,39.062500
9091,41.015625
9092,39.062500
9093,37.109375
9094,37.109375
9095,35.156250
9096,35.156250
9097,35.156250
9098,33.203125
9099,31.250000
9100,33.203125
9101,31.250000
9102,29.296875
9103,29.296875
9104,29.296875
9105,27.343750
9106,27.343750
9107,25.390625
9108,23.437500
9109,23.437500
9110,23.437500
9111,21.484375
9112,19.531250
9113,19.531250
9114,17.578125
9115,17.578125
9116,15.625000
9117,15.625000
9118,13.671875
9119,13.671875
9120,11.718750
9121,11.718750
9122,9.765625
9123,7.812500
9124,7.812500
9125,5.859375
9126,5.859375
9127,3.906250
9128,3.906250
9129,1.953125
9130,0.000000
9131,-1.953125
9132,-1.953125
9133,-3.906250
9134,-3.906250
9135,-5.859375
9136,-5.859375
9137,-7.812500
9138,-9.765625
9139,-9.765625
9140,-11.718750
9141,-13.671875
9142,-13.671875
9143,-15.625000
9144,-15.625000
9145,-17.578125
9146,-19.531250
9147,-19.531250
9148,-21.484375
9149,-21.484375
9150,-23.437500
9151,-23.437500
9152,-25.390625
9153,-27.343750
9154,-27.343750
9155,-29.296875
9156,-29.296875
9157,-31.250000
9158,-31.250000
9159,-33.203125
9160,-33.203125
9161,-35.156250
9162,-37.109375
9163,-37.109375
9164,-39.062500
9165,-39.062500
9166,-39.062500
9167,-41.015625
9168,-42.968750
9169,-42.968750
9170,-42.968750
9171,-44.921875
9172,-44.921875
9173,-46.875000
9174,-46.875000
9175,-48.828125
9176,-48.828125
9177,-50.781250
9178,-48.828125
9179,-50.781250
9180,-50.781250
9181,-52.734375
9182,-52.734375
9183,-52.734375
9184,-52.734375
9185,-54.687500
9186,-54.687500
9187,-54.687500
9188,-56.640625
9189,-56.640625
9190,-56.640625
9191,-56.640625
9192,-58.593750
9193,-56.640625
9194,-58.593750
9195,-58.593750
9196,-58.593750
9197,-58.593750
9198,-58.593750
9199,-58.593750
9200,-58.593750
9201,-58.593750
9202,-60.546875
9203,-60.546875
9204,-58.593750
9205,-60.546875
9206,-58.593750
9207,-60.546875
9208,-60.546875
9209,-58.593750
9210,-58.593750
9211,-60.546875
9212,-58.593750
9213,-58.593750
9214,-58.593750
9215,-58.593750
9216,-58.593750
9217,-56.640625
9218,-56.640625
9219,-56.640625
9220,-56.640625
9221,-56.640625
9222,-56.640625
9223,-54.687500
9224,-54.687500
9225,-54.687500
9226,-54.687500
9227,-52.734375
9228,-52.734375
9229,-50.781250
9230,-50.781250
9231,-50.781250
9232,-48.828125
9233,-48.828125
9234,-48.828125
9235,-46.875000
9236,-46.875000
9237,-44.921875
9238,-44.921875
9239,-44.921875
9240,-42.968750
9241,-42.968750
9242,-41.015625
9243,-41.015625
9244,-39.062500
9245,-37.109375
9246,-37.109375
9247,-37.109375
9248,-35.156250
9249,-35.156250
9250,-33.203125
9251,-31.250000
9252,-31.250000
9253,-31.250000
9254,-29.296875
9255,-27.343750
9256,-27.343750
9257,-25.390625
9258,-23.437500
9259,-23.437500
9260,-21.484375
9261,-21.484375
9262,-19.531250
9263,-19.531250
9264,-17.578125
9265,-15.625000
9266,-15.625000
9267,-13.671875
9268,-11.718750
9269,-9.765625
9270,-9.765625
9271,-9.765625
9272,-7.812500
9273,-5.859375
9274,-5.859375
9275,-3.906250
9276,-3.906250
9277,-1.953125
9278,-1.953125
9279,0.000000
9280,1.953125
9281,1.953125
9282,3.906250
9283,3.906250
9284,5.859375
9285,7.812500
9286,7.812500
9287,9.765625
9288,11.718750
9289,11.718750
9290,13.671875
9291,13.671875
9292,15.625000
9293,15.625000
9294,17.578125
9295,17.578125
9296,19.531250
9297,19.531250
9298,21.484375
9299,23.437500
9300,23.437500
9301,23.437500
9302,25.390625
9303,25.390625
9304,27.343750
9305,29.296875
9306,29.296875
9307,29.296875
9308,31.250000
9309,31.250000
9310,31.250000
9311,33.203125
9312,33.203125
9313,35.156250
9314,35.156250
9315,37.109375
9316,37.109375
9317,39.062500
9318,39.062500
9319,39.062500
9320,41.015625
9321,39.062500
9322,41.015625
9323,41.015625
9324,42.968750
9325,42.968750
9326,42.968750
9327,44.921875
9328,44.921875
9329,44.921875
9330,44.921875
9331,44.921875
9332,44.921875
9333,46.875000
9334,46.875000
9335,46.875000
9336,46.875000
9337,46.875000
9338,46.875000
9339,48.828125
9340,48.828125
9341,48.828125
9342,46.875000
9343,48.828125
9344,48.828125
9345,48.828125
9346,48.828125
9347,48.828125
9348,48.828125
9349,48.828125
9350,48.828125
9351,48.828125
9352,48.828125
9353,46.875000
9354,46.875000
9355,48.828125
9356,46.875000
9357,46.875000
9358,46.875000
9359,46.875000
9360,46.875000
9361,44.921875
9362,44.921875
9363,44.921875
9364,44.921875
9365,44.921875
9366,44.921875
9367,42.968750
9368,42.968750
9369,41.015625
9370,41.015625
9371,41.015625
9372,41.015625
9373,39.062500
9374,39.062500
9375,39.062500
9376,37.109375
9377,37.109375
9378,37.109375
9379,35.156250
9380,35.156250
9381,35.156250
9382,33.203125
9383,33.203125
9384,31.250000
9385,31.250000
9386,31.250000
9387,29.296875
9388,29.296875
9389,27.343750
9390,27.343750
9391,25.390625
9392,25.390625
9393,23.437500
9394,23.437500
9395,21.484375
9396,21.484375
9397,19.531250
9398,19.531250
9399,17.578125
9400,17.578125
9401,15.625000
9402,15.625000
9403,13.671875
9404,13.671875
9405,11.718750
9406,9.765625
9407,9.765625
9408,7.812500
9409,5.859375
9410,5.859375
9411,3.906250
9412,1.953125
9413,1.953125
9414,0.000000
9415,0.000000
9416,-1.953125
9417,-1.953125
9418,-3.906250
9419,-5.859375
9420,-7.812500
9421,-7.812500
9422,-9.765625
9423,-9.765625
9424,-11.718750
9425,-11.718750
9426,-13.671875
9427,-15.625000
9428,-15.625000
9429,-17.578125
9430,-17.578125
9431,-19.531250
9432,-21.484375
9433,-21.484375
9434,-23.437500
9435,-23.437500
9436,-25.390625
9437,-29.296875
9438,-27.343750
9439,-29.296875
9440,-29.296875
9441,-31.250000
9442,-33.203125
9443,-33.203125
9444,-33.203125
9445,-35.156250
9446,-37.109375
9447,-37.109375
9448,-37.109375
9449,-39.062500
9450,-39.062500
9451,-41.015625
9452,-41.015625
9453,-42.968750
9454,-42.968750
9455,-44.921875
9456,-44.921875
9457,-46.875000
9458,-46.875000
9459,-46.875000
9460,-48.828125
9461,-48.828125
9462,-50.781250
9463,-50.781250
9464,-50.781250
9465,-50.781250
9466,-52.734375
9467,-52.734375
9468,-52.734375
9469,-54.687500
9470,-54.687500
9471,-54.687500
9472,-56.640625
9473,-56.640625
9474,-56.640625
9475,-56.640625
9476,-58.593750
9477,-58.593750
9478,-58.593750
9479,-58.593750
9480,-56.640625
9481,-58.593750
9482,-58.593750
9483,-58.593750
9484,-60.546875
9485,-60.546875
9486,-60.546875
9487,-60.546875
9488,-60.546875
9489,-58.593750
9490,-60.546875
9491,-60.546875
9492,-60.546875
9493,-58.593750
9494,-60.546875
9495,-58.593750
9496,-58.593750
9497,-58.593750
9498,-58.593750
9499,-58.593750
9500,-58.593750
9501,-58.593750
9502,-56.640625
9503,-56.640625
9504,-56.640625
9505,-56.640625
9506,-56.640625
9507,-54.687500
9508,-54.687500
9509,-54.687500
9510,-52.734375
9511,-52.734375
9512,-52.734375
9513,-50.781250
9514,-50.781250
9515,-50.781250
9516,-48.828125
9517,-48.828125
9518,-48.828125
9519,-46.875000
9520,-46.875000
9521,-44.921875
9522,-44.921875
9523,-42.968750
9524,-42.968750
9525,-42.968750
9526,-41.015625
9527,-41.015625
9528,-39.062500
9529,-39.062500
9530,-37.109375
9531,-37.109375
9532,-35.156250
9533,-33.203125
9534,-33.203125
9535,-31.250000
9536,-31.250000
9537,-29.296875
9538,-29.296875
9539,-27.343750
9540,-27.343750
9541,-25.390625
9542,-25.390625
9543,-23.437500
9544,-23.437500
9545,-21.484375
9546,-19.531250
9547,-19.531250
9548,-17.578125
9549,-15.625000
9550,-15.625000
9551,-13.671875
9552,-13.671875
9553,-11.718750
9554,-9.765625
9555,-9.765625
9556,-7.812500
9557,-7.812500
9558,-5.859375
9559,-3.906250
9560,-3.906250
9561,-1.953125
9562,-1.953125
9563,0.000000
9564,1.953125
9565,1.953125
9566,3.906250
9567,3.906250
9568,5.859375
9569,7.812500
9570,7.812500
9571,9.765625
9572,11.718750
9573,11.718750
9574,13.671875
9575,13.671875
9576,15.625000
9577,15.625000
9578,17.578125
9579,17.578125
9580,19.531250
9581,21.484375
9582,21.484375
9583,21.484375
9584,25.390625
9585,25.390625
9586,25.390625
9587,25.390625
9588,27.343750
9589,29.296875
9590,29.296875
9591,29.296875
9592,31.250000
9593,31.250000
9594,33.203125
9595,33.203125
9596,35.156250
9597,35.156250
9598,35.156250
9599,37.109375
9600,37.109375
9601,37.109375
9602,37.109375
9603,39.062500
9604,39.062500
9605,41.015625
9606,41.015625
9607,41.015625
9608,42.968750
9609,42.968750
9610,42.968750
9611,42.968750
9612,44.921875
9613,44.921875
9614,44.921875
9615,44.921875
9616,44.921875
9617,46.875000
9618,46.875000
9619,46.875000
9620,46.875000
9621,46.875000
9622,46.875000
9623,46.875000
9624,46.875000
9625,46.875000
9626,48.828125
9627,48.828125
9628,48.828125
9629,48.828125
9630,48.828125
9631,48.828125
9632,48.828125
9633,48.828125
9634,48.828125
9635,48.828125
9636,46.875000
9637,46.875000
9638,48.828125
9639,46.875000
9640,46.875000
9641,48.828125
9642,46.875000
9643,46.875000
9644,46.875000
9645,46.875000
9646,44.921875
9647,44.921875
9648,44.921875
9649,44.921875
9650,44.921875
9651,42.968750
9652,42.968750
9653,42.968750
9654,41.015625
9655,41.015625
9656,41.015625
9657,41.015625
9658,39.062500
9659,39.062500
9660,39.062500
9661,37.109375
9662,37.109375
9663,35.156250
9664,35.156250
9665,35.156250
9666,33.203125
9667,33.203125
9668,33.203125
9669,31.250000
9670,31.250000
9671,29.296875
9672,29.296875
9673,27.343750
9674,27.343750
9675,25.390625
9676,25.390625
9677,25.390625
9678,23.437500
9679,21.484375
9680,21.484375
9681,19.531250
9682,19.531250
9683,19.531250
9684,15.625000
9685,15.625000
9686,15.625000
9687,13.671875
9688,11.718750
9689,11.718750
9690,9.765625
9691,9.765625
9692,7.812500
9693,5.859375
9694,5.859375
9695,3.906250
9696,3.906250
9697,1.953125
9698,0.000000
9699,0.000000
9700,-1.953125
9701,-1.953125
9702,-3.906250
9703,-5.859375
9704,-5.859375
9705,-7.812500
9706,-7.812500
9707,-9.765625
9708,-11.718750
9709,-11.718750
9710,-13.671875
9711,-13.671875
9712,-15.625000
9713,-17.578125
9714,-17.578125
9715,-19.531250
9716,-21.484375
9717,-21.484375
9718,-23.437500
9719,-23.437500
9720,-25.390625
9721,-25.390625
9722,-27.343750
9723,-29.296875
9724,-29.296875
9725,-29.296875
9726,-31.250000
9727,-33.203125
9728,-35.156250
9729,-35.156250
9730,-35.156250
9731,-37.109375
9732,-37.109375
9733,-39.062500
9734,-39.062500
9735,-41.015625
9736,-41.015625
9737,-42.968750
9738,-42.968750
9739,-44.921875
9740,-44.921875
9741,-46.875000
9742,-46.875000
9743,-48.828125
9744,-48.828125
9745,-48.828125
9746,-48.828125
9747,-50.781250
9748,-52.734375
9749,-52.734375
9750,-52.734375
9751,-52.734375
9752,-54.687500
9753,-54.687500
9754,-54.687500
9755,-56.640625
9756,-56.640625
9757,-56.640625
9758,-56.640625
9759,-56.640625
9760,-58.593750
9761,-56.640625
9762,-58.593750
9763,-58.593750
9764,-58.593750
9765,-58.593750
9766,-58.593750
9767,-58.593750
9768,-58.593750
9769,-60.546875
9770,-58.593750
9771,-60.546875
9772,-58.593750
9773,-58.593750
9774,-60.546875
9775,-60.546875
9776,-60.546875
9777,-58.593750
9778,-58.593750
9779,-58.593750
9780,-58.593750
9781,-58.593750
9782,-58.593750
9783,-58.593750
9784,-58.593750
9785,-58.593750
9786,-56.640625
9787,-56.640625
9788,-56.640625
9789,-56.640625
9790,-54.687500
9791,-54.687500
9792,-54.687500
9793,-54.687500
9794,-52.734375
9795,-52.734375
9796,-52.734375
9797,-50.781250
9798,-50.781250
9799,-50.781250
9800,-48.828125
9801,-48.828125
9802,-48.828125
9803,-46.875000
9804,-46.875000
9805,-46.875000
9806,-44.921875
9807,-44.921875
9808,-42.968750
9809,-42.968750
9810,-41.015625
9811,-41.015625
9812,-39.062500
9813,-39.062500
9814,-37.109375
9815,-37.109375
9816,-35.156250
9817,-35.156250
9818,-33.203125
9819,-33.203125
9820,-31.250000
9821,-29.296875
9822,-29.296875
9823,-29.296875
9824,-27.343750
9825,-25.390625
9826,-25.390625
9827,-23.437500
9828,-23.437500
9829,-21.484375
9830,-19.531250
9831,-19.531250
9832,-17.578125
9833,-17.578125
9834,-15.625000
9835,-13.671875
9836,-13.671875
9837,-11.718750
9838,-9.765625
9839,-9.765625
9840,-7.812500
9841,-5.859375
9842,-5.859375
9843,-3.906250
9844,-3.906250
9845,-1.953125
9846,0.000000
9847,0.000000
9848,1.953125
9849,1.953125
9850,3.906250
9851,3.906250
9852,5.859375
9853,7.812500
9854,7.812500
9855,9.765625
9856,11.718750
9857,11.718750
9858,13.671875
9859,13.671875
9860,15.625000
9861,15.625000
9862,17.578125
9863,17.578125
9864,19.531250
9865,19.531250
9866,21.484375
9867,21.484375
9868,23.437500
9869,23.437500
9870,25.390625
9871,25.390625
9872,27.343750
9873,27.343750
9874,29.296875
9875,29.296875
9876,31.250000
9877,31.250000
9878,33.203125
9879,33.203125
9880,33.203125
9881,35.156250
9882,35.156250
9883,35.156250
9884,37.109375
9885,37.109375
9886,39.062500
9887,39.062500
9888,39.062500
9889,41.015625
9890,41.015625
9891,41.015625
9892,42.968750
9893,42.968750
9894,42.968750
9895,42.968750
9896,42.968750
9897,44.921875
9898,44.921875
9899,46.875000
9900,44.921875
9901,46.875000
9902,46.875000
9903,46.875000
9904,46.875000
9905,46.875000
9906,48.828125
9907,48.828125
9908,48.828125
9909,48.828125
9910,48.828125
9911,48.828125
9912,48.828125
9913,48.828125
9914,48.828125
9915,48.828125
9916,48.828125
9917,48.828125
9918,48.828125
9919,48.828125
9920,48.828125
9921,48.828125
9922,48.828125
9923,46.875000
9924,46.875000
9925,46.875000
9926,46.875000
9927,46.875000
9928,46.875000
9929,44.921875
9930,44.921875
9931,44.921875
9932,44.921875
9933,44.921875
9934,44.921875
9935,42.968750
9936,42.968750
9937,42.968750
9938,41.015625
9939,41.015625
9940,41.015625
9941,41.015625
9942,39.062500
9943,39.062500
9944,37.109375
9945,37.109375
9946,37.109375
9947,37.109375
9948,35.156250
9949,35.156250
9950,33.203125
9951,33.203125
9952,31.250000
9953,31.250000
9954,31.250000
9955,29.296875
9956,29.296875
9957,29.296875
9958,27.343750
9959,25.390625
9960,25.390625
9961,23.437500
9962,23.437500
9963,21.484375
9964,21.484375
9965,19.531250
9966,19.531250
9967,17.578125
9968,17.578125
9969,15.625000
9970,15.625000
9971,13.671875
9972,11.718750
9973,11.718750
9974,9.765625
9975,9.765625
9976,7.812500
9977,7.812500
9978,5.859375
9979,3.906250
9980,3.906250
9981,1.953125
9982,1.953125
9983,0.000000
9984,-1.953125
9985,-1.953125
9986,-3.906250
9987,-3.906250
9988,-5.859375
9989,-7.812500
9990,-7.812500
9991,-7.812500
9992,-11.718750
9993,-11.718750
9994,-13.671875
9995,-15.625000
9996,-15.625000
9997,-17.578125
9998,-17.578125
9999,-19.531250
10000,-21.484375
