Channel              :,CH1
Frequency            :,1.010kHz
Period               :,0.990ms
PK-PK                :,316.4mV
Probe attenuation    :,1X
Voltage per ADC value:,0.244141mV
Time interval        :,1.00000us

index,CH1_Voltage(mV)
1,-78.125000
2,-78.125000
3,-74.218750
4,-74.218750
5,-74.218750
6,-70.312500
7,-70.312500
8,-70.312500
9,-70.312500
10,-70.312500
11,-66.406250
12,-66.406250
13,-66.406250
14,-62.500000
15,-62.500000
16,-62.500000
17,-62.500000
18,-58.593750
19,-58.593750
20,-58.593750
21,-58.593750
22,-54.687500
23,-54.687500
24,-54.687500
25,-54.687500
26,-50.781250
27,-50.781250
28,-50.781250
29,-50.781250
30,-46.875000
31,-46.875000
32,-46.875000
33,-46.875000
34,-42.968750
35,-42.968750
36,-42.968750
37,-39.062500
38,-39.062500
39,-39.062500
40,-39.062500
41,-39.062500
42,-35.156250
43,-35.156250
44,-35.156250
45,-31.250000
46,-31.250000
47,-31.250000
48,-27.343750
49,-27.343750
50,-27.343750
51,-27.343750
52,-27.343750
53,-23.437500
54,-23.437500
55,-23.437500
56,-19.531250
57,-19.531250
58,-19.531250
59,-19.531250
60,-19.531250
61,-15.625000
62,-15.625000
63,-15.625000
64,-11.718750
65,-11.718750
66,-11.718750
67,-11.718750
68,-7.812500
69,-7.812500
70,-7.812500
71,-7.812500
72,-3.906250
73,-3.906250
74,-3.906250
75,-3.906250
76,0.000000
77,0.000000
78,0.000000
79,0.000000
80,3.906250
81,3.906250
82,3.906250
83,3.906250
84,7.812500
85,7.812500
86,7.812500
87,7.812500
88,11.718750
89,11.718750
90,11.718750
91,11.718750
92,15.625000
93,15.625000
94,15.625000
95,15.625000
96,19.531250
97,19.531250
98,19.531250
99,19.531250
100,23.437500
101,23.437500
102,23.437500
103,23.437500
104,23.437500
105,27.343750
106,27.343750
107,27.343750
108,31.250000
109,31.250000
110,31.250000
111,31.250000
112,31.250000
113,35.156250
114,35.156250
115,35.156250
116,35.156250
117,39.062500
118,39.062500
119,39.062500
120,39.062500
121,39.062500
122,42.968750
123,42.968750
124,42.968750
125,42.968750
126,46.875000
127,46.875000
128,46.875000
129,46.875000
130,46.875000
131,50.781250
132,50.781250
133,50.781250
134,50.781250
135,54.687500
136,54.687500
137,54.687500
138,54.687500
139,54.687500
140,58.593750
141,58.593750
142,58.593750
143,58.593750
144,58.593750
145,62.500000
146,62.500000
147,62.500000
148,62.500000
149,62.500000
150,66.406250
151,66.406250
152,66.406250
153,66.406250
154,70.312500
155,70.312500
156,70.312500
157,70.312500
158,70.312500
159,70.312500
160,70.312500
161,70.312500
162,74.218750
163,74.218750
164,74.218750
165,78.125000
166,78.125000
167,78.125000
168,78.125000
169,78.125000
170,78.125000
171,82.031250
172,82.031250
173,82.031250
174,82.031250
175,82.031250
176,85.937500
177,85.937500
178,85.937500
179,85.937500
180,85.937500
181,85.937500
182,89.843750
183,85.937500
184,89.843750
185,89.843750
186,89.843750
187,89.843750
188,89.843750
189,89.843750
190,93.750000
191,93.750000
192,93.750000
193,93.750000
194,93.750000
195,93.750000
196,97.656250
197,97.656250
198,97.656250
199,97.656250
200,97.656250
201,97.656250
202,97.656250
203,97.656250
204,101.562500
205,101.562500
206,101.562500
207,101.562500
208,101.562500
209,105.468750
210,105.468750
211,105.468750
212,105.468750
213,105.468750
214,105.468750
215,105.468750
216,105.468750
217,109.375000
218,109.375000
219,109.375000
220,109.375000
221,109.375000
222,109.375000
223,109.375000
224,109.375000
225,109.375000
226,113.281250
227,113.281250
228,113.281250
229,113.281250
230,113.281250
231,113.281250
232,113.281250
233,113.281250
234,117.187500
235,117.187500
236,117.187500
237,117.187500
238,117.187500
239,117.187500
240,117.187500
241,117.187500
242,117.187500
243,117.187500
244,117.187500
245,117.187500
246,121.093750
247,121.093750
248,121.093750
249,121.093750
250,121.093750
251,121.093750
252,121.093750
253,121.093750
254,125.000000
255,121.093750
256,125.000000
257,125.000000
258,125.000000
259,125.000000
260,125.000000
261,125.000000
262,125.000000
263,125.000000
264,125.000000
265,125.000000
266,125.000000
267,125.000000
268,128.906250
269,125.000000
270,128.906250
271,128.906250
272,128.906250
273,128.906250
274,128.906250
275,128.906250
276,128.906250
277,128.906250
278,128.906250
279,128.906250
280,128.906250
281,128.906250
282,128.906250
283,128.906250
284,128.906250
285,128.906250
286,132.812500
287,128.906250
288,132.812500
289,132.812500
290,132.812500
291,132.812500
292,132.812500
293,132.812500
294,132.812500
295,132.812500
296,132.812500
297,132.812500
298,132.812500
299,132.812500
300,132.812500
301,132.812500
302,132.812500
303,132.812500
304,132.812500
305,132.812500
306,132.812500
307,132.812500
308,132.812500
309,132.812500
310,132.812500
311,132.812500
312,132.812500
313,132.812500
314,132.812500
315,132.812500
316,132.812500
317,132.812500
318,132.812500
319,132.812500
320,132.812500
321,132.812500
322,132.812500
323,132.812500
324,132.812500
325,132.812500
326,132.812500
327,132.812500
328,132.812500
329,132.812500
330,132.812500
331,132.812500
332,132.812500
333,132.812500
334,132.812500
335,132.812500
336,132.812500
337,132.812500
338,132.812500
339,132.812500
340,132.812500
341,132.812500
342,132.812500
343,132.812500
344,132.812500
345,132.812500
346,132.812500
347,132.812500
348,132.812500
349,132.812500
350,132.812500
351,128.906250
352,132.812500
353,132.812500
354,132.812500
355,128.906250
356,132.812500
357,128.906250
358,128.906250
359,128.906250
360,128.906250
361,128.906250
362,128.906250
363,128.906250
364,128.906250
365,128.906250
366,128.906250
367,128.906250
368,128.906250
369,128.906250
370,128.906250
371,128.906250
372,128.906250
373,128.906250
374,128.906250
375,128.906250
376,125.000000
377,125.000000
378,125.000000
379,125.000000
380,125.000000
381,125.000000
382,125.000000
383,125.000000
384,125.000000
385,125.000000
386,125.000000
387,125.000000
388,125.000000
389,125.000000
390,125.000000
391,121.093750
392,121.093750
393,121.093750
394,121.093750
395,121.093750
396,121.093750
397,121.093750
398,121.093750
399,121.093750
400,117.187500
401,117.187500
402,117.187500
403,117.187500
404,117.187500
405,117.187500
406,117.187500
407,117.187500
408,117.187500
409,113.281250
410,117.187500
411,113.281250
412,113.281250
413,113.281250
414,113.281250
415,113.281250
416,113.281250
417,113.281250
418,109.375000
419,109.375000
420,109.375000
421,109.375000
422,109.375000
423,109.375000
424,109.375000
425,109.375000
426,105.468750
427,105.468750
428,105.468750
429,105.468750
430,105.468750
431,105.468750
432,105.468750
433,105.468750
434,101.562500
435,101.562500
436,101.562500
437,101.562500
438,101.562500
439,101.562500
440,101.562500
441,97.656250
442,97.656250
443,97.656250
444,97.656250
445,97.656250
446,97.656250
447,93.750000
448,93.750000
449,93.750000
450,93.750000
451,93.750000
452,93.750000
453,93.750000
454,93.750000
455,89.843750
456,89.843750
457,89.843750
458,89.843750
459,85.937500
460,85.937500
461,85.937500
462,85.937500
463,85.937500
464,85.937500
465,82.031250
466,82.031250
467,82.031250
468,82.031250
469,82.031250
470,82.031250
471,78.125000
472,78.125000
473,78.125000
474,78.125000
475,78.125000
476,78.125000
477,74.218750
478,74.218750
479,74.218750
480,74.218750
481,74.218750
482,74.218750
483,74.218750
484,70.312500
485,70.312500
486,66.406250
487,66.406250
488,66.406250
489,66.406250
490,66.406250
491,66.406250
492,62.500000
493,62.500000
494,62.500000
495,62.500000
496,62.500000
497,58.593750
498,58.593750
499,58.593750
500,58.593750
501,54.687500
502,54.687500
503,54.687500
504,54.687500
505,54.687500
506,50.781250
507,50.781250
508,50.781250
509,50.781250
510,50.781250
511,46.875000
512,46.875000
513,46.875000
514,46.875000
515,42.968750
516,42.968750
517,42.968750
518,42.968750
519,39.062500
520,39.062500
521,39.062500
522,39.062500
523,39.062500
524,35.156250
525,35.156250
526,35.156250
527,31.250000
528,31.250000
529,31.250000
530,31.250000
531,31.250000
532,27.343750
533,27.343750
534,27.343750
535,27.343750
536,23.437500
537,23.437500
538,23.437500
539,19.531250
540,19.531250
541,19.531250
542,19.531250
543,19.531250
544,15.625000
545,15.625000
546,15.625000
547,11.718750
548,11.718750
549,11.718750
550,11.718750
551,11.718750
552,7.812500
553,7.812500
554,7.812500
555,3.906250
556,3.906250
557,3.906250
558,3.906250
559,0.000000
560,0.000000
561,0.000000
562,0.000000
563,0.000000
564,-3.906250
565,-3.906250
566,-3.906250
567,-7.812500
568,-7.812500
569,-7.812500
570,-7.812500
571,-11.718750
572,-11.718750
573,-11.718750
574,-11.718750
575,-15.625000
576,-15.625000
577,-15.625000
578,-15.625000
579,-19.531250
580,-19.531250
581,-19.531250
582,-19.531250
583,-23.437500
584,-23.437500
585,-23.437500
586,-27.343750
587,-27.343750
588,-27.343750
589,-27.343750
590,-27.343750
591,-31.250000
592,-31.250000
593,-35.156250
594,-35.156250
595,-35.156250
596,-35.156250
597,-39.062500
598,-39.062500
599,-39.062500
600,-39.062500
601,-39.062500
602,-42.968750
603,-42.968750
604,-42.968750
605,-46.875000
606,-46.875000
607,-46.875000
608,-46.875000
609,-50.781250
610,-50.781250
611,-50.781250
612,-50.781250
613,-54.687500
614,-54.687500
615,-54.687500
616,-54.687500
617,-58.593750
618,-58.593750
619,-58.593750
620,-58.593750
621,-62.500000
622,-62.500000
623,-62.500000
624,-62.500000
625,-66.406250
626,-66.406250
627,-66.406250
628,-70.312500
629,-70.312500
630,-70.312500
631,-70.312500
632,-74.218750
633,-74.218750
634,-74.218750
635,-74.218750
636,-78.125000
637,-78.125000
638,-78.125000
639,-78.125000
640,-78.125000
641,-82.031250
642,-82.031250
643,-82.031250
644,-85.937500
645,-85.937500
646,-85.937500
647,-85.937500
648,-89.843750
649,-89.843750
650,-89.843750
651,-89.843750
652,-93.750000
653,-93.750000
654,-93.750000
655,-93.750000
656,-97.656250
657,-97.656250
658,-97.656250
659,-97.656250
660,-97.656250
661,-101.562500
662,-101.562500
663,-101.562500
664,-101.562500
665,-105.468750
666,-105.468750
667,-105.468750
668,-105.468750
669,-109.375000
670,-109.375000
671,-109.375000
672,-109.375000
673,-113.281250
674,-113.281250
675,-113.281250
676,-113.281250
677,-113.281250
678,-117.187500
679,-117.187500
680,-117.187500
681,-117.187500
682,-121.093750
683,-121.093750
684,-121.093750
685,-121.093750
686,-121.093750
687,-121.093750
688,-125.000000
689,-125.000000
690,-125.000000
691,-125.000000
692,-125.000000
693,-128.906250
694,-128.906250
695,-128.906250
696,-128.906250
697,-132.812500
698,-132.812500
699,-132.812500
700,-132.812500
701,-132.812500
702,-136.718750
703,-136.718750
704,-136.718750
705,-136.718750
706,-136.718750
707,-136.718750
708,-140.625000
709,-140.625000
710,-140.625000
711,-140.625000
712,-140.625000
713,-144.531250
714,-144.531250
715,-144.531250
716,-144.531250
717,-144.531250
718,-144.531250
719,-144.531250
720,-148.437500
721,-148.437500
722,-148.437500
723,-148.437500
724,-148.437500
725,-148.437500
726,-152.343750
727,-152.343750
728,-152.343750
729,-152.343750
730,-152.343750
731,-156.250000
732,-152.343750
733,-156.250000
734,-156.250000
735,-156.250000
736,-156.250000
737,-156.250000
738,-156.250000
739,-156.250000
740,-160.156250
741,-160.156250
742,-160.156250
743,-160.156250
744,-160.156250
745,-160.156250
746,-160.156250
747,-160.156250
748,-164.062500
749,-164.062500
750,-164.062500
751,-164.062500
752,-164.062500
753,-164.062500
754,-164.062500
755,-164.062500
756,-164.062500
757,-167.968750
758,-167.968750
759,-167.968750
760,-167.968750
761,-167.968750
762,-167.968750
763,-167.968750
764,-167.968750
765,-167.968750
766,-167.968750
767,-171.875000
768,-171.875000
769,-171.875000
770,-171.875000
771,-171.875000
772,-171.875000
773,-171.875000
774,-171.875000
775,-171.875000
776,-171.875000
777,-171.875000
778,-171.875000
779,-171.875000
780,-171.875000
781,-171.875000
782,-171.875000
783,-171.875000
784,-175.781250
785,-175.781250
786,-175.781250
787,-175.781250
788,-175.781250
789,-175.781250
790,-175.781250
791,-175.781250
792,-175.781250
793,-175.781250
794,-175.781250
795,-175.781250
796,-175.781250
797,-175.781250
798,-175.781250
799,-175.781250
800,-175.781250
801,-175.781250
802,-175.781250
803,-175.781250
804,-175.781250
805,-175.781250
806,-179.687500
807,-179.687500
808,-175.781250
809,-175.781250
810,-175.781250
811,-175.781250
812,-175.781250
813,-175.781250
814,-175.781250
815,-175.781250
816,-175.781250
817,-175.781250
818,-179.687500
819,-175.781250
820,-175.781250
821,-175.781250
822,-175.781250
823,-175.781250
824,-175.781250
825,-175.781250
826,-175.781250
827,-175.781250
828,-175.781250
829,-175.781250
830,-175.781250
831,-175.781250
832,-175.781250
833,-175.781250
834,-175.781250
835,-175.781250
836,-175.781250
837,-175.781250
838,-175.781250
839,-175.781250
840,-175.781250
841,-175.781250
842,-175.781250
843,-175.781250
844,-171.875000
845,-171.875000
846,-175.781250
847,-171.875000
848,-171.875000
849,-171.875000
850,-171.875000
851,-171.875000
852,-171.875000
853,-171.875000
854,-171.875000
855,-171.875000
856,-171.875000
857,-171.875000
858,-167.968750
859,-167.968750
860,-167.968750
861,-167.968750
862,-167.968750
863,-167.968750
864,-167.968750
865,-167.968750
866,-167.968750
867,-167.968750
868,-167.968750
869,-167.968750
870,-164.062500
871,-164.062500
872,-164.062500
873,-164.062500
874,-164.062500
875,-164.062500
876,-164.062500
877,-164.062500
878,-160.156250
879,-160.156250
880,-160.156250
881,-160.156250
882,-160.156250
883,-160.156250
884,-160.156250
885,-160.156250
886,-156.250000
887,-156.250000
888,-156.250000
889,-156.250000
890,-156.250000
891,-156.250000
892,-156.250000
893,-152.343750
894,-152.343750
895,-152.343750
896,-152.343750
897,-152.343750
898,-152.343750
899,-152.343750
900,-152.343750
901,-148.437500
902,-148.437500
903,-148.437500
904,-148.437500
905,-148.437500
906,-144.531250
907,-144.531250
908,-144.531250
909,-144.531250
910,-144.531250
911,-144.531250
912,-144.531250
913,-140.625000
914,-140.625000
915,-140.625000
916,-140.625000
917,-140.625000
918,-136.718750
919,-136.718750
920,-136.718750
921,-136.718750
922,-136.718750
923,-136.718750
924,-132.812500
925,-132.812500
926,-132.812500
927,-132.812500
928,-128.906250
929,-128.906250
930,-128.906250
931,-128.906250
932,-128.906250
933,-128.906250
934,-128.906250
935,-125.000000
936,-125.000000
937,-125.000000
938,-125.000000
939,-121.093750
940,-121.093750
941,-121.093750
942,-121.093750
943,-121.093750
944,-117.187500
945,-117.187500
946,-117.187500
947,-117.187500
948,-113.281250
949,-113.281250
950,-113.281250
951,-113.281250
952,-113.281250
953,-109.375000
954,-109.375000
955,-109.375000
956,-109.375000
957,-109.375000
958,-105.468750
959,-105.468750
960,-105.468750
961,-105.468750
962,-101.562500
963,-101.562500
964,-101.562500
965,-101.562500
966,-97.656250
967,-97.656250
968,-97.656250
969,-97.656250
970,-97.656250
971,-93.750000
972,-93.750000
973,-93.750000
974,-93.750000
975,-89.843750
976,-89.843750
977,-89.843750
978,-89.843750
979,-85.937500
980,-85.937500
981,-85.937500
982,-85.937500
983,-82.031250
984,-82.031250
985,-82.031250
986,-82.031250
987,-82.031250
988,-78.125000
989,-78.125000
990,-78.125000
991,-74.218750
992,-74.218750
993,-74.218750
994,-74.218750
995,-74.218750
996,-70.312500
997,-70.312500
998,-70.312500
999,-66.406250
1000,-66.406250
1001,-66.406250
1002,-66.406250
1003,-66.406250
1004,-62.500000
1005,-62.500000
1006,-62.500000
1007,-62.500000
1008,-58.593750
1009,-58.593750
1010,-58.593750
1011,-54.687500
1012,-54.687500
1013,-54.687500
1014,-54.687500
1015,-54.687500
1016,-50.781250
1017,-50.781250
1018,-50.781250
1019,-46.875000
1020,-46.875000
1021,-46.875000
1022,-42.968750
1023,-42.968750
1024,-42.968750
1025,-42.968750
1026,-39.062500
1027,-39.062500
1028,-39.062500
1029,-39.062500
1030,-35.156250
1031,-35.156250
1032,-35.156250
1033,-35.156250
1034,-31.250000
1035,-31.250000
1036,-31.250000
1037,-31.250000
1038,-27.343750
1039,-27.343750
1040,-27.343750
1041,-27.343750
1042,-23.437500
1043,-23.437500
1044,-23.437500
1045,-23.437500
1046,-19.531250
1047,-19.531250
1048,-19.531250
1049,-19.531250
1050,-15.625000
1051,-15.625000
1052,-15.625000
1053,-15.625000
1054,-11.718750
1055,-11.718750
1056,-11.718750
1057,-11.718750
1058,-7.812500
1059,-7.812500
1060,-7.812500
1061,-3.906250
1062,-3.906250
1063,-3.906250
1064,-3.906250
1065,-3.906250
1066,0.000000
1067,0.000000
1068,0.000000
1069,0.000000
1070,3.906250
1071,3.906250
1072,3.906250
1073,7.812500
1074,7.812500
1075,7.812500
1076,7.812500
1077,7.812500
1078,11.718750
1079,11.718750
1080,11.718750
1081,15.625000
1082,15.625000
1083,15.625000
1084,15.625000
1085,15.625000
1086,19.531250
1087,19.531250
1088,19.531250
1089,19.531250
1090,23.437500
1091,23.437500
1092,23.437500
1093,23.437500
1094,27.343750
1095,27.343750
1096,27.343750
1097,27.343750
1098,27.343750
1099,31.250000
1100,31.250000
1101,31.250000
1102,35.156250
1103,35.156250
1104,35.156250
1105,35.156250
1106,39.062500
1107,39.062500
1108,39.062500
1109,39.062500
1110,39.062500
1111,42.968750
1112,42.968750
1113,42.968750
1114,42.968750
1115,42.968750
1116,46.875000
1117,46.875000
1118,46.875000
1119,46.875000
1120,50.781250
1121,50.781250
1122,50.781250
1123,50.781250
1124,54.687500
1125,50.781250
1126,54.687500
1127,54.687500
1128,54.687500
1129,58.593750
1130,58.593750
1131,58.593750
1132,58.593750
1133,58.593750
1134,62.500000
1135,62.500000
1136,62.500000
1137,62.500000
1138,66.406250
1139,66.406250
1140,66.406250
1141,66.406250
1142,66.406250
1143,66.406250
1144,70.312500
1145,70.312500
1146,70.312500
1147,70.312500
1148,70.312500
1149,74.218750
1150,74.218750
1151,74.218750
1152,74.218750
1153,74.218750
1154,78.125000
1155,78.125000
1156,78.125000
1157,78.125000
1158,78.125000
1159,78.125000
1160,82.031250
1161,82.031250
1162,82.031250
1163,82.031250
1164,82.031250
1165,82.031250
1166,85.937500
1167,85.937500
1168,85.937500
1169,85.937500
1170,85.937500
1171,85.937500
1172,89.843750
1173,89.843750
1174,89.843750
1175,89.843750
1176,89.843750
1177,93.750000
1178,93.750000
1179,93.750000
1180,93.750000
1181,93.750000
1182,93.750000
1183,93.750000
1184,97.656250
1185,97.656250
1186,97.656250
1187,97.656250
1188,97.656250
1189,97.656250
1190,97.656250
1191,101.562500
1192,101.562500
1193,101.562500
1194,101.562500
1195,101.562500
1196,101.562500
1197,101.562500
1198,101.562500
1199,101.562500
1200,105.468750
1201,105.468750
1202,105.468750
1203,105.468750
1204,105.468750
1205,105.468750
1206,109.375000
1207,109.375000
1208,109.375000
1209,109.375000
1210,109.375000
1211,109.375000
1212,109.375000
1213,109.375000
1214,113.281250
1215,113.281250
1216,113.281250
1217,113.281250
1218,113.281250
1219,113.281250
1220,113.281250
1221,113.281250
1222,113.281250
1223,113.281250
1224,117.187500
1225,117.187500
1226,117.187500
1227,117.187500
1228,117.187500
1229,117.187500
1230,117.187500
1231,117.187500
1232,117.187500
1233,117.187500
1234,117.187500
1235,121.093750
1236,121.093750
1237,121.093750
1238,121.093750
1239,121.093750
1240,121.093750
1241,121.093750
1242,121.093750
1243,121.093750
1244,121.093750
1245,125.000000
1246,125.000000
1247,125.000000
1248,125.000000
1249,125.000000
1250,125.000000
1251,125.000000
1252,125.000000
1253,125.000000
1254,125.000000
1255,125.000000
1256,128.906250
1257,125.000000
1258,128.906250
1259,128.906250
1260,128.906250
1261,128.906250
1262,128.906250
1263,128.906250
1264,128.906250
1265,128.906250
1266,128.906250
1267,128.906250
1268,128.906250
1269,128.906250
1270,128.906250
1271,128.906250
1272,128.906250
1273,128.906250
1274,128.906250
1275,128.906250
1276,132.812500
1277,132.812500
1278,132.812500
1279,132.812500
1280,132.812500
1281,128.906250
1282,132.812500
1283,132.812500
1284,132.812500
1285,132.812500
1286,132.812500
1287,132.812500
1288,132.812500
1289,132.812500
1290,132.812500
1291,132.812500
1292,132.812500
1293,132.812500
1294,132.812500
1295,132.812500
1296,132.812500
1297,132.812500
1298,132.812500
1299,132.812500
1300,132.812500
1301,132.812500
1302,132.812500
1303,132.812500
1304,132.812500
1305,132.812500
1306,132.812500
1307,132.812500
1308,132.812500
1309,132.812500
1310,132.812500
1311,132.812500
1312,132.812500
1313,132.812500
1314,132.812500
1315,132.812500
1316,132.812500
1317,132.812500
1318,132.812500
1319,132.812500
1320,132.812500
1321,132.812500
1322,132.812500
1323,132.812500
1324,132.812500
1325,132.812500
1326,132.812500
1327,132.812500
1328,132.812500
1329,132.812500
1330,132.812500
1331,132.812500
1332,132.812500
1333,132.812500
1334,132.812500
1335,132.812500
1336,132.812500
1337,132.812500
1338,132.812500
1339,132.812500
1340,128.906250
1341,128.906250
1342,132.812500
1343,128.906250
1344,132.812500
1345,128.906250
1346,128.906250
1347,128.906250
1348,128.906250
1349,128.906250
1350,128.906250
1351,128.906250
1352,128.906250
1353,128.906250
1354,128.906250
1355,128.906250
1356,128.906250
1357,128.906250
1358,128.906250
1359,128.906250
1360,128.906250
1361,125.000000
1362,128.906250
1363,125.000000
1364,125.000000
1365,125.000000
1366,128.906250
1367,125.000000
1368,125.000000
1369,125.000000
1370,125.000000
1371,125.000000
1372,125.000000
1373,125.000000
1374,125.000000
1375,125.000000
1376,125.000000
1377,121.093750
1378,121.093750
1379,121.093750
1380,121.093750
1381,121.093750
1382,121.093750
1383,121.093750
1384,121.093750
1385,121.093750
1386,121.093750
1387,121.093750
1388,121.093750
1389,117.187500
1390,117.187500
1391,117.187500
1392,117.187500
1393,117.187500
1394,117.187500
1395,117.187500
1396,117.187500
1397,113.281250
1398,117.187500
1399,113.281250
1400,113.281250
1401,113.281250
1402,113.281250
1403,113.281250
1404,113.281250
1405,113.281250
1406,113.281250
1407,109.375000
1408,109.375000
1409,109.375000
1410,109.375000
1411,109.375000
1412,109.375000
1413,105.468750
1414,109.375000
1415,105.468750
1416,105.468750
1417,105.468750
1418,105.468750
1419,105.468750
1420,105.468750
1421,101.562500
1422,105.468750
1423,101.562500
1424,101.562500
1425,101.562500
1426,101.562500
1427,101.562500
1428,101.562500
1429,101.562500
1430,101.562500
1431,97.656250
1432,97.656250
1433,97.656250
1434,97.656250
1435,97.656250
1436,97.656250
1437,93.750000
1438,93.750000
1439,93.750000
1440,93.750000
1441,93.750000
1442,93.750000
1443,89.843750
1444,89.843750
1445,89.843750
1446,89.843750
1447,89.843750
1448,85.937500
1449,85.937500
1450,85.937500
1451,85.937500
1452,85.937500
1453,85.937500
1454,82.031250
1455,82.031250
1456,82.031250
1457,82.031250
1458,82.031250
1459,78.125000
1460,78.125000
1461,78.125000
1462,78.125000
1463,78.125000
1464,78.125000
1465,74.218750
1466,74.218750
1467,74.218750
1468,74.218750
1469,74.218750
1470,70.312500
1471,70.312500
1472,70.312500
1473,70.312500
1474,70.312500
1475,66.406250
1476,66.406250
1477,66.406250
1478,66.406250
1479,66.406250
1480,62.500000
1481,62.500000
1482,62.500000
1483,62.500000
1484,62.500000
1485,58.593750
1486,58.593750
1487,58.593750
1488,58.593750
1489,54.687500
1490,58.593750
1491,54.687500
1492,54.687500
1493,54.687500
1494,50.781250
1495,50.781250
1496,50.781250
1497,50.781250
1498,46.875000
1499,46.875000
1500,46.875000
1501,46.875000
1502,46.875000
1503,46.875000
1504,42.968750
1505,42.968750
1506,42.968750
1507,39.062500
1508,39.062500
1509,39.062500
1510,39.062500
1511,39.062500
1512,39.062500
1513,35.156250
1514,35.156250
1515,35.156250
1516,31.250000
1517,31.250000
1518,31.250000
1519,31.250000
1520,31.250000
1521,27.343750
1522,27.343750
1523,27.343750
1524,27.343750
1525,23.437500
1526,23.437500
1527,23.437500
1528,23.437500
1529,23.437500
1530,19.531250
1531,19.531250
1532,19.531250
1533,15.625000
1534,15.625000
1535,15.625000
1536,15.625000
1537,15.625000
1538,11.718750
1539,11.718750
1540,11.718750
1541,7.812500
1542,7.812500
1543,7.812500
1544,7.812500
1545,3.906250
1546,3.906250
1547,3.906250
1548,3.906250
1549,0.000000
1550,0.000000
1551,0.000000
1552,-3.906250
1553,-3.906250
1554,-3.906250
1555,-3.906250
1556,-3.906250
1557,-7.812500
1558,-7.812500
1559,-7.812500
1560,-11.718750
1561,-11.718750
1562,-11.718750
1563,-11.718750
1564,-15.625000
1565,-15.625000
1566,-15.625000
1567,-15.625000
1568,-19.531250
1569,-19.531250
1570,-19.531250
1571,-23.437500
1572,-23.437500
1573,-23.437500
1574,-23.437500
1575,-23.437500
1576,-27.343750
1577,-27.343750
1578,-27.343750
1579,-31.250000
1580,-31.250000
1581,-31.250000
1582,-31.250000
1583,-35.156250
1584,-35.156250
1585,-35.156250
1586,-35.156250
1587,-39.062500
1588,-39.062500
1589,-39.062500
1590,-42.968750
1591,-42.968750
1592,-42.968750
1593,-42.968750
1594,-42.968750
1595,-46.875000
1596,-46.875000
1597,-46.875000
1598,-50.781250
1599,-50.781250
1600,-50.781250
1601,-50.781250
1602,-54.687500
1603,-54.687500
1604,-54.687500
1605,-54.687500
1606,-58.593750
1607,-58.593750
1608,-58.593750
1609,-58.593750
1610,-62.500000
1611,-62.500000
1612,-62.500000
1613,-66.406250
1614,-66.406250
1615,-66.406250
1616,-66.406250
1617,-70.312500
1618,-70.312500
1619,-70.312500
1620,-70.312500
1621,-70.312500
1622,-74.218750
1623,-74.218750
1624,-74.218750
1625,-74.218750
1626,-78.125000
1627,-78.125000
1628,-78.125000
1629,-82.031250
1630,-82.031250
1631,-82.031250
1632,-82.031250
1633,-85.937500
1634,-85.937500
1635,-85.937500
1636,-85.937500
1637,-89.843750
1638,-89.843750
1639,-89.843750
1640,-89.843750
1641,-89.843750
1642,-93.750000
1643,-93.750000
1644,-93.750000
1645,-97.656250
1646,-97.656250
1647,-97.656250
1648,-97.656250
1649,-97.656250
1650,-97.656250
1651,-101.562500
1652,-101.562500
1653,-101.562500
1654,-101.562500
1655,-105.468750
1656,-105.468750
1657,-105.468750
1658,-105.468750
1659,-109.375000
1660,-109.375000
1661,-109.375000
1662,-109.375000
1663,-109.375000
1664,-109.375000
1665,-113.281250
1666,-113.281250
1667,-113.281250
1668,-117.187500
1669,-117.187500
1670,-117.187500
1671,-117.187500
1672,-117.187500
1673,-117.187500
1674,-121.093750
1675,-121.093750
1676,-121.093750
1677,-125.000000
1678,-125.000000
1679,-125.000000
1680,-125.000000
1681,-125.000000
1682,-125.000000
1683,-128.906250
1684,-128.906250
1685,-128.906250
1686,-128.906250
1687,-128.906250
1688,-132.812500
1689,-132.812500
1690,-132.812500
1691,-132.812500
1692,-132.812500
1693,-136.718750
1694,-136.718750
1695,-136.718750
1696,-136.718750
1697,-136.718750
1698,-136.718750
1699,-140.625000
1700,-140.625000
1701,-140.625000
1702,-140.625000
1703,-140.625000
1704,-144.531250
1705,-144.531250
1706,-144.531250
1707,-144.531250
1708,-144.531250
1709,-144.531250
1710,-148.437500
1711,-148.437500
1712,-148.437500
1713,-144.531250
1714,-148.437500
1715,-148.437500
1716,-152.343750
1717,-152.343750
1718,-152.343750
1719,-152.343750
1720,-152.343750
1721,-152.343750
1722,-152.343750
1723,-156.250000
1724,-156.250000
1725,-156.250000
1726,-156.250000
1727,-156.250000
1728,-156.250000
1729,-160.156250
1730,-160.156250
1731,-160.156250
1732,-160.156250
1733,-160.156250
1734,-160.156250
1735,-160.156250
1736,-160.156250
1737,-164.062500
1738,-164.062500
1739,-164.062500
1740,-164.062500
1741,-164.062500
1742,-164.062500
1743,-164.062500
1744,-164.062500
1745,-164.062500
1746,-164.062500
1747,-167.968750
1748,-167.968750
1749,-167.968750
1750,-167.968750
1751,-167.968750
1752,-167.968750
1753,-167.968750
1754,-167.968750
1755,-167.968750
1756,-167.968750
1757,-167.968750
1758,-171.875000
1759,-171.875000
1760,-171.875000
1761,-171.875000
1762,-171.875000
1763,-171.875000
1764,-171.875000
1765,-171.875000
1766,-171.875000
1767,-171.875000
1768,-171.875000
1769,-171.875000
1770,-171.875000
1771,-175.781250
1772,-175.781250
1773,-171.875000
1774,-171.875000
1775,-175.781250
1776,-175.781250
1777,-175.781250
1778,-175.781250
1779,-175.781250
1780,-175.781250
1781,-175.781250
1782,-175.781250
1783,-175.781250
1784,-175.781250
1785,-175.781250
1786,-175.781250
1787,-175.781250
1788,-175.781250
1789,-175.781250
1790,-175.781250
1791,-175.781250
1792,-175.781250
1793,-175.781250
1794,-175.781250
1795,-175.781250
1796,-175.781250
1797,-175.781250
1798,-175.781250
1799,-179.687500
1800,-175.781250
1801,-175.781250
1802,-175.781250
1803,-175.781250
1804,-175.781250
1805,-175.781250
1806,-175.781250
1807,-175.781250
1808,-175.781250
1809,-175.781250
1810,-175.781250
1811,-175.781250
1812,-175.781250
1813,-175.781250
1814,-175.781250
1815,-175.781250
1816,-175.781250
1817,-175.781250
1818,-175.781250
1819,-175.781250
1820,-175.781250
1821,-175.781250
1822,-175.781250
1823,-175.781250
1824,-175.781250
1825,-175.781250
1826,-175.781250
1827,-175.781250
1828,-175.781250
1829,-175.781250
1830,-175.781250
1831,-175.781250
1832,-175.781250
1833,-175.781250
1834,-175.781250
1835,-171.875000
1836,-171.875000
1837,-171.875000
1838,-171.875000
1839,-171.875000
1840,-171.875000
1841,-171.875000
1842,-171.875000
1843,-171.875000
1844,-171.875000
1845,-171.875000
1846,-171.875000
1847,-167.968750
1848,-171.875000
1849,-171.875000
1850,-167.968750
1851,-167.968750
1852,-167.968750
1853,-167.968750
1854,-167.968750
1855,-167.968750
1856,-167.968750
1857,-167.968750
1858,-167.968750
1859,-167.968750
1860,-164.062500
1861,-164.062500
1862,-164.062500
1863,-164.062500
1864,-164.062500
1865,-164.062500
1866,-164.062500
1867,-164.062500
1868,-164.062500
1869,-160.156250
1870,-160.156250
1871,-160.156250
1872,-160.156250
1873,-160.156250
1874,-160.156250
1875,-160.156250
1876,-160.156250
1877,-160.156250
1878,-156.250000
1879,-156.250000
1880,-156.250000
1881,-156.250000
1882,-156.250000
1883,-156.250000
1884,-152.343750
1885,-152.343750
1886,-152.343750
1887,-152.343750
1888,-152.343750
1889,-152.343750
1890,-152.343750
1891,-148.437500
1892,-148.437500
1893,-148.437500
1894,-148.437500
1895,-148.437500
1896,-148.437500
1897,-144.531250
1898,-144.531250
1899,-144.531250
1900,-144.531250
1901,-144.531250
1902,-144.531250
1903,-144.531250
1904,-140.625000
1905,-140.625000
1906,-140.625000
1907,-140.625000
1908,-140.625000
1909,-136.718750
1910,-136.718750
1911,-136.718750
1912,-136.718750
1913,-136.718750
1914,-132.812500
1915,-132.812500
1916,-132.812500
1917,-132.812500
1918,-132.812500
1919,-128.906250
1920,-128.906250
1921,-128.906250
1922,-128.906250
1923,-128.906250
1924,-128.906250
1925,-125.000000
1926,-125.000000
1927,-125.000000
1928,-125.000000
1929,-121.093750
1930,-121.093750
1931,-121.093750
1932,-121.093750
1933,-121.093750
1934,-121.093750
1935,-121.093750
1936,-117.187500
1937,-117.187500
1938,-117.187500
1939,-113.281250
1940,-113.281250
1941,-113.281250
1942,-113.281250
1943,-113.281250
1944,-109.375000
1945,-109.375000
1946,-109.375000
1947,-105.468750
1948,-105.468750
1949,-105.468750
1950,-105.468750
1951,-105.468750
1952,-101.562500
1953,-101.562500
1954,-101.562500
1955,-101.562500
1956,-101.562500
1957,-97.656250
1958,-97.656250
1959,-97.656250
1960,-97.656250
1961,-93.750000
1962,-93.750000
1963,-93.750000
1964,-93.750000
1965,-89.843750
1966,-89.843750
1967,-89.843750
1968,-89.843750
1969,-85.937500
1970,-85.937500
1971,-85.937500
1972,-85.937500
1973,-85.937500
1974,-82.031250
1975,-82.031250
1976,-82.031250
1977,-82.031250
1978,-78.125000
1979,-78.125000
1980,-78.125000
1981,-74.218750
1982,-74.218750
1983,-74.218750
1984,-74.218750
1985,-74.218750
1986,-70.312500
1987,-70.312500
1988,-70.312500
1989,-70.312500
1990,-66.406250
1991,-66.406250
1992,-66.406250
1993,-66.406250
1994,-62.500000
1995,-62.500000
1996,-62.500000
1997,-62.500000
1998,-58.593750
1999,-58.593750
2000,-58.593750
2001,-58.593750
2002,-54.687500
2003,-54.687500
2004,-54.687500
2005,-54.687500
2006,-50.781250
2007,-50.781250
2008,-50.781250
2009,-50.781250
2010,-46.875000
2011,-46.875000
2012,-46.875000
2013,-46.875000
2014,-42.968750
2015,-42.968750
2016,-42.968750
2017,-39.062500
2018,-39.062500
2019,-39.062500
2020,-39.062500
2021,-39.062500
2022,-35.156250
2023,-35.156250
2024,-35.156250
2025,-31.250000
2026,-31.250000
2027,-31.250000
2028,-27.343750
2029,-27.343750
2030,-27.343750
2031,-27.343750
2032,-27.343750
2033,-23.437500
2034,-23.437500
2035,-23.437500
2036,-19.531250
2037,-19.531250
2038,-19.531250
2039,-19.531250
2040,-19.531250
2041,-15.625000
2042,-15.625000
2043,-15.625000
2044,-11.718750
2045,-11.718750
2046,-11.718750
2047,-11.718750
2048,-7.812500
2049,-7.812500
2050,-7.812500
2051,-7.812500
2052,-3.906250
2053,-3.906250
2054,-3.906250
2055,-3.906250
2056,0.000000
2057,0.000000
2058,0.000000
2059,0.000000
2060,3.906250
2061,3.906250
2062,3.906250
2063,3.906250
2064,7.812500
2065,7.812500
2066,7.812500
2067,7.812500
2068,11.718750
2069,11.718750
2070,11.718750
2071,11.718750
2072,15.625000
2073,15.625000
2074,15.625000
2075,15.625000
2076,19.531250
2077,19.531250
2078,19.531250
2079,19.531250
2080,23.437500
2081,23.437500
2082,23.437500
2083,23.437500
2084,27.343750
2085,27.343750
2086,27.343750
2087,27.343750
2088,31.250000
2089,31.250000
2090,31.250000
2091,31.250000
2092,35.156250
2093,35.156250
2094,35.156250
2095,35.156250
2096,35.156250
2097,39.062500
2098,39.062500
2099,39.062500
2100,39.062500
2101,39.062500
2102,42.968750
2103,42.968750
2104,42.968750
2105,42.968750
2106,42.968750
2107,46.875000
2108,46.875000
2109,46.875000
2110,46.875000
2111,50.781250
2112,50.781250
2113,50.781250
2114,50.781250
2115,54.687500
2116,54.687500
2117,54.687500
2118,54.687500
2119,54.687500
2120,58.593750
2121,58.593750
2122,58.593750
2123,58.593750
2124,58.593750
2125,62.500000
2126,62.500000
2127,62.500000
2128,62.500000
2129,66.406250
2130,66.406250
2131,66.406250
2132,66.406250
2133,66.406250
2134,66.406250
2135,70.312500
2136,70.312500
2137,70.312500
2138,70.312500
2139,70.312500
2140,74.218750
2141,74.218750
2142,74.218750
2143,74.218750
2144,74.218750
2145,74.218750
2146,78.125000
2147,78.125000
2148,78.125000
2149,78.125000
2150,78.125000
2151,82.031250
2152,82.031250
2153,82.031250
2154,82.031250
2155,82.031250
2156,85.937500
2157,85.937500
2158,85.937500
2159,85.937500
2160,85.937500
2161,85.937500
2162,85.937500
2163,89.843750
2164,89.843750
2165,89.843750
2166,89.843750
2167,89.843750
2168,93.750000
2169,93.750000
2170,93.750000
2171,93.750000
2172,93.750000
2173,93.750000
2174,93.750000
2175,93.750000
2176,97.656250
2177,97.656250
2178,97.656250
2179,97.656250
2180,97.656250
2181,97.656250
2182,101.562500
2183,101.562500
2184,101.562500
2185,101.562500
2186,101.562500
2187,101.562500
2188,101.562500
2189,101.562500
2190,105.468750
2191,105.468750
2192,105.468750
2193,105.468750
2194,105.468750
2195,105.468750
2196,109.375000
2197,109.375000
2198,109.375000
2199,109.375000
2200,109.375000
2201,109.375000
2202,109.375000
2203,109.375000
2204,109.375000
2205,113.281250
2206,113.281250
2207,113.281250
2208,113.281250
2209,113.281250
2210,113.281250
2211,113.281250
2212,113.281250
2213,113.281250
2214,117.187500
2215,117.187500
2216,117.187500
2217,117.187500
2218,117.187500
2219,117.187500
2220,117.187500
2221,117.187500
2222,117.187500
2223,121.093750
2224,117.187500
2225,121.093750
2226,121.093750
2227,121.093750
2228,121.093750
2229,121.093750
2230,121.093750
2231,121.093750
2232,121.093750
2233,121.093750
2234,121.093750
2235,121.093750
2236,121.093750
2237,125.000000
2238,125.000000
2239,125.000000
2240,125.000000
2241,125.000000
2242,125.000000
2243,125.000000
2244,125.000000
2245,125.000000
2246,125.000000
2247,125.000000
2248,125.000000
2249,125.000000
2250,128.906250
2251,128.906250
2252,128.906250
2253,128.906250
2254,128.906250
2255,128.906250
2256,128.906250
2257,128.906250
2258,128.906250
2259,128.906250
2260,128.906250
2261,128.906250
2262,128.906250
2263,128.906250
2264,128.906250
2265,128.906250
2266,128.906250
2267,128.906250
2268,128.906250
2269,128.906250
2270,132.812500
2271,132.812500
2272,132.812500
2273,132.812500
2274,132.812500
2275,132.812500
2276,132.812500
2277,132.812500
2278,132.812500
2279,132.812500
2280,132.812500
2281,132.812500
2282,132.812500
2283,132.812500
2284,132.812500
2285,132.812500
2286,132.812500
2287,132.812500
2288,132.812500
2289,132.812500
2290,132.812500
2291,132.812500
2292,132.812500
2293,132.812500
2294,132.812500
2295,132.812500
2296,132.812500
2297,132.812500
2298,132.812500
2299,132.812500
2300,132.812500
2301,132.812500
2302,132.812500
2303,132.812500
2304,132.812500
2305,132.812500
2306,132.812500
2307,132.812500
2308,132.812500
2309,132.812500
2310,132.812500
2311,132.812500
2312,132.812500
2313,132.812500
2314,132.812500
2315,132.812500
2316,132.812500
2317,132.812500
2318,132.812500
2319,132.812500
2320,132.812500
2321,132.812500
2322,132.812500
2323,132.812500
2324,132.812500
2325,132.812500
2326,132.812500
2327,132.812500
2328,132.812500
2329,132.812500
2330,132.812500
2331,128.906250
2332,128.906250
2333,128.906250
2334,128.906250
2335,128.906250
2336,132.812500
2337,128.906250
2338,132.812500
2339,128.906250
2340,128.906250
2341,128.906250
2342,128.906250
2343,128.906250
2344,128.906250
2345,128.906250
2346,128.906250
2347,128.906250
2348,128.906250
2349,128.906250
2350,128.906250
2351,125.000000
2352,125.000000
2353,125.000000
2354,125.000000
2355,125.000000
2356,125.000000
2357,125.000000
2358,125.000000
2359,125.000000
2360,125.000000
2361,125.000000
2362,125.000000
2363,125.000000
2364,125.000000
2365,121.093750
2366,121.093750
2367,121.093750
2368,121.093750
2369,121.093750
2370,121.093750
2371,121.093750
2372,121.093750
2373,121.093750
2374,121.093750
2375,121.093750
2376,121.093750
2377,117.187500
2378,117.187500
2379,117.187500
2380,117.187500
2381,117.187500
2382,117.187500
2383,117.187500
2384,117.187500
2385,117.187500
2386,117.187500
2387,117.187500
2388,113.281250
2389,113.281250
2390,113.281250
2391,113.281250
2392,113.281250
2393,113.281250
2394,113.281250
2395,113.281250
2396,113.281250
2397,109.375000
2398,109.375000
2399,109.375000
2400,109.375000
2401,109.375000
2402,109.375000
2403,109.375000
2404,105.468750
2405,105.468750
2406,105.468750
2407,105.468750
2408,105.468750
2409,105.468750
2410,105.468750
2411,105.468750
2412,101.562500
2413,101.562500
2414,101.562500
2415,101.562500
2416,101.562500
2417,101.562500
2418,101.562500
2419,97.656250
2420,97.656250
2421,97.656250
2422,97.656250
2423,97.656250
2424,97.656250
2425,97.656250
2426,97.656250
2427,93.750000
2428,93.750000
2429,93.750000
2430,93.750000
2431,93.750000
2432,93.750000
2433,89.843750
2434,89.843750
2435,89.843750
2436,89.843750
2437,89.843750
2438,85.937500
2439,85.937500
2440,85.937500
2441,85.937500
2442,85.937500
2443,85.937500
2444,85.937500
2445,82.031250
2446,82.031250
2447,82.031250
2448,82.031250
2449,78.125000
2450,78.125000
2451,78.125000
2452,78.125000
2453,78.125000
2454,78.125000
2455,78.125000
2456,74.218750
2457,74.218750
2458,74.218750
2459,74.218750
2460,70.312500
2461,70.312500
2462,70.312500
2463,70.312500
2464,70.312500
2465,70.312500
2466,66.406250
2467,66.406250
2468,66.406250
2469,66.406250
2470,66.406250
2471,62.500000
2472,62.500000
2473,62.500000
2474,62.500000
2475,62.500000
2476,58.593750
2477,58.593750
2478,58.593750
2479,58.593750
2480,54.687500
2481,54.687500
2482,54.687500
2483,54.687500
2484,54.687500
2485,50.781250
2486,50.781250
2487,50.781250
2488,50.781250
2489,46.875000
2490,46.875000
2491,46.875000
2492,46.875000
2493,46.875000
2494,46.875000
2495,42.968750
2496,42.968750
2497,42.968750
2498,39.062500
2499,39.062500
2500,39.062500
2501,39.062500
2502,35.156250
2503,35.156250
2504,35.156250
2505,35.156250
2506,31.250000
2507,31.250000
2508,31.250000
2509,31.250000
2510,27.343750
2511,27.343750
2512,27.343750
2513,27.343750
2514,27.343750
2515,23.437500
2516,23.437500
2517,23.437500
2518,23.437500
2519,19.531250
2520,19.531250
2521,19.531250
2522,19.531250
2523,15.625000
2524,15.625000
2525,15.625000
2526,15.625000
2527,11.718750
2528,11.718750
2529,11.718750
2530,11.718750
2531,7.812500
2532,7.812500
2533,7.812500
2534,7.812500
2535,3.906250
2536,3.906250
2537,3.906250
2538,3.906250
2539,0.000000
2540,0.000000
2541,0.000000
2542,0.000000
2543,-3.906250
2544,-3.906250
2545,-3.906250
2546,-3.906250
2547,-7.812500
2548,-7.812500
2549,-7.812500
2550,-7.812500
2551,-11.718750
2552,-11.718750
2553,-11.718750
2554,-15.625000
2555,-15.625000
2556,-15.625000
2557,-15.625000
2558,-19.531250
2559,-19.531250
2560,-19.531250
2561,-19.531250
2562,-19.531250
2563,-23.437500
2564,-23.437500
2565,-23.437500
2566,-27.343750
2567,-27.343750
2568,-27.343750
2569,-31.250000
2570,-31.250000
2571,-31.250000
2572,-31.250000
2573,-31.250000
2574,-35.156250
2575,-35.156250
2576,-35.156250
2577,-39.062500
2578,-39.062500
2579,-39.062500
2580,-39.062500
2581,-39.062500
2582,-42.968750
2583,-42.968750
2584,-42.968750
2585,-46.875000
2586,-46.875000
2587,-46.875000
2588,-46.875000
2589,-50.781250
2590,-50.781250
2591,-50.781250
2592,-54.687500
2593,-54.687500
2594,-54.687500
2595,-54.687500
2596,-58.593750
2597,-58.593750
2598,-58.593750
2599,-58.593750
2600,-58.593750
2601,-62.500000
2602,-62.500000
2603,-62.500000
2604,-66.406250
2605,-66.406250
2606,-66.406250
2607,-66.406250
2608,-70.312500
2609,-70.312500
2610,-70.312500
2611,-74.218750
2612,-74.218750
2613,-74.218750
2614,-74.218750
2615,-78.125000
2616,-74.218750
2617,-78.125000
2618,-78.125000
2619,-78.125000
2620,-82.031250
2621,-82.031250
2622,-82.031250
2623,-82.031250
2624,-85.937500
2625,-85.937500
2626,-85.937500
2627,-85.937500
2628,-89.843750
2629,-89.843750
2630,-89.843750
2631,-89.843750
2632,-89.843750
2633,-93.750000
2634,-93.750000
2635,-93.750000
2636,-97.656250
2637,-97.656250
2638,-97.656250
2639,-97.656250
2640,-101.562500
2641,-101.562500
2642,-101.562500
2643,-101.562500
2644,-101.562500
2645,-105.468750
2646,-105.468750
2647,-105.468750
2648,-105.468750
2649,-109.375000
2650,-109.375000
2651,-109.375000
2652,-109.375000
2653,-109.375000
2654,-113.281250
2655,-113.281250
2656,-113.281250
2657,-113.281250
2658,-117.187500
2659,-117.187500
2660,-117.187500
2661,-117.187500
2662,-117.187500
2663,-121.093750
2664,-121.093750
2665,-121.093750
2666,-121.093750
2667,-121.093750
2668,-125.000000
2669,-125.000000
2670,-125.000000
2671,-125.000000
2672,-128.906250
2673,-128.906250
2674,-128.906250
2675,-128.906250
2676,-128.906250
2677,-128.906250
2678,-132.812500
2679,-132.812500
2680,-132.812500
2681,-132.812500
2682,-132.812500
2683,-132.812500
2684,-136.718750
2685,-136.718750
2686,-136.718750
2687,-136.718750
2688,-140.625000
2689,-140.625000
2690,-140.625000
2691,-140.625000
2692,-140.625000
2693,-140.625000
2694,-140.625000
2695,-144.531250
2696,-144.531250
2697,-144.531250
2698,-144.531250
2699,-144.531250
2700,-148.437500
2701,-148.437500
2702,-148.437500
2703,-148.437500
2704,-148.437500
2705,-152.343750
2706,-152.343750
2707,-152.343750
2708,-152.343750
2709,-152.343750
2710,-152.343750
2711,-152.343750
2712,-152.343750
2713,-156.250000
2714,-156.250000
2715,-156.250000
2716,-156.250000
2717,-156.250000
2718,-156.250000
2719,-156.250000
2720,-156.250000
2721,-156.250000
2722,-160.156250
2723,-160.156250
2724,-160.156250
2725,-160.156250
2726,-160.156250
2727,-160.156250
2728,-160.156250
2729,-160.156250
2730,-164.062500
2731,-164.062500
2732,-164.062500
2733,-164.062500
2734,-164.062500
2735,-164.062500
2736,-164.062500
2737,-164.062500
2738,-164.062500
2739,-167.968750
2740,-167.968750
2741,-167.968750
2742,-167.968750
2743,-167.968750
2744,-167.968750
2745,-167.968750
2746,-167.968750
2747,-167.968750
2748,-167.968750
2749,-167.968750
2750,-167.968750
2751,-171.875000
2752,-171.875000
2753,-171.875000
2754,-171.875000
2755,-171.875000
2756,-171.875000
2757,-171.875000
2758,-171.875000
2759,-171.875000
2760,-171.875000
2761,-171.875000
2762,-171.875000
2763,-171.875000
2764,-175.781250
2765,-175.781250
2766,-175.781250
2767,-175.781250
2768,-175.781250
2769,-175.781250
2770,-175.781250
2771,-175.781250
2772,-175.781250
2773,-175.781250
2774,-175.781250
2775,-175.781250
2776,-175.781250
2777,-175.781250
2778,-175.781250
2779,-175.781250
2780,-175.781250
2781,-175.781250
2782,-175.781250
2783,-175.781250
2784,-175.781250
2785,-175.781250
2786,-175.781250
2787,-175.781250
2788,-175.781250
2789,-175.781250
2790,-175.781250
2791,-175.781250
2792,-175.781250
2793,-179.687500
2794,-175.781250
2795,-175.781250
2796,-175.781250
2797,-175.781250
2798,-175.781250
2799,-175.781250
2800,-175.781250
2801,-175.781250
2802,-175.781250
2803,-175.781250
2804,-175.781250
2805,-175.781250
2806,-175.781250
2807,-175.781250
2808,-175.781250
2809,-175.781250
2810,-175.781250
2811,-175.781250
2812,-175.781250
2813,-175.781250
2814,-175.781250
2815,-175.781250
2816,-175.781250
2817,-175.781250
2818,-175.781250
2819,-175.781250
2820,-171.875000
2821,-175.781250
2822,-175.781250
2823,-171.875000
2824,-175.781250
2825,-175.781250
2826,-167.968750
2827,-171.875000
2828,-171.875000
2829,-171.875000
2830,-171.875000
2831,-171.875000
2832,-171.875000
2833,-171.875000
2834,-171.875000
2835,-171.875000
2836,-167.968750
2837,-167.968750
2838,-167.968750
2839,-167.968750
2840,-167.968750
2841,-167.968750
2842,-167.968750
2843,-167.968750
2844,-167.968750
2845,-167.968750
2846,-167.968750
2847,-164.062500
2848,-164.062500
2849,-164.062500
2850,-164.062500
2851,-164.062500
2852,-164.062500
2853,-164.062500
2854,-164.062500
2855,-164.062500
2856,-164.062500
2857,-160.156250
2858,-160.156250
2859,-160.156250
2860,-160.156250
2861,-160.156250
2862,-160.156250
2863,-160.156250
2864,-160.156250
2865,-156.250000
2866,-156.250000
2867,-156.250000
2868,-156.250000
2869,-156.250000
2870,-156.250000
2871,-156.250000
2872,-156.250000
2873,-152.343750
2874,-152.343750
2875,-152.343750
2876,-152.343750
2877,-152.343750
2878,-152.343750
2879,-148.437500
2880,-148.437500
2881,-148.437500
2882,-148.437500
2883,-148.437500
2884,-148.437500
2885,-148.437500
2886,-148.437500
2887,-144.531250
2888,-144.531250
2889,-144.531250
2890,-144.531250
2891,-140.625000
2892,-140.625000
2893,-140.625000
2894,-144.531250
2895,-140.625000
2896,-140.625000
2897,-140.625000
2898,-136.718750
2899,-136.718750
2900,-136.718750
2901,-136.718750
2902,-136.718750
2903,-136.718750
2904,-132.812500
2905,-132.812500
2906,-132.812500
2907,-132.812500
2908,-132.812500
2909,-132.812500
2910,-128.906250
2911,-128.906250
2912,-128.906250
2913,-128.906250
2914,-125.000000
2915,-125.000000
2916,-125.000000
2917,-125.000000
2918,-125.000000
2919,-121.093750
2920,-121.093750
2921,-121.093750
2922,-121.093750
2923,-121.093750
2924,-117.187500
2925,-117.187500
2926,-117.187500
2927,-113.281250
2928,-117.187500
2929,-113.281250
2930,-113.281250
2931,-113.281250
2932,-113.281250
2933,-109.375000
2934,-109.375000
2935,-109.375000
2936,-109.375000
2937,-105.468750
2938,-105.468750
2939,-105.468750
2940,-105.468750
2941,-105.468750
2942,-101.562500
2943,-101.562500
2944,-101.562500
2945,-101.562500
2946,-97.656250
2947,-97.656250
2948,-97.656250
2949,-97.656250
2950,-97.656250
2951,-93.750000
2952,-93.750000
2953,-93.750000
2954,-93.750000
2955,-89.843750
2956,-89.843750
2957,-89.843750
2958,-89.843750
2959,-85.937500
2960,-85.937500
2961,-85.937500
2962,-85.937500
2963,-82.031250
2964,-82.031250
2965,-82.031250
2966,-82.031250
2967,-82.031250
2968,-78.125000
2969,-78.125000
2970,-78.125000
2971,-78.125000
2972,-74.218750
2973,-74.218750
2974,-74.218750
2975,-70.312500
2976,-70.312500
2977,-70.312500
2978,-70.312500
2979,-66.406250
2980,-66.406250
2981,-66.406250
2982,-66.406250
2983,-62.500000
2984,-62.500000
2985,-62.500000
2986,-62.500000
2987,-58.593750
2988,-58.593750
2989,-58.593750
2990,-58.593750
2991,-54.687500
2992,-54.687500
2993,-54.687500
2994,-50.781250
2995,-50.781250
2996,-50.781250
2997,-50.781250
2998,-50.781250
2999,-46.875000
3000,-46.875000
3001,-46.875000
3002,-42.968750
3003,-42.968750
3004,-42.968750
3005,-42.968750
3006,-39.062500
3007,-39.062500
3008,-39.062500
3009,-39.062500
3010,-35.156250
3011,-35.156250
3012,-35.156250
3013,-35.156250
3014,-31.250000
3015,-31.250000
3016,-31.250000
3017,-31.250000
3018,-27.343750
3019,-27.343750
3020,-27.343750
3021,-23.437500
3022,-23.437500
3023,-23.437500
3024,-23.437500
3025,-23.437500
3026,-19.531250
3027,-19.531250
3028,-19.531250
3029,-15.625000
3030,-15.625000
3031,-15.625000
3032,-15.625000
3033,-15.625000
3034,-11.718750
3035,-11.718750
3036,-11.718750
3037,-11.718750
3038,-7.812500
3039,-7.812500
3040,-7.812500
3041,-7.812500
3042,-3.906250
3043,-3.906250
3044,-3.906250
3045,0.000000
3046,0.000000
3047,0.000000
3048,0.000000
3049,0.000000
3050,3.906250
3051,3.906250
3052,3.906250
3053,3.906250
3054,7.812500
3055,7.812500
3056,7.812500
3057,7.812500
3058,11.718750
3059,11.718750
3060,11.718750
3061,15.625000
3062,15.625000
3063,15.625000
3064,15.625000
3065,19.531250
3066,19.531250
3067,19.531250
3068,19.531250
3069,23.437500
3070,23.437500
3071,23.437500
3072,23.437500
3073,27.343750
3074,27.343750
3075,27.343750
3076,27.343750
3077,27.343750
3078,31.250000
3079,31.250000
3080,31.250000
3081,31.250000
3082,35.156250
3083,35.156250
3084,35.156250
3085,35.156250
3086,39.062500
3087,39.062500
3088,39.062500
3089,39.062500
3090,39.062500
3091,42.968750
3092,42.968750
3093,42.968750
3094,42.968750
3095,46.875000
3096,46.875000
3097,46.875000
3098,46.875000
3099,50.781250
3100,50.781250
3101,50.781250
3102,50.781250
3103,50.781250
3104,54.687500
3105,54.687500
3106,54.687500
3107,54.687500
3108,58.593750
3109,58.593750
3110,58.593750
3111,58.593750
3112,58.593750
3113,58.593750
3114,62.500000
3115,62.500000
3116,62.500000
3117,62.500000
3118,66.406250
3119,66.406250
3120,66.406250
3121,66.406250
3122,66.406250
3123,70.312500
3124,70.312500
3125,70.312500
3126,70.312500
3127,70.312500
3128,70.312500
3129,74.218750
3130,74.218750
3131,74.218750
3132,74.218750
3133,74.218750
3134,78.125000
3135,78.125000
3136,78.125000
3137,78.125000
3138,78.125000
3139,78.125000
3140,78.125000
3141,82.031250
3142,82.031250
3143,82.031250
3144,82.031250
3145,85.937500
3146,85.937500
3147,85.937500
3148,85.937500
3149,85.937500
3150,85.937500
3151,85.937500
3152,89.843750
3153,89.843750
3154,89.843750
3155,89.843750
3156,89.843750
3157,89.843750
3158,93.750000
3159,93.750000
3160,93.750000
3161,93.750000
3162,93.750000
3163,93.750000
3164,97.656250
3165,97.656250
3166,97.656250
3167,97.656250
3168,97.656250
3169,97.656250
3170,97.656250
3171,97.656250
3172,101.562500
3173,101.562500
3174,101.562500
3175,101.562500
3176,101.562500
3177,101.562500
3178,105.468750
3179,105.468750
3180,105.468750
3181,105.468750
3182,105.468750
3183,105.468750
3184,105.468750
3185,105.468750
3186,109.375000
3187,109.375000
3188,109.375000
3189,109.375000
3190,109.375000
3191,109.375000
3192,109.375000
3193,109.375000
3194,113.281250
3195,113.281250
3196,113.281250
3197,113.281250
3198,113.281250
3199,113.281250
3200,113.281250
3201,113.281250
3202,117.187500
3203,117.187500
3204,117.187500
3205,117.187500
3206,117.187500
3207,117.187500
3208,117.187500
3209,117.187500
3210,117.187500
3211,117.187500
3212,117.187500
3213,121.093750
3214,121.093750
3215,121.093750
3216,121.093750
3217,121.093750
3218,121.093750
3219,121.093750
3220,121.093750
3221,121.093750
3222,121.093750
3223,121.093750
3224,125.000000
3225,121.093750
3226,121.093750
3227,125.000000
3228,125.000000
3229,125.000000
3230,125.000000
3231,125.000000
3232,125.000000
3233,125.000000
3234,125.000000
3235,125.000000
3236,125.000000
3237,125.000000
3238,128.906250
3239,128.906250
3240,128.906250
3241,128.906250
3242,128.906250
3243,128.906250
3244,128.906250
3245,128.906250
3246,128.906250
3247,128.906250
3248,128.906250
3249,128.906250
3250,128.906250
3251,128.906250
3252,128.906250
3253,128.906250
3254,132.812500
3255,128.906250
3256,132.812500
3257,128.906250
3258,132.812500
3259,132.812500
3260,132.812500
3261,132.812500
3262,132.812500
3263,132.812500
3264,132.812500
3265,132.812500
3266,132.812500
3267,132.812500
3268,132.812500
3269,132.812500
3270,132.812500
3271,132.812500
3272,132.812500
3273,132.812500
3274,132.812500
3275,132.812500
3276,132.812500
3277,132.812500
3278,132.812500
3279,132.812500
3280,132.812500
3281,132.812500
3282,132.812500
3283,132.812500
3284,132.812500
3285,132.812500
3286,132.812500
3287,132.812500
3288,132.812500
3289,132.812500
3290,132.812500
3291,132.812500
3292,132.812500
3293,132.812500
3294,132.812500
3295,132.812500
3296,132.812500
3297,132.812500
3298,132.812500
3299,132.812500
3300,132.812500
3301,132.812500
3302,132.812500
3303,132.812500
3304,132.812500
3305,132.812500
3306,132.812500
3307,132.812500
3308,132.812500
3309,132.812500
3310,132.812500
3311,132.812500
3312,132.812500
3313,132.812500
3314,132.812500
3315,132.812500
3316,132.812500
3317,132.812500
3318,132.812500
3319,128.906250
3320,132.812500
3321,132.812500
3322,132.812500
3323,132.812500
3324,132.812500
3325,128.906250
3326,128.906250
3327,128.906250
3328,128.906250
3329,128.906250
3330,128.906250
3331,128.906250
3332,128.906250
3333,128.906250
3334,128.906250
3335,128.906250
3336,128.906250
3337,128.906250
3338,128.906250
3339,128.906250
3340,128.906250
3341,125.000000
3342,128.906250
3343,128.906250
3344,128.906250
3345,125.000000
3346,128.906250
3347,125.000000
3348,125.000000
3349,125.000000
3350,125.000000
3351,125.000000
3352,125.000000
3353,125.000000
3354,125.000000
3355,125.000000
3356,125.000000
3357,121.093750
3358,125.000000
3359,121.093750
3360,121.093750
3361,121.093750
3362,121.093750
3363,121.093750
3364,121.093750
3365,121.093750
3366,121.093750
3367,121.093750
3368,121.093750
3369,117.187500
3370,117.187500
3371,117.187500
3372,117.187500
3373,117.187500
3374,117.187500
3375,117.187500
3376,117.187500
3377,117.187500
3378,117.187500
3379,117.187500
3380,113.281250
3381,113.281250
3382,113.281250
3383,113.281250
3384,113.281250
3385,113.281250
3386,113.281250
3387,113.281250
3388,113.281250
3389,109.375000
3390,109.375000
3391,109.375000
3392,109.375000
3393,109.375000
3394,109.375000
3395,109.375000
3396,105.468750
3397,105.468750
3398,105.468750
3399,105.468750
3400,105.468750
3401,105.468750
3402,105.468750
3403,105.468750
3404,101.562500
3405,101.562500
3406,101.562500
3407,101.562500
3408,101.562500
3409,101.562500
3410,97.656250
3411,97.656250
3412,97.656250
3413,97.656250
3414,97.656250
3415,97.656250
3416,97.656250
3417,97.656250
3418,93.750000
3419,93.750000
3420,93.750000
3421,93.750000
3422,93.750000
3423,89.843750
3424,89.843750
3425,89.843750
3426,89.843750
3427,89.843750
3428,89.843750
3429,85.937500
3430,85.937500
3431,85.937500
3432,85.937500
3433,85.937500
3434,85.937500
3435,82.031250
3436,82.031250
3437,82.031250
3438,82.031250
3439,82.031250
3440,82.031250
3441,78.125000
3442,78.125000
3443,78.125000
3444,78.125000
3445,78.125000
3446,74.218750
3447,74.218750
3448,74.218750
3449,74.218750
3450,70.312500
3451,70.312500
3452,70.312500
3453,70.312500
3454,70.312500
3455,70.312500
3456,70.312500
3457,66.406250
3458,66.406250
3459,66.406250
3460,66.406250
3461,62.500000
3462,62.500000
3463,62.500000
3464,62.500000
3465,62.500000
3466,62.500000
3467,58.593750
3468,58.593750
3469,58.593750
3470,54.687500
3471,54.687500
3472,54.687500
3473,54.687500
3474,54.687500
3475,50.781250
3476,50.781250
3477,50.781250
3478,50.781250
3479,50.781250
3480,46.875000
3481,46.875000
3482,46.875000
3483,46.875000
3484,46.875000
3485,42.968750
3486,42.968750
3487,42.968750
3488,39.062500
3489,39.062500
3490,39.062500
3491,39.062500
3492,39.062500
3493,39.062500
3494,35.156250
3495,35.156250
3496,35.156250
3497,31.250000
3498,31.250000
3499,31.250000
3500,31.250000
3501,27.343750
3502,27.343750
3503,27.343750
3504,27.343750
3505,23.437500
3506,23.437500
3507,23.437500
3508,23.437500
3509,23.437500
3510,19.531250
3511,19.531250
3512,19.531250
3513,19.531250
3514,15.625000
3515,15.625000
3516,15.625000
3517,11.718750
3518,11.718750
3519,11.718750
3520,11.718750
3521,11.718750
3522,7.812500
3523,7.812500
3524,7.812500
3525,3.906250
3526,3.906250
3527,3.906250
3528,3.906250
3529,0.000000
3530,0.000000
3531,0.000000
3532,0.000000
3533,-3.906250
3534,-3.906250
3535,-3.906250
3536,-7.812500
3537,-7.812500
3538,-7.812500
3539,-7.812500
3540,-7.812500
3541,-11.718750
3542,-11.718750
3543,-11.718750
3544,-11.718750
3545,-15.625000
3546,-15.625000
3547,-15.625000
3548,-15.625000
3549,-19.531250
3550,-19.531250
3551,-19.531250
3552,-23.437500
3553,-23.437500
3554,-23.437500
3555,-23.437500
3556,-27.343750
3557,-27.343750
3558,-27.343750
3559,-31.250000
3560,-31.250000
3561,-31.250000
3562,-31.250000
3563,-31.250000
3564,-35.156250
3565,-35.156250
3566,-35.156250
3567,-39.062500
3568,-39.062500
3569,-39.062500
3570,-39.062500
3571,-42.968750
3572,-42.968750
3573,-42.968750
3574,-42.968750
3575,-46.875000
3576,-46.875000
3577,-46.875000
3578,-46.875000
3579,-50.781250
3580,-50.781250
3581,-50.781250
3582,-50.781250
3583,-54.687500
3584,-54.687500
3585,-54.687500
3586,-58.593750
3587,-58.593750
3588,-58.593750
3589,-58.593750
3590,-62.500000
3591,-62.500000
3592,-62.500000
3593,-62.500000
3594,-62.500000
3595,-66.406250
3596,-66.406250
3597,-66.406250
3598,-70.312500
3599,-70.312500
3600,-70.312500
3601,-70.312500
3602,-74.218750
3603,-74.218750
3604,-74.218750
3605,-74.218750
3606,-78.125000
3607,-78.125000
3608,-78.125000
3609,-78.125000
3610,-82.031250
3611,-82.031250
3612,-82.031250
3613,-82.031250
3614,-85.937500
3615,-85.937500
3616,-85.937500
3617,-85.937500
3618,-85.937500
3619,-89.843750
3620,-89.843750
3621,-89.843750
3622,-93.750000
3623,-93.750000
3624,-93.750000
3625,-93.750000
3626,-93.750000
3627,-97.656250
3628,-97.656250
3629,-97.656250
3630,-101.562500
3631,-101.562500
3632,-101.562500
3633,-101.562500
3634,-101.562500
3635,-105.468750
3636,-105.468750
3637,-105.468750
3638,-105.468750
3639,-105.468750
3640,-109.375000
3641,-109.375000
3642,-109.375000
3643,-109.375000
3644,-113.281250
3645,-113.281250
3646,-113.281250
3647,-113.281250
3648,-117.187500
3649,-117.187500
3650,-117.187500
3651,-117.187500
3652,-117.187500
3653,-121.093750
3654,-121.093750
3655,-121.093750
3656,-121.093750
3657,-121.093750
3658,-125.000000
3659,-125.000000
3660,-125.000000
3661,-125.000000
3662,-128.906250
3663,-128.906250
3664,-128.906250
3665,-128.906250
3666,-128.906250
3667,-132.812500
3668,-132.812500
3669,-132.812500
3670,-132.812500
3671,-132.812500
3672,-132.812500
3673,-132.812500
3674,-136.718750
3675,-136.718750
3676,-136.718750
3677,-136.718750
3678,-140.625000
3679,-140.625000
3680,-140.625000
3681,-140.625000
3682,-140.625000
3683,-140.625000
3684,-144.531250
3685,-144.531250
3686,-144.531250
3687,-144.531250
3688,-144.531250
3689,-144.531250
3690,-148.437500
3691,-148.437500
3692,-148.437500
3693,-148.437500
3694,-148.437500
3695,-148.437500
3696,-148.437500
3697,-152.343750
3698,-152.343750
3699,-152.343750
3700,-152.343750
3701,-152.343750
3702,-152.343750
3703,-156.250000
3704,-156.250000
3705,-156.250000
3706,-156.250000
3707,-156.250000
3708,-156.250000
3709,-156.250000
3710,-160.156250
3711,-160.156250
3712,-160.156250
3713,-160.156250
3714,-160.156250
3715,-160.156250
3716,-160.156250
3717,-160.156250
3718,-160.156250
3719,-164.062500
3720,-164.062500
3721,-164.062500
3722,-164.062500
3723,-164.062500
3724,-164.062500
3725,-164.062500
3726,-164.062500
3727,-164.062500
3728,-167.968750
3729,-167.968750
3730,-167.968750
3731,-167.968750
3732,-167.968750
3733,-167.968750
3734,-167.968750
3735,-167.968750
3736,-167.968750
3737,-167.968750
3738,-167.968750
3739,-171.875000
3740,-171.875000
3741,-171.875000
3742,-171.875000
3743,-171.875000
3744,-171.875000
3745,-171.875000
3746,-171.875000
3747,-171.875000
3748,-171.875000
3749,-171.875000
3750,-171.875000
3751,-171.875000
3752,-171.875000
3753,-175.781250
3754,-175.781250
3755,-175.781250
3756,-175.781250
3757,-175.781250
3758,-175.781250
3759,-175.781250
3760,-175.781250
3761,-175.781250
3762,-175.781250
3763,-175.781250
3764,-175.781250
3765,-175.781250
3766,-175.781250
3767,-175.781250
3768,-175.781250
3769,-175.781250
3770,-175.781250
3771,-175.781250
3772,-175.781250
3773,-175.781250
3774,-175.781250
3775,-175.781250
3776,-175.781250
3777,-175.781250
3778,-175.781250
3779,-175.781250
3780,-175.781250
3781,-179.687500
3782,-175.781250
3783,-175.781250
3784,-175.781250
3785,-175.781250
3786,-175.781250
3787,-179.687500
3788,-175.781250
3789,-175.781250
3790,-175.781250
3791,-175.781250
3792,-175.781250
3793,-175.781250
3794,-175.781250
3795,-175.781250
3796,-175.781250
3797,-175.781250
3798,-175.781250
3799,-175.781250
3800,-175.781250
3801,-175.781250
3802,-175.781250
3803,-175.781250
3804,-175.781250
3805,-175.781250
3806,-175.781250
3807,-175.781250
3808,-175.781250
3809,-175.781250
3810,-175.781250
3811,-171.875000
3812,-171.875000
3813,-171.875000
3814,-171.875000
3815,-171.875000
3816,-171.875000
3817,-171.875000
3818,-171.875000
3819,-171.875000
3820,-171.875000
3821,-171.875000
3822,-171.875000
3823,-171.875000
3824,-171.875000
3825,-171.875000
3826,-171.875000
3827,-171.875000
3828,-171.875000
3829,-167.968750
3830,-167.968750
3831,-167.968750
3832,-167.968750
3833,-167.968750
3834,-167.968750
3835,-167.968750
3836,-167.968750
3837,-167.968750
3838,-167.968750
3839,-164.062500
3840,-164.062500
3841,-164.062500
3842,-164.062500
3843,-164.062500
3844,-164.062500
3845,-164.062500
3846,-164.062500
3847,-164.062500
3848,-160.156250
3849,-160.156250
3850,-160.156250
3851,-160.156250
3852,-160.156250
3853,-160.156250
3854,-160.156250
3855,-156.250000
3856,-160.156250
3857,-156.250000
3858,-156.250000
3859,-156.250000
3860,-156.250000
3861,-156.250000
3862,-156.250000
3863,-152.343750
3864,-152.343750
3865,-152.343750
3866,-152.343750
3867,-152.343750
3868,-152.343750
3869,-152.343750
3870,-148.437500
3871,-148.437500
3872,-148.437500
3873,-148.437500
3874,-148.437500
3875,-148.437500
3876,-148.437500
3877,-148.437500
3878,-144.531250
3879,-144.531250
3880,-144.531250
3881,-144.531250
3882,-140.625000
3883,-140.625000
3884,-140.625000
3885,-140.625000
3886,-140.625000
3887,-136.718750
3888,-136.718750
3889,-136.718750
3890,-136.718750
3891,-136.718750
3892,-136.718750
3893,-132.812500
3894,-132.812500
3895,-132.812500
3896,-132.812500
3897,-132.812500
3898,-128.906250
3899,-128.906250
3900,-128.906250
3901,-128.906250
3902,-128.906250
3903,-128.906250
3904,-125.000000
3905,-125.000000
3906,-125.000000
3907,-125.000000
3908,-121.093750
3909,-121.093750
3910,-121.093750
3911,-121.093750
3912,-121.093750
3913,-121.093750
3914,-117.187500
3915,-117.187500
3916,-117.187500
3917,-117.187500
3918,-113.281250
3919,-113.281250
3920,-113.281250
3921,-113.281250
3922,-113.281250
3923,-109.375000
3924,-109.375000
3925,-109.375000
3926,-109.375000
3927,-105.468750
3928,-105.468750
3929,-105.468750
3930,-105.468750
3931,-105.468750
3932,-101.562500
3933,-101.562500
3934,-101.562500
3935,-101.562500
3936,-97.656250
3937,-97.656250
3938,-97.656250
3939,-97.656250
3940,-93.750000
3941,-93.750000
3942,-93.750000
3943,-93.750000
3944,-93.750000
3945,-89.843750
3946,-89.843750
3947,-89.843750
3948,-89.843750
3949,-85.937500
3950,-85.937500
3951,-85.937500
3952,-85.937500
3953,-82.031250
3954,-82.031250
3955,-82.031250
3956,-82.031250
3957,-78.125000
3958,-78.125000
3959,-78.125000
3960,-78.125000
3961,-74.218750
3962,-74.218750
3963,-74.218750
3964,-74.218750
3965,-70.312500
3966,-70.312500
3967,-70.312500
3968,-66.406250
3969,-66.406250
3970,-66.406250
3971,-66.406250
3972,-62.500000
3973,-62.500000
3974,-62.500000
3975,-62.500000
3976,-62.500000
3977,-62.500000
3978,-58.593750
3979,-58.593750
3980,-54.687500
3981,-54.687500
3982,-54.687500
3983,-54.687500
3984,-50.781250
3985,-50.781250
3986,-50.781250
3987,-50.781250
3988,-46.875000
3989,-46.875000
3990,-46.875000
3991,-46.875000
3992,-42.968750
3993,-42.968750
3994,-42.968750
3995,-39.062500
3996,-39.062500
3997,-39.062500
3998,-39.062500
3999,-39.062500
4000,-35.156250
4001,-35.156250
4002,-35.156250
4003,-35.156250
4004,-31.250000
4005,-31.250000
4006,-31.250000
4007,-31.250000
4008,-27.343750
4009,-27.343750
4010,-27.343750
4011,-23.437500
4012,-23.437500
4013,-23.437500
4014,-23.437500
4015,-19.531250
4016,-19.531250
4017,-19.531250
4018,-19.531250
4019,-15.625000
4020,-15.625000
4021,-15.625000
4022,-15.625000
4023,-11.718750
4024,-11.718750
4025,-11.718750
4026,-11.718750
4027,-7.812500
4028,-7.812500
4029,-7.812500
4030,-3.906250
4031,-3.906250
4032,-3.906250
4033,-3.906250
4034,0.000000
4035,0.000000
4036,0.000000
4037,0.000000
4038,0.000000
4039,3.906250
4040,3.906250
4041,3.906250
4042,7.812500
4043,7.812500
4044,7.812500
4045,7.812500
4046,7.812500
4047,11.718750
4048,11.718750
4049,11.718750
4050,11.718750
4051,11.718750
4052,15.625000
4053,15.625000
4054,19.531250
4055,19.531250
4056,19.531250
4057,19.531250
4058,19.531250
4059,19.531250
4060,23.437500
4061,23.437500
4062,23.437500
4063,23.437500
4064,27.343750
4065,27.343750
4066,27.343750
4067,31.250000
4068,31.250000
4069,31.250000
4070,31.250000
4071,31.250000
4072,35.156250
4073,35.156250
4074,35.156250
4075,35.156250
4076,39.062500
4077,39.062500
4078,39.062500
4079,39.062500
4080,39.062500
4081,42.968750
4082,42.968750
4083,42.968750
4084,42.968750
4085,46.875000
4086,46.875000
4087,46.875000
4088,46.875000
4089,46.875000
4090,50.781250
4091,50.781250
4092,50.781250
4093,50.781250
4094,50.781250
4095,54.687500
4096,54.687500
4097,54.687500
4098,54.687500
4099,58.593750
4100,58.593750
4101,58.593750
4102,58.593750
4103,62.500000
4104,62.500000
4105,62.500000
4106,62.500000
4107,62.500000
4108,62.500000
4109,66.406250
4110,66.406250
4111,66.406250
4112,66.406250
4113,66.406250
4114,70.312500
4115,70.312500
4116,70.312500
4117,70.312500
4118,70.312500
4119,74.218750
4120,74.218750
4121,74.218750
4122,74.218750
4123,74.218750
4124,74.218750
4125,78.125000
4126,78.125000
4127,78.125000
4128,78.125000
4129,78.125000
4130,82.031250
4131,82.031250
4132,82.031250
4133,82.031250
4134,82.031250
4135,82.031250
4136,85.937500
4137,85.937500
4138,85.937500
4139,85.937500
4140,85.937500
4141,89.843750
4142,85.937500
4143,89.843750
4144,89.843750
4145,89.843750
4146,89.843750
4147,89.843750
4148,89.843750
4149,93.750000
4150,93.750000
4151,93.750000
4152,93.750000
4153,93.750000
4154,97.656250
4155,97.656250
4156,97.656250
4157,97.656250
4158,97.656250
4159,97.656250
4160,97.656250
4161,97.656250
4162,101.562500
4163,101.562500
4164,101.562500
4165,101.562500
4166,101.562500
4167,101.562500
4168,105.468750
4169,101.562500
4170,105.468750
4171,105.468750
4172,105.468750
4173,105.468750
4174,105.468750
4175,109.375000
4176,105.468750
4177,109.375000
4178,109.375000
4179,109.375000
4180,109.375000
4181,109.375000
4182,109.375000
4183,109.375000
4184,109.375000
4185,113.281250
4186,113.281250
4187,113.281250
4188,113.281250
4189,113.281250
4190,113.281250
4191,113.281250
4192,113.281250
4193,113.281250
4194,113.281250
4195,117.187500
4196,117.187500
4197,117.187500
4198,117.187500
4199,117.187500
4200,117.187500
4201,117.187500
4202,117.187500
4203,117.187500
4204,117.187500
4205,121.093750
4206,121.093750
4207,121.093750
4208,121.093750
4209,121.093750
4210,121.093750
4211,121.093750
4212,121.093750
4213,121.093750
4214,121.093750
4215,121.093750
4216,125.000000
4217,125.000000
4218,125.000000
4219,125.000000
4220,125.000000
4221,125.000000
4222,125.000000
4223,125.000000
4224,125.000000
4225,125.000000
4226,125.000000
4227,125.000000
4228,128.906250
4229,125.000000
4230,128.906250
4231,128.906250
4232,128.906250
4233,128.906250
4234,128.906250
4235,128.906250
4236,128.906250
4237,128.906250
4238,128.906250
4239,128.906250
4240,128.906250
4241,128.906250
4242,128.906250
4243,128.906250
4244,128.906250
4245,128.906250
4246,132.812500
4247,128.906250
4248,132.812500
4249,128.906250
4250,132.812500
4251,128.906250
4252,132.812500
4253,132.812500
4254,132.812500
4255,132.812500
4256,132.812500
4257,132.812500
4258,132.812500
4259,132.812500
4260,132.812500
4261,132.812500
4262,132.812500
4263,132.812500
4264,132.812500
4265,132.812500
4266,132.812500
4267,132.812500
4268,132.812500
4269,132.812500
4270,132.812500
4271,132.812500
4272,132.812500
4273,132.812500
4274,132.812500
4275,132.812500
4276,132.812500
4277,132.812500
4278,132.812500
4279,132.812500
4280,132.812500
4281,132.812500
4282,132.812500
4283,132.812500
4284,132.812500
4285,132.812500
4286,136.718750
4287,132.812500
4288,132.812500
4289,132.812500
4290,132.812500
4291,132.812500
4292,132.812500
4293,132.812500
4294,132.812500
4295,132.812500
4296,132.812500
4297,132.812500
4298,132.812500
4299,132.812500
4300,132.812500
4301,132.812500
4302,132.812500
4303,132.812500
4304,132.812500
4305,132.812500
4306,132.812500
4307,132.812500
4308,132.812500
4309,132.812500
4310,128.906250
4311,128.906250
4312,132.812500
4313,128.906250
4314,132.812500
4315,128.906250
4316,128.906250
4317,128.906250
4318,128.906250
4319,128.906250
4320,128.906250
4321,128.906250
4322,128.906250
4323,128.906250
4324,128.906250
4325,128.906250
4326,128.906250
4327,128.906250
4328,128.906250
4329,128.906250
4330,128.906250
4331,125.000000
4332,128.906250
4333,125.000000
4334,125.000000
4335,125.000000
4336,125.000000
4337,125.000000
4338,125.000000
4339,125.000000
4340,125.000000
4341,125.000000
4342,125.000000
4343,125.000000
4344,125.000000
4345,125.000000
4346,121.093750
4347,121.093750
4348,121.093750
4349,121.093750
4350,121.093750
4351,121.093750
4352,117.187500
4353,121.093750
4354,121.093750
4355,121.093750
4356,121.093750
4357,121.093750
4358,117.187500
4359,117.187500
4360,117.187500
4361,117.187500
4362,117.187500
4363,117.187500
4364,117.187500
4365,117.187500
4366,113.281250
4367,113.281250
4368,113.281250
4369,113.281250
4370,113.281250
4371,113.281250
4372,113.281250
4373,113.281250
4374,113.281250
4375,109.375000
4376,109.375000
4377,109.375000
4378,109.375000
4379,109.375000
4380,109.375000
4381,109.375000
4382,109.375000
4383,105.468750
4384,105.468750
4385,105.468750
4386,105.468750
4387,105.468750
4388,105.468750
4389,105.468750
4390,105.468750
4391,105.468750
4392,101.562500
4393,101.562500
4394,101.562500
4395,101.562500
4396,101.562500
4397,101.562500
4398,101.562500
4399,97.656250
4400,97.656250
4401,97.656250
4402,97.656250
4403,97.656250
4404,97.656250
4405,97.656250
4406,93.750000
4407,93.750000
4408,93.750000
4409,93.750000
4410,89.843750
4411,89.843750
4412,89.843750
4413,89.843750
4414,89.843750
4415,89.843750
4416,89.843750
4417,89.843750
4418,85.937500
4419,85.937500
4420,85.937500
4421,85.937500
4422,85.937500
4423,85.937500
4424,82.031250
4425,82.031250
4426,82.031250
4427,82.031250
4428,82.031250
4429,78.125000
4430,78.125000
4431,78.125000
4432,78.125000
4433,78.125000
4434,74.218750
4435,74.218750
4436,74.218750
4437,74.218750
4438,74.218750
4439,74.218750
4440,70.312500
4441,70.312500
4442,70.312500
4443,70.312500
4444,70.312500
4445,66.406250
4446,66.406250
4447,66.406250
4448,66.406250
4449,66.406250
4450,62.500000
4451,62.500000
4452,62.500000
4453,62.500000
4454,58.593750
4455,58.593750
4456,58.593750
4457,58.593750
4458,58.593750
4459,54.687500
4460,54.687500
4461,54.687500
4462,54.687500
4463,54.687500
4464,50.781250
4465,50.781250
4466,50.781250
4467,50.781250
4468,50.781250
4469,46.875000
4470,46.875000
4471,46.875000
4472,42.968750
4473,42.968750
4474,42.968750
4475,42.968750
4476,42.968750
4477,42.968750
4478,39.062500
4479,39.062500
4480,39.062500
4481,35.156250
4482,35.156250
4483,35.156250
4484,35.156250
4485,35.156250
4486,31.250000
4487,31.250000
4488,31.250000
4489,31.250000
4490,27.343750
4491,27.343750
4492,27.343750
4493,27.343750
4494,23.437500
4495,23.437500
4496,23.437500
4497,23.437500
4498,19.531250
4499,19.531250
4500,19.531250
4501,19.531250
4502,15.625000
4503,15.625000
4504,15.625000
4505,15.625000
4506,15.625000
4507,11.718750
4508,11.718750
4509,11.718750
4510,7.812500
4511,7.812500
4512,7.812500
4513,7.812500
4514,7.812500
4515,3.906250
4516,3.906250
4517,3.906250
4518,0.000000
4519,0.000000
4520,0.000000
4521,0.000000
4522,-3.906250
4523,-3.906250
4524,-3.906250
4525,-3.906250
4526,-7.812500
4527,-7.812500
4528,-7.812500
4529,-7.812500
4530,-11.718750
4531,-11.718750
4532,-11.718750
4533,-11.718750
4534,-15.625000
4535,-15.625000
4536,-15.625000
4537,-15.625000
4538,-19.531250
4539,-19.531250
4540,-19.531250
4541,-23.437500
4542,-23.437500
4543,-23.437500
4544,-23.437500
4545,-27.343750
4546,-27.343750
4547,-27.343750
4548,-27.343750
4549,-31.250000
4550,-31.250000
4551,-31.250000
4552,-31.250000
4553,-35.156250
4554,-35.156250
4555,-35.156250
4556,-35.156250
4557,-39.062500
4558,-39.062500
4559,-39.062500
4560,-42.968750
4561,-42.968750
4562,-42.968750
4563,-42.968750
4564,-46.875000
4565,-46.875000
4566,-46.875000
4567,-46.875000
4568,-50.781250
4569,-50.781250
4570,-50.781250
4571,-50.781250
4572,-54.687500
4573,-54.687500
4574,-54.687500
4575,-54.687500
4576,-58.593750
4577,-58.593750
4578,-58.593750
4579,-62.500000
4580,-62.500000
4581,-62.500000
4582,-62.500000
4583,-62.500000
4584,-66.406250
4585,-66.406250
4586,-66.406250
4587,-70.312500
4588,-70.312500
4589,-70.312500
4590,-70.312500
4591,-74.218750
4592,-74.218750
4593,-74.218750
4594,-74.218750
4595,-78.125000
4596,-78.125000
4597,-78.125000
4598,-78.125000
4599,-82.031250
4600,-82.031250
4601,-82.031250
4602,-82.031250
4603,-82.031250
4604,-85.937500
4605,-85.937500
4606,-85.937500
4607,-85.937500
4608,-89.843750
4609,-89.843750
4610,-89.843750
4611,-93.750000
4612,-93.750000
4613,-93.750000
4614,-93.750000
4615,-93.750000
4616,-97.656250
4617,-97.656250
4618,-97.656250
4619,-97.656250
4620,-101.562500
4621,-101.562500
4622,-101.562500
4623,-101.562500
4624,-101.562500
4625,-105.468750
4626,-105.468750
4627,-105.468750
4628,-105.468750
4629,-109.375000
4630,-109.375000
4631,-109.375000
4632,-109.375000
4633,-109.375000
4634,-113.281250
4635,-113.281250
4636,-113.281250
4637,-113.281250
4638,-117.187500
4639,-117.187500
4640,-117.187500
4641,-117.187500
4642,-117.187500
4643,-121.093750
4644,-121.093750
4645,-121.093750
4646,-121.093750
4647,-125.000000
4648,-125.000000
4649,-125.000000
4650,-125.000000
4651,-125.000000
4652,-125.000000
4653,-128.906250
4654,-128.906250
4655,-128.906250
4656,-128.906250
4657,-132.812500
4658,-132.812500
4659,-132.812500
4660,-132.812500
4661,-132.812500
4662,-132.812500
4663,-136.718750
4664,-136.718750
4665,-136.718750
4666,-136.718750
4667,-140.625000
4668,-140.625000
4669,-140.625000
4670,-140.625000
4671,-140.625000
4672,-140.625000
4673,-140.625000
4674,-144.531250
4675,-144.531250
4676,-144.531250
4677,-144.531250
4678,-144.531250
4679,-144.531250
4680,-144.531250
4681,-144.531250
4682,-148.437500
4683,-148.437500
4684,-148.437500
4685,-148.437500
4686,-152.343750
4687,-148.437500
4688,-152.343750
4689,-152.343750
4690,-152.343750
4691,-152.343750
4692,-152.343750
4693,-152.343750
4694,-156.250000
4695,-156.250000
4696,-156.250000
4697,-156.250000
4698,-156.250000
4699,-156.250000
4700,-156.250000
4701,-160.156250
4702,-160.156250
4703,-160.156250
4704,-160.156250
4705,-160.156250
4706,-160.156250
4707,-160.156250
4708,-164.062500
4709,-164.062500
4710,-164.062500
4711,-164.062500
4712,-164.062500
4713,-164.062500
4714,-164.062500
4715,-164.062500
4716,-164.062500
4717,-164.062500
4718,-167.968750
4719,-167.968750
4720,-167.968750
4721,-167.968750
4722,-167.968750
4723,-167.968750
4724,-167.968750
4725,-167.968750
4726,-167.968750
4727,-167.968750
4728,-171.875000
4729,-171.875000
4730,-171.875000
4731,-171.875000
4732,-171.875000
4733,-171.875000
4734,-171.875000
4735,-171.875000
4736,-171.875000
4737,-171.875000
4738,-171.875000
4739,-171.875000
4740,-171.875000
4741,-171.875000
4742,-171.875000
4743,-171.875000
4744,-171.875000
4745,-175.781250
4746,-175.781250
4747,-175.781250
4748,-175.781250
4749,-175.781250
4750,-175.781250
4751,-175.781250
4752,-175.781250
4753,-175.781250
4754,-175.781250
4755,-175.781250
4756,-175.781250
4757,-175.781250
4758,-175.781250
4759,-175.781250
4760,-175.781250
4761,-175.781250
4762,-175.781250
4763,-175.781250
4764,-175.781250
4765,-175.781250
4766,-175.781250
4767,-175.781250
4768,-175.781250
4769,-175.781250
4770,-175.781250
4771,-175.781250
4772,-175.781250
4773,-175.781250
4774,-175.781250
4775,-175.781250
4776,-175.781250
4777,-175.781250
4778,-175.781250
4779,-175.781250
4780,-175.781250
4781,-175.781250
4782,-175.781250
4783,-175.781250
4784,-175.781250
4785,-175.781250
4786,-175.781250
4787,-175.781250
4788,-175.781250
4789,-175.781250
4790,-175.781250
4791,-175.781250
4792,-175.781250
4793,-175.781250
4794,-175.781250
4795,-175.781250
4796,-171.875000
4797,-175.781250
4798,-175.781250
4799,-171.875000
4800,-171.875000
4801,-171.875000
4802,-171.875000
4803,-171.875000
4804,-171.875000
4805,-171.875000
4806,-171.875000
4807,-171.875000
4808,-171.875000
4809,-171.875000
4810,-171.875000
4811,-171.875000
4812,-171.875000
4813,-171.875000
4814,-167.968750
4815,-167.968750
4816,-167.968750
4817,-167.968750
4818,-167.968750
4819,-167.968750
4820,-167.968750
4821,-167.968750
4822,-167.968750
4823,-167.968750
4824,-167.968750
4825,-164.062500
4826,-167.968750
4827,-164.062500
4828,-164.062500
4829,-164.062500
4830,-164.062500
4831,-164.062500
4832,-164.062500
4833,-164.062500
4834,-164.062500
4835,-164.062500
4836,-160.156250
4837,-160.156250
4838,-160.156250
4839,-160.156250
4840,-160.156250
4841,-160.156250
4842,-160.156250
4843,-160.156250
4844,-160.156250
4845,-156.250000
4846,-156.250000
4847,-156.250000
4848,-156.250000
4849,-156.250000
4850,-156.250000
4851,-156.250000
4852,-156.250000
4853,-156.250000
4854,-152.343750
4855,-152.343750
4856,-152.343750
4857,-152.343750
4858,-152.343750
4859,-148.437500
4860,-148.437500
4861,-148.437500
4862,-148.437500
4863,-148.437500
4864,-148.437500
4865,-148.437500
4866,-144.531250
4867,-144.531250
4868,-144.531250
4869,-144.531250
4870,-144.531250
4871,-140.625000
4872,-140.625000
4873,-140.625000
4874,-140.625000
4875,-140.625000
4876,-140.625000
4877,-140.625000
4878,-136.718750
4879,-136.718750
4880,-136.718750
4881,-136.718750
4882,-136.718750
4883,-136.718750
4884,-132.812500
4885,-132.812500
4886,-132.812500
4887,-132.812500
4888,-128.906250
4889,-128.906250
4890,-128.906250
4891,-128.906250
4892,-128.906250
4893,-128.906250
4894,-125.000000
4895,-125.000000
4896,-125.000000
4897,-125.000000
4898,-121.093750
4899,-121.093750
4900,-121.093750
4901,-121.093750
4902,-121.093750
4903,-117.187500
4904,-117.187500
4905,-117.187500
4906,-117.187500
4907,-113.281250
4908,-113.281250
4909,-113.281250
4910,-113.281250
4911,-113.281250
4912,-113.281250
4913,-109.375000
4914,-109.375000
4915,-109.375000
4916,-109.375000
4917,-109.375000
4918,-105.468750
4919,-105.468750
4920,-105.468750
4921,-101.562500
4922,-101.562500
4923,-101.562500
4924,-101.562500
4925,-101.562500
4926,-97.656250
4927,-97.656250
4928,-97.656250
4929,-93.750000
4930,-93.750000
4931,-93.750000
4932,-93.750000
4933,-93.750000
4934,-89.843750
4935,-89.843750
4936,-89.843750
4937,-89.843750
4938,-85.937500
4939,-85.937500
4940,-85.937500
4941,-85.937500
4942,-82.031250
4943,-82.031250
4944,-82.031250
4945,-82.031250
4946,-78.125000
4947,-82.031250
4948,-78.125000
4949,-78.125000
4950,-74.218750
4951,-74.218750
4952,-74.218750
4953,-74.218750
4954,-74.218750
4955,-74.218750
4956,-70.312500
4957,-70.312500
4958,-70.312500
4959,-66.406250
4960,-66.406250
4961,-66.406250
4962,-66.406250
4963,-62.500000
4964,-62.500000
4965,-62.500000
4966,-58.593750
4967,-58.593750
4968,-58.593750
4969,-58.593750
4970,-58.593750
4971,-54.687500
4972,-54.687500
4973,-54.687500
4974,-54.687500
4975,-50.781250
4976,-50.781250
4977,-50.781250
4978,-50.781250
4979,-46.875000
4980,-46.875000
4981,-46.875000
4982,-42.968750
4983,-42.968750
4984,-42.968750
4985,-42.968750
4986,-42.968750
4987,-39.062500
4988,-39.062500
4989,-39.062500
4990,-35.156250
4991,-35.156250
4992,-35.156250
4993,-35.156250
4994,-31.250000
4995,-31.250000
4996,-31.250000
4997,-31.250000
4998,-27.343750
4999,-27.343750
5000,-27.343750
5001,-27.343750
5002,-23.437500
5003,-23.437500
5004,-23.437500
5005,-23.437500
5006,-19.531250
5007,-19.531250
5008,-19.531250
5009,-19.531250
5010,-15.625000
5011,-15.625000
5012,-15.625000
5013,-11.718750
5014,-11.718750
5015,-11.718750
5016,-11.718750
5017,-11.718750
5018,-7.812500
5019,-7.812500
5020,-7.812500
5021,-3.906250
5022,-3.906250
5023,-3.906250
5024,-3.906250
5025,0.000000
5026,0.000000
5027,0.000000
5028,0.000000
5029,3.906250
5030,3.906250
5031,3.906250
5032,3.906250
5033,7.812500
5034,7.812500
5035,7.812500
5036,7.812500
5037,11.718750
5038,11.718750
5039,11.718750
5040,11.718750
5041,11.718750
5042,15.625000
5043,15.625000
5044,19.531250
5045,19.531250
5046,19.531250
5047,19.531250
5048,19.531250
5049,23.437500
5050,23.437500
5051,23.437500
5052,23.437500
5053,23.437500
5054,27.343750
5055,27.343750
5056,27.343750
5057,27.343750
5058,31.250000
5059,31.250000
5060,31.250000
5061,31.250000
5062,35.156250
5063,35.156250
5064,35.156250
5065,35.156250
5066,39.062500
5067,39.062500
5068,39.062500
5069,39.062500
5070,42.968750
5071,42.968750
5072,42.968750
5073,42.968750
5074,42.968750
5075,46.875000
5076,46.875000
5077,46.875000
5078,46.875000
5079,46.875000
5080,50.781250
5081,50.781250
5082,50.781250
5083,50.781250
5084,50.781250
5085,50.781250
5086,54.687500
5087,54.687500
5088,54.687500
5089,58.593750
5090,58.593750
5091,58.593750
5092,58.593750
5093,58.593750
5094,58.593750
5095,62.500000
5096,62.500000
5097,62.500000
5098,62.500000
5099,66.406250
5100,66.406250
5101,66.406250
5102,66.406250
5103,66.406250
5104,66.406250
5105,70.312500
5106,70.312500
5107,70.312500
5108,70.312500
5109,74.218750
5110,74.218750
5111,74.218750
5112,74.218750
5113,74.218750
5114,74.218750
5115,78.125000
5116,78.125000
5117,78.125000
5118,78.125000
5119,78.125000
5120,78.125000
5121,82.031250
5122,82.031250
5123,82.031250
5124,82.031250
5125,82.031250
5126,85.937500
5127,85.937500
5128,85.937500
5129,85.937500
5130,85.937500
5131,85.937500
5132,89.843750
5133,89.843750
5134,89.843750
5135,89.843750
5136,89.843750
5137,89.843750
5138,93.750000
5139,93.750000
5140,93.750000
5141,93.750000
5142,93.750000
5143,93.750000
5144,93.750000
5145,97.656250
5146,97.656250
5147,97.656250
5148,97.656250
5149,97.656250
5150,97.656250
5151,101.562500
5152,101.562500
5153,101.562500
5154,101.562500
5155,101.562500
5156,101.562500
5157,101.562500
5158,101.562500
5159,105.468750
5160,105.468750
5161,105.468750
5162,105.468750
5163,105.468750
5164,105.468750
5165,105.468750
5166,109.375000
5167,109.375000
5168,109.375000
5169,109.375000
5170,109.375000
5171,109.375000
5172,109.375000
5173,109.375000
5174,109.375000
5175,113.281250
5176,113.281250
5177,113.281250
5178,113.281250
5179,113.281250
5180,113.281250
5181,113.281250
5182,117.187500
5183,113.281250
5184,117.187500
5185,117.187500
5186,117.187500
5187,117.187500
5188,117.187500
5189,117.187500
5190,117.187500
5191,117.187500
5192,121.093750
5193,117.187500
5194,121.093750
5195,117.187500
5196,121.093750
5197,121.093750
5198,121.093750
5199,121.093750
5200,121.093750
5201,121.093750
5202,121.093750
5203,121.093750
5204,121.093750
5205,121.093750
5206,125.000000
5207,125.000000
5208,125.000000
5209,125.000000
5210,125.000000
5211,125.000000
5212,125.000000
5213,125.000000
5214,125.000000
5215,125.000000
5216,125.000000
5217,125.000000
5218,125.000000
5219,128.906250
5220,128.906250
5221,128.906250
5222,128.906250
5223,128.906250
5224,128.906250
5225,128.906250
5226,128.906250
5227,128.906250
5228,128.906250
5229,128.906250
5230,128.906250
5231,128.906250
5232,128.906250
5233,128.906250
5234,128.906250
5235,128.906250
5236,128.906250
5237,128.906250
5238,132.812500
5239,128.906250
5240,132.812500
5241,128.906250
5242,132.812500
5243,132.812500
5244,132.812500
5245,132.812500
5246,132.812500
5247,132.812500
5248,132.812500
5249,132.812500
5250,132.812500
5251,132.812500
5252,132.812500
5253,132.812500
5254,132.812500
5255,132.812500
5256,132.812500
5257,132.812500
5258,132.812500
5259,132.812500
5260,132.812500
5261,132.812500
5262,132.812500
5263,132.812500
5264,132.812500
5265,132.812500
5266,132.812500
5267,132.812500
5268,132.812500
5269,132.812500
5270,132.812500
5271,132.812500
5272,132.812500
5273,132.812500
5274,132.812500
5275,132.812500
5276,132.812500
5277,132.812500
5278,132.812500
5279,132.812500
5280,132.812500
5281,132.812500
5282,132.812500
5283,132.812500
5284,132.812500
5285,132.812500
5286,132.812500
5287,132.812500
5288,132.812500
5289,132.812500
5290,132.812500
5291,132.812500
5292,132.812500
5293,132.812500
5294,132.812500
5295,132.812500
5296,132.812500
5297,132.812500
5298,132.812500
5299,132.812500
5300,132.812500
5301,132.812500
5302,132.812500
5303,128.906250
5304,128.906250
5305,128.906250
5306,128.906250
5307,128.906250
5308,128.906250
5309,128.906250
5310,128.906250
5311,128.906250
5312,128.906250
5313,128.906250
5314,128.906250
5315,128.906250
5316,128.906250
5317,128.906250
5318,128.906250
5319,128.906250
5320,128.906250
5321,128.906250
5322,128.906250
5323,125.000000
5324,125.000000
5325,125.000000
5326,125.000000
5327,125.000000
5328,125.000000
5329,125.000000
5330,125.000000
5331,125.000000
5332,125.000000
5333,125.000000
5334,125.000000
5335,121.093750
5336,121.093750
5337,125.000000
5338,121.093750
5339,121.093750
5340,121.093750
5341,121.093750
5342,121.093750
5343,121.093750
5344,121.093750
5345,121.093750
5346,121.093750
5347,121.093750
5348,117.187500
5349,117.187500
5350,117.187500
5351,117.187500
5352,117.187500
5353,117.187500
5354,117.187500
5355,113.281250
5356,117.187500
5357,113.281250
5358,113.281250
5359,113.281250
5360,113.281250
5361,113.281250
5362,113.281250
5363,113.281250
5364,113.281250
5365,113.281250
5366,113.281250
5367,109.375000
5368,109.375000
5369,109.375000
5370,109.375000
5371,109.375000
5372,109.375000
5373,109.375000
5374,109.375000
5375,105.468750
5376,105.468750
5377,105.468750
5378,105.468750
5379,105.468750
5380,105.468750
5381,105.468750
5382,105.468750
5383,101.562500
5384,101.562500
5385,101.562500
5386,101.562500
5387,101.562500
5388,101.562500
5389,97.656250
5390,101.562500
5391,97.656250
5392,97.656250
5393,97.656250
5394,97.656250
5395,97.656250
5396,97.656250
5397,93.750000
5398,93.750000
5399,93.750000
5400,93.750000
5401,93.750000
5402,93.750000
5403,93.750000
5404,89.843750
5405,89.843750
5406,89.843750
5407,89.843750
5408,89.843750
5409,85.937500
5410,85.937500
5411,85.937500
5412,85.937500
5413,85.937500
5414,85.937500
5415,82.031250
5416,82.031250
5417,82.031250
5418,82.031250
5419,82.031250
5420,82.031250
5421,78.125000
5422,78.125000
5423,78.125000
5424,78.125000
5425,78.125000
5426,74.218750
5427,74.218750
5428,74.218750
5429,74.218750
5430,74.218750
5431,70.312500
5432,70.312500
5433,70.312500
5434,70.312500
5435,70.312500
5436,66.406250
5437,66.406250
5438,66.406250
5439,66.406250
5440,66.406250
5441,62.500000
5442,62.500000
5443,62.500000
5444,62.500000
5445,62.500000
5446,58.593750
5447,58.593750
5448,58.593750
5449,58.593750
5450,58.593750
5451,54.687500
5452,54.687500
5453,54.687500
5454,54.687500
5455,54.687500
5456,50.781250
5457,50.781250
5458,50.781250
5459,46.875000
5460,46.875000
5461,46.875000
5462,46.875000
5463,46.875000
5464,42.968750
5465,42.968750
5466,42.968750
5467,42.968750
5468,42.968750
5469,39.062500
5470,39.062500
5471,39.062500
5472,39.062500
5473,35.156250
5474,35.156250
5475,35.156250
5476,35.156250
5477,31.250000
5478,31.250000
5479,31.250000
5480,31.250000
5481,27.343750
5482,27.343750
5483,27.343750
5484,27.343750
5485,23.437500
5486,23.437500
5487,23.437500
5488,23.437500
5489,19.531250
5490,19.531250
5491,19.531250
5492,19.531250
5493,15.625000
5494,15.625000
5495,15.625000
5496,15.625000
5497,15.625000
5498,11.718750
5499,11.718750
5500,11.718750
5501,7.812500
5502,7.812500
5503,7.812500
5504,7.812500
5505,3.906250
5506,3.906250
5507,3.906250
5508,3.906250
5509,0.000000
5510,0.000000
5511,0.000000
5512,0.000000
5513,0.000000
5514,-3.906250
5515,-3.906250
5516,-3.906250
5517,-7.812500
5518,-7.812500
5519,-7.812500
5520,-7.812500
5521,-11.718750
5522,-11.718750
5523,-11.718750
5524,-11.718750
5525,-15.625000
5526,-15.625000
5527,-15.625000
5528,-15.625000
5529,-19.531250
5530,-19.531250
5531,-19.531250
5532,-23.437500
5533,-23.437500
5534,-23.437500
5535,-23.437500
5536,-23.437500
5537,-27.343750
5538,-27.343750
5539,-27.343750
5540,-31.250000
5541,-31.250000
5542,-31.250000
5543,-31.250000
5544,-35.156250
5545,-35.156250
5546,-35.156250
5547,-39.062500
5548,-39.062500
5549,-39.062500
5550,-39.062500
5551,-42.968750
5552,-42.968750
5553,-42.968750
5554,-42.968750
5555,-42.968750
5556,-46.875000
5557,-46.875000
5558,-46.875000
5559,-50.781250
5560,-50.781250
5561,-50.781250
5562,-50.781250
5563,-54.687500
5564,-54.687500
5565,-54.687500
5566,-54.687500
5567,-58.593750
5568,-58.593750
5569,-58.593750
5570,-58.593750
5571,-62.500000
5572,-62.500000
5573,-62.500000
5574,-62.500000
5575,-66.406250
5576,-66.406250
5577,-66.406250
5578,-70.312500
5579,-70.312500
5580,-70.312500
5581,-70.312500
5582,-70.312500
5583,-74.218750
5584,-74.218750
5585,-74.218750
5586,-74.218750
5587,-78.125000
5588,-78.125000
5589,-78.125000
5590,-82.031250
5591,-82.031250
5592,-82.031250
5593,-82.031250
5594,-82.031250
5595,-85.937500
5596,-85.937500
5597,-85.937500
5598,-85.937500
5599,-89.843750
5600,-89.843750
5601,-89.843750
5602,-89.843750
5603,-93.750000
5604,-93.750000
5605,-93.750000
5606,-93.750000
5607,-97.656250
5608,-97.656250
5609,-97.656250
5610,-97.656250
5611,-101.562500
5612,-101.562500
5613,-101.562500
5614,-101.562500
5615,-101.562500
5616,-105.468750
5617,-105.468750
5618,-105.468750
5619,-105.468750
5620,-109.375000
5621,-109.375000
5622,-109.375000
5623,-109.375000
5624,-113.281250
5625,-113.281250
5626,-113.281250
5627,-113.281250
5628,-113.281250
5629,-117.187500
5630,-117.187500
5631,-117.187500
5632,-117.187500
5633,-121.093750
5634,-121.093750
5635,-121.093750
5636,-121.093750
5637,-121.093750
5638,-125.000000
5639,-125.000000
5640,-125.000000
5641,-125.000000
5642,-125.000000
5643,-128.906250
5644,-128.906250
5645,-128.906250
5646,-128.906250
5647,-128.906250
5648,-128.906250
5649,-132.812500
5650,-132.812500
5651,-132.812500
5652,-132.812500
5653,-136.718750
5654,-136.718750
5655,-136.718750
5656,-136.718750
5657,-136.718750
5658,-136.718750
5659,-140.625000
5660,-140.625000
5661,-140.625000
5662,-140.625000
5663,-140.625000
5664,-140.625000
5665,-144.531250
5666,-144.531250
5667,-144.531250
5668,-144.531250
5669,-144.531250
5670,-144.531250
5671,-148.437500
5672,-148.437500
5673,-148.437500
5674,-148.437500
5675,-148.437500
5676,-148.437500
5677,-148.437500
5678,-148.437500
5679,-152.343750
5680,-152.343750
5681,-152.343750
5682,-152.343750
5683,-156.250000
5684,-156.250000
5685,-156.250000
5686,-156.250000
5687,-156.250000
5688,-156.250000
5689,-156.250000
5690,-156.250000
5691,-160.156250
5692,-160.156250
5693,-160.156250
5694,-160.156250
5695,-160.156250
5696,-160.156250
5697,-160.156250
5698,-160.156250
5699,-160.156250
5700,-164.062500
5701,-164.062500
5702,-164.062500
5703,-164.062500
5704,-164.062500
5705,-164.062500
5706,-164.062500
5707,-164.062500
5708,-164.062500
5709,-167.968750
5710,-167.968750
5711,-167.968750
5712,-167.968750
5713,-167.968750
5714,-167.968750
5715,-167.968750
5716,-167.968750
5717,-167.968750
5718,-167.968750
5719,-171.875000
5720,-171.875000
5721,-171.875000
5722,-171.875000
5723,-171.875000
5724,-171.875000
5725,-171.875000
5726,-171.875000
5727,-171.875000
5728,-171.875000
5729,-171.875000
5730,-171.875000
5731,-171.875000
5732,-171.875000
5733,-171.875000
5734,-171.875000
5735,-171.875000
5736,-175.781250
5737,-175.781250
5738,-175.781250
5739,-175.781250
5740,-175.781250
5741,-175.781250
5742,-175.781250
5743,-175.781250
5744,-175.781250
5745,-175.781250
5746,-175.781250
5747,-175.781250
5748,-175.781250
5749,-175.781250
5750,-175.781250
5751,-175.781250
5752,-175.781250
5753,-175.781250
5754,-175.781250
5755,-175.781250
5756,-175.781250
5757,-175.781250
5758,-175.781250
5759,-175.781250
5760,-175.781250
5761,-175.781250
5762,-175.781250
5763,-175.781250
5764,-175.781250
5765,-175.781250
5766,-175.781250
5767,-175.781250
5768,-175.781250
5769,-175.781250
5770,-175.781250
5771,-175.781250
5772,-175.781250
5773,-175.781250
5774,-175.781250
5775,-175.781250
5776,-175.781250
5777,-175.781250
5778,-175.781250
5779,-175.781250
5780,-175.781250
5781,-175.781250
5782,-175.781250
5783,-175.781250
5784,-175.781250
5785,-175.781250
5786,-175.781250
5787,-171.875000
5788,-175.781250
5789,-171.875000
5790,-171.875000
5791,-171.875000
5792,-171.875000
5793,-171.875000
5794,-171.875000
5795,-171.875000
5796,-171.875000
5797,-171.875000
5798,-171.875000
5799,-171.875000
5800,-171.875000
5801,-171.875000
5802,-171.875000
5803,-171.875000
5804,-171.875000
5805,-167.968750
5806,-167.968750
5807,-167.968750
5808,-167.968750
5809,-167.968750
5810,-167.968750
5811,-167.968750
5812,-167.968750
5813,-167.968750
5814,-167.968750
5815,-164.062500
5816,-167.968750
5817,-164.062500
5818,-164.062500
5819,-164.062500
5820,-164.062500
5821,-164.062500
5822,-164.062500
5823,-164.062500
5824,-164.062500
5825,-164.062500
5826,-160.156250
5827,-160.156250
5828,-160.156250
5829,-160.156250
5830,-160.156250
5831,-160.156250
5832,-160.156250
5833,-156.250000
5834,-156.250000
5835,-156.250000
5836,-156.250000
5837,-156.250000
5838,-156.250000
5839,-156.250000
5840,-156.250000
5841,-152.343750
5842,-152.343750
5843,-152.343750
5844,-152.343750
5845,-152.343750
5846,-152.343750
5847,-152.343750
5848,-148.437500
5849,-152.343750
5850,-148.437500
5851,-148.437500
5852,-148.437500
5853,-148.437500
5854,-148.437500
5855,-144.531250
5856,-144.531250
5857,-144.531250
5858,-144.531250
5859,-144.531250
5860,-140.625000
5861,-144.531250
5862,-140.625000
5863,-140.625000
5864,-140.625000
5865,-140.625000
5866,-140.625000
5867,-136.718750
5868,-136.718750
5869,-136.718750
5870,-136.718750
5871,-136.718750
5872,-136.718750
5873,-132.812500
5874,-132.812500
5875,-132.812500
5876,-132.812500
5877,-132.812500
5878,-128.906250
5879,-128.906250
5880,-128.906250
5881,-128.906250
5882,-128.906250
5883,-125.000000
5884,-125.000000
5885,-125.000000
5886,-125.000000
5887,-125.000000
5888,-121.093750
5889,-121.093750
5890,-121.093750
5891,-121.093750
5892,-121.093750
5893,-117.187500
5894,-117.187500
5895,-117.187500
5896,-117.187500
5897,-117.187500
5898,-113.281250
5899,-113.281250
5900,-113.281250
5901,-113.281250
5902,-109.375000
5903,-109.375000
5904,-109.375000
5905,-109.375000
5906,-109.375000
5907,-105.468750
5908,-105.468750
5909,-105.468750
5910,-105.468750
5911,-105.468750
5912,-101.562500
5913,-101.562500
5914,-101.562500
5915,-101.562500
5916,-97.656250
5917,-97.656250
5918,-97.656250
5919,-97.656250
5920,-93.750000
5921,-93.750000
5922,-93.750000
5923,-93.750000
5924,-93.750000
5925,-89.843750
5926,-89.843750
5927,-89.843750
5928,-85.937500
5929,-85.937500
5930,-85.937500
5931,-85.937500
5932,-82.031250
5933,-82.031250
5934,-82.031250
5935,-82.031250
5936,-82.031250
5937,-78.125000
5938,-78.125000
5939,-78.125000
5940,-78.125000
5941,-74.218750
5942,-74.218750
5943,-74.218750
5944,-74.218750
5945,-70.312500
5946,-70.312500
5947,-70.312500
5948,-70.312500
5949,-66.406250
5950,-66.406250
5951,-66.406250
5952,-62.500000
5953,-62.500000
5954,-62.500000
5955,-62.500000
5956,-58.593750
5957,-58.593750
5958,-58.593750
5959,-58.593750
5960,-58.593750
5961,-54.687500
5962,-54.687500
5963,-54.687500
5964,-54.687500
5965,-50.781250
5966,-50.781250
5967,-50.781250
5968,-46.875000
5969,-46.875000
5970,-46.875000
5971,-46.875000
5972,-42.968750
5973,-42.968750
5974,-42.968750
5975,-42.968750
5976,-39.062500
5977,-39.062500
5978,-39.062500
5979,-39.062500
5980,-35.156250
5981,-35.156250
5982,-35.156250
5983,-35.156250
5984,-31.250000
5985,-31.250000
5986,-31.250000
5987,-31.250000
5988,-31.250000
5989,-27.343750
5990,-27.343750
5991,-27.343750
5992,-23.437500
5993,-19.531250
5994,-23.437500
5995,-19.531250
5996,-19.531250
5997,-19.531250
5998,-19.531250
5999,-19.531250
6000,-15.625000
6001,-15.625000
6002,-11.718750
6003,-11.718750
6004,-11.718750
6005,-11.718750
6006,-11.718750
6007,-7.812500
6008,-7.812500
6009,-7.812500
6010,-7.812500
6011,-3.906250
6012,-3.906250
6013,-3.906250
6014,-3.906250
6015,0.000000
6016,0.000000
6017,0.000000
6018,3.906250
6019,0.000000
6020,3.906250
6021,3.906250
6022,3.906250
6023,7.812500
6024,7.812500
6025,7.812500
6026,7.812500
6027,11.718750
6028,11.718750
6029,11.718750
6030,15.625000
6031,15.625000
6032,15.625000
6033,15.625000
6034,15.625000
6035,15.625000
6036,19.531250
6037,19.531250
6038,19.531250
6039,23.437500
6040,23.437500
6041,23.437500
6042,23.437500
6043,23.437500
6044,27.343750
6045,27.343750
6046,27.343750
6047,27.343750
6048,31.250000
6049,31.250000
6050,31.250000
6051,31.250000
6052,35.156250
6053,35.156250
6054,35.156250
6055,35.156250
6056,39.062500
6057,39.062500
6058,39.062500
6059,39.062500
6060,39.062500
6061,42.968750
6062,42.968750
6063,42.968750
6064,46.875000
6065,46.875000
6066,46.875000
6067,46.875000
6068,46.875000
6069,50.781250
6070,50.781250
6071,50.781250
6072,50.781250
6073,50.781250
6074,54.687500
6075,54.687500
6076,54.687500
6077,54.687500
6078,58.593750
6079,58.593750
6080,58.593750
6081,58.593750
6082,58.593750
6083,58.593750
6084,62.500000
6085,62.500000
6086,62.500000
6087,62.500000
6088,66.406250
6089,66.406250
6090,66.406250
6091,66.406250
6092,66.406250
6093,66.406250
6094,70.312500
6095,70.312500
6096,70.312500
6097,70.312500
6098,70.312500
6099,74.218750
6100,74.218750
6101,74.218750
6102,74.218750
6103,74.218750
6104,74.218750
6105,78.125000
6106,78.125000
6107,78.125000
6108,78.125000
6109,78.125000
6110,82.031250
6111,82.031250
6112,82.031250
6113,82.031250
6114,82.031250
6115,82.031250
6116,85.937500
6117,85.937500
6118,85.937500
6119,85.937500
6120,85.937500
6121,85.937500
6122,89.843750
6123,89.843750
6124,89.843750
6125,89.843750
6126,89.843750
6127,89.843750
6128,93.750000
6129,93.750000
6130,93.750000
6131,93.750000
6132,93.750000
6133,93.750000
6134,97.656250
6135,97.656250
6136,97.656250
6137,97.656250
6138,97.656250
6139,97.656250
6140,97.656250
6141,101.562500
6142,101.562500
6143,101.562500
6144,101.562500
6145,101.562500
6146,101.562500
6147,101.562500
6148,105.468750
6149,105.468750
6150,105.468750
6151,105.468750
6152,105.468750
6153,105.468750
6154,109.375000
6155,105.468750
6156,105.468750
6157,109.375000
6158,109.375000
6159,109.375000
6160,109.375000
6161,109.375000
6162,109.375000
6163,109.375000
6164,113.281250
6165,113.281250
6166,113.281250
6167,113.281250
6168,113.281250
6169,113.281250
6170,113.281250
6171,113.281250
6172,113.281250
6173,113.281250
6174,117.187500
6175,117.187500
6176,117.187500
6177,117.187500
6178,117.187500
6179,117.187500
6180,117.187500
6181,117.187500
6182,117.187500
6183,117.187500
6184,117.187500
6185,121.093750
6186,121.093750
6187,121.093750
6188,121.093750
6189,121.093750
6190,121.093750
6191,121.093750
6192,121.093750
6193,121.093750
6194,125.000000
6195,125.000000
6196,125.000000
6197,125.000000
6198,125.000000
6199,125.000000
6200,125.000000
6201,125.000000
6202,125.000000
6203,125.000000
6204,125.000000
6205,125.000000
6206,128.906250
6207,125.000000
6208,125.000000
6209,128.906250
6210,128.906250
6211,128.906250
6212,128.906250
6213,128.906250
6214,128.906250
6215,128.906250
6216,128.906250
6217,128.906250
6218,128.906250
6219,128.906250
6220,128.906250
6221,128.906250
6222,128.906250
6223,128.906250
6224,128.906250
6225,128.906250
6226,128.906250
6227,128.906250
6228,132.812500
6229,128.906250
6230,132.812500
6231,132.812500
6232,132.812500
6233,132.812500
6234,132.812500
6235,132.812500
6236,132.812500
6237,132.812500
6238,132.812500
6239,132.812500
6240,132.812500
6241,132.812500
6242,132.812500
6243,132.812500
6244,132.812500
6245,132.812500
6246,132.812500
6247,132.812500
6248,132.812500
6249,132.812500
6250,132.812500
6251,132.812500
6252,132.812500
6253,132.812500
6254,132.812500
6255,132.812500
6256,132.812500
6257,132.812500
6258,132.812500
6259,132.812500
6260,132.812500
6261,132.812500
6262,132.812500
6263,132.812500
6264,132.812500
6265,132.812500
6266,132.812500
6267,132.812500
6268,132.812500
6269,132.812500
6270,132.812500
6271,132.812500
6272,132.812500
6273,132.812500
6274,132.812500
6275,132.812500
6276,132.812500
6277,132.812500
6278,132.812500
6279,132.812500
6280,132.812500
6281,132.812500
6282,132.812500
6283,132.812500
6284,132.812500
6285,132.812500
6286,132.812500
6287,132.812500
6288,132.812500
6289,132.812500
6290,132.812500
6291,132.812500
6292,132.812500
6293,132.812500
6294,128.906250
6295,128.906250
6296,128.906250
6297,128.906250
6298,128.906250
6299,128.906250
6300,128.906250
6301,128.906250
6302,128.906250
6303,128.906250
6304,128.906250
6305,128.906250
6306,128.906250
6307,128.906250
6308,128.906250
6309,128.906250
6310,128.906250
6311,128.906250
6312,128.906250
6313,125.000000
6314,125.000000
6315,125.000000
6316,125.000000
6317,125.000000
6318,125.000000
6319,125.000000
6320,125.000000
6321,121.093750
6322,125.000000
6323,125.000000
6324,121.093750
6325,121.093750
6326,125.000000
6327,121.093750
6328,125.000000
6329,121.093750
6330,121.093750
6331,121.093750
6332,121.093750
6333,121.093750
6334,121.093750
6335,121.093750
6336,121.093750
6337,117.187500
6338,117.187500
6339,117.187500
6340,117.187500
6341,117.187500
6342,117.187500
6343,117.187500
6344,117.187500
6345,117.187500
6346,117.187500
6347,113.281250
6348,113.281250
6349,113.281250
6350,113.281250
6351,113.281250
6352,113.281250
6353,113.281250
6354,113.281250
6355,113.281250
6356,113.281250
6357,109.375000
6358,109.375000
6359,109.375000
6360,109.375000
6361,109.375000
6362,109.375000
6363,109.375000
6364,109.375000
6365,105.468750
6366,105.468750
6367,105.468750
6368,105.468750
6369,105.468750
6370,105.468750
6371,105.468750
6372,105.468750
6373,101.562500
6374,101.562500
6375,105.468750
6376,101.562500
6377,101.562500
6378,101.562500
6379,101.562500
6380,97.656250
6381,97.656250
6382,97.656250
6383,97.656250
6384,97.656250
6385,97.656250
6386,93.750000
6387,93.750000
6388,93.750000
6389,93.750000
6390,93.750000
6391,89.843750
6392,89.843750
6393,89.843750
6394,89.843750
6395,89.843750
6396,89.843750
6397,89.843750
6398,89.843750
6399,85.937500
6400,85.937500
6401,85.937500
6402,85.937500
6403,85.937500
6404,82.031250
6405,82.031250
6406,82.031250
6407,82.031250
6408,82.031250
6409,78.125000
6410,78.125000
6411,78.125000
6412,78.125000
6413,78.125000
6414,78.125000
6415,74.218750
6416,74.218750
6417,74.218750
6418,74.218750
6419,74.218750
6420,74.218750
6421,70.312500
6422,70.312500
6423,70.312500
6424,70.312500
6425,70.312500
6426,66.406250
6427,66.406250
6428,66.406250
6429,66.406250
6430,66.406250
6431,62.500000
6432,62.500000
6433,62.500000
6434,62.500000
6435,58.593750
6436,58.593750
6437,58.593750
6438,58.593750
6439,58.593750
6440,54.687500
6441,54.687500
6442,54.687500
6443,54.687500
6444,50.781250
6445,50.781250
6446,50.781250
6447,50.781250
6448,50.781250
6449,46.875000
6450,46.875000
6451,46.875000
6452,46.875000
6453,42.968750
6454,42.968750
6455,42.968750
6456,42.968750
6457,42.968750
6458,39.062500
6459,39.062500
6460,39.062500
6461,39.062500
6462,39.062500
6463,35.156250
6464,35.156250
6465,35.156250
6466,31.250000
6467,31.250000
6468,31.250000
6469,31.250000
6470,31.250000
6471,27.343750
6472,27.343750
6473,27.343750
6474,27.343750
6475,23.437500
6476,23.437500
6477,23.437500
6478,23.437500
6479,19.531250
6480,19.531250
6481,19.531250
6482,19.531250
6483,15.625000
6484,15.625000
6485,15.625000
6486,15.625000
6487,11.718750
6488,11.718750
6489,11.718750
6490,11.718750
6491,7.812500
6492,7.812500
6493,7.812500
6494,7.812500
6495,3.906250
6496,3.906250
6497,3.906250
6498,3.906250
6499,0.000000
6500,0.000000
6501,0.000000
6502,0.000000
6503,-3.906250
6504,-3.906250
6505,-3.906250
6506,-3.906250
6507,-7.812500
6508,-7.812500
6509,-7.812500
6510,-7.812500
6511,-11.718750
6512,-11.718750
6513,-11.718750
6514,-15.625000
6515,-15.625000
6516,-15.625000
6517,-15.625000
6518,-19.531250
6519,-19.531250
6520,-19.531250
6521,-19.531250
6522,-23.437500
6523,-23.437500
6524,-23.437500
6525,-23.437500
6526,-27.343750
6527,-27.343750
6528,-31.250000
6529,-31.250000
6530,-31.250000
6531,-31.250000
6532,-31.250000
6533,-35.156250
6534,-35.156250
6535,-35.156250
6536,-35.156250
6537,-39.062500
6538,-39.062500
6539,-39.062500
6540,-39.062500
6541,-42.968750
6542,-42.968750
6543,-42.968750
6544,-42.968750
6545,-46.875000
6546,-46.875000
6547,-46.875000
6548,-50.781250
6549,-50.781250
6550,-50.781250
6551,-50.781250
6552,-54.687500
6553,-54.687500
6554,-54.687500
6555,-54.687500
6556,-58.593750
6557,-58.593750
6558,-58.593750
6559,-58.593750
6560,-58.593750
6561,-62.500000
6562,-62.500000
6563,-62.500000
6564,-66.406250
6565,-66.406250
6566,-66.406250
6567,-66.406250
6568,-70.312500
6569,-70.312500
6570,-70.312500
6571,-74.218750
6572,-74.218750
6573,-74.218750
6574,-74.218750
6575,-74.218750
6576,-78.125000
6577,-78.125000
6578,-78.125000
6579,-82.031250
6580,-82.031250
6581,-82.031250
6582,-82.031250
6583,-82.031250
6584,-85.937500
6585,-85.937500
6586,-85.937500
6587,-85.937500
6588,-89.843750
6589,-89.843750
6590,-89.843750
6591,-89.843750
6592,-93.750000
6593,-93.750000
6594,-93.750000
6595,-93.750000
6596,-93.750000
6597,-97.656250
6598,-97.656250
6599,-97.656250
6600,-97.656250
6601,-101.562500
6602,-101.562500
6603,-101.562500
6604,-101.562500
6605,-105.468750
6606,-105.468750
6607,-105.468750
6608,-105.468750
6609,-105.468750
6610,-109.375000
6611,-109.375000
6612,-109.375000
6613,-109.375000
6614,-113.281250
6615,-113.281250
6616,-113.281250
6617,-113.281250
6618,-113.281250
6619,-117.187500
6620,-117.187500
6621,-117.187500
6622,-121.093750
6623,-121.093750
6624,-121.093750
6625,-121.093750
6626,-121.093750
6627,-125.000000
6628,-125.000000
6629,-125.000000
6630,-125.000000
6631,-125.000000
6632,-125.000000
6633,-128.906250
6634,-128.906250
6635,-128.906250
6636,-128.906250
6637,-128.906250
6638,-132.812500
6639,-132.812500
6640,-132.812500
6641,-132.812500
6642,-132.812500
6643,-136.718750
6644,-136.718750
6645,-136.718750
6646,-136.718750
6647,-136.718750
6648,-136.718750
6649,-140.625000
6650,-140.625000
6651,-140.625000
6652,-140.625000
6653,-144.531250
6654,-144.531250
6655,-144.531250
6656,-144.531250
6657,-144.531250
6658,-144.531250
6659,-148.437500
6660,-148.437500
6661,-148.437500
6662,-148.437500
6663,-148.437500
6664,-148.437500
6665,-148.437500
6666,-152.343750
6667,-152.343750
6668,-152.343750
6669,-152.343750
6670,-152.343750
6671,-152.343750
6672,-152.343750
6673,-152.343750
6674,-156.250000
6675,-156.250000
6676,-156.250000
6677,-156.250000
6678,-156.250000
6679,-156.250000
6680,-156.250000
6681,-160.156250
6682,-160.156250
6683,-160.156250
6684,-160.156250
6685,-160.156250
6686,-160.156250
6687,-160.156250
6688,-160.156250
6689,-164.062500
6690,-164.062500
6691,-164.062500
6692,-164.062500
6693,-164.062500
6694,-164.062500
6695,-164.062500
6696,-164.062500
6697,-164.062500
6698,-164.062500
6699,-167.968750
6700,-167.968750
6701,-167.968750
6702,-167.968750
6703,-167.968750
6704,-167.968750
6705,-167.968750
6706,-167.968750
6707,-167.968750
6708,-167.968750
6709,-171.875000
6710,-171.875000
6711,-171.875000
6712,-171.875000
6713,-171.875000
6714,-171.875000
6715,-171.875000
6716,-171.875000
6717,-171.875000
6718,-171.875000
6719,-171.875000
6720,-171.875000
6721,-171.875000
6722,-171.875000
6723,-175.781250
6724,-171.875000
6725,-175.781250
6726,-171.875000
6727,-175.781250
6728,-175.781250
6729,-175.781250
6730,-175.781250
6731,-175.781250
6732,-175.781250
6733,-175.781250
6734,-175.781250
6735,-175.781250
6736,-175.781250
6737,-175.781250
6738,-175.781250
6739,-175.781250
6740,-175.781250
6741,-175.781250
6742,-175.781250
6743,-175.781250
6744,-175.781250
6745,-175.781250
6746,-175.781250
6747,-175.781250
6748,-175.781250
6749,-175.781250
6750,-175.781250
6751,-175.781250
6752,-175.781250
6753,-175.781250
6754,-175.781250
6755,-175.781250
6756,-175.781250
6757,-175.781250
6758,-175.781250
6759,-175.781250
6760,-175.781250
6761,-175.781250
6762,-175.781250
6763,-175.781250
6764,-175.781250
6765,-175.781250
6766,-175.781250
6767,-175.781250
6768,-175.781250
6769,-175.781250
6770,-175.781250
6771,-175.781250
6772,-175.781250
6773,-175.781250
6774,-175.781250
6775,-175.781250
6776,-175.781250
6777,-175.781250
6778,-175.781250
6779,-175.781250
6780,-175.781250
6781,-171.875000
6782,-171.875000
6783,-171.875000
6784,-171.875000
6785,-171.875000
6786,-171.875000
6787,-171.875000
6788,-171.875000
6789,-171.875000
6790,-171.875000
6791,-171.875000
6792,-171.875000
6793,-171.875000
6794,-171.875000
6795,-171.875000
6796,-171.875000
6797,-171.875000
6798,-167.968750
6799,-167.968750
6800,-167.968750
6801,-167.968750
6802,-167.968750
6803,-167.968750
6804,-167.968750
6805,-167.968750
6806,-167.968750
6807,-167.968750
6808,-164.062500
6809,-164.062500
6810,-164.062500
6811,-164.062500
6812,-164.062500
6813,-164.062500
6814,-164.062500
6815,-164.062500
6816,-164.062500
6817,-164.062500
6818,-160.156250
6819,-160.156250
6820,-160.156250
6821,-160.156250
6822,-160.156250
6823,-160.156250
6824,-156.250000
6825,-160.156250
6826,-156.250000
6827,-156.250000
6828,-156.250000
6829,-156.250000
6830,-156.250000
6831,-156.250000
6832,-156.250000
6833,-152.343750
6834,-152.343750
6835,-152.343750
6836,-152.343750
6837,-152.343750
6838,-152.343750
6839,-152.343750
6840,-148.437500
6841,-148.437500
6842,-148.437500
6843,-148.437500
6844,-148.437500
6845,-144.531250
6846,-144.531250
6847,-144.531250
6848,-144.531250
6849,-144.531250
6850,-144.531250
6851,-144.531250
6852,-140.625000
6853,-140.625000
6854,-140.625000
6855,-140.625000
6856,-140.625000
6857,-140.625000
6858,-136.718750
6859,-136.718750
6860,-136.718750
6861,-136.718750
6862,-136.718750
6863,-132.812500
6864,-132.812500
6865,-132.812500
6866,-132.812500
6867,-132.812500
6868,-132.812500
6869,-128.906250
6870,-128.906250
6871,-128.906250
6872,-128.906250
6873,-128.906250
6874,-125.000000
6875,-125.000000
6876,-125.000000
6877,-125.000000
6878,-121.093750
6879,-121.093750
6880,-121.093750
6881,-121.093750
6882,-121.093750
6883,-117.187500
6884,-117.187500
6885,-117.187500
6886,-117.187500
6887,-117.187500
6888,-113.281250
6889,-113.281250
6890,-113.281250
6891,-113.281250
6892,-109.375000
6893,-109.375000
6894,-109.375000
6895,-109.375000
6896,-109.375000
6897,-109.375000
6898,-105.468750
6899,-105.468750
6900,-105.468750
6901,-101.562500
6902,-101.562500
6903,-101.562500
6904,-101.562500
6905,-101.562500
6906,-97.656250
6907,-97.656250
6908,-97.656250
6909,-97.656250
6910,-93.750000
6911,-93.750000
6912,-93.750000
6913,-93.750000
6914,-89.843750
6915,-89.843750
6916,-89.843750
6917,-89.843750
6918,-89.843750
6919,-85.937500
6920,-85.937500
6921,-85.937500
6922,-85.937500
6923,-82.031250
6924,-82.031250
6925,-82.031250
6926,-78.125000
6927,-78.125000
6928,-78.125000
6929,-78.125000
6930,-78.125000
6931,-78.125000
6932,-74.218750
6933,-74.218750
6934,-70.312500
6935,-70.312500
6936,-70.312500
6937,-70.312500
6938,-70.312500
6939,-66.406250
6940,-66.406250
6941,-66.406250
6942,-62.500000
6943,-62.500000
6944,-62.500000
6945,-62.500000
6946,-62.500000
6947,-58.593750
6948,-58.593750
6949,-58.593750
6950,-54.687500
6951,-54.687500
6952,-54.687500
6953,-54.687500
6954,-54.687500
6955,-50.781250
6956,-50.781250
6957,-50.781250
6958,-46.875000
6959,-46.875000
6960,-46.875000
6961,-46.875000
6962,-42.968750
6963,-42.968750
6964,-42.968750
6965,-42.968750
6966,-39.062500
6967,-39.062500
6968,-39.062500
6969,-39.062500
6970,-35.156250
6971,-35.156250
6972,-35.156250
6973,-31.250000
6974,-31.250000
6975,-31.250000
6976,-31.250000
6977,-31.250000
6978,-27.343750
6979,-27.343750
6980,-27.343750
6981,-23.437500
6982,-23.437500
6983,-23.437500
6984,-23.437500
6985,-19.531250
6986,-19.531250
6987,-19.531250
6988,-19.531250
6989,-15.625000
6990,-15.625000
6991,-15.625000
6992,-15.625000
6993,-11.718750
6994,-11.718750
6995,-11.718750
6996,-11.718750
6997,-7.812500
6998,-7.812500
6999,-7.812500
7000,-7.812500
7001,-3.906250
7002,-3.906250
7003,-3.906250
7004,0.000000
7005,0.000000
7006,0.000000
7007,0.000000
7008,0.000000
7009,3.906250
7010,3.906250
7011,3.906250
7012,7.812500
7013,7.812500
7014,7.812500
7015,7.812500
7016,11.718750
7017,7.812500
7018,11.718750
7019,11.718750
7020,11.718750
7021,15.625000
7022,15.625000
7023,15.625000
7024,19.531250
7025,19.531250
7026,19.531250
7027,19.531250
7028,19.531250
7029,23.437500
7030,23.437500
7031,23.437500
7032,23.437500
7033,27.343750
7034,27.343750
7035,27.343750
7036,27.343750
7037,27.343750
7038,31.250000
7039,31.250000
7040,31.250000
7041,31.250000
7042,35.156250
7043,35.156250
7044,35.156250
7045,39.062500
7046,39.062500
7047,39.062500
7048,39.062500
7049,39.062500
7050,39.062500
7051,42.968750
7052,42.968750
7053,42.968750
7054,46.875000
7055,46.875000
7056,46.875000
7057,46.875000
7058,46.875000
7059,50.781250
7060,50.781250
7061,50.781250
7062,50.781250
7063,50.781250
7064,54.687500
7065,54.687500
7066,54.687500
7067,54.687500
7068,54.687500
7069,58.593750
7070,58.593750
7071,58.593750
7072,58.593750
7073,58.593750
7074,62.500000
7075,62.500000
7076,62.500000
7077,62.500000
7078,66.406250
7079,66.406250
7080,66.406250
7081,66.406250
7082,66.406250
7083,66.406250
7084,70.312500
7085,70.312500
7086,70.312500
7087,70.312500
7088,70.312500
7089,74.218750
7090,74.218750
7091,74.218750
7092,74.218750
7093,78.125000
7094,78.125000
7095,78.125000
7096,78.125000
7097,78.125000
7098,78.125000
7099,82.031250
7100,82.031250
7101,82.031250
7102,82.031250
7103,82.031250
7104,82.031250
7105,82.031250
7106,85.937500
7107,85.937500
7108,85.937500
7109,85.937500
7110,85.937500
7111,85.937500
7112,89.843750
7113,89.843750
7114,89.843750
7115,89.843750
7116,89.843750
7117,93.750000
7118,93.750000
7119,93.750000
7120,93.750000
7121,93.750000
7122,93.750000
7123,93.750000
7124,97.656250
7125,97.656250
7126,97.656250
7127,97.656250
7128,97.656250
7129,97.656250
7130,101.562500
7131,101.562500
7132,101.562500
7133,101.562500
7134,101.562500
7135,101.562500
7136,101.562500
7137,101.562500
7138,105.468750
7139,105.468750
7140,105.468750
7141,105.468750
7142,105.468750
7143,105.468750
7144,105.468750
7145,105.468750
7146,109.375000
7147,109.375000
7148,109.375000
7149,109.375000
7150,109.375000
7151,109.375000
7152,109.375000
7153,113.281250
7154,113.281250
7155,113.281250
7156,113.281250
7157,113.281250
7158,113.281250
7159,113.281250
7160,113.281250
7161,113.281250
7162,113.281250
7163,113.281250
7164,117.187500
7165,117.187500
7166,117.187500
7167,117.187500
7168,117.187500
7169,117.187500
7170,117.187500
7171,117.187500
7172,117.187500
7173,121.093750
7174,121.093750
7175,121.093750
7176,121.093750
7177,121.093750
7178,121.093750
7179,117.187500
7180,121.093750
7181,121.093750
7182,121.093750
7183,121.093750
7184,125.000000
7185,121.093750
7186,125.000000
7187,125.000000
7188,125.000000
7189,125.000000
7190,125.000000
7191,125.000000
7192,125.000000
7193,125.000000
7194,125.000000
7195,125.000000
7196,125.000000
7197,125.000000
7198,125.000000
7199,125.000000
7200,128.906250
7201,128.906250
7202,128.906250
7203,128.906250
7204,128.906250
7205,128.906250
7206,128.906250
7207,128.906250
7208,128.906250
7209,128.906250
7210,128.906250
7211,128.906250
7212,128.906250
7213,128.906250
7214,128.906250
7215,128.906250
7216,128.906250
7217,128.906250
7218,128.906250
7219,128.906250
7220,132.812500
7221,128.906250
7222,132.812500
7223,132.812500
7224,132.812500
7225,132.812500
7226,132.812500
7227,128.906250
7228,132.812500
7229,132.812500
7230,132.812500
7231,132.812500
7232,132.812500
7233,132.812500
7234,132.812500
7235,132.812500
7236,132.812500
7237,132.812500
7238,132.812500
7239,132.812500
7240,132.812500
7241,132.812500
7242,132.812500
7243,132.812500
7244,132.812500
7245,132.812500
7246,132.812500
7247,132.812500
7248,132.812500
7249,132.812500
7250,132.812500
7251,132.812500
7252,132.812500
7253,132.812500
7254,132.812500
7255,132.812500
7256,132.812500
7257,132.812500
7258,132.812500
7259,132.812500
7260,132.812500
7261,132.812500
7262,132.812500
7263,132.812500
7264,132.812500
7265,132.812500
7266,132.812500
7267,132.812500
7268,132.812500
7269,132.812500
7270,132.812500
7271,132.812500
7272,132.812500
7273,132.812500
7274,132.812500
7275,132.812500
7276,132.812500
7277,132.812500
7278,132.812500
7279,132.812500
7280,132.812500
7281,128.906250
7282,128.906250
7283,128.906250
7284,132.812500
7285,128.906250
7286,128.906250
7287,128.906250
7288,128.906250
7289,128.906250
7290,128.906250
7291,128.906250
7292,128.906250
7293,128.906250
7294,128.906250
7295,128.906250
7296,128.906250
7297,128.906250
7298,128.906250
7299,128.906250
7300,128.906250
7301,128.906250
7302,128.906250
7303,128.906250
7304,125.000000
7305,125.000000
7306,125.000000
7307,125.000000
7308,125.000000
7309,125.000000
7310,125.000000
7311,125.000000
7312,125.000000
7313,125.000000
7314,121.093750
7315,121.093750
7316,125.000000
7317,125.000000
7318,121.093750
7319,121.093750
7320,121.093750
7321,121.093750
7322,121.093750
7323,121.093750
7324,121.093750
7325,121.093750
7326,121.093750
7327,117.187500
7328,117.187500
7329,117.187500
7330,117.187500
7331,117.187500
7332,117.187500
7333,117.187500
7334,117.187500
7335,117.187500
7336,117.187500
7337,113.281250
7338,113.281250
7339,113.281250
7340,113.281250
7341,113.281250
7342,113.281250
7343,113.281250
7344,113.281250
7345,113.281250
7346,113.281250
7347,109.375000
7348,109.375000
7349,109.375000
7350,109.375000
7351,109.375000
7352,109.375000
7353,109.375000
7354,109.375000
7355,105.468750
7356,105.468750
7357,105.468750
7358,105.468750
7359,105.468750
7360,105.468750
7361,105.468750
7362,105.468750
7363,101.562500
7364,101.562500
7365,101.562500
7366,101.562500
7367,101.562500
7368,101.562500
7369,101.562500
7370,101.562500
7371,97.656250
7372,97.656250
7373,97.656250
7374,97.656250
7375,93.750000
7376,93.750000
7377,93.750000
7378,93.750000
7379,93.750000
7380,93.750000
7381,93.750000
7382,89.843750
7383,89.843750
7384,89.843750
7385,89.843750
7386,89.843750
7387,89.843750
7388,89.843750
7389,85.937500
7390,85.937500
7391,85.937500
7392,85.937500
7393,85.937500
7394,82.031250
7395,82.031250
7396,82.031250
7397,82.031250
7398,82.031250
7399,82.031250
7400,78.125000
7401,78.125000
7402,78.125000
7403,74.218750
7404,78.125000
7405,74.218750
7406,74.218750
7407,74.218750
7408,74.218750
7409,74.218750
7410,70.312500
7411,70.312500
7412,70.312500
7413,70.312500
7414,70.312500
7415,70.312500
7416,66.406250
7417,66.406250
7418,66.406250
7419,66.406250
7420,66.406250
7421,62.500000
7422,62.500000
7423,62.500000
7424,62.500000
7425,62.500000
7426,58.593750
7427,58.593750
7428,58.593750
7429,54.687500
7430,54.687500
7431,54.687500
7432,54.687500
7433,54.687500
7434,54.687500
7435,50.781250
7436,50.781250
7437,50.781250
7438,50.781250
7439,46.875000
7440,46.875000
7441,46.875000
7442,46.875000
7443,42.968750
7444,42.968750
7445,42.968750
7446,42.968750
7447,39.062500
7448,39.062500
7449,39.062500
7450,39.062500
7451,35.156250
7452,35.156250
7453,35.156250
7454,35.156250
7455,35.156250
7456,31.250000
7457,31.250000
7458,31.250000
7459,31.250000
7460,31.250000
7461,27.343750
7462,27.343750
7463,27.343750
7464,27.343750
7465,23.437500
7466,23.437500
7467,23.437500
7468,23.437500
7469,19.531250
7470,19.531250
7471,19.531250
7472,19.531250
7473,15.625000
7474,15.625000
7475,15.625000
7476,11.718750
7477,11.718750
7478,11.718750
7479,11.718750
7480,11.718750
7481,7.812500
7482,7.812500
7483,7.812500
7484,7.812500
7485,7.812500
7486,3.906250
7487,3.906250
7488,3.906250
7489,0.000000
7490,0.000000
7491,0.000000
7492,0.000000
7493,-3.906250
7494,-3.906250
7495,-3.906250
7496,-3.906250
7497,-7.812500
7498,-7.812500
7499,-7.812500
7500,-7.812500
7501,-7.812500
7502,-11.718750
7503,-15.625000
7504,-15.625000
7505,-15.625000
7506,-15.625000
7507,-15.625000
7508,-19.531250
7509,-19.531250
7510,-19.531250
7511,-19.531250
7512,-23.437500
7513,-23.437500
7514,-23.437500
7515,-23.437500
7516,-27.343750
7517,-27.343750
7518,-27.343750
7519,-27.343750
7520,-31.250000
7521,-31.250000
7522,-31.250000
7523,-35.156250
7524,-35.156250
7525,-35.156250
7526,-35.156250
7527,-39.062500
7528,-39.062500
7529,-39.062500
7530,-42.968750
7531,-42.968750
7532,-42.968750
7533,-42.968750
7534,-42.968750
7535,-46.875000
7536,-46.875000
7537,-46.875000
7538,-50.781250
7539,-50.781250
7540,-50.781250
7541,-50.781250
7542,-50.781250
7543,-54.687500
7544,-54.687500
7545,-54.687500
7546,-54.687500
7547,-58.593750
7548,-58.593750
7549,-58.593750
7550,-62.500000
7551,-62.500000
7552,-62.500000
7553,-62.500000
7554,-66.406250
7555,-66.406250
7556,-66.406250
7557,-66.406250
7558,-66.406250
7559,-70.312500
7560,-70.312500
7561,-74.218750
7562,-74.218750
7563,-74.218750
7564,-74.218750
7565,-78.125000
7566,-78.125000
7567,-78.125000
7568,-78.125000
7569,-82.031250
7570,-82.031250
7571,-82.031250
7572,-82.031250
7573,-82.031250
7574,-82.031250
7575,-85.937500
7576,-85.937500
7577,-85.937500
7578,-89.843750
7579,-89.843750
7580,-89.843750
7581,-89.843750
7582,-93.750000
7583,-93.750000
7584,-93.750000
7585,-93.750000
7586,-97.656250
7587,-97.656250
7588,-97.656250
7589,-97.656250
7590,-97.656250
7591,-101.562500
7592,-101.562500
7593,-101.562500
7594,-101.562500
7595,-105.468750
7596,-105.468750
7597,-105.468750
7598,-105.468750
7599,-109.375000
7600,-109.375000
7601,-109.375000
7602,-109.375000
7603,-109.375000
7604,-113.281250
7605,-113.281250
7606,-113.281250
7607,-113.281250
7608,-113.281250
7609,-117.187500
7610,-117.187500
7611,-117.187500
7612,-117.187500
7613,-117.187500
7614,-121.093750
7615,-121.093750
7616,-121.093750
7617,-121.093750
7618,-125.000000
7619,-125.000000
7620,-125.000000
7621,-125.000000
7622,-125.000000
7623,-125.000000
7624,-128.906250
7625,-128.906250
7626,-128.906250
7627,-128.906250
7628,-132.812500
7629,-132.812500
7630,-132.812500
7631,-132.812500
7632,-132.812500
7633,-136.718750
7634,-136.718750
7635,-136.718750
7636,-136.718750
7637,-136.718750
7638,-136.718750
7639,-140.625000
7640,-140.625000
7641,-140.625000
7642,-140.625000
7643,-140.625000
7644,-140.625000
7645,-140.625000
7646,-144.531250
7647,-144.531250
7648,-144.531250
7649,-144.531250
7650,-148.437500
7651,-144.531250
7652,-148.437500
7653,-148.437500
7654,-148.437500
7655,-148.437500
7656,-148.437500
7657,-148.437500
7658,-152.343750
7659,-152.343750
7660,-152.343750
7661,-152.343750
7662,-152.343750
7663,-156.250000
7664,-156.250000
7665,-156.250000
7666,-156.250000
7667,-156.250000
7668,-156.250000
7669,-156.250000
7670,-156.250000
7671,-156.250000
7672,-160.156250
7673,-160.156250
7674,-160.156250
7675,-160.156250
7676,-160.156250
7677,-160.156250
7678,-160.156250
7679,-160.156250
7680,-164.062500
7681,-164.062500
7682,-164.062500
7683,-164.062500
7684,-164.062500
7685,-164.062500
7686,-164.062500
7687,-164.062500
7688,-164.062500
7689,-164.062500
7690,-167.968750
7691,-167.968750
7692,-167.968750
7693,-167.968750
7694,-167.968750
7695,-167.968750
7696,-167.968750
7697,-167.968750
7698,-167.968750
7699,-167.968750
7700,-167.968750
7701,-171.875000
7702,-171.875000
7703,-167.968750
7704,-171.875000
7705,-171.875000
7706,-171.875000
7707,-171.875000
7708,-171.875000
7709,-171.875000
7710,-171.875000
7711,-171.875000
7712,-171.875000
7713,-171.875000
7714,-171.875000
7715,-171.875000
7716,-175.781250
7717,-171.875000
7718,-175.781250
7719,-175.781250
7720,-175.781250
7721,-171.875000
7722,-171.875000
7723,-175.781250
7724,-175.781250
7725,-175.781250
7726,-175.781250
7727,-175.781250
7728,-175.781250
7729,-175.781250
7730,-175.781250
7731,-175.781250
7732,-175.781250
7733,-175.781250
7734,-175.781250
7735,-175.781250
7736,-175.781250
7737,-175.781250
7738,-175.781250
7739,-175.781250
7740,-175.781250
7741,-175.781250
7742,-175.781250
7743,-175.781250
7744,-175.781250
7745,-175.781250
7746,-175.781250
7747,-175.781250
7748,-175.781250
7749,-175.781250
7750,-175.781250
7751,-175.781250
7752,-175.781250
7753,-175.781250
7754,-175.781250
7755,-175.781250
7756,-175.781250
7757,-175.781250
7758,-175.781250
7759,-175.781250
7760,-171.875000
7761,-171.875000
7762,-171.875000
7763,-175.781250
7764,-175.781250
7765,-175.781250
7766,-175.781250
7767,-171.875000
7768,-171.875000
7769,-171.875000
7770,-171.875000
7771,-171.875000
7772,-171.875000
7773,-171.875000
7774,-171.875000
7775,-171.875000
7776,-171.875000
7777,-171.875000
7778,-171.875000
7779,-171.875000
7780,-171.875000
7781,-167.968750
7782,-167.968750
7783,-171.875000
7784,-167.968750
7785,-167.968750
7786,-167.968750
7787,-167.968750
7788,-167.968750
7789,-167.968750
7790,-167.968750
7791,-167.968750
7792,-167.968750
7793,-167.968750
7794,-167.968750
7795,-167.968750
7796,-164.062500
7797,-164.062500
7798,-164.062500
7799,-164.062500
7800,-164.062500
7801,-164.062500
7802,-164.062500
7803,-164.062500
7804,-164.062500
7805,-164.062500
7806,-164.062500
7807,-160.156250
7808,-160.156250
7809,-160.156250
7810,-160.156250
7811,-160.156250
7812,-160.156250
7813,-160.156250
7814,-160.156250
7815,-156.250000
7816,-156.250000
7817,-156.250000
7818,-156.250000
7819,-156.250000
7820,-156.250000
7821,-156.250000
7822,-152.343750
7823,-152.343750
7824,-152.343750
7825,-152.343750
7826,-152.343750
7827,-152.343750
7828,-148.437500
7829,-148.437500
7830,-148.437500
7831,-148.437500
7832,-148.437500
7833,-148.437500
7834,-148.437500
7835,-144.531250
7836,-144.531250
7837,-144.531250
7838,-144.531250
7839,-144.531250
7840,-144.531250
7841,-144.531250
7842,-140.625000
7843,-140.625000
7844,-140.625000
7845,-140.625000
7846,-140.625000
7847,-136.718750
7848,-136.718750
7849,-136.718750
7850,-136.718750
7851,-136.718750
7852,-136.718750
7853,-132.812500
7854,-132.812500
7855,-132.812500
7856,-132.812500
7857,-132.812500
7858,-128.906250
7859,-128.906250
7860,-128.906250
7861,-128.906250
7862,-128.906250
7863,-125.000000
7864,-125.000000
7865,-125.000000
7866,-125.000000
7867,-125.000000
7868,-121.093750
7869,-121.093750
7870,-121.093750
7871,-121.093750
7872,-121.093750
7873,-117.187500
7874,-117.187500
7875,-117.187500
7876,-113.281250
7877,-113.281250
7878,-113.281250
7879,-113.281250
7880,-113.281250
7881,-113.281250
7882,-109.375000
7883,-109.375000
7884,-109.375000
7885,-109.375000
7886,-105.468750
7887,-105.468750
7888,-105.468750
7889,-105.468750
7890,-105.468750
7891,-101.562500
7892,-101.562500
7893,-101.562500
7894,-101.562500
7895,-97.656250
7896,-97.656250
7897,-97.656250
7898,-97.656250
7899,-97.656250
7900,-93.750000
7901,-93.750000
7902,-93.750000
7903,-93.750000
7904,-89.843750
7905,-89.843750
7906,-89.843750
7907,-89.843750
7908,-85.937500
7909,-85.937500
7910,-85.937500
7911,-82.031250
7912,-82.031250
7913,-82.031250
7914,-82.031250
7915,-82.031250
7916,-82.031250
7917,-78.125000
7918,-78.125000
7919,-78.125000
7920,-78.125000
7921,-74.218750
7922,-74.218750
7923,-74.218750
7924,-74.218750
7925,-70.312500
7926,-70.312500
7927,-70.312500
7928,-70.312500
7929,-66.406250
7930,-66.406250
7931,-66.406250
7932,-66.406250
7933,-62.500000
7934,-62.500000
7935,-62.500000
7936,-62.500000
7937,-58.593750
7938,-58.593750
7939,-58.593750
7940,-54.687500
7941,-54.687500
7942,-54.687500
7943,-54.687500
7944,-50.781250
7945,-50.781250
7946,-50.781250
7947,-50.781250
7948,-50.781250
7949,-46.875000
7950,-46.875000
7951,-46.875000
7952,-46.875000
7953,-42.968750
7954,-42.968750
7955,-42.968750
7956,-42.968750
7957,-39.062500
7958,-39.062500
7959,-39.062500
7960,-35.156250
7961,-35.156250
7962,-35.156250
7963,-35.156250
7964,-31.250000
7965,-31.250000
7966,-31.250000
7967,-31.250000
7968,-27.343750
7969,-27.343750
7970,-27.343750
7971,-27.343750
7972,-23.437500
7973,-23.437500
7974,-23.437500
7975,-23.437500
7976,-19.531250
7977,-19.531250
7978,-15.625000
7979,-15.625000
7980,-15.625000
7981,-15.625000
7982,-15.625000
7983,-15.625000
7984,-11.718750
7985,-11.718750
7986,-11.718750
7987,-7.812500
7988,-7.812500
7989,-7.812500
7990,-7.812500
7991,-7.812500
7992,-3.906250
7993,-3.906250
7994,-3.906250
7995,0.000000
7996,0.000000
7997,0.000000
7998,0.000000
7999,0.000000
8000,3.906250
8001,3.906250
8002,7.812500
8003,7.812500
8004,7.812500
8005,7.812500
8006,7.812500
8007,11.718750
8008,11.718750
8009,11.718750
8010,11.718750
8011,11.718750
8012,15.625000
8013,15.625000
8014,15.625000
8015,19.531250
8016,19.531250
8017,19.531250
8018,19.531250
8019,19.531250
8020,23.437500
8021,23.437500
8022,23.437500
8023,27.343750
8024,27.343750
8025,27.343750
8026,27.343750
8027,31.250000
8028,31.250000
8029,31.250000
8030,31.250000
8031,31.250000
8032,35.156250
8033,35.156250
8034,35.156250
8035,35.156250
8036,39.062500
8037,39.062500
8038,39.062500
8039,39.062500
8040,39.062500
8041,42.968750
8042,42.968750
8043,42.968750
8044,42.968750
8045,46.875000
8046,46.875000
8047,46.875000
8048,46.875000
8049,46.875000
8050,50.781250
8051,50.781250
8052,50.781250
8053,50.781250
8054,54.687500
8055,54.687500
8056,54.687500
8057,54.687500
8058,54.687500
8059,54.687500
8060,58.593750
8061,58.593750
8062,58.593750
8063,58.593750
8064,62.500000
8065,62.500000
8066,62.500000
8067,62.500000
8068,62.500000
8069,62.500000
8070,66.406250
8071,66.406250
8072,66.406250
8073,66.406250
8074,70.312500
8075,70.312500
8076,70.312500
8077,70.312500
8078,70.312500
8079,74.218750
8080,74.218750
8081,74.218750
8082,74.218750
8083,74.218750
8084,74.218750
8085,78.125000
8086,78.125000
8087,78.125000
8088,78.125000
8089,78.125000
8090,82.031250
8091,82.031250
8092,82.031250
8093,82.031250
8094,82.031250
8095,82.031250
8096,82.031250
8097,85.937500
8098,85.937500
8099,85.937500
8100,85.937500
8101,85.937500
8102,89.843750
8103,89.843750
8104,89.843750
8105,89.843750
8106,89.843750
8107,89.843750
8108,93.750000
8109,93.750000
8110,93.750000
8111,93.750000
8112,93.750000
8113,93.750000
8114,97.656250
8115,97.656250
8116,97.656250
8117,97.656250
8118,97.656250
8119,97.656250
8120,97.656250
8121,101.562500
8122,101.562500
8123,101.562500
8124,101.562500
8125,101.562500
8126,101.562500
8127,101.562500
8128,101.562500
8129,105.468750
8130,105.468750
8131,105.468750
8132,105.468750
8133,105.468750
8134,105.468750
8135,109.375000
8136,109.375000
8137,109.375000
8138,109.375000
8139,109.375000
8140,109.375000
8141,109.375000
8142,109.375000
8143,109.375000
8144,113.281250
8145,113.281250
8146,113.281250
8147,113.281250
8148,113.281250
8149,113.281250
8150,113.281250
8151,113.281250
8152,117.187500
8153,117.187500
8154,117.187500
8155,117.187500
8156,117.187500
8157,117.187500
8158,117.187500
8159,117.187500
8160,117.187500
8161,117.187500
8162,121.093750
8163,121.093750
8164,121.093750
8165,121.093750
8166,121.093750
8167,121.093750
8168,121.093750
8169,121.093750
8170,121.093750
8171,121.093750
8172,121.093750
8173,121.093750
8174,121.093750
8175,121.093750
8176,125.000000
8177,125.000000
8178,125.000000
8179,125.000000
8180,125.000000
8181,125.000000
8182,125.000000
8183,125.000000
8184,125.000000
8185,125.000000
8186,125.000000
8187,125.000000
8188,128.906250
8189,128.906250
8190,128.906250
8191,128.906250
8192,128.906250
8193,128.906250
8194,128.906250
8195,128.906250
8196,128.906250
8197,128.906250
8198,128.906250
8199,128.906250
8200,128.906250
8201,128.906250
8202,128.906250
8203,128.906250
8204,128.906250
8205,128.906250
8206,128.906250
8207,128.906250
8208,132.812500
8209,128.906250
8210,132.812500
8211,132.812500
8212,132.812500
8213,128.906250
8214,132.812500
8215,132.812500
8216,132.812500
8217,132.812500
8218,132.812500
8219,132.812500
8220,132.812500
8221,132.812500
8222,132.812500
8223,132.812500
8224,132.812500
8225,132.812500
8226,132.812500
8227,132.812500
8228,132.812500
8229,132.812500
8230,132.812500
8231,132.812500
8232,132.812500
8233,132.812500
8234,132.812500
8235,132.812500
8236,132.812500
8237,132.812500
8238,132.812500
8239,132.812500
8240,132.812500
8241,132.812500
8242,132.812500
8243,132.812500
8244,132.812500
8245,132.812500
8246,132.812500
8247,132.812500
8248,132.812500
8249,132.812500
8250,132.812500
8251,132.812500
8252,132.812500
8253,132.812500
8254,132.812500
8255,132.812500
8256,132.812500
8257,132.812500
8258,132.812500
8259,132.812500
8260,132.812500
8261,132.812500
8262,132.812500
8263,132.812500
8264,132.812500
8265,132.812500
8266,132.812500
8267,132.812500
8268,132.812500
8269,132.812500
8270,132.812500
8271,132.812500
8272,132.812500
8273,132.812500
8274,132.812500
8275,128.906250
8276,128.906250
8277,128.906250
8278,128.906250
8279,128.906250
8280,128.906250
8281,128.906250
8282,128.906250
8283,128.906250
8284,128.906250
8285,128.906250
8286,128.906250
8287,128.906250
8288,128.906250
8289,128.906250
8290,128.906250
8291,128.906250
8292,128.906250
8293,128.906250
8294,128.906250
8295,125.000000
8296,125.000000
8297,125.000000
8298,125.000000
8299,125.000000
8300,125.000000
8301,125.000000
8302,125.000000
8303,125.000000
8304,125.000000
8305,125.000000
8306,125.000000
8307,121.093750
8308,121.093750
8309,121.093750
8310,121.093750
8311,121.093750
8312,121.093750
8313,121.093750
8314,121.093750
8315,121.093750
8316,121.093750
8317,117.187500
8318,117.187500
8319,117.187500
8320,117.187500
8321,117.187500
8322,117.187500
8323,117.187500
8324,117.187500
8325,117.187500
8326,117.187500
8327,117.187500
8328,113.281250
8329,113.281250
8330,113.281250
8331,113.281250
8332,113.281250
8333,113.281250
8334,113.281250
8335,113.281250
8336,113.281250
8337,109.375000
8338,109.375000
8339,109.375000
8340,109.375000
8341,109.375000
8342,109.375000
8343,109.375000
8344,109.375000
8345,105.468750
8346,105.468750
8347,105.468750
8348,105.468750
8349,105.468750
8350,105.468750
8351,105.468750
8352,105.468750
8353,105.468750
8354,101.562500
8355,101.562500
8356,101.562500
8357,101.562500
8358,101.562500
8359,101.562500
8360,97.656250
8361,97.656250
8362,97.656250
8363,97.656250
8364,97.656250
8365,97.656250
8366,97.656250
8367,93.750000
8368,93.750000
8369,93.750000
8370,93.750000
8371,93.750000
8372,93.750000
8373,89.843750
8374,89.843750
8375,89.843750
8376,89.843750
8377,89.843750
8378,85.937500
8379,85.937500
8380,85.937500
8381,85.937500
8382,85.937500
8383,85.937500
8384,85.937500
8385,82.031250
8386,82.031250
8387,82.031250
8388,82.031250
8389,78.125000
8390,82.031250
8391,78.125000
8392,78.125000
8393,78.125000
8394,78.125000
8395,78.125000
8396,74.218750
8397,74.218750
8398,74.218750
8399,74.218750
8400,74.218750
8401,70.312500
8402,70.312500
8403,70.312500
8404,70.312500
8405,70.312500
8406,66.406250
8407,66.406250
8408,66.406250
8409,66.406250
8410,66.406250
8411,62.500000
8412,62.500000
8413,62.500000
8414,62.500000
8415,62.500000
8416,58.593750
8417,58.593750
8418,58.593750
8419,58.593750
8420,54.687500
8421,54.687500
8422,54.687500
8423,54.687500
8424,54.687500
8425,50.781250
8426,50.781250
8427,50.781250
8428,50.781250
8429,46.875000
8430,46.875000
8431,46.875000
8432,46.875000
8433,46.875000
8434,42.968750
8435,42.968750
8436,42.968750
8437,42.968750
8438,39.062500
8439,39.062500
8440,39.062500
8441,39.062500
8442,39.062500
8443,35.156250
8444,35.156250
8445,35.156250
8446,31.250000
8447,31.250000
8448,31.250000
8449,31.250000
8450,31.250000
8451,27.343750
8452,27.343750
8453,27.343750
8454,27.343750
8455,23.437500
8456,23.437500
8457,23.437500
8458,19.531250
8459,19.531250
8460,19.531250
8461,19.531250
8462,19.531250
8463,15.625000
8464,15.625000
8465,15.625000
8466,15.625000
8467,11.718750
8468,11.718750
8469,11.718750
8470,11.718750
8471,7.812500
8472,7.812500
8473,7.812500
8474,7.812500
8475,3.906250
8476,3.906250
8477,3.906250
8478,3.906250
8479,0.000000
8480,0.000000
8481,0.000000
8482,-3.906250
8483,-3.906250
8484,-3.906250
8485,-3.906250
8486,-7.812500
8487,-7.812500
8488,-7.812500
8489,-7.812500
8490,-7.812500
8491,-11.718750
8492,-11.718750
8493,-11.718750
8494,-15.625000
8495,-15.625000
8496,-15.625000
8497,-15.625000
8498,-19.531250
8499,-19.531250
8500,-19.531250
8501,-19.531250
8502,-23.437500
8503,-23.437500
8504,-23.437500
8505,-27.343750
8506,-27.343750
8507,-27.343750
8508,-27.343750
8509,-31.250000
8510,-31.250000
8511,-31.250000
8512,-31.250000
8513,-31.250000
8514,-35.156250
8515,-35.156250
8516,-35.156250
8517,-39.062500
8518,-39.062500
8519,-39.062500
8520,-39.062500
8521,-42.968750
8522,-42.968750
8523,-42.968750
8524,-42.968750
8525,-46.875000
8526,-46.875000
8527,-46.875000
8528,-46.875000
8529,-50.781250
8530,-50.781250
8531,-50.781250
8532,-50.781250
8533,-54.687500
8534,-54.687500
8535,-54.687500
8536,-58.593750
8537,-58.593750
8538,-58.593750
8539,-58.593750
8540,-62.500000
8541,-62.500000
8542,-62.500000
8543,-62.500000
8544,-66.406250
8545,-66.406250
8546,-66.406250
8547,-66.406250
8548,-70.312500
8549,-70.312500
8550,-70.312500
8551,-70.312500
8552,-74.218750
8553,-74.218750
8554,-74.218750
8555,-74.218750
8556,-78.125000
8557,-78.125000
8558,-78.125000
8559,-78.125000
8560,-82.031250
8561,-82.031250
8562,-82.031250
8563,-82.031250
8564,-85.937500
8565,-85.937500
8566,-85.937500
8567,-89.843750
8568,-89.843750
8569,-89.843750
8570,-89.843750
8571,-89.843750
8572,-93.750000
8573,-93.750000
8574,-93.750000
8575,-93.750000
8576,-97.656250
8577,-97.656250
8578,-97.656250
8579,-97.656250
8580,-101.562500
8581,-101.562500
8582,-101.562500
8583,-101.562500
8584,-105.468750
8585,-105.468750
8586,-105.468750
8587,-105.468750
8588,-105.468750
8589,-109.375000
8590,-109.375000
8591,-109.375000
8592,-109.375000
8593,-109.375000
8594,-113.281250
8595,-113.281250
8596,-113.281250
8597,-113.281250
8598,-117.187500
8599,-117.187500
8600,-117.187500
8601,-117.187500
8602,-121.093750
8603,-121.093750
8604,-121.093750
8605,-121.093750
8606,-121.093750
8607,-121.093750
8608,-125.000000
8609,-125.000000
8610,-125.000000
8611,-125.000000
8612,-128.906250
8613,-128.906250
8614,-128.906250
8615,-128.906250
8616,-128.906250
8617,-128.906250
8618,-132.812500
8619,-132.812500
8620,-132.812500
8621,-132.812500
8622,-132.812500
8623,-136.718750
8624,-136.718750
8625,-136.718750
8626,-136.718750
8627,-136.718750
8628,-136.718750
8629,-140.625000
8630,-140.625000
8631,-140.625000
8632,-140.625000
8633,-140.625000
8634,-140.625000
8635,-144.531250
8636,-144.531250
8637,-144.531250
8638,-144.531250
8639,-144.531250
8640,-148.437500
8641,-148.437500
8642,-148.437500
8643,-148.437500
8644,-148.437500
8645,-148.437500
8646,-148.437500
8647,-152.343750
8648,-152.343750
8649,-152.343750
8650,-152.343750
8651,-152.343750
8652,-152.343750
8653,-152.343750
8654,-156.250000
8655,-156.250000
8656,-156.250000
8657,-156.250000
8658,-156.250000
8659,-156.250000
8660,-156.250000
8661,-156.250000
8662,-160.156250
8663,-160.156250
8664,-160.156250
8665,-160.156250
8666,-160.156250
8667,-160.156250
8668,-160.156250
8669,-164.062500
8670,-164.062500
8671,-164.062500
8672,-164.062500
8673,-164.062500
8674,-164.062500
8675,-164.062500
8676,-164.062500
8677,-167.968750
8678,-167.968750
8679,-167.968750
8680,-167.968750
8681,-167.968750
8682,-167.968750
8683,-167.968750
8684,-167.968750
8685,-167.968750
8686,-167.968750
8687,-167.968750
8688,-167.968750
8689,-171.875000
8690,-171.875000
8691,-171.875000
8692,-171.875000
8693,-171.875000
8694,-171.875000
8695,-171.875000
8696,-171.875000
8697,-171.875000
8698,-171.875000
8699,-171.875000
8700,-175.781250
8701,-171.875000
8702,-171.875000
8703,-175.781250
8704,-175.781250
8705,-175.781250
8706,-175.781250
8707,-175.781250
8708,-175.781250
8709,-175.781250
8710,-175.781250
8711,-175.781250
8712,-175.781250
8713,-175.781250
8714,-175.781250
8715,-175.781250
8716,-175.781250
8717,-175.781250
8718,-175.781250
8719,-175.781250
8720,-175.781250
8721,-175.781250
8722,-175.781250
8723,-175.781250
8724,-175.781250
8725,-175.781250
8726,-175.781250
8727,-175.781250
8728,-175.781250
8729,-175.781250
8730,-175.781250
8731,-175.781250
8732,-175.781250
8733,-175.781250
8734,-175.781250
8735,-175.781250
8736,-175.781250
8737,-175.781250
8738,-175.781250
8739,-175.781250
8740,-175.781250
8741,-175.781250
8742,-175.781250
8743,-175.781250
8744,-175.781250
8745,-175.781250
8746,-175.781250
8747,-175.781250
8748,-175.781250
8749,-175.781250
8750,-175.781250
8751,-175.781250
8752,-175.781250
8753,-175.781250
8754,-175.781250
8755,-175.781250
8756,-175.781250
8757,-175.781250
8758,-175.781250
8759,-175.781250
8760,-175.781250
8761,-175.781250
8762,-171.875000
8763,-175.781250
8764,-175.781250
8765,-171.875000
8766,-171.875000
8767,-171.875000
8768,-171.875000
8769,-171.875000
8770,-171.875000
8771,-171.875000
8772,-171.875000
8773,-171.875000
8774,-171.875000
8775,-171.875000
8776,-171.875000
8777,-171.875000
8778,-171.875000
8779,-167.968750
8780,-167.968750
8781,-167.968750
8782,-167.968750
8783,-167.968750
8784,-167.968750
8785,-167.968750
8786,-167.968750
8787,-167.968750
8788,-167.968750
8789,-164.062500
8790,-164.062500
8791,-164.062500
8792,-164.062500
8793,-164.062500
8794,-164.062500
8795,-164.062500
8796,-164.062500
8797,-164.062500
8798,-160.156250
8799,-160.156250
8800,-160.156250
8801,-160.156250
8802,-160.156250
8803,-160.156250
8804,-160.156250
8805,-160.156250
8806,-156.250000
8807,-156.250000
8808,-156.250000
8809,-156.250000
8810,-156.250000
8811,-156.250000
8812,-152.343750
8813,-152.343750
8814,-152.343750
8815,-152.343750
8816,-152.343750
8817,-152.343750
8818,-152.343750
8819,-152.343750
8820,-152.343750
8821,-148.437500
8822,-148.437500
8823,-148.437500
8824,-148.437500
8825,-148.437500
8826,-148.437500
8827,-144.531250
8828,-144.531250
8829,-144.531250
8830,-144.531250
8831,-144.531250
8832,-140.625000
8833,-140.625000
8834,-140.625000
8835,-140.625000
8836,-140.625000
8837,-140.625000
8838,-140.625000
8839,-136.718750
8840,-136.718750
8841,-136.718750
8842,-136.718750
8843,-132.812500
8844,-132.812500
8845,-132.812500
8846,-132.812500
8847,-132.812500
8848,-132.812500
8849,-132.812500
8850,-128.906250
8851,-128.906250
8852,-128.906250
8853,-128.906250
8854,-125.000000
8855,-125.000000
8856,-125.000000
8857,-125.000000
8858,-125.000000
8859,-125.000000
8860,-121.093750
8861,-121.093750
8862,-121.093750
8863,-121.093750
8864,-117.187500
8865,-117.187500
8866,-117.187500
8867,-117.187500
8868,-117.187500
8869,-117.187500
8870,-113.281250
8871,-113.281250
8872,-113.281250
8873,-109.375000
8874,-109.375000
8875,-109.375000
8876,-109.375000
8877,-109.375000
8878,-105.468750
8879,-105.468750
8880,-105.468750
8881,-105.468750
8882,-101.562500
8883,-101.562500
8884,-101.562500
8885,-101.562500
8886,-101.562500
8887,-101.562500
8888,-97.656250
8889,-97.656250
8890,-93.750000
8891,-93.750000
8892,-93.750000
8893,-93.750000
8894,-93.750000
8895,-89.843750
8896,-89.843750
8897,-89.843750
8898,-89.843750
8899,-85.937500
8900,-85.937500
8901,-85.937500
8902,-85.937500
8903,-82.031250
8904,-82.031250
8905,-82.031250
8906,-82.031250
8907,-78.125000
8908,-78.125000
8909,-78.125000
8910,-78.125000
8911,-74.218750
8912,-74.218750
8913,-74.218750
8914,-74.218750
8915,-70.312500
8916,-70.312500
8917,-70.312500
8918,-70.312500
8919,-66.406250
8920,-66.406250
8921,-66.406250
8922,-66.406250
8923,-62.500000
8924,-62.500000
8925,-62.500000
8926,-62.500000
8927,-58.593750
8928,-58.593750
8929,-58.593750
8930,-58.593750
8931,-54.687500
8932,-54.687500
8933,-54.687500
8934,-54.687500
8935,-50.781250
8936,-50.781250
8937,-50.781250
8938,-50.781250
8939,-46.875000
8940,-46.875000
8941,-46.875000
8942,-46.875000
8943,-42.968750
8944,-42.968750
8945,-42.968750
8946,-42.968750
8947,-39.062500
8948,-39.062500
8949,-39.062500
8950,-35.156250
8951,-35.156250
8952,-35.156250
8953,-35.156250
8954,-31.250000
8955,-31.250000
8956,-31.250000
8957,-31.250000
8958,-27.343750
8959,-27.343750
8960,-27.343750
8961,-27.343750
8962,-23.437500
8963,-23.437500
8964,-23.437500
8965,-23.437500
8966,-19.531250
8967,-19.531250
8968,-19.531250
8969,-19.531250
8970,-15.625000
8971,-15.625000
8972,-15.625000
8973,-15.625000
8974,-11.718750
8975,-11.718750
8976,-11.718750
8977,-11.718750
8978,-7.812500
8979,-7.812500
8980,-7.812500
8981,-7.812500
8982,-3.906250
8983,-3.906250
8984,-3.906250
8985,0.000000
8986,0.000000
8987,0.000000
8988,0.000000
8989,0.000000
8990,3.906250
8991,3.906250
8992,7.812500
8993,7.812500
8994,7.812500
8995,7.812500
8996,7.812500
8997,7.812500
8998,11.718750
8999,11.718750
9000,11.718750
9001,11.718750
9002,15.625000
9003,15.625000
9004,15.625000
9005,15.625000
9006,19.531250
9007,19.531250
9008,19.531250
9009,23.437500
9010,23.437500
9011,23.437500
9012,23.437500
9013,23.437500
9014,27.343750
9015,27.343750
9016,27.343750
9017,27.343750
9018,31.250000
9019,27.343750
9020,31.250000
9021,31.250000
9022,35.156250
9023,35.156250
9024,35.156250
9025,35.156250
9026,35.156250
9027,39.062500
9028,39.062500
9029,39.062500
9030,39.062500
9031,42.968750
9032,42.968750
9033,42.968750
9034,42.968750
9035,46.875000
9036,46.875000
9037,46.875000
9038,46.875000
9039,46.875000
9040,50.781250
9041,50.781250
9042,50.781250
9043,50.781250
9044,54.687500
9045,54.687500
9046,54.687500
9047,54.687500
9048,54.687500
9049,58.593750
9050,58.593750
9051,58.593750
9052,58.593750
9053,58.593750
9054,58.593750
9055,62.500000
9056,62.500000
9057,62.500000
9058,62.500000
9059,66.406250
9060,66.406250
9061,66.406250
9062,66.406250
9063,66.406250
9064,70.312500
9065,70.312500
9066,70.312500
9067,70.312500
9068,70.312500
9069,74.218750
9070,74.218750
9071,74.218750
9072,74.218750
9073,74.218750
9074,78.125000
9075,78.125000
9076,78.125000
9077,78.125000
9078,78.125000
9079,82.031250
9080,82.031250
9081,82.031250
9082,82.031250
9083,82.031250
9084,85.937500
9085,85.937500
9086,85.937500
9087,85.937500
9088,85.937500
9089,85.937500
9090,89.843750
9091,85.937500
9092,89.843750
9093,89.843750
9094,89.843750
9095,89.843750
9096,89.843750
9097,89.843750
9098,89.843750
9099,93.750000
9100,93.750000
9101,93.750000
9102,93.750000
9103,93.750000
9104,97.656250
9105,97.656250
9106,97.656250
9107,97.656250
9108,97.656250
9109,97.656250
9110,97.656250
9111,101.562500
9112,101.562500
9113,101.562500
9114,101.562500
9115,101.562500
9116,101.562500
9117,101.562500
9118,105.468750
9119,105.468750
9120,101.562500
9121,105.468750
9122,105.468750
9123,105.468750
9124,105.468750
9125,105.468750
9126,109.375000
9127,109.375000
9128,109.375000
9129,109.375000
9130,109.375000
9131,109.375000
9132,109.375000
9133,109.375000
9134,109.375000
9135,113.281250
9136,113.281250
9137,113.281250
9138,113.281250
9139,113.281250
9140,113.281250
9141,113.281250
9142,113.281250
9143,113.281250
9144,117.187500
9145,117.187500
9146,117.187500
9147,117.187500
9148,117.187500
9149,117.187500
9150,117.187500
9151,117.187500
9152,121.093750
9153,117.187500
9154,117.187500
9155,121.093750
9156,121.093750
9157,121.093750
9158,121.093750
9159,121.093750
9160,121.093750
9161,121.093750
9162,121.093750
9163,121.093750
9164,125.000000
9165,125.000000
9166,125.000000
9167,125.000000
9168,125.000000
9169,125.000000
9170,125.000000
9171,125.000000
9172,125.000000
9173,125.000000
9174,125.000000
9175,125.000000
9176,128.906250
9177,128.906250
9178,128.906250
9179,128.906250
9180,128.906250
9181,128.906250
9182,128.906250
9183,128.906250
9184,128.906250
9185,128.906250
9186,128.906250
9187,128.906250
9188,128.906250
9189,128.906250
9190,128.906250
9191,128.906250
9192,128.906250
9193,128.906250
9194,132.812500
9195,128.906250
9196,132.812500
9197,132.812500
9198,132.812500
9199,128.906250
9200,132.812500
9201,128.906250
9202,132.812500
9203,132.812500
9204,132.812500
9205,132.812500
9206,132.812500
9207,132.812500
9208,132.812500
9209,132.812500
9210,132.812500
9211,132.812500
9212,132.812500
9213,132.812500
9214,132.812500
9215,132.812500
9216,132.812500
9217,132.812500
9218,132.812500
9219,132.812500
9220,132.812500
9221,132.812500
9222,132.812500
9223,132.812500
9224,132.812500
9225,132.812500
9226,132.812500
9227,132.812500
9228,132.812500
9229,132.812500
9230,132.812500
9231,132.812500
9232,132.812500
9233,132.812500
9234,132.812500
9235,132.812500
9236,132.812500
9237,132.812500
9238,132.812500
9239,132.812500
9240,132.812500
9241,132.812500
9242,132.812500
9243,132.812500
9244,132.812500
9245,132.812500
9246,132.812500
9247,132.812500
9248,132.812500
9249,132.812500
9250,132.812500
9251,132.812500
9252,132.812500
9253,132.812500
9254,132.812500
9255,132.812500
9256,132.812500
9257,132.812500
9258,132.812500
9259,132.812500
9260,132.812500
9261,132.812500
9262,132.812500
9263,128.906250
9264,128.906250
9265,128.906250
9266,132.812500
9267,128.906250
9268,128.906250
9269,128.906250
9270,128.906250
9271,128.906250
9272,128.906250
9273,128.906250
9274,128.906250
9275,128.906250
9276,128.906250
9277,128.906250
9278,128.906250
9279,128.906250
9280,128.906250
9281,128.906250
9282,128.906250
9283,125.000000
9284,125.000000
9285,125.000000
9286,125.000000
9287,125.000000
9288,125.000000
9289,125.000000
9290,125.000000
9291,125.000000
9292,125.000000
9293,125.000000
9294,125.000000
9295,125.000000
9296,125.000000
9297,121.093750
9298,125.000000
9299,125.000000
9300,121.093750
9301,121.093750
9302,121.093750
9303,121.093750
9304,121.093750
9305,121.093750
9306,121.093750
9307,117.187500
9308,121.093750
9309,121.093750
9310,117.187500
9311,117.187500
9312,117.187500
9313,117.187500
9314,117.187500
9315,117.187500
9316,117.187500
9317,117.187500
9318,117.187500
9319,113.281250
9320,113.281250
9321,113.281250
9322,113.281250
9323,113.281250
9324,113.281250
9325,113.281250
9326,113.281250
9327,113.281250
9328,109.375000
9329,109.375000
9330,109.375000
9331,109.375000
9332,109.375000
9333,109.375000
9334,109.375000
9335,105.468750
9336,105.468750
9337,105.468750
9338,105.468750
9339,105.468750
9340,105.468750
9341,105.468750
9342,105.468750
9343,101.562500
9344,101.562500
9345,101.562500
9346,101.562500
9347,101.562500
9348,101.562500
9349,101.562500
9350,101.562500
9351,97.656250
9352,97.656250
9353,97.656250
9354,97.656250
9355,97.656250
9356,97.656250
9357,93.750000
9358,93.750000
9359,93.750000
9360,93.750000
9361,93.750000
9362,93.750000
9363,93.750000
9364,89.843750
9365,89.843750
9366,89.843750
9367,89.843750
9368,89.843750
9369,85.937500
9370,85.937500
9371,85.937500
9372,85.937500
9373,85.937500
9374,82.031250
9375,82.031250
9376,82.031250
9377,82.031250
9378,82.031250
9379,78.125000
9380,78.125000
9381,78.125000
9382,78.125000
9383,78.125000
9384,78.125000
9385,74.218750
9386,74.218750
9387,74.218750
9388,74.218750
9389,70.312500
9390,70.312500
9391,70.312500
9392,70.312500
9393,70.312500
9394,70.312500
9395,66.406250
9396,66.406250
9397,66.406250
9398,66.406250
9399,66.406250
9400,62.500000
9401,62.500000
9402,62.500000
9403,62.500000
9404,62.500000
9405,58.593750
9406,58.593750
9407,58.593750
9408,58.593750
9409,54.687500
9410,54.687500
9411,54.687500
9412,54.687500
9413,54.687500
9414,54.687500
9415,50.781250
9416,50.781250
9417,50.781250
9418,50.781250
9419,46.875000
9420,46.875000
9421,46.875000
9422,46.875000
9423,42.968750
9424,42.968750
9425,42.968750
9426,42.968750
9427,42.968750
9428,39.062500
9429,39.062500
9430,39.062500
9431,39.062500
9432,35.156250
9433,35.156250
9434,35.156250
9435,35.156250
9436,31.250000
9437,31.250000
9438,31.250000
9439,31.250000
9440,27.343750
9441,27.343750
9442,27.343750
9443,27.343750
9444,27.343750
9445,23.437500
9446,23.437500
9447,23.437500
9448,23.437500
9449,19.531250
9450,19.531250
9451,19.531250
9452,19.531250
9453,15.625000
9454,15.625000
9455,15.625000
9456,15.625000
9457,11.718750
9458,11.718750
9459,11.718750
9460,11.718750
9461,7.812500
9462,7.812500
9463,7.812500
9464,3.906250
9465,3.906250
9466,3.906250
9467,3.906250
9468,3.906250
9469,0.000000
9470,0.000000
9471,0.000000
9472,-3.906250
9473,-3.906250
9474,-3.906250
9475,-3.906250
9476,-7.812500
9477,-7.812500
9478,-7.812500
9479,-7.812500
9480,-11.718750
9481,-11.718750
9482,-11.718750
9483,-15.625000
9484,-15.625000
9485,-15.625000
9486,-15.625000
9487,-15.625000
9488,-19.531250
9489,-19.531250
9490,-19.531250
9491,-23.437500
9492,-19.531250
9493,-23.437500
9494,-23.437500
9495,-27.343750
9496,-27.343750
9497,-27.343750
9498,-27.343750
9499,-31.250000
9500,-31.250000
9501,-31.250000
9502,-31.250000
9503,-35.156250
9504,-35.156250
9505,-35.156250
9506,-35.156250
9507,-39.062500
9508,-39.062500
9509,-39.062500
9510,-42.968750
9511,-42.968750
9512,-42.968750
9513,-42.968750
9514,-46.875000
9515,-46.875000
9516,-46.875000
9517,-46.875000
9518,-50.781250
9519,-50.781250
9520,-50.781250
9521,-54.687500
9522,-54.687500
9523,-54.687500
9524,-54.687500
9525,-54.687500
9526,-58.593750
9527,-58.593750
9528,-58.593750
9529,-62.500000
9530,-62.500000
9531,-62.500000
9532,-62.500000
9533,-66.406250
9534,-66.406250
9535,-66.406250
9536,-66.406250
9537,-70.312500
9538,-70.312500
9539,-70.312500
9540,-70.312500
9541,-74.218750
9542,-74.218750
9543,-74.218750
9544,-74.218750
9545,-78.125000
9546,-78.125000
9547,-78.125000
9548,-78.125000
9549,-82.031250
9550,-82.031250
9551,-82.031250
9552,-82.031250
9553,-85.937500
9554,-85.937500
9555,-85.937500
9556,-85.937500
9557,-89.843750
9558,-89.843750
9559,-89.843750
9560,-89.843750
9561,-93.750000
9562,-93.750000
9563,-93.750000
9564,-93.750000
9565,-93.750000
9566,-97.656250
9567,-97.656250
9568,-97.656250
9569,-97.656250
9570,-101.562500
9571,-101.562500
9572,-101.562500
9573,-101.562500
9574,-101.562500
9575,-105.468750
9576,-105.468750
9577,-105.468750
9578,-105.468750
9579,-109.375000
9580,-109.375000
9581,-109.375000
9582,-109.375000
9583,-113.281250
9584,-113.281250
9585,-113.281250
9586,-113.281250
9587,-117.187500
9588,-117.187500
9589,-117.187500
9590,-117.187500
9591,-117.187500
9592,-117.187500
9593,-121.093750
9594,-121.093750
9595,-121.093750
9596,-121.093750
9597,-125.000000
9598,-125.000000
9599,-125.000000
9600,-125.000000
9601,-125.000000
9602,-128.906250
9603,-128.906250
9604,-128.906250
9605,-128.906250
9606,-128.906250
9607,-132.812500
9608,-132.812500
9609,-132.812500
9610,-132.812500
9611,-132.812500
9612,-132.812500
9613,-136.718750
9614,-136.718750
9615,-136.718750
9616,-136.718750
9617,-140.625000
9618,-140.625000
9619,-140.625000
9620,-140.625000
9621,-140.625000
9622,-140.625000
9623,-144.531250
9624,-144.531250
9625,-144.531250
9626,-144.531250
9627,-144.531250
9628,-144.531250
9629,-148.437500
9630,-148.437500
9631,-148.437500
9632,-148.437500
9633,-148.437500
9634,-148.437500
9635,-148.437500
9636,-152.343750
9637,-152.343750
9638,-152.343750
9639,-152.343750
9640,-152.343750
9641,-152.343750
9642,-152.343750
9643,-156.250000
9644,-156.250000
9645,-156.250000
9646,-156.250000
9647,-156.250000
9648,-156.250000
9649,-160.156250
9650,-160.156250
9651,-160.156250
9652,-160.156250
9653,-160.156250
9654,-160.156250
9655,-160.156250
9656,-160.156250
9657,-160.156250
9658,-164.062500
9659,-164.062500
9660,-164.062500
9661,-164.062500
9662,-164.062500
9663,-164.062500
9664,-164.062500
9665,-164.062500
9666,-164.062500
9667,-164.062500
9668,-167.968750
9669,-167.968750
9670,-167.968750
9671,-167.968750
9672,-167.968750
9673,-167.968750
9674,-167.968750
9675,-167.968750
9676,-167.968750
9677,-171.875000
9678,-171.875000
9679,-171.875000
9680,-171.875000
9681,-171.875000
9682,-171.875000
9683,-171.875000
9684,-171.875000
9685,-171.875000
9686,-171.875000
9687,-171.875000
9688,-171.875000
9689,-171.875000
9690,-175.781250
9691,-171.875000
9692,-171.875000
9693,-175.781250
9694,-171.875000
9695,-175.781250
9696,-175.781250
9697,-175.781250
9698,-175.781250
9699,-175.781250
9700,-175.781250
9701,-175.781250
9702,-175.781250
9703,-175.781250
9704,-175.781250
9705,-175.781250
9706,-175.781250
9707,-175.781250
9708,-175.781250
9709,-175.781250
9710,-175.781250
9711,-175.781250
9712,-175.781250
9713,-175.781250
9714,-175.781250
9715,-175.781250
9716,-175.781250
9717,-175.781250
9718,-179.687500
9719,-175.781250
9720,-175.781250
9721,-175.781250
9722,-175.781250
9723,-175.781250
9724,-175.781250
9725,-175.781250
9726,-175.781250
9727,-175.781250
9728,-175.781250
9729,-175.781250
9730,-175.781250
9731,-175.781250
9732,-175.781250
9733,-175.781250
9734,-175.781250
9735,-175.781250
9736,-175.781250
9737,-175.781250
9738,-175.781250
9739,-175.781250
9740,-175.781250
9741,-175.781250
9742,-175.781250
9743,-175.781250
9744,-175.781250
9745,-175.781250
9746,-175.781250
9747,-175.781250
9748,-175.781250
9749,-175.781250
9750,-171.875000
9751,-171.875000
9752,-171.875000
9753,-175.781250
9754,-175.781250
9755,-171.875000
9756,-171.875000
9757,-171.875000
9758,-171.875000
9759,-171.875000
9760,-171.875000
9761,-171.875000
9762,-171.875000
9763,-171.875000
9764,-171.875000
9765,-171.875000
9766,-171.875000
9767,-171.875000
9768,-167.968750
9769,-167.968750
9770,-167.968750
9771,-167.968750
9772,-167.968750
9773,-167.968750
9774,-167.968750
9775,-167.968750
9776,-167.968750
9777,-167.968750
9778,-164.062500
9779,-164.062500
9780,-164.062500
9781,-164.062500
9782,-164.062500
9783,-164.062500
9784,-164.062500
9785,-164.062500
9786,-160.156250
9787,-160.156250
9788,-160.156250
9789,-160.156250
9790,-160.156250
9791,-160.156250
9792,-160.156250
9793,-160.156250
9794,-160.156250
9795,-156.250000
9796,-156.250000
9797,-156.250000
9798,-156.250000
9799,-156.250000
9800,-156.250000
9801,-156.250000
9802,-156.250000
9803,-156.250000
9804,-152.343750
9805,-152.343750
9806,-152.343750
9807,-152.343750
9808,-152.343750
9809,-152.343750
9810,-148.437500
9811,-148.437500
9812,-148.437500
9813,-148.437500
9814,-148.437500
9815,-148.437500
9816,-148.437500
9817,-144.531250
9818,-144.531250
9819,-144.531250
9820,-144.531250
9821,-140.625000
9822,-140.625000
9823,-140.625000
9824,-140.625000
9825,-140.625000
9826,-140.625000
9827,-136.718750
9828,-136.718750
9829,-136.718750
9830,-136.718750
9831,-136.718750
9832,-136.718750
9833,-136.718750
9834,-132.812500
9835,-132.812500
9836,-132.812500
9837,-132.812500
9838,-128.906250
9839,-128.906250
9840,-128.906250
9841,-128.906250
9842,-128.906250
9843,-128.906250
9844,-125.000000
9845,-125.000000
9846,-125.000000
9847,-125.000000
9848,-121.093750
9849,-121.093750
9850,-121.093750
9851,-121.093750
9852,-121.093750
9853,-117.187500
9854,-117.187500
9855,-117.187500
9856,-117.187500
9857,-117.187500
9858,-113.281250
9859,-113.281250
9860,-113.281250
9861,-113.281250
9862,-109.375000
9863,-113.281250
9864,-109.375000
9865,-109.375000
9866,-109.375000
9867,-105.468750
9868,-105.468750
9869,-105.468750
9870,-105.468750
9871,-101.562500
9872,-101.562500
9873,-101.562500
9874,-101.562500
9875,-101.562500
9876,-97.656250
9877,-97.656250
9878,-97.656250
9879,-97.656250
9880,-97.656250
9881,-93.750000
9882,-93.750000
9883,-93.750000
9884,-89.843750
9885,-89.843750
9886,-89.843750
9887,-89.843750
9888,-89.843750
9889,-85.937500
9890,-85.937500
9891,-85.937500
9892,-85.937500
9893,-82.031250
9894,-82.031250
9895,-82.031250
9896,-82.031250
9897,-78.125000
9898,-78.125000
9899,-78.125000
9900,-74.218750
9901,-74.218750
9902,-74.218750
9903,-74.218750
9904,-74.218750
9905,-70.312500
9906,-70.312500
9907,-70.312500
9908,-70.312500
9909,-70.312500
9910,-66.406250
9911,-66.406250
9912,-62.500000
9913,-62.500000
9914,-62.500000
9915,-62.500000
9916,-62.500000
9917,-58.593750
9918,-58.593750
9919,-58.593750
9920,-58.593750
9921,-54.687500
9922,-54.687500
9923,-54.687500
9924,-50.781250
9925,-50.781250
9926,-50.781250
9927,-50.781250
9928,-46.875000
9929,-46.875000
9930,-46.875000
9931,-46.875000
9932,-42.968750
9933,-42.968750
9934,-42.968750
9935,-42.968750
9936,-39.062500
9937,-39.062500
9938,-39.062500
9939,-39.062500
9940,-35.156250
9941,-35.156250
9942,-35.156250
9943,-35.156250
9944,-31.250000
9945,-31.250000
9946,-31.250000
9947,-27.343750
9948,-27.343750
9949,-27.343750
9950,-27.343750
9951,-23.437500
9952,-23.437500
9953,-23.437500
9954,-23.437500
9955,-23.437500
9956,-19.531250
9957,-19.531250
9958,-15.625000
9959,-15.625000
9960,-15.625000
9961,-15.625000
9962,-11.718750
9963,-11.718750
9964,-11.718750
9965,-11.718750
9966,-11.718750
9967,-7.812500
9968,-7.812500
9969,-7.812500
9970,-3.906250
9971,-3.906250
9972,-3.906250
9973,-3.906250
9974,-3.906250
9975,0.000000
9976,0.000000
9977,0.000000
9978,0.000000
9979,3.906250
9980,3.906250
9981,3.906250
9982,7.812500
9983,7.812500
9984,7.812500
9985,7.812500
9986,11.718750
9987,11.718750
9988,11.718750
9989,11.718750
9990,11.718750
9991,15.625000
9992,15.625000
9993,15.625000
9994,19.531250
9995,19.531250
9996,19.531250
9997,19.531250
9998,19.531250
9999,23.437500
10000,23.437500
