Channel              :,CH1
Frequency            :,1.010kHz
Period               :,0.990ms
PK-PK                :,183.6mV
Probe attenuation    :,1X
Voltage per ADC value:,0.244141mV
Time interval        :,1.00000us

index,CH1_Voltage(mV)
1,-50.781250
2,-50.781250
3,-50.781250
4,-50.781250
5,-50.781250
6,-50.781250
7,-50.781250
8,-50.781250
9,-46.875000
10,-46.875000
11,-46.875000
12,-46.875000
13,-46.875000
14,-46.875000
15,-46.875000
16,-42.968750
17,-42.968750
18,-42.968750
19,-42.968750
20,-42.968750
21,-42.968750
22,-42.968750
23,-39.062500
24,-39.062500
25,-39.062500
26,-39.062500
27,-39.062500
28,-39.062500
29,-35.156250
30,-35.156250
31,-35.156250
32,-35.156250
33,-35.156250
34,-35.156250
35,-35.156250
36,-31.250000
37,-31.250000
38,-31.250000
39,-31.250000
40,-31.250000
41,-31.250000
42,-31.250000
43,-27.343750
44,-27.343750
45,-27.343750
46,-27.343750
47,-27.343750
48,-27.343750
49,-27.343750
50,-27.343750
51,-23.437500
52,-23.437500
53,-23.437500
54,-23.437500
55,-23.437500
56,-23.437500
57,-19.531250
58,-19.531250
59,-19.531250
60,-19.531250
61,-19.531250
62,-19.531250
63,-19.531250
64,-15.625000
65,-15.625000
66,-15.625000
67,-15.625000
68,-15.625000
69,-15.625000
70,-15.625000
71,-11.718750
72,-11.718750
73,-11.718750
74,-11.718750
75,-11.718750
76,-11.718750
77,-11.718750
78,-7.812500
79,-7.812500
80,-7.812500
81,-7.812500
82,-7.812500
83,-7.812500
84,-3.906250
85,-3.906250
86,-3.906250
87,-3.906250
88,-3.906250
89,-3.906250
90,-3.906250
91,0.000000
92,0.000000
93,0.000000
94,0.000000
95,0.000000
96,0.000000
97,0.000000
98,3.906250
99,3.906250
100,3.906250
101,3.906250
102,3.906250
103,3.906250
104,3.906250
105,3.906250
106,7.812500
107,7.812500
108,7.812500
109,7.812500
110,7.812500
111,7.812500
112,7.812500
113,7.812500
114,11.718750
115,11.718750
116,11.718750
117,11.718750
118,11.718750
119,11.718750
120,15.625000
121,15.625000
122,15.625000
123,15.625000
124,15.625000
125,15.625000
126,15.625000
127,15.625000
128,19.531250
129,19.531250
130,19.531250
131,19.531250
132,19.531250
133,19.531250
134,19.531250
135,19.531250
136,23.437500
137,23.437500
138,23.437500
139,23.437500
140,23.437500
141,23.437500
142,23.437500
143,23.437500
144,23.437500
145,27.343750
146,27.343750
147,27.343750
148,27.343750
149,27.343750
150,27.343750
151,27.343750
152,31.250000
153,31.250000
154,31.250000
155,31.250000
156,31.250000
157,31.250000
158,31.250000
159,31.250000
160,35.156250
161,35.156250
162,35.156250
163,35.156250
164,35.156250
165,35.156250
166,35.156250
167,35.156250
168,35.156250
169,39.062500
170,39.062500
171,39.062500
172,39.062500
173,39.062500
174,39.062500
175,39.062500
176,39.062500
177,39.062500
178,42.968750
179,42.968750
180,42.968750
181,42.968750
182,42.968750
183,42.968750
184,42.968750
185,42.968750
186,42.968750
187,42.968750
188,42.968750
189,42.968750
190,46.875000
191,46.875000
192,46.875000
193,46.875000
194,46.875000
195,46.875000
196,46.875000
197,46.875000
198,46.875000
199,46.875000
200,50.781250
201,50.781250
202,50.781250
203,50.781250
204,50.781250
205,50.781250
206,50.781250
207,50.781250
208,50.781250
209,54.687500
210,54.687500
211,50.781250
212,54.687500
213,54.687500
214,54.687500
215,54.687500
216,54.687500
217,54.687500
218,54.687500
219,54.687500
220,54.687500
221,54.687500
222,54.687500
223,58.593750
224,58.593750
225,58.593750
226,58.593750
227,58.593750
228,58.593750
229,58.593750
230,58.593750
231,58.593750
232,62.500000
233,58.593750
234,58.593750
235,58.593750
236,58.593750
237,58.593750
238,62.500000
239,62.500000
240,62.500000
241,62.500000
242,62.500000
243,62.500000
244,62.500000
245,62.500000
246,62.500000
247,62.500000
248,62.500000
249,62.500000
250,66.406250
251,62.500000
252,62.500000
253,62.500000
254,62.500000
255,66.406250
256,66.406250
257,66.406250
258,66.406250
259,66.406250
260,66.406250
261,66.406250
262,66.406250
263,66.406250
264,66.406250
265,66.406250
266,66.406250
267,66.406250
268,66.406250
269,66.406250
270,66.406250
271,66.406250
272,66.406250
273,70.312500
274,66.406250
275,66.406250
276,66.406250
277,70.312500
278,70.312500
279,70.312500
280,70.312500
281,70.312500
282,70.312500
283,70.312500
284,70.312500
285,70.312500
286,70.312500
287,70.312500
288,70.312500
289,70.312500
290,70.312500
291,70.312500
292,70.312500
293,70.312500
294,70.312500
295,70.312500
296,70.312500
297,70.312500
298,70.312500
299,70.312500
300,70.312500
301,70.312500
302,70.312500
303,70.312500
304,70.312500
305,70.312500
306,70.312500
307,70.312500
308,74.218750
309,70.312500
310,70.312500
311,74.218750
312,74.218750
313,70.312500
314,74.218750
315,70.312500
316,70.312500
317,70.312500
318,70.312500
319,74.218750
320,74.218750
321,74.218750
322,74.218750
323,70.312500
324,70.312500
325,74.218750
326,74.218750
327,74.218750
328,70.312500
329,74.218750
330,74.218750
331,70.312500
332,74.218750
333,74.218750
334,74.218750
335,74.218750
336,74.218750
337,74.218750
338,74.218750
339,70.312500
340,74.218750
341,70.312500
342,70.312500
343,70.312500
344,70.312500
345,70.312500
346,70.312500
347,70.312500
348,70.312500
349,70.312500
350,70.312500
351,70.312500
352,70.312500
353,70.312500
354,70.312500
355,70.312500
356,70.312500
357,70.312500
358,70.312500
359,70.312500
360,70.312500
361,70.312500
362,70.312500
363,70.312500
364,70.312500
365,70.312500
366,70.312500
367,70.312500
368,70.312500
369,70.312500
370,70.312500
371,70.312500
372,70.312500
373,70.312500
374,70.312500
375,70.312500
376,70.312500
377,66.406250
378,70.312500
379,70.312500
380,66.406250
381,66.406250
382,66.406250
383,66.406250
384,66.406250
385,66.406250
386,66.406250
387,66.406250
388,66.406250
389,66.406250
390,66.406250
391,66.406250
392,66.406250
393,66.406250
394,66.406250
395,66.406250
396,66.406250
397,62.500000
398,66.406250
399,62.500000
400,62.500000
401,62.500000
402,62.500000
403,62.500000
404,62.500000
405,62.500000
406,62.500000
407,62.500000
408,62.500000
409,62.500000
410,62.500000
411,62.500000
412,62.500000
413,62.500000
414,58.593750
415,58.593750
416,58.593750
417,58.593750
418,58.593750
419,58.593750
420,58.593750
421,58.593750
422,58.593750
423,58.593750
424,58.593750
425,58.593750
426,58.593750
427,58.593750
428,58.593750
429,58.593750
430,54.687500
431,54.687500
432,54.687500
433,54.687500
434,54.687500
435,54.687500
436,54.687500
437,54.687500
438,54.687500
439,54.687500
440,54.687500
441,54.687500
442,50.781250
443,50.781250
444,50.781250
445,50.781250
446,50.781250
447,50.781250
448,50.781250
449,50.781250
450,50.781250
451,50.781250
452,50.781250
453,50.781250
454,46.875000
455,46.875000
456,46.875000
457,46.875000
458,46.875000
459,46.875000
460,46.875000
461,46.875000
462,46.875000
463,42.968750
464,42.968750
465,42.968750
466,42.968750
467,42.968750
468,42.968750
469,42.968750
470,42.968750
471,42.968750
472,42.968750
473,39.062500
474,39.062500
475,39.062500
476,39.062500
477,39.062500
478,39.062500
479,39.062500
480,39.062500
481,39.062500
482,35.156250
483,35.156250
484,35.156250
485,35.156250
486,35.156250
487,35.156250
488,35.156250
489,35.156250
490,35.156250
491,35.156250
492,31.250000
493,35.156250
494,31.250000
495,31.250000
496,31.250000
497,31.250000
498,31.250000
499,31.250000
500,31.250000
501,31.250000
502,27.343750
503,27.343750
504,27.343750
505,27.343750
506,27.343750
507,27.343750
508,27.343750
509,23.437500
510,23.437500
511,23.437500
512,23.437500
513,23.437500
514,23.437500
515,23.437500
516,23.437500
517,19.531250
518,19.531250
519,19.531250
520,19.531250
521,19.531250
522,19.531250
523,19.531250
524,15.625000
525,15.625000
526,15.625000
527,15.625000
528,15.625000
529,15.625000
530,15.625000
531,15.625000
532,11.718750
533,11.718750
534,11.718750
535,11.718750
536,11.718750
537,11.718750
538,11.718750
539,11.718750
540,7.812500
541,7.812500
542,7.812500
543,7.812500
544,7.812500
545,3.906250
546,7.812500
547,3.906250
548,3.906250
549,3.906250
550,3.906250
551,3.906250
552,3.906250
553,3.906250
554,0.000000
555,0.000000
556,0.000000
557,0.000000
558,0.000000
559,0.000000
560,0.000000
561,0.000000
562,-3.906250
563,-3.906250
564,-3.906250
565,-3.906250
566,-3.906250
567,-3.906250
568,-7.812500
569,-7.812500
570,-7.812500
571,-7.812500
572,-7.812500
573,-7.812500
574,-7.812500
575,-11.718750
576,-11.718750
577,-11.718750
578,-11.718750
579,-11.718750
580,-11.718750
581,-15.625000
582,-15.625000
583,-15.625000
584,-15.625000
585,-15.625000
586,-15.625000
587,-15.625000
588,-15.625000
589,-19.531250
590,-19.531250
591,-19.531250
592,-19.531250
593,-19.531250
594,-19.531250
595,-23.437500
596,-23.437500
597,-23.437500
598,-23.437500
599,-23.437500
600,-23.437500
601,-23.437500
602,-27.343750
603,-27.343750
604,-27.343750
605,-27.343750
606,-27.343750
607,-27.343750
608,-27.343750
609,-27.343750
610,-31.250000
611,-31.250000
612,-31.250000
613,-31.250000
614,-31.250000
615,-35.156250
616,-35.156250
617,-35.156250
618,-35.156250
619,-35.156250
620,-35.156250
621,-35.156250
622,-39.062500
623,-39.062500
624,-39.062500
625,-39.062500
626,-39.062500
627,-39.062500
628,-39.062500
629,-39.062500
630,-42.968750
631,-42.968750
632,-42.968750
633,-42.968750
634,-42.968750
635,-42.968750
636,-46.875000
637,-46.875000
638,-46.875000
639,-46.875000
640,-46.875000
641,-46.875000
642,-46.875000
643,-46.875000
644,-50.781250
645,-50.781250
646,-50.781250
647,-50.781250
648,-50.781250
649,-50.781250
650,-50.781250
651,-50.781250
652,-54.687500
653,-54.687500
654,-54.687500
655,-54.687500
656,-54.687500
657,-54.687500
658,-54.687500
659,-58.593750
660,-58.593750
661,-58.593750
662,-58.593750
663,-58.593750
664,-58.593750
665,-58.593750
666,-62.500000
667,-58.593750
668,-62.500000
669,-62.500000
670,-62.500000
671,-62.500000
672,-62.500000
673,-66.406250
674,-62.500000
675,-66.406250
676,-66.406250
677,-66.406250
678,-66.406250
679,-66.406250
680,-66.406250
681,-66.406250
682,-66.406250
683,-70.312500
684,-70.312500
685,-70.312500
686,-70.312500
687,-70.312500
688,-70.312500
689,-70.312500
690,-70.312500
691,-74.218750
692,-74.218750
693,-74.218750
694,-74.218750
695,-74.218750
696,-74.218750
697,-74.218750
698,-74.218750
699,-78.125000
700,-78.125000
701,-78.125000
702,-78.125000
703,-78.125000
704,-78.125000
705,-78.125000
706,-78.125000
707,-78.125000
708,-78.125000
709,-78.125000
710,-82.031250
711,-82.031250
712,-82.031250
713,-82.031250
714,-82.031250
715,-82.031250
716,-82.031250
717,-82.031250
718,-82.031250
719,-82.031250
720,-82.031250
721,-85.937500
722,-85.937500
723,-85.937500
724,-85.937500
725,-85.937500
726,-85.937500
727,-85.937500
728,-85.937500
729,-85.937500
730,-89.843750
731,-85.937500
732,-85.937500
733,-89.843750
734,-89.843750
735,-89.843750
736,-89.843750
737,-89.843750
738,-89.843750
739,-89.843750
740,-89.843750
741,-89.843750
742,-89.843750
743,-93.750000
744,-93.750000
745,-93.750000
746,-93.750000
747,-93.750000
748,-93.750000
749,-93.750000
750,-93.750000
751,-93.750000
752,-93.750000
753,-93.750000
754,-93.750000
755,-93.750000
756,-93.750000
757,-97.656250
758,-97.656250
759,-97.656250
760,-97.656250
761,-97.656250
762,-97.656250
763,-97.656250
764,-97.656250
765,-97.656250
766,-97.656250
767,-97.656250
768,-97.656250
769,-97.656250
770,-97.656250
771,-97.656250
772,-97.656250
773,-97.656250
774,-97.656250
775,-97.656250
776,-97.656250
777,-97.656250
778,-101.562500
779,-101.562500
780,-101.562500
781,-101.562500
782,-101.562500
783,-101.562500
784,-101.562500
785,-101.562500
786,-101.562500
787,-101.562500
788,-101.562500
789,-101.562500
790,-101.562500
791,-101.562500
792,-101.562500
793,-101.562500
794,-101.562500
795,-101.562500
796,-101.562500
797,-101.562500
798,-101.562500
799,-101.562500
800,-101.562500
801,-101.562500
802,-101.562500
803,-101.562500
804,-105.468750
805,-101.562500
806,-101.562500
807,-101.562500
808,-101.562500
809,-101.562500
810,-101.562500
811,-101.562500
812,-105.468750
813,-101.562500
814,-101.562500
815,-101.562500
816,-105.468750
817,-101.562500
818,-105.468750
819,-101.562500
820,-101.562500
821,-105.468750
822,-105.468750
823,-105.468750
824,-101.562500
825,-101.562500
826,-101.562500
827,-105.468750
828,-105.468750
829,-101.562500
830,-101.562500
831,-101.562500
832,-101.562500
833,-101.562500
834,-101.562500
835,-105.468750
836,-101.562500
837,-101.562500
838,-101.562500
839,-101.562500
840,-101.562500
841,-101.562500
842,-101.562500
843,-101.562500
844,-101.562500
845,-101.562500
846,-101.562500
847,-101.562500
848,-101.562500
849,-101.562500
850,-101.562500
851,-101.562500
852,-101.562500
853,-101.562500
854,-101.562500
855,-101.562500
856,-101.562500
857,-101.562500
858,-101.562500
859,-101.562500
860,-101.562500
861,-101.562500
862,-97.656250
863,-97.656250
864,-97.656250
865,-97.656250
866,-97.656250
867,-101.562500
868,-97.656250
869,-97.656250
870,-97.656250
871,-97.656250
872,-97.656250
873,-97.656250
874,-97.656250
875,-97.656250
876,-97.656250
877,-97.656250
878,-97.656250
879,-93.750000
880,-97.656250
881,-97.656250
882,-97.656250
883,-97.656250
884,-93.750000
885,-93.750000
886,-93.750000
887,-93.750000
888,-93.750000
889,-93.750000
890,-93.750000
891,-93.750000
892,-93.750000
893,-93.750000
894,-93.750000
895,-93.750000
896,-93.750000
897,-93.750000
898,-93.750000
899,-89.843750
900,-89.843750
901,-89.843750
902,-89.843750
903,-89.843750
904,-89.843750
905,-89.843750
906,-89.843750
907,-89.843750
908,-89.843750
909,-89.843750
910,-85.937500
911,-85.937500
912,-85.937500
913,-85.937500
914,-85.937500
915,-85.937500
916,-85.937500
917,-85.937500
918,-85.937500
919,-85.937500
920,-85.937500
921,-82.031250
922,-82.031250
923,-82.031250
924,-82.031250
925,-82.031250
926,-82.031250
927,-82.031250
928,-82.031250
929,-82.031250
930,-82.031250
931,-82.031250
932,-78.125000
933,-78.125000
934,-78.125000
935,-78.125000
936,-78.125000
937,-78.125000
938,-78.125000
939,-78.125000
940,-78.125000
941,-74.218750
942,-74.218750
943,-74.218750
944,-74.218750
945,-74.218750
946,-74.218750
947,-74.218750
948,-74.218750
949,-70.312500
950,-70.312500
951,-70.312500
952,-70.312500
953,-70.312500
954,-70.312500
955,-70.312500
956,-70.312500
957,-70.312500
958,-66.406250
959,-66.406250
960,-66.406250
961,-66.406250
962,-66.406250
963,-66.406250
964,-66.406250
965,-66.406250
966,-66.406250
967,-66.406250
968,-62.500000
969,-62.500000
970,-62.500000
971,-62.500000
972,-62.500000
973,-62.500000
974,-62.500000
975,-58.593750
976,-58.593750
977,-58.593750
978,-58.593750
979,-58.593750
980,-58.593750
981,-54.687500
982,-58.593750
983,-54.687500
984,-54.687500
985,-54.687500
986,-54.687500
987,-54.687500
988,-54.687500
989,-54.687500
990,-54.687500
991,-50.781250
992,-50.781250
993,-50.781250
994,-50.781250
995,-50.781250
996,-50.781250
997,-46.875000
998,-46.875000
999,-46.875000
1000,-46.875000
1001,-46.875000
1002,-46.875000
1003,-46.875000
1004,-46.875000
1005,-42.968750
1006,-42.968750
1007,-42.968750
1008,-42.968750
1009,-42.968750
1010,-42.968750
1011,-42.968750
1012,-39.062500
1013,-39.062500
1014,-39.062500
1015,-39.062500
1016,-39.062500
1017,-39.062500
1018,-39.062500
1019,-35.156250
1020,-35.156250
1021,-35.156250
1022,-35.156250
1023,-35.156250
1024,-35.156250
1025,-35.156250
1026,-35.156250
1027,-31.250000
1028,-31.250000
1029,-31.250000
1030,-31.250000
1031,-31.250000
1032,-31.250000
1033,-27.343750
1034,-27.343750
1035,-27.343750
1036,-27.343750
1037,-27.343750
1038,-27.343750
1039,-23.437500
1040,-23.437500
1041,-23.437500
1042,-23.437500
1043,-23.437500
1044,-23.437500
1045,-23.437500
1046,-23.437500
1047,-19.531250
1048,-19.531250
1049,-19.531250
1050,-19.531250
1051,-19.531250
1052,-19.531250
1053,-19.531250
1054,-15.625000
1055,-15.625000
1056,-15.625000
1057,-15.625000
1058,-15.625000
1059,-15.625000
1060,-15.625000
1061,-11.718750
1062,-11.718750
1063,-11.718750
1064,-11.718750
1065,-11.718750
1066,-11.718750
1067,-7.812500
1068,-7.812500
1069,-7.812500
1070,-7.812500
1071,-7.812500
1072,-7.812500
1073,-7.812500
1074,-7.812500
1075,-3.906250
1076,-3.906250
1077,-3.906250
1078,-3.906250
1079,-3.906250
1080,-3.906250
1081,-3.906250
1082,0.000000
1083,0.000000
1084,0.000000
1085,0.000000
1086,0.000000
1087,0.000000
1088,0.000000
1089,0.000000
1090,3.906250
1091,3.906250
1092,3.906250
1093,3.906250
1094,3.906250
1095,3.906250
1096,7.812500
1097,7.812500
1098,7.812500
1099,7.812500
1100,7.812500
1101,7.812500
1102,7.812500
1103,11.718750
1104,11.718750
1105,11.718750
1106,11.718750
1107,11.718750
1108,11.718750
1109,11.718750
1110,11.718750
1111,15.625000
1112,15.625000
1113,15.625000
1114,15.625000
1115,15.625000
1116,15.625000
1117,15.625000
1118,15.625000
1119,15.625000
1120,19.531250
1121,19.531250
1122,19.531250
1123,19.531250
1124,19.531250
1125,19.531250
1126,19.531250
1127,23.437500
1128,23.437500
1129,23.437500
1130,23.437500
1131,23.437500
1132,23.437500
1133,23.437500
1134,27.343750
1135,27.343750
1136,27.343750
1137,27.343750
1138,27.343750
1139,27.343750
1140,27.343750
1141,27.343750
1142,27.343750
1143,27.343750
1144,31.250000
1145,31.250000
1146,31.250000
1147,31.250000
1148,31.250000
1149,31.250000
1150,31.250000
1151,35.156250
1152,35.156250
1153,35.156250
1154,35.156250
1155,35.156250
1156,35.156250
1157,35.156250
1158,39.062500
1159,39.062500
1160,39.062500
1161,39.062500
1162,39.062500
1163,39.062500
1164,39.062500
1165,39.062500
1166,39.062500
1167,39.062500
1168,42.968750
1169,42.968750
1170,42.968750
1171,42.968750
1172,42.968750
1173,42.968750
1174,42.968750
1175,42.968750
1176,42.968750
1177,42.968750
1178,42.968750
1179,46.875000
1180,46.875000
1181,46.875000
1182,46.875000
1183,46.875000
1184,46.875000
1185,46.875000
1186,46.875000
1187,46.875000
1188,46.875000
1189,46.875000
1190,50.781250
1191,50.781250
1192,50.781250
1193,50.781250
1194,50.781250
1195,50.781250
1196,50.781250
1197,50.781250
1198,50.781250
1199,50.781250
1200,50.781250
1201,54.687500
1202,54.687500
1203,54.687500
1204,54.687500
1205,54.687500
1206,54.687500
1207,54.687500
1208,54.687500
1209,54.687500
1210,54.687500
1211,54.687500
1212,54.687500
1213,58.593750
1214,58.593750
1215,58.593750
1216,58.593750
1217,58.593750
1218,58.593750
1219,58.593750
1220,58.593750
1221,58.593750
1222,58.593750
1223,58.593750
1224,58.593750
1225,62.500000
1226,62.500000
1227,62.500000
1228,62.500000
1229,62.500000
1230,62.500000
1231,62.500000
1232,62.500000
1233,62.500000
1234,62.500000
1235,62.500000
1236,62.500000
1237,62.500000
1238,62.500000
1239,62.500000
1240,62.500000
1241,62.500000
1242,62.500000
1243,62.500000
1244,66.406250
1245,66.406250
1246,66.406250
1247,66.406250
1248,66.406250
1249,66.406250
1250,66.406250
1251,66.406250
1252,66.406250
1253,66.406250
1254,66.406250
1255,66.406250
1256,66.406250
1257,66.406250
1258,66.406250
1259,66.406250
1260,66.406250
1261,66.406250
1262,66.406250
1263,70.312500
1264,70.312500
1265,70.312500
1266,70.312500
1267,70.312500
1268,70.312500
1269,70.312500
1270,70.312500
1271,70.312500
1272,70.312500
1273,70.312500
1274,70.312500
1275,70.312500
1276,70.312500
1277,70.312500
1278,70.312500
1279,70.312500
1280,70.312500
1281,70.312500
1282,70.312500
1283,70.312500
1284,70.312500
1285,70.312500
1286,70.312500
1287,70.312500
1288,70.312500
1289,70.312500
1290,70.312500
1291,70.312500
1292,70.312500
1293,70.312500
1294,70.312500
1295,70.312500
1296,70.312500
1297,70.312500
1298,70.312500
1299,70.312500
1300,70.312500
1301,74.218750
1302,70.312500
1303,74.218750
1304,74.218750
1305,74.218750
1306,74.218750
1307,74.218750
1308,74.218750
1309,74.218750
1310,74.218750
1311,74.218750
1312,70.312500
1313,74.218750
1314,74.218750
1315,74.218750
1316,74.218750
1317,74.218750
1318,74.218750
1319,74.218750
1320,70.312500
1321,74.218750
1322,70.312500
1323,74.218750
1324,74.218750
1325,74.218750
1326,74.218750
1327,74.218750
1328,74.218750
1329,74.218750
1330,74.218750
1331,70.312500
1332,74.218750
1333,70.312500
1334,70.312500
1335,70.312500
1336,70.312500
1337,70.312500
1338,74.218750
1339,74.218750
1340,70.312500
1341,70.312500
1342,70.312500
1343,70.312500
1344,70.312500
1345,70.312500
1346,70.312500
1347,70.312500
1348,70.312500
1349,70.312500
1350,70.312500
1351,70.312500
1352,70.312500
1353,70.312500
1354,70.312500
1355,70.312500
1356,70.312500
1357,70.312500
1358,70.312500
1359,70.312500
1360,70.312500
1361,70.312500
1362,70.312500
1363,70.312500
1364,70.312500
1365,70.312500
1366,70.312500
1367,70.312500
1368,70.312500
1369,70.312500
1370,66.406250
1371,66.406250
1372,66.406250
1373,66.406250
1374,66.406250
1375,66.406250
1376,66.406250
1377,66.406250
1378,66.406250
1379,66.406250
1380,66.406250
1381,66.406250
1382,66.406250
1383,66.406250
1384,66.406250
1385,66.406250
1386,66.406250
1387,66.406250
1388,66.406250
1389,62.500000
1390,62.500000
1391,62.500000
1392,62.500000
1393,62.500000
1394,62.500000
1395,62.500000
1396,62.500000
1397,62.500000
1398,62.500000
1399,62.500000
1400,62.500000
1401,62.500000
1402,62.500000
1403,62.500000
1404,62.500000
1405,62.500000
1406,58.593750
1407,62.500000
1408,58.593750
1409,58.593750
1410,58.593750
1411,58.593750
1412,58.593750
1413,58.593750
1414,58.593750
1415,58.593750
1416,58.593750
1417,58.593750
1418,58.593750
1419,54.687500
1420,58.593750
1421,54.687500
1422,54.687500
1423,54.687500
1424,54.687500
1425,54.687500
1426,54.687500
1427,54.687500
1428,54.687500
1429,54.687500
1430,54.687500
1431,54.687500
1432,54.687500
1433,54.687500
1434,50.781250
1435,50.781250
1436,50.781250
1437,50.781250
1438,50.781250
1439,50.781250
1440,50.781250
1441,50.781250
1442,50.781250
1443,50.781250
1444,50.781250
1445,46.875000
1446,46.875000
1447,46.875000
1448,46.875000
1449,46.875000
1450,46.875000
1451,46.875000
1452,46.875000
1453,46.875000
1454,46.875000
1455,42.968750
1456,42.968750
1457,42.968750
1458,42.968750
1459,42.968750
1460,42.968750
1461,42.968750
1462,42.968750
1463,42.968750
1464,42.968750
1465,39.062500
1466,39.062500
1467,39.062500
1468,39.062500
1469,39.062500
1470,39.062500
1471,39.062500
1472,39.062500
1473,39.062500
1474,35.156250
1475,35.156250
1476,35.156250
1477,35.156250
1478,35.156250
1479,35.156250
1480,35.156250
1481,35.156250
1482,35.156250
1483,31.250000
1484,31.250000
1485,31.250000
1486,31.250000
1487,31.250000
1488,31.250000
1489,31.250000
1490,27.343750
1491,27.343750
1492,27.343750
1493,27.343750
1494,27.343750
1495,27.343750
1496,27.343750
1497,27.343750
1498,27.343750
1499,27.343750
1500,23.437500
1501,23.437500
1502,23.437500
1503,23.437500
1504,23.437500
1505,23.437500
1506,23.437500
1507,23.437500
1508,19.531250
1509,19.531250
1510,19.531250
1511,19.531250
1512,19.531250
1513,19.531250
1514,19.531250
1515,15.625000
1516,15.625000
1517,15.625000
1518,15.625000
1519,15.625000
1520,15.625000
1521,15.625000
1522,15.625000
1523,11.718750
1524,11.718750
1525,11.718750
1526,11.718750
1527,11.718750
1528,11.718750
1529,11.718750
1530,7.812500
1531,7.812500
1532,7.812500
1533,7.812500
1534,7.812500
1535,7.812500
1536,3.906250
1537,3.906250
1538,3.906250
1539,3.906250
1540,3.906250
1541,3.906250
1542,3.906250
1543,3.906250
1544,0.000000
1545,0.000000
1546,0.000000
1547,0.000000
1548,0.000000
1549,0.000000
1550,0.000000
1551,-3.906250
1552,-3.906250
1553,-3.906250
1554,-3.906250
1555,-3.906250
1556,-3.906250
1557,-3.906250
1558,-7.812500
1559,-7.812500
1560,-7.812500
1561,-7.812500
1562,-7.812500
1563,-7.812500
1564,-7.812500
1565,-11.718750
1566,-11.718750
1567,-11.718750
1568,-11.718750
1569,-11.718750
1570,-11.718750
1571,-11.718750
1572,-15.625000
1573,-15.625000
1574,-15.625000
1575,-15.625000
1576,-15.625000
1577,-15.625000
1578,-19.531250
1579,-19.531250
1580,-19.531250
1581,-19.531250
1582,-19.531250
1583,-19.531250
1584,-19.531250
1585,-19.531250
1586,-23.437500
1587,-23.437500
1588,-23.437500
1589,-23.437500
1590,-23.437500
1591,-23.437500
1592,-23.437500
1593,-27.343750
1594,-27.343750
1595,-27.343750
1596,-27.343750
1597,-27.343750
1598,-27.343750
1599,-27.343750
1600,-31.250000
1601,-31.250000
1602,-31.250000
1603,-31.250000
1604,-31.250000
1605,-31.250000
1606,-35.156250
1607,-35.156250
1608,-35.156250
1609,-35.156250
1610,-35.156250
1611,-35.156250
1612,-35.156250
1613,-39.062500
1614,-39.062500
1615,-39.062500
1616,-39.062500
1617,-39.062500
1618,-39.062500
1619,-39.062500
1620,-39.062500
1621,-42.968750
1622,-42.968750
1623,-42.968750
1624,-42.968750
1625,-42.968750
1626,-42.968750
1627,-42.968750
1628,-46.875000
1629,-46.875000
1630,-46.875000
1631,-46.875000
1632,-46.875000
1633,-46.875000
1634,-50.781250
1635,-50.781250
1636,-50.781250
1637,-50.781250
1638,-50.781250
1639,-50.781250
1640,-50.781250
1641,-50.781250
1642,-54.687500
1643,-54.687500
1644,-54.687500
1645,-54.687500
1646,-54.687500
1647,-54.687500
1648,-54.687500
1649,-54.687500
1650,-58.593750
1651,-58.593750
1652,-58.593750
1653,-58.593750
1654,-58.593750
1655,-58.593750
1656,-58.593750
1657,-58.593750
1658,-62.500000
1659,-62.500000
1660,-62.500000
1661,-62.500000
1662,-62.500000
1663,-62.500000
1664,-62.500000
1665,-62.500000
1666,-66.406250
1667,-66.406250
1668,-66.406250
1669,-66.406250
1670,-66.406250
1671,-66.406250
1672,-66.406250
1673,-66.406250
1674,-70.312500
1675,-70.312500
1676,-70.312500
1677,-70.312500
1678,-70.312500
1679,-70.312500
1680,-70.312500
1681,-70.312500
1682,-74.218750
1683,-70.312500
1684,-74.218750
1685,-74.218750
1686,-74.218750
1687,-74.218750
1688,-74.218750
1689,-74.218750
1690,-74.218750
1691,-74.218750
1692,-78.125000
1693,-78.125000
1694,-78.125000
1695,-78.125000
1696,-78.125000
1697,-78.125000
1698,-78.125000
1699,-78.125000
1700,-78.125000
1701,-82.031250
1702,-82.031250
1703,-82.031250
1704,-82.031250
1705,-82.031250
1706,-82.031250
1707,-82.031250
1708,-82.031250
1709,-82.031250
1710,-82.031250
1711,-85.937500
1712,-85.937500
1713,-85.937500
1714,-85.937500
1715,-85.937500
1716,-85.937500
1717,-85.937500
1718,-85.937500
1719,-85.937500
1720,-85.937500
1721,-89.843750
1722,-85.937500
1723,-85.937500
1724,-89.843750
1725,-89.843750
1726,-89.843750
1727,-89.843750
1728,-89.843750
1729,-89.843750
1730,-89.843750
1731,-89.843750
1732,-89.843750
1733,-89.843750
1734,-89.843750
1735,-89.843750
1736,-89.843750
1737,-93.750000
1738,-93.750000
1739,-93.750000
1740,-93.750000
1741,-93.750000
1742,-93.750000
1743,-93.750000
1744,-93.750000
1745,-97.656250
1746,-93.750000
1747,-93.750000
1748,-93.750000
1749,-97.656250
1750,-97.656250
1751,-97.656250
1752,-97.656250
1753,-97.656250
1754,-97.656250
1755,-97.656250
1756,-97.656250
1757,-97.656250
1758,-97.656250
1759,-97.656250
1760,-97.656250
1761,-97.656250
1762,-97.656250
1763,-97.656250
1764,-97.656250
1765,-97.656250
1766,-97.656250
1767,-97.656250
1768,-97.656250
1769,-101.562500
1770,-97.656250
1771,-101.562500
1772,-101.562500
1773,-101.562500
1774,-101.562500
1775,-101.562500
1776,-101.562500
1777,-101.562500
1778,-101.562500
1779,-101.562500
1780,-101.562500
1781,-101.562500
1782,-101.562500
1783,-101.562500
1784,-101.562500
1785,-101.562500
1786,-101.562500
1787,-101.562500
1788,-101.562500
1789,-101.562500
1790,-101.562500
1791,-101.562500
1792,-101.562500
1793,-101.562500
1794,-101.562500
1795,-101.562500
1796,-101.562500
1797,-101.562500
1798,-101.562500
1799,-101.562500
1800,-101.562500
1801,-101.562500
1802,-101.562500
1803,-101.562500
1804,-101.562500
1805,-101.562500
1806,-101.562500
1807,-105.468750
1808,-101.562500
1809,-101.562500
1810,-101.562500
1811,-101.562500
1812,-101.562500
1813,-101.562500
1814,-101.562500
1815,-105.468750
1816,-101.562500
1817,-101.562500
1818,-101.562500
1819,-101.562500
1820,-101.562500
1821,-101.562500
1822,-101.562500
1823,-101.562500
1824,-101.562500
1825,-101.562500
1826,-101.562500
1827,-101.562500
1828,-101.562500
1829,-101.562500
1830,-101.562500
1831,-101.562500
1832,-101.562500
1833,-101.562500
1834,-101.562500
1835,-101.562500
1836,-101.562500
1837,-101.562500
1838,-101.562500
1839,-101.562500
1840,-101.562500
1841,-101.562500
1842,-101.562500
1843,-101.562500
1844,-101.562500
1845,-101.562500
1846,-101.562500
1847,-101.562500
1848,-101.562500
1849,-101.562500
1850,-97.656250
1851,-97.656250
1852,-97.656250
1853,-97.656250
1854,-97.656250
1855,-97.656250
1856,-97.656250
1857,-97.656250
1858,-97.656250
1859,-97.656250
1860,-97.656250
1861,-97.656250
1862,-97.656250
1863,-97.656250
1864,-97.656250
1865,-97.656250
1866,-97.656250
1867,-97.656250
1868,-97.656250
1869,-97.656250
1870,-97.656250
1871,-93.750000
1872,-97.656250
1873,-93.750000
1874,-93.750000
1875,-93.750000
1876,-93.750000
1877,-93.750000
1878,-93.750000
1879,-93.750000
1880,-93.750000
1881,-93.750000
1882,-93.750000
1883,-93.750000
1884,-93.750000
1885,-93.750000
1886,-89.843750
1887,-89.843750
1888,-89.843750
1889,-89.843750
1890,-89.843750
1891,-89.843750
1892,-89.843750
1893,-89.843750
1894,-89.843750
1895,-89.843750
1896,-89.843750
1897,-89.843750
1898,-89.843750
1899,-85.937500
1900,-85.937500
1901,-85.937500
1902,-85.937500
1903,-85.937500
1904,-85.937500
1905,-85.937500
1906,-85.937500
1907,-85.937500
1908,-85.937500
1909,-85.937500
1910,-85.937500
1911,-82.031250
1912,-82.031250
1913,-82.031250
1914,-82.031250
1915,-82.031250
1916,-82.031250
1917,-82.031250
1918,-82.031250
1919,-82.031250
1920,-78.125000
1921,-78.125000
1922,-78.125000
1923,-78.125000
1924,-78.125000
1925,-78.125000
1926,-78.125000
1927,-78.125000
1928,-78.125000
1929,-74.218750
1930,-74.218750
1931,-74.218750
1932,-74.218750
1933,-74.218750
1934,-74.218750
1935,-74.218750
1936,-74.218750
1937,-74.218750
1938,-74.218750
1939,-70.312500
1940,-70.312500
1941,-70.312500
1942,-70.312500
1943,-70.312500
1944,-70.312500
1945,-70.312500
1946,-70.312500
1947,-70.312500
1948,-66.406250
1949,-66.406250
1950,-66.406250
1951,-66.406250
1952,-66.406250
1953,-66.406250
1954,-66.406250
1955,-66.406250
1956,-66.406250
1957,-62.500000
1958,-62.500000
1959,-62.500000
1960,-62.500000
1961,-62.500000
1962,-62.500000
1963,-62.500000
1964,-58.593750
1965,-62.500000
1966,-58.593750
1967,-58.593750
1968,-58.593750
1969,-58.593750
1970,-58.593750
1971,-58.593750
1972,-54.687500
1973,-54.687500
1974,-54.687500
1975,-54.687500
1976,-54.687500
1977,-54.687500
1978,-54.687500
1979,-54.687500
1980,-50.781250
1981,-50.781250
1982,-50.781250
1983,-50.781250
1984,-50.781250
1985,-50.781250
1986,-46.875000
1987,-46.875000
1988,-46.875000
1989,-46.875000
1990,-46.875000
1991,-46.875000
1992,-46.875000
1993,-46.875000
1994,-42.968750
1995,-42.968750
1996,-42.968750
1997,-42.968750
1998,-42.968750
1999,-42.968750
2000,-42.968750
2001,-39.062500
2002,-39.062500
2003,-39.062500
2004,-39.062500
2005,-39.062500
2006,-39.062500
2007,-39.062500
2008,-35.156250
2009,-35.156250
2010,-35.156250
2011,-35.156250
2012,-35.156250
2013,-35.156250
2014,-31.250000
2015,-31.250000
2016,-35.156250
2017,-31.250000
2018,-31.250000
2019,-31.250000
2020,-31.250000
2021,-31.250000
2022,-27.343750
2023,-27.343750
2024,-27.343750
2025,-27.343750
2026,-27.343750
2027,-27.343750
2028,-27.343750
2029,-23.437500
2030,-23.437500
2031,-23.437500
2032,-23.437500
2033,-23.437500
2034,-23.437500
2035,-23.437500
2036,-19.531250
2037,-19.531250
2038,-19.531250
2039,-19.531250
2040,-19.531250
2041,-19.531250
2042,-19.531250
2043,-15.625000
2044,-15.625000
2045,-15.625000
2046,-15.625000
2047,-15.625000
2048,-15.625000
2049,-15.625000
2050,-11.718750
2051,-11.718750
2052,-11.718750
2053,-11.718750
2054,-11.718750
2055,-11.718750
2056,-11.718750
2057,-11.718750
2058,-7.812500
2059,-7.812500
2060,-7.812500
2061,-7.812500
2062,-7.812500
2063,-7.812500
2064,-3.906250
2065,-3.906250
2066,-3.906250
2067,-3.906250
2068,-3.906250
2069,-3.906250
2070,-3.906250
2071,0.000000
2072,0.000000
2073,0.000000
2074,0.000000
2075,0.000000
2076,0.000000
2077,0.000000
2078,0.000000
2079,3.906250
2080,3.906250
2081,3.906250
2082,3.906250
2083,3.906250
2084,3.906250
2085,7.812500
2086,7.812500
2087,7.812500
2088,7.812500
2089,7.812500
2090,7.812500
2091,7.812500
2092,7.812500
2093,11.718750
2094,11.718750
2095,11.718750
2096,11.718750
2097,11.718750
2098,11.718750
2099,11.718750
2100,11.718750
2101,15.625000
2102,15.625000
2103,15.625000
2104,15.625000
2105,15.625000
2106,15.625000
2107,15.625000
2108,19.531250
2109,19.531250
2110,19.531250
2111,19.531250
2112,19.531250
2113,19.531250
2114,19.531250
2115,23.437500
2116,23.437500
2117,23.437500
2118,23.437500
2119,23.437500
2120,23.437500
2121,23.437500
2122,23.437500
2123,23.437500
2124,27.343750
2125,27.343750
2126,27.343750
2127,27.343750
2128,27.343750
2129,27.343750
2130,27.343750
2131,27.343750
2132,31.250000
2133,31.250000
2134,31.250000
2135,31.250000
2136,31.250000
2137,31.250000
2138,31.250000
2139,35.156250
2140,31.250000
2141,35.156250
2142,35.156250
2143,35.156250
2144,35.156250
2145,35.156250
2146,35.156250
2147,35.156250
2148,35.156250
2149,39.062500
2150,39.062500
2151,39.062500
2152,39.062500
2153,39.062500
2154,39.062500
2155,39.062500
2156,39.062500
2157,39.062500
2158,42.968750
2159,42.968750
2160,42.968750
2161,42.968750
2162,42.968750
2163,42.968750
2164,42.968750
2165,42.968750
2166,42.968750
2167,42.968750
2168,42.968750
2169,46.875000
2170,46.875000
2171,46.875000
2172,46.875000
2173,46.875000
2174,46.875000
2175,46.875000
2176,46.875000
2177,46.875000
2178,50.781250
2179,50.781250
2180,50.781250
2181,50.781250
2182,50.781250
2183,50.781250
2184,50.781250
2185,50.781250
2186,50.781250
2187,50.781250
2188,50.781250
2189,50.781250
2190,50.781250
2191,54.687500
2192,54.687500
2193,54.687500
2194,54.687500
2195,54.687500
2196,54.687500
2197,54.687500
2198,54.687500
2199,54.687500
2200,54.687500
2201,54.687500
2202,58.593750
2203,58.593750
2204,58.593750
2205,58.593750
2206,58.593750
2207,58.593750
2208,58.593750
2209,58.593750
2210,58.593750
2211,58.593750
2212,58.593750
2213,62.500000
2214,58.593750
2215,62.500000
2216,58.593750
2217,62.500000
2218,62.500000
2219,62.500000
2220,62.500000
2221,62.500000
2222,62.500000
2223,62.500000
2224,62.500000
2225,62.500000
2226,62.500000
2227,62.500000
2228,62.500000
2229,62.500000
2230,62.500000
2231,66.406250
2232,66.406250
2233,66.406250
2234,66.406250
2235,66.406250
2236,66.406250
2237,66.406250
2238,66.406250
2239,66.406250
2240,66.406250
2241,66.406250
2242,66.406250
2243,66.406250
2244,66.406250
2245,66.406250
2246,66.406250
2247,66.406250
2248,66.406250
2249,66.406250
2250,66.406250
2251,66.406250
2252,70.312500
2253,70.312500
2254,70.312500
2255,70.312500
2256,70.312500
2257,70.312500
2258,70.312500
2259,70.312500
2260,70.312500
2261,70.312500
2262,70.312500
2263,70.312500
2264,70.312500
2265,70.312500
2266,70.312500
2267,70.312500
2268,70.312500
2269,70.312500
2270,70.312500
2271,70.312500
2272,70.312500
2273,70.312500
2274,70.312500
2275,70.312500
2276,70.312500
2277,70.312500
2278,70.312500
2279,70.312500
2280,70.312500
2281,74.218750
2282,70.312500
2283,74.218750
2284,74.218750
2285,74.218750
2286,74.218750
2287,70.312500
2288,74.218750
2289,74.218750
2290,74.218750
2291,70.312500
2292,74.218750
2293,74.218750
2294,74.218750
2295,74.218750
2296,74.218750
2297,74.218750
2298,74.218750
2299,74.218750
2300,74.218750
2301,74.218750
2302,74.218750
2303,74.218750
2304,74.218750
2305,74.218750
2306,74.218750
2307,74.218750
2308,74.218750
2309,74.218750
2310,74.218750
2311,74.218750
2312,74.218750
2313,74.218750
2314,70.312500
2315,74.218750
2316,74.218750
2317,74.218750
2318,74.218750
2319,74.218750
2320,74.218750
2321,74.218750
2322,70.312500
2323,74.218750
2324,70.312500
2325,74.218750
2326,70.312500
2327,70.312500
2328,70.312500
2329,70.312500
2330,74.218750
2331,74.218750
2332,74.218750
2333,70.312500
2334,70.312500
2335,70.312500
2336,70.312500
2337,70.312500
2338,70.312500
2339,70.312500
2340,70.312500
2341,70.312500
2342,70.312500
2343,70.312500
2344,70.312500
2345,70.312500
2346,70.312500
2347,70.312500
2348,70.312500
2349,70.312500
2350,70.312500
2351,70.312500
2352,70.312500
2353,70.312500
2354,70.312500
2355,70.312500
2356,70.312500
2357,70.312500
2358,70.312500
2359,70.312500
2360,70.312500
2361,66.406250
2362,70.312500
2363,66.406250
2364,66.406250
2365,66.406250
2366,66.406250
2367,66.406250
2368,66.406250
2369,66.406250
2370,66.406250
2371,66.406250
2372,66.406250
2373,66.406250
2374,66.406250
2375,66.406250
2376,66.406250
2377,66.406250
2378,66.406250
2379,66.406250
2380,66.406250
2381,66.406250
2382,62.500000
2383,62.500000
2384,62.500000
2385,62.500000
2386,62.500000
2387,62.500000
2388,62.500000
2389,62.500000
2390,62.500000
2391,62.500000
2392,62.500000
2393,62.500000
2394,62.500000
2395,62.500000
2396,58.593750
2397,58.593750
2398,62.500000
2399,58.593750
2400,58.593750
2401,58.593750
2402,58.593750
2403,58.593750
2404,58.593750
2405,58.593750
2406,58.593750
2407,58.593750
2408,58.593750
2409,58.593750
2410,58.593750
2411,54.687500
2412,54.687500
2413,54.687500
2414,54.687500
2415,54.687500
2416,54.687500
2417,54.687500
2418,54.687500
2419,54.687500
2420,54.687500
2421,54.687500
2422,50.781250
2423,54.687500
2424,50.781250
2425,50.781250
2426,50.781250
2427,50.781250
2428,50.781250
2429,50.781250
2430,50.781250
2431,50.781250
2432,50.781250
2433,50.781250
2434,50.781250
2435,46.875000
2436,46.875000
2437,46.875000
2438,46.875000
2439,46.875000
2440,46.875000
2441,46.875000
2442,46.875000
2443,46.875000
2444,46.875000
2445,42.968750
2446,42.968750
2447,42.968750
2448,42.968750
2449,42.968750
2450,42.968750
2451,42.968750
2452,42.968750
2453,42.968750
2454,42.968750
2455,42.968750
2456,39.062500
2457,39.062500
2458,39.062500
2459,39.062500
2460,39.062500
2461,39.062500
2462,39.062500
2463,39.062500
2464,35.156250
2465,35.156250
2466,35.156250
2467,35.156250
2468,35.156250
2469,35.156250
2470,35.156250
2471,35.156250
2472,35.156250
2473,35.156250
2474,31.250000
2475,31.250000
2476,31.250000
2477,31.250000
2478,31.250000
2479,31.250000
2480,31.250000
2481,31.250000
2482,27.343750
2483,27.343750
2484,27.343750
2485,27.343750
2486,27.343750
2487,27.343750
2488,27.343750
2489,23.437500
2490,23.437500
2491,23.437500
2492,23.437500
2493,23.437500
2494,23.437500
2495,23.437500
2496,23.437500
2497,19.531250
2498,19.531250
2499,19.531250
2500,19.531250
2501,19.531250
2502,15.625000
2503,19.531250
2504,19.531250
2505,15.625000
2506,15.625000
2507,15.625000
2508,15.625000
2509,15.625000
2510,15.625000
2511,15.625000
2512,15.625000
2513,11.718750
2514,11.718750
2515,11.718750
2516,11.718750
2517,11.718750
2518,11.718750
2519,11.718750
2520,7.812500
2521,7.812500
2522,7.812500
2523,7.812500
2524,7.812500
2525,7.812500
2526,3.906250
2527,3.906250
2528,3.906250
2529,3.906250
2530,3.906250
2531,3.906250
2532,3.906250
2533,3.906250
2534,3.906250
2535,0.000000
2536,0.000000
2537,0.000000
2538,0.000000
2539,0.000000
2540,0.000000
2541,0.000000
2542,-3.906250
2543,-3.906250
2544,-3.906250
2545,-3.906250
2546,-3.906250
2547,-3.906250
2548,-7.812500
2549,-7.812500
2550,-7.812500
2551,-7.812500
2552,-7.812500
2553,-7.812500
2554,-7.812500
2555,-11.718750
2556,-11.718750
2557,-11.718750
2558,-11.718750
2559,-11.718750
2560,-11.718750
2561,-11.718750
2562,-11.718750
2563,-15.625000
2564,-15.625000
2565,-15.625000
2566,-15.625000
2567,-15.625000
2568,-15.625000
2569,-15.625000
2570,-19.531250
2571,-19.531250
2572,-19.531250
2573,-19.531250
2574,-19.531250
2575,-19.531250
2576,-23.437500
2577,-23.437500
2578,-23.437500
2579,-23.437500
2580,-23.437500
2581,-23.437500
2582,-27.343750
2583,-27.343750
2584,-27.343750
2585,-27.343750
2586,-27.343750
2587,-27.343750
2588,-27.343750
2589,-27.343750
2590,-31.250000
2591,-31.250000
2592,-31.250000
2593,-31.250000
2594,-31.250000
2595,-31.250000
2596,-35.156250
2597,-35.156250
2598,-35.156250
2599,-35.156250
2600,-35.156250
2601,-35.156250
2602,-35.156250
2603,-35.156250
2604,-35.156250
2605,-39.062500
2606,-39.062500
2607,-39.062500
2608,-39.062500
2609,-39.062500
2610,-42.968750
2611,-39.062500
2612,-42.968750
2613,-42.968750
2614,-42.968750
2615,-42.968750
2616,-42.968750
2617,-42.968750
2618,-46.875000
2619,-46.875000
2620,-46.875000
2621,-46.875000
2622,-46.875000
2623,-46.875000
2624,-46.875000
2625,-46.875000
2626,-50.781250
2627,-50.781250
2628,-50.781250
2629,-50.781250
2630,-50.781250
2631,-50.781250
2632,-50.781250
2633,-54.687500
2634,-54.687500
2635,-54.687500
2636,-54.687500
2637,-54.687500
2638,-54.687500
2639,-58.593750
2640,-58.593750
2641,-58.593750
2642,-58.593750
2643,-58.593750
2644,-58.593750
2645,-58.593750
2646,-58.593750
2647,-58.593750
2648,-62.500000
2649,-62.500000
2650,-62.500000
2651,-62.500000
2652,-62.500000
2653,-62.500000
2654,-62.500000
2655,-66.406250
2656,-66.406250
2657,-66.406250
2658,-66.406250
2659,-66.406250
2660,-66.406250
2661,-66.406250
2662,-66.406250
2663,-66.406250
2664,-70.312500
2665,-70.312500
2666,-70.312500
2667,-70.312500
2668,-70.312500
2669,-70.312500
2670,-70.312500
2671,-70.312500
2672,-74.218750
2673,-74.218750
2674,-74.218750
2675,-74.218750
2676,-74.218750
2677,-74.218750
2678,-74.218750
2679,-74.218750
2680,-74.218750
2681,-74.218750
2682,-78.125000
2683,-78.125000
2684,-78.125000
2685,-78.125000
2686,-78.125000
2687,-78.125000
2688,-78.125000
2689,-82.031250
2690,-78.125000
2691,-82.031250
2692,-82.031250
2693,-82.031250
2694,-82.031250
2695,-82.031250
2696,-82.031250
2697,-82.031250
2698,-82.031250
2699,-82.031250
2700,-85.937500
2701,-85.937500
2702,-85.937500
2703,-85.937500
2704,-85.937500
2705,-85.937500
2706,-85.937500
2707,-85.937500
2708,-85.937500
2709,-85.937500
2710,-85.937500
2711,-85.937500
2712,-89.843750
2713,-85.937500
2714,-89.843750
2715,-89.843750
2716,-89.843750
2717,-89.843750
2718,-89.843750
2719,-89.843750
2720,-89.843750
2721,-89.843750
2722,-89.843750
2723,-89.843750
2724,-93.750000
2725,-93.750000
2726,-93.750000
2727,-93.750000
2728,-93.750000
2729,-93.750000
2730,-93.750000
2731,-93.750000
2732,-93.750000
2733,-93.750000
2734,-93.750000
2735,-93.750000
2736,-93.750000
2737,-93.750000
2738,-93.750000
2739,-97.656250
2740,-93.750000
2741,-97.656250
2742,-97.656250
2743,-97.656250
2744,-97.656250
2745,-97.656250
2746,-97.656250
2747,-97.656250
2748,-97.656250
2749,-97.656250
2750,-97.656250
2751,-97.656250
2752,-97.656250
2753,-97.656250
2754,-97.656250
2755,-97.656250
2756,-97.656250
2757,-101.562500
2758,-101.562500
2759,-101.562500
2760,-101.562500
2761,-97.656250
2762,-101.562500
2763,-101.562500
2764,-101.562500
2765,-101.562500
2766,-101.562500
2767,-101.562500
2768,-101.562500
2769,-101.562500
2770,-101.562500
2771,-101.562500
2772,-101.562500
2773,-101.562500
2774,-101.562500
2775,-101.562500
2776,-101.562500
2777,-101.562500
2778,-101.562500
2779,-101.562500
2780,-101.562500
2781,-101.562500
2782,-101.562500
2783,-101.562500
2784,-101.562500
2785,-101.562500
2786,-101.562500
2787,-101.562500
2788,-101.562500
2789,-101.562500
2790,-101.562500
2791,-101.562500
2792,-101.562500
2793,-101.562500
2794,-101.562500
2795,-101.562500
2796,-101.562500
2797,-101.562500
2798,-101.562500
2799,-101.562500
2800,-101.562500
2801,-105.468750
2802,-105.468750
2803,-101.562500
2804,-101.562500
2805,-101.562500
2806,-101.562500
2807,-101.562500
2808,-101.562500
2809,-101.562500
2810,-101.562500
2811,-101.562500
2812,-101.562500
2813,-101.562500
2814,-101.562500
2815,-101.562500
2816,-101.562500
2817,-101.562500
2818,-101.562500
2819,-101.562500
2820,-101.562500
2821,-101.562500
2822,-101.562500
2823,-101.562500
2824,-101.562500
2825,-101.562500
2826,-101.562500
2827,-101.562500
2828,-101.562500
2829,-101.562500
2830,-101.562500
2831,-101.562500
2832,-101.562500
2833,-101.562500
2834,-101.562500
2835,-101.562500
2836,-101.562500
2837,-101.562500
2838,-101.562500
2839,-101.562500
2840,-101.562500
2841,-101.562500
2842,-101.562500
2843,-101.562500
2844,-101.562500
2845,-101.562500
2846,-97.656250
2847,-97.656250
2848,-97.656250
2849,-97.656250
2850,-97.656250
2851,-97.656250
2852,-97.656250
2853,-97.656250
2854,-97.656250
2855,-97.656250
2856,-97.656250
2857,-97.656250
2858,-97.656250
2859,-97.656250
2860,-97.656250
2861,-93.750000
2862,-97.656250
2863,-93.750000
2864,-93.750000
2865,-93.750000
2866,-93.750000
2867,-93.750000
2868,-93.750000
2869,-93.750000
2870,-93.750000
2871,-93.750000
2872,-93.750000
2873,-93.750000
2874,-93.750000
2875,-93.750000
2876,-93.750000
2877,-89.843750
2878,-89.843750
2879,-89.843750
2880,-89.843750
2881,-89.843750
2882,-89.843750
2883,-89.843750
2884,-89.843750
2885,-89.843750
2886,-89.843750
2887,-89.843750
2888,-89.843750
2889,-85.937500
2890,-85.937500
2891,-85.937500
2892,-85.937500
2893,-85.937500
2894,-85.937500
2895,-85.937500
2896,-85.937500
2897,-85.937500
2898,-85.937500
2899,-82.031250
2900,-82.031250
2901,-82.031250
2902,-82.031250
2903,-82.031250
2904,-82.031250
2905,-82.031250
2906,-82.031250
2907,-82.031250
2908,-82.031250
2909,-82.031250
2910,-82.031250
2911,-78.125000
2912,-78.125000
2913,-78.125000
2914,-78.125000
2915,-78.125000
2916,-78.125000
2917,-78.125000
2918,-78.125000
2919,-78.125000
2920,-78.125000
2921,-74.218750
2922,-74.218750
2923,-74.218750
2924,-74.218750
2925,-74.218750
2926,-74.218750
2927,-74.218750
2928,-74.218750
2929,-74.218750
2930,-70.312500
2931,-70.312500
2932,-70.312500
2933,-70.312500
2934,-70.312500
2935,-70.312500
2936,-70.312500
2937,-70.312500
2938,-70.312500
2939,-66.406250
2940,-66.406250
2941,-66.406250
2942,-66.406250
2943,-66.406250
2944,-66.406250
2945,-62.500000
2946,-62.500000
2947,-62.500000
2948,-62.500000
2949,-62.500000
2950,-62.500000
2951,-62.500000
2952,-62.500000
2953,-58.593750
2954,-58.593750
2955,-58.593750
2956,-58.593750
2957,-58.593750
2958,-58.593750
2959,-58.593750
2960,-58.593750
2961,-58.593750
2962,-58.593750
2963,-54.687500
2964,-54.687500
2965,-54.687500
2966,-54.687500
2967,-54.687500
2968,-54.687500
2969,-50.781250
2970,-50.781250
2971,-50.781250
2972,-50.781250
2973,-50.781250
2974,-50.781250
2975,-50.781250
2976,-50.781250
2977,-46.875000
2978,-46.875000
2979,-46.875000
2980,-46.875000
2981,-46.875000
2982,-46.875000
2983,-46.875000
2984,-42.968750
2985,-42.968750
2986,-42.968750
2987,-42.968750
2988,-39.062500
2989,-42.968750
2990,-42.968750
2991,-39.062500
2992,-39.062500
2993,-39.062500
2994,-39.062500
2995,-39.062500
2996,-39.062500
2997,-39.062500
2998,-39.062500
2999,-35.156250
3000,-35.156250
3001,-35.156250
3002,-35.156250
3003,-35.156250
3004,-35.156250
3005,-35.156250
3006,-31.250000
3007,-31.250000
3008,-31.250000
3009,-31.250000
3010,-31.250000
3011,-31.250000
3012,-27.343750
3013,-27.343750
3014,-27.343750
3015,-27.343750
3016,-27.343750
3017,-27.343750
3018,-27.343750
3019,-27.343750
3020,-23.437500
3021,-23.437500
3022,-23.437500
3023,-23.437500
3024,-23.437500
3025,-23.437500
3026,-19.531250
3027,-19.531250
3028,-19.531250
3029,-19.531250
3030,-19.531250
3031,-19.531250
3032,-19.531250
3033,-15.625000
3034,-15.625000
3035,-15.625000
3036,-15.625000
3037,-11.718750
3038,-15.625000
3039,-11.718750
3040,-11.718750
3041,-11.718750
3042,-11.718750
3043,-11.718750
3044,-11.718750
3045,-7.812500
3046,-11.718750
3047,-7.812500
3048,-7.812500
3049,-7.812500
3050,-7.812500
3051,-7.812500
3052,-7.812500
3053,-7.812500
3054,-3.906250
3055,-3.906250
3056,-3.906250
3057,-3.906250
3058,-3.906250
3059,-3.906250
3060,-3.906250
3061,0.000000
3062,0.000000
3063,0.000000
3064,0.000000
3065,0.000000
3066,0.000000
3067,0.000000
3068,3.906250
3069,3.906250
3070,3.906250
3071,3.906250
3072,3.906250
3073,3.906250
3074,3.906250
3075,7.812500
3076,7.812500
3077,7.812500
3078,7.812500
3079,7.812500
3080,7.812500
3081,7.812500
3082,11.718750
3083,11.718750
3084,11.718750
3085,11.718750
3086,11.718750
3087,11.718750
3088,11.718750
3089,11.718750
3090,15.625000
3091,15.625000
3092,15.625000
3093,15.625000
3094,15.625000
3095,15.625000
3096,15.625000
3097,15.625000
3098,19.531250
3099,19.531250
3100,19.531250
3101,19.531250
3102,19.531250
3103,19.531250
3104,19.531250
3105,23.437500
3106,19.531250
3107,23.437500
3108,23.437500
3109,23.437500
3110,23.437500
3111,23.437500
3112,23.437500
3113,27.343750
3114,27.343750
3115,27.343750
3116,27.343750
3117,27.343750
3118,27.343750
3119,27.343750
3120,31.250000
3121,27.343750
3122,27.343750
3123,31.250000
3124,31.250000
3125,31.250000
3126,31.250000
3127,31.250000
3128,31.250000
3129,35.156250
3130,35.156250
3131,35.156250
3132,35.156250
3133,35.156250
3134,35.156250
3135,35.156250
3136,35.156250
3137,35.156250
3138,39.062500
3139,39.062500
3140,39.062500
3141,39.062500
3142,39.062500
3143,39.062500
3144,39.062500
3145,39.062500
3146,42.968750
3147,42.968750
3148,42.968750
3149,42.968750
3150,42.968750
3151,42.968750
3152,42.968750
3153,42.968750
3154,42.968750
3155,42.968750
3156,42.968750
3157,46.875000
3158,46.875000
3159,46.875000
3160,46.875000
3161,46.875000
3162,46.875000
3163,46.875000
3164,46.875000
3165,46.875000
3166,46.875000
3167,50.781250
3168,50.781250
3169,50.781250
3170,50.781250
3171,50.781250
3172,50.781250
3173,50.781250
3174,50.781250
3175,50.781250
3176,50.781250
3177,54.687500
3178,54.687500
3179,54.687500
3180,54.687500
3181,54.687500
3182,54.687500
3183,54.687500
3184,54.687500
3185,54.687500
3186,54.687500
3187,54.687500
3188,54.687500
3189,54.687500
3190,58.593750
3191,54.687500
3192,58.593750
3193,58.593750
3194,58.593750
3195,58.593750
3196,58.593750
3197,58.593750
3198,58.593750
3199,58.593750
3200,58.593750
3201,58.593750
3202,58.593750
3203,58.593750
3204,62.500000
3205,62.500000
3206,62.500000
3207,62.500000
3208,62.500000
3209,62.500000
3210,62.500000
3211,62.500000
3212,62.500000
3213,62.500000
3214,62.500000
3215,62.500000
3216,62.500000
3217,66.406250
3218,66.406250
3219,66.406250
3220,66.406250
3221,66.406250
3222,62.500000
3223,66.406250
3224,66.406250
3225,66.406250
3226,66.406250
3227,66.406250
3228,66.406250
3229,66.406250
3230,66.406250
3231,66.406250
3232,66.406250
3233,66.406250
3234,66.406250
3235,66.406250
3236,66.406250
3237,66.406250
3238,66.406250
3239,66.406250
3240,66.406250
3241,70.312500
3242,70.312500
3243,70.312500
3244,70.312500
3245,70.312500
3246,70.312500
3247,70.312500
3248,70.312500
3249,70.312500
3250,70.312500
3251,70.312500
3252,70.312500
3253,70.312500
3254,70.312500
3255,70.312500
3256,70.312500
3257,70.312500
3258,70.312500
3259,70.312500
3260,70.312500
3261,70.312500
3262,70.312500
3263,70.312500
3264,70.312500
3265,70.312500
3266,70.312500
3267,70.312500
3268,70.312500
3269,74.218750
3270,70.312500
3271,70.312500
3272,70.312500
3273,74.218750
3274,74.218750
3275,74.218750
3276,70.312500
3277,70.312500
3278,74.218750
3279,70.312500
3280,74.218750
3281,74.218750
3282,74.218750
3283,74.218750
3284,74.218750
3285,74.218750
3286,74.218750
3287,74.218750
3288,74.218750
3289,74.218750
3290,74.218750
3291,74.218750
3292,74.218750
3293,74.218750
3294,74.218750
3295,74.218750
3296,74.218750
3297,74.218750
3298,74.218750
3299,74.218750
3300,74.218750
3301,74.218750
3302,74.218750
3303,74.218750
3304,74.218750
3305,74.218750
3306,74.218750
3307,74.218750
3308,74.218750
3309,74.218750
3310,70.312500
3311,74.218750
3312,74.218750
3313,74.218750
3314,74.218750
3315,74.218750
3316,74.218750
3317,74.218750
3318,70.312500
3319,74.218750
3320,70.312500
3321,70.312500
3322,70.312500
3323,70.312500
3324,70.312500
3325,70.312500
3326,70.312500
3327,70.312500
3328,70.312500
3329,70.312500
3330,70.312500
3331,70.312500
3332,70.312500
3333,70.312500
3334,70.312500
3335,70.312500
3336,70.312500
3337,70.312500
3338,70.312500
3339,70.312500
3340,70.312500
3341,70.312500
3342,70.312500
3343,70.312500
3344,70.312500
3345,70.312500
3346,70.312500
3347,70.312500
3348,66.406250
3349,66.406250
3350,70.312500
3351,70.312500
3352,66.406250
3353,66.406250
3354,70.312500
3355,66.406250
3356,66.406250
3357,66.406250
3358,66.406250
3359,66.406250
3360,66.406250
3361,66.406250
3362,66.406250
3363,66.406250
3364,66.406250
3365,66.406250
3366,66.406250
3367,66.406250
3368,66.406250
3369,66.406250
3370,66.406250
3371,66.406250
3372,62.500000
3373,62.500000
3374,62.500000
3375,62.500000
3376,62.500000
3377,62.500000
3378,62.500000
3379,62.500000
3380,62.500000
3381,62.500000
3382,62.500000
3383,62.500000
3384,62.500000
3385,62.500000
3386,58.593750
3387,58.593750
3388,58.593750
3389,58.593750
3390,58.593750
3391,58.593750
3392,58.593750
3393,58.593750
3394,58.593750
3395,58.593750
3396,58.593750
3397,58.593750
3398,58.593750
3399,58.593750
3400,54.687500
3401,54.687500
3402,54.687500
3403,54.687500
3404,54.687500
3405,54.687500
3406,54.687500
3407,54.687500
3408,54.687500
3409,54.687500
3410,54.687500
3411,54.687500
3412,50.781250
3413,54.687500
3414,50.781250
3415,50.781250
3416,50.781250
3417,50.781250
3418,50.781250
3419,50.781250
3420,50.781250
3421,50.781250
3422,50.781250
3423,50.781250
3424,46.875000
3425,46.875000
3426,46.875000
3427,46.875000
3428,46.875000
3429,46.875000
3430,46.875000
3431,46.875000
3432,46.875000
3433,46.875000
3434,42.968750
3435,42.968750
3436,42.968750
3437,42.968750
3438,42.968750
3439,42.968750
3440,42.968750
3441,42.968750
3442,42.968750
3443,42.968750
3444,39.062500
3445,42.968750
3446,39.062500
3447,39.062500
3448,39.062500
3449,39.062500
3450,39.062500
3451,39.062500
3452,39.062500
3453,39.062500
3454,35.156250
3455,35.156250
3456,35.156250
3457,35.156250
3458,35.156250
3459,35.156250
3460,35.156250
3461,35.156250
3462,31.250000
3463,31.250000
3464,31.250000
3465,31.250000
3466,31.250000
3467,31.250000
3468,31.250000
3469,31.250000
3470,27.343750
3471,27.343750
3472,27.343750
3473,27.343750
3474,27.343750
3475,27.343750
3476,27.343750
3477,27.343750
3478,27.343750
3479,23.437500
3480,23.437500
3481,23.437500
3482,23.437500
3483,23.437500
3484,23.437500
3485,23.437500
3486,23.437500
3487,23.437500
3488,19.531250
3489,19.531250
3490,19.531250
3491,19.531250
3492,19.531250
3493,19.531250
3494,15.625000
3495,15.625000
3496,15.625000
3497,15.625000
3498,15.625000
3499,15.625000
3500,11.718750
3501,15.625000
3502,11.718750
3503,11.718750
3504,11.718750
3505,11.718750
3506,11.718750
3507,11.718750
3508,7.812500
3509,11.718750
3510,7.812500
3511,7.812500
3512,7.812500
3513,7.812500
3514,7.812500
3515,7.812500
3516,7.812500
3517,3.906250
3518,3.906250
3519,3.906250
3520,3.906250
3521,3.906250
3522,0.000000
3523,0.000000
3524,0.000000
3525,0.000000
3526,0.000000
3527,0.000000
3528,0.000000
3529,0.000000
3530,0.000000
3531,-3.906250
3532,-3.906250
3533,-3.906250
3534,-3.906250
3535,-3.906250
3536,-3.906250
3537,-7.812500
3538,-7.812500
3539,-7.812500
3540,-7.812500
3541,-7.812500
3542,-7.812500
3543,-7.812500
3544,-7.812500
3545,-7.812500
3546,-11.718750
3547,-11.718750
3548,-11.718750
3549,-11.718750
3550,-11.718750
3551,-11.718750
3552,-15.625000
3553,-15.625000
3554,-15.625000
3555,-15.625000
3556,-15.625000
3557,-15.625000
3558,-15.625000
3559,-19.531250
3560,-19.531250
3561,-19.531250
3562,-19.531250
3563,-19.531250
3564,-19.531250
3565,-19.531250
3566,-23.437500
3567,-23.437500
3568,-23.437500
3569,-23.437500
3570,-23.437500
3571,-23.437500
3572,-27.343750
3573,-27.343750
3574,-27.343750
3575,-27.343750
3576,-27.343750
3577,-27.343750
3578,-27.343750
3579,-27.343750
3580,-31.250000
3581,-31.250000
3582,-31.250000
3583,-31.250000
3584,-31.250000
3585,-35.156250
3586,-31.250000
3587,-35.156250
3588,-35.156250
3589,-35.156250
3590,-35.156250
3591,-35.156250
3592,-35.156250
3593,-39.062500
3594,-39.062500
3595,-39.062500
3596,-39.062500
3597,-39.062500
3598,-39.062500
3599,-39.062500
3600,-42.968750
3601,-42.968750
3602,-42.968750
3603,-42.968750
3604,-42.968750
3605,-42.968750
3606,-42.968750
3607,-42.968750
3608,-46.875000
3609,-46.875000
3610,-46.875000
3611,-46.875000
3612,-46.875000
3613,-46.875000
3614,-50.781250
3615,-50.781250
3616,-50.781250
3617,-50.781250
3618,-50.781250
3619,-50.781250
3620,-50.781250
3621,-50.781250
3622,-54.687500
3623,-54.687500
3624,-54.687500
3625,-54.687500
3626,-54.687500
3627,-54.687500
3628,-54.687500
3629,-58.593750
3630,-58.593750
3631,-58.593750
3632,-58.593750
3633,-58.593750
3634,-58.593750
3635,-58.593750
3636,-62.500000
3637,-62.500000
3638,-62.500000
3639,-62.500000
3640,-62.500000
3641,-62.500000
3642,-62.500000
3643,-62.500000
3644,-66.406250
3645,-66.406250
3646,-66.406250
3647,-66.406250
3648,-66.406250
3649,-66.406250
3650,-66.406250
3651,-66.406250
3652,-70.312500
3653,-70.312500
3654,-70.312500
3655,-70.312500
3656,-70.312500
3657,-70.312500
3658,-70.312500
3659,-70.312500
3660,-74.218750
3661,-74.218750
3662,-74.218750
3663,-70.312500
3664,-74.218750
3665,-74.218750
3666,-74.218750
3667,-74.218750
3668,-74.218750
3669,-78.125000
3670,-78.125000
3671,-78.125000
3672,-78.125000
3673,-78.125000
3674,-78.125000
3675,-78.125000
3676,-78.125000
3677,-78.125000
3678,-78.125000
3679,-78.125000
3680,-82.031250
3681,-82.031250
3682,-82.031250
3683,-82.031250
3684,-82.031250
3685,-82.031250
3686,-82.031250
3687,-82.031250
3688,-82.031250
3689,-82.031250
3690,-82.031250
3691,-82.031250
3692,-85.937500
3693,-85.937500
3694,-85.937500
3695,-85.937500
3696,-85.937500
3697,-85.937500
3698,-85.937500
3699,-85.937500
3700,-85.937500
3701,-89.843750
3702,-89.843750
3703,-89.843750
3704,-89.843750
3705,-89.843750
3706,-89.843750
3707,-89.843750
3708,-89.843750
3709,-89.843750
3710,-89.843750
3711,-89.843750
3712,-89.843750
3713,-89.843750
3714,-93.750000
3715,-93.750000
3716,-93.750000
3717,-93.750000
3718,-93.750000
3719,-93.750000
3720,-93.750000
3721,-93.750000
3722,-93.750000
3723,-93.750000
3724,-93.750000
3725,-93.750000
3726,-93.750000
3727,-93.750000
3728,-97.656250
3729,-97.656250
3730,-97.656250
3731,-97.656250
3732,-97.656250
3733,-97.656250
3734,-97.656250
3735,-97.656250
3736,-97.656250
3737,-97.656250
3738,-97.656250
3739,-97.656250
3740,-97.656250
3741,-97.656250
3742,-97.656250
3743,-97.656250
3744,-97.656250
3745,-101.562500
3746,-101.562500
3747,-101.562500
3748,-101.562500
3749,-101.562500
3750,-101.562500
3751,-101.562500
3752,-101.562500
3753,-101.562500
3754,-101.562500
3755,-101.562500
3756,-101.562500
3757,-101.562500
3758,-101.562500
3759,-101.562500
3760,-101.562500
3761,-101.562500
3762,-101.562500
3763,-101.562500
3764,-101.562500
3765,-101.562500
3766,-101.562500
3767,-101.562500
3768,-101.562500
3769,-101.562500
3770,-101.562500
3771,-101.562500
3772,-101.562500
3773,-101.562500
3774,-101.562500
3775,-101.562500
3776,-101.562500
3777,-101.562500
3778,-105.468750
3779,-101.562500
3780,-101.562500
3781,-105.468750
3782,-105.468750
3783,-101.562500
3784,-101.562500
3785,-101.562500
3786,-105.468750
3787,-101.562500
3788,-105.468750
3789,-105.468750
3790,-101.562500
3791,-101.562500
3792,-101.562500
3793,-101.562500
3794,-101.562500
3795,-101.562500
3796,-105.468750
3797,-105.468750
3798,-105.468750
3799,-105.468750
3800,-105.468750
3801,-105.468750
3802,-101.562500
3803,-101.562500
3804,-101.562500
3805,-101.562500
3806,-101.562500
3807,-101.562500
3808,-101.562500
3809,-101.562500
3810,-101.562500
3811,-101.562500
3812,-101.562500
3813,-101.562500
3814,-101.562500
3815,-101.562500
3816,-101.562500
3817,-101.562500
3818,-101.562500
3819,-101.562500
3820,-101.562500
3821,-101.562500
3822,-101.562500
3823,-101.562500
3824,-101.562500
3825,-101.562500
3826,-101.562500
3827,-101.562500
3828,-101.562500
3829,-101.562500
3830,-101.562500
3831,-101.562500
3832,-101.562500
3833,-101.562500
3834,-101.562500
3835,-101.562500
3836,-97.656250
3837,-97.656250
3838,-97.656250
3839,-97.656250
3840,-97.656250
3841,-97.656250
3842,-97.656250
3843,-97.656250
3844,-97.656250
3845,-97.656250
3846,-97.656250
3847,-97.656250
3848,-97.656250
3849,-97.656250
3850,-97.656250
3851,-93.750000
3852,-97.656250
3853,-97.656250
3854,-93.750000
3855,-93.750000
3856,-97.656250
3857,-93.750000
3858,-93.750000
3859,-93.750000
3860,-93.750000
3861,-93.750000
3862,-93.750000
3863,-93.750000
3864,-93.750000
3865,-93.750000
3866,-93.750000
3867,-93.750000
3868,-93.750000
3869,-93.750000
3870,-89.843750
3871,-89.843750
3872,-89.843750
3873,-89.843750
3874,-89.843750
3875,-89.843750
3876,-89.843750
3877,-89.843750
3878,-89.843750
3879,-89.843750
3880,-89.843750
3881,-85.937500
3882,-85.937500
3883,-85.937500
3884,-85.937500
3885,-85.937500
3886,-85.937500
3887,-85.937500
3888,-85.937500
3889,-85.937500
3890,-85.937500
3891,-85.937500
3892,-85.937500
3893,-82.031250
3894,-82.031250
3895,-82.031250
3896,-82.031250
3897,-82.031250
3898,-82.031250
3899,-82.031250
3900,-82.031250
3901,-82.031250
3902,-82.031250
3903,-78.125000
3904,-78.125000
3905,-78.125000
3906,-78.125000
3907,-78.125000
3908,-78.125000
3909,-78.125000
3910,-78.125000
3911,-74.218750
3912,-74.218750
3913,-74.218750
3914,-74.218750
3915,-74.218750
3916,-74.218750
3917,-74.218750
3918,-74.218750
3919,-74.218750
3920,-74.218750
3921,-70.312500
3922,-70.312500
3923,-70.312500
3924,-70.312500
3925,-70.312500
3926,-70.312500
3927,-70.312500
3928,-66.406250
3929,-70.312500
3930,-66.406250
3931,-66.406250
3932,-66.406250
3933,-66.406250
3934,-66.406250
3935,-66.406250
3936,-62.500000
3937,-62.500000
3938,-62.500000
3939,-62.500000
3940,-62.500000
3941,-62.500000
3942,-62.500000
3943,-62.500000
3944,-58.593750
3945,-58.593750
3946,-58.593750
3947,-58.593750
3948,-54.687500
3949,-58.593750
3950,-58.593750
3951,-58.593750
3952,-54.687500
3953,-54.687500
3954,-54.687500
3955,-54.687500
3956,-54.687500
3957,-50.781250
3958,-54.687500
3959,-50.781250
3960,-50.781250
3961,-50.781250
3962,-50.781250
3963,-50.781250
3964,-50.781250
3965,-50.781250
3966,-46.875000
3967,-46.875000
3968,-46.875000
3969,-46.875000
3970,-46.875000
3971,-46.875000
3972,-46.875000
3973,-46.875000
3974,-42.968750
3975,-42.968750
3976,-42.968750
3977,-42.968750
3978,-42.968750
3979,-39.062500
3980,-39.062500
3981,-39.062500
3982,-39.062500
3983,-39.062500
3984,-39.062500
3985,-39.062500
3986,-39.062500
3987,-39.062500
3988,-35.156250
3989,-35.156250
3990,-35.156250
3991,-35.156250
3992,-35.156250
3993,-35.156250
3994,-35.156250
3995,-35.156250
3996,-31.250000
3997,-31.250000
3998,-31.250000
3999,-31.250000
4000,-31.250000
4001,-31.250000
4002,-27.343750
4003,-27.343750
4004,-27.343750
4005,-27.343750
4006,-27.343750
4007,-27.343750
4008,-27.343750
4009,-23.437500
4010,-23.437500
4011,-23.437500
4012,-23.437500
4013,-23.437500
4014,-23.437500
4015,-23.437500
4016,-23.437500
4017,-19.531250
4018,-19.531250
4019,-19.531250
4020,-19.531250
4021,-19.531250
4022,-19.531250
4023,-15.625000
4024,-15.625000
4025,-15.625000
4026,-15.625000
4027,-15.625000
4028,-15.625000
4029,-15.625000
4030,-15.625000
4031,-11.718750
4032,-11.718750
4033,-11.718750
4034,-11.718750
4035,-11.718750
4036,-11.718750
4037,-7.812500
4038,-7.812500
4039,-7.812500
4040,-7.812500
4041,-7.812500
4042,-7.812500
4043,-3.906250
4044,-3.906250
4045,-3.906250
4046,-3.906250
4047,-3.906250
4048,-3.906250
4049,-3.906250
4050,-3.906250
4051,0.000000
4052,0.000000
4053,0.000000
4054,0.000000
4055,0.000000
4056,0.000000
4057,3.906250
4058,3.906250
4059,3.906250
4060,3.906250
4061,3.906250
4062,3.906250
4063,3.906250
4064,3.906250
4065,3.906250
4066,7.812500
4067,7.812500
4068,7.812500
4069,7.812500
4070,7.812500
4071,7.812500
4072,11.718750
4073,11.718750
4074,11.718750
4075,11.718750
4076,11.718750
4077,11.718750
4078,11.718750
4079,15.625000
4080,15.625000
4081,15.625000
4082,15.625000
4083,15.625000
4084,15.625000
4085,15.625000
4086,15.625000
4087,15.625000
4088,19.531250
4089,19.531250
4090,19.531250
4091,19.531250
4092,19.531250
4093,19.531250
4094,19.531250
4095,23.437500
4096,23.437500
4097,23.437500
4098,23.437500
4099,23.437500
4100,23.437500
4101,23.437500
4102,23.437500
4103,23.437500
4104,27.343750
4105,27.343750
4106,27.343750
4107,27.343750
4108,27.343750
4109,27.343750
4110,27.343750
4111,27.343750
4112,31.250000
4113,31.250000
4114,31.250000
4115,31.250000
4116,35.156250
4117,31.250000
4118,31.250000
4119,35.156250
4120,35.156250
4121,35.156250
4122,35.156250
4123,35.156250
4124,35.156250
4125,35.156250
4126,35.156250
4127,35.156250
4128,35.156250
4129,39.062500
4130,39.062500
4131,39.062500
4132,39.062500
4133,39.062500
4134,39.062500
4135,39.062500
4136,39.062500
4137,42.968750
4138,42.968750
4139,42.968750
4140,42.968750
4141,42.968750
4142,42.968750
4143,42.968750
4144,42.968750
4145,42.968750
4146,42.968750
4147,42.968750
4148,46.875000
4149,46.875000
4150,46.875000
4151,46.875000
4152,46.875000
4153,46.875000
4154,50.781250
4155,46.875000
4156,46.875000
4157,46.875000
4158,50.781250
4159,50.781250
4160,50.781250
4161,50.781250
4162,50.781250
4163,50.781250
4164,54.687500
4165,50.781250
4166,50.781250
4167,50.781250
4168,50.781250
4169,54.687500
4170,54.687500
4171,54.687500
4172,54.687500
4173,54.687500
4174,54.687500
4175,54.687500
4176,54.687500
4177,54.687500
4178,54.687500
4179,54.687500
4180,58.593750
4181,58.593750
4182,58.593750
4183,58.593750
4184,58.593750
4185,58.593750
4186,58.593750
4187,58.593750
4188,58.593750
4189,58.593750
4190,58.593750
4191,58.593750
4192,58.593750
4193,58.593750
4194,62.500000
4195,62.500000
4196,62.500000
4197,62.500000
4198,62.500000
4199,62.500000
4200,62.500000
4201,62.500000
4202,62.500000
4203,62.500000
4204,62.500000
4205,62.500000
4206,62.500000
4207,62.500000
4208,62.500000
4209,62.500000
4210,62.500000
4211,66.406250
4212,66.406250
4213,66.406250
4214,66.406250
4215,66.406250
4216,66.406250
4217,66.406250
4218,66.406250
4219,66.406250
4220,66.406250
4221,66.406250
4222,66.406250
4223,66.406250
4224,66.406250
4225,66.406250
4226,66.406250
4227,70.312500
4228,70.312500
4229,70.312500
4230,70.312500
4231,70.312500
4232,66.406250
4233,70.312500
4234,70.312500
4235,70.312500
4236,70.312500
4237,70.312500
4238,70.312500
4239,70.312500
4240,70.312500
4241,70.312500
4242,70.312500
4243,70.312500
4244,70.312500
4245,70.312500
4246,70.312500
4247,70.312500
4248,70.312500
4249,70.312500
4250,70.312500
4251,70.312500
4252,70.312500
4253,70.312500
4254,70.312500
4255,74.218750
4256,70.312500
4257,70.312500
4258,70.312500
4259,70.312500
4260,70.312500
4261,74.218750
4262,70.312500
4263,70.312500
4264,70.312500
4265,74.218750
4266,70.312500
4267,74.218750
4268,70.312500
4269,74.218750
4270,74.218750
4271,74.218750
4272,74.218750
4273,74.218750
4274,74.218750
4275,70.312500
4276,70.312500
4277,74.218750
4278,74.218750
4279,74.218750
4280,74.218750
4281,74.218750
4282,74.218750
4283,74.218750
4284,74.218750
4285,74.218750
4286,74.218750
4287,70.312500
4288,74.218750
4289,74.218750
4290,74.218750
4291,74.218750
4292,70.312500
4293,74.218750
4294,74.218750
4295,74.218750
4296,74.218750
4297,74.218750
4298,74.218750
4299,74.218750
4300,70.312500
4301,74.218750
4302,74.218750
4303,74.218750
4304,74.218750
4305,74.218750
4306,70.312500
4307,74.218750
4308,74.218750
4309,70.312500
4310,70.312500
4311,74.218750
4312,70.312500
4313,70.312500
4314,70.312500
4315,70.312500
4316,70.312500
4317,70.312500
4318,70.312500
4319,70.312500
4320,70.312500
4321,70.312500
4322,70.312500
4323,70.312500
4324,70.312500
4325,70.312500
4326,70.312500
4327,70.312500
4328,70.312500
4329,70.312500
4330,70.312500
4331,70.312500
4332,70.312500
4333,70.312500
4334,70.312500
4335,70.312500
4336,70.312500
4337,70.312500
4338,70.312500
4339,70.312500
4340,70.312500
4341,70.312500
4342,66.406250
4343,66.406250
4344,66.406250
4345,66.406250
4346,66.406250
4347,66.406250
4348,66.406250
4349,66.406250
4350,66.406250
4351,66.406250
4352,66.406250
4353,66.406250
4354,66.406250
4355,66.406250
4356,66.406250
4357,66.406250
4358,66.406250
4359,66.406250
4360,66.406250
4361,66.406250
4362,62.500000
4363,62.500000
4364,62.500000
4365,62.500000
4366,62.500000
4367,62.500000
4368,62.500000
4369,62.500000
4370,62.500000
4371,62.500000
4372,62.500000
4373,62.500000
4374,62.500000
4375,62.500000
4376,58.593750
4377,62.500000
4378,58.593750
4379,58.593750
4380,58.593750
4381,58.593750
4382,58.593750
4383,58.593750
4384,58.593750
4385,58.593750
4386,58.593750
4387,58.593750
4388,54.687500
4389,58.593750
4390,54.687500
4391,58.593750
4392,54.687500
4393,54.687500
4394,54.687500
4395,54.687500
4396,54.687500
4397,54.687500
4398,54.687500
4399,54.687500
4400,54.687500
4401,54.687500
4402,54.687500
4403,54.687500
4404,50.781250
4405,50.781250
4406,50.781250
4407,50.781250
4408,50.781250
4409,50.781250
4410,50.781250
4411,50.781250
4412,50.781250
4413,50.781250
4414,46.875000
4415,50.781250
4416,46.875000
4417,46.875000
4418,46.875000
4419,46.875000
4420,46.875000
4421,46.875000
4422,46.875000
4423,46.875000
4424,46.875000
4425,42.968750
4426,42.968750
4427,42.968750
4428,42.968750
4429,42.968750
4430,42.968750
4431,42.968750
4432,42.968750
4433,42.968750
4434,42.968750
4435,39.062500
4436,39.062500
4437,39.062500
4438,39.062500
4439,39.062500
4440,39.062500
4441,39.062500
4442,39.062500
4443,39.062500
4444,35.156250
4445,35.156250
4446,35.156250
4447,35.156250
4448,31.250000
4449,35.156250
4450,35.156250
4451,35.156250
4452,35.156250
4453,31.250000
4454,31.250000
4455,31.250000
4456,31.250000
4457,31.250000
4458,31.250000
4459,31.250000
4460,27.343750
4461,31.250000
4462,27.343750
4463,27.343750
4464,27.343750
4465,27.343750
4466,27.343750
4467,27.343750
4468,23.437500
4469,23.437500
4470,23.437500
4471,23.437500
4472,23.437500
4473,23.437500
4474,23.437500
4475,23.437500
4476,23.437500
4477,23.437500
4478,19.531250
4479,19.531250
4480,19.531250
4481,19.531250
4482,19.531250
4483,15.625000
4484,15.625000
4485,15.625000
4486,15.625000
4487,15.625000
4488,15.625000
4489,15.625000
4490,15.625000
4491,15.625000
4492,15.625000
4493,11.718750
4494,11.718750
4495,11.718750
4496,11.718750
4497,11.718750
4498,7.812500
4499,7.812500
4500,7.812500
4501,7.812500
4502,7.812500
4503,7.812500
4504,7.812500
4505,7.812500
4506,3.906250
4507,3.906250
4508,3.906250
4509,3.906250
4510,3.906250
4511,3.906250
4512,0.000000
4513,0.000000
4514,0.000000
4515,0.000000
4516,0.000000
4517,0.000000
4518,0.000000
4519,0.000000
4520,0.000000
4521,-3.906250
4522,-3.906250
4523,-3.906250
4524,-3.906250
4525,-7.812500
4526,-7.812500
4527,-7.812500
4528,-7.812500
4529,-7.812500
4530,-7.812500
4531,-7.812500
4532,-7.812500
4533,-7.812500
4534,-11.718750
4535,-11.718750
4536,-11.718750
4537,-11.718750
4538,-11.718750
4539,-11.718750
4540,-11.718750
4541,-15.625000
4542,-15.625000
4543,-15.625000
4544,-15.625000
4545,-15.625000
4546,-15.625000
4547,-15.625000
4548,-19.531250
4549,-19.531250
4550,-19.531250
4551,-19.531250
4552,-19.531250
4553,-19.531250
4554,-23.437500
4555,-23.437500
4556,-23.437500
4557,-23.437500
4558,-23.437500
4559,-23.437500
4560,-23.437500
4561,-23.437500
4562,-27.343750
4563,-27.343750
4564,-27.343750
4565,-27.343750
4566,-27.343750
4567,-27.343750
4568,-31.250000
4569,-31.250000
4570,-31.250000
4571,-31.250000
4572,-31.250000
4573,-31.250000
4574,-31.250000
4575,-31.250000
4576,-35.156250
4577,-35.156250
4578,-35.156250
4579,-35.156250
4580,-35.156250
4581,-35.156250
4582,-35.156250
4583,-39.062500
4584,-39.062500
4585,-39.062500
4586,-39.062500
4587,-39.062500
4588,-39.062500
4589,-39.062500
4590,-42.968750
4591,-42.968750
4592,-42.968750
4593,-42.968750
4594,-42.968750
4595,-42.968750
4596,-42.968750
4597,-46.875000
4598,-46.875000
4599,-46.875000
4600,-46.875000
4601,-46.875000
4602,-46.875000
4603,-46.875000
4604,-50.781250
4605,-50.781250
4606,-50.781250
4607,-50.781250
4608,-50.781250
4609,-50.781250
4610,-54.687500
4611,-54.687500
4612,-54.687500
4613,-54.687500
4614,-54.687500
4615,-54.687500
4616,-54.687500
4617,-54.687500
4618,-58.593750
4619,-54.687500
4620,-58.593750
4621,-58.593750
4622,-58.593750
4623,-58.593750
4624,-58.593750
4625,-58.593750
4626,-62.500000
4627,-62.500000
4628,-62.500000
4629,-62.500000
4630,-62.500000
4631,-62.500000
4632,-62.500000
4633,-62.500000
4634,-66.406250
4635,-66.406250
4636,-66.406250
4637,-66.406250
4638,-66.406250
4639,-66.406250
4640,-66.406250
4641,-66.406250
4642,-70.312500
4643,-70.312500
4644,-70.312500
4645,-70.312500
4646,-70.312500
4647,-70.312500
4648,-70.312500
4649,-70.312500
4650,-74.218750
4651,-74.218750
4652,-74.218750
4653,-74.218750
4654,-74.218750
4655,-74.218750
4656,-74.218750
4657,-74.218750
4658,-74.218750
4659,-74.218750
4660,-78.125000
4661,-78.125000
4662,-78.125000
4663,-78.125000
4664,-78.125000
4665,-78.125000
4666,-78.125000
4667,-78.125000
4668,-78.125000
4669,-78.125000
4670,-82.031250
4671,-82.031250
4672,-82.031250
4673,-82.031250
4674,-82.031250
4675,-82.031250
4676,-82.031250
4677,-82.031250
4678,-82.031250
4679,-82.031250
4680,-85.937500
4681,-85.937500
4682,-85.937500
4683,-85.937500
4684,-85.937500
4685,-85.937500
4686,-85.937500
4687,-85.937500
4688,-85.937500
4689,-89.843750
4690,-89.843750
4691,-89.843750
4692,-89.843750
4693,-89.843750
4694,-89.843750
4695,-89.843750
4696,-89.843750
4697,-89.843750
4698,-89.843750
4699,-89.843750
4700,-89.843750
4701,-93.750000
4702,-93.750000
4703,-93.750000
4704,-93.750000
4705,-93.750000
4706,-93.750000
4707,-93.750000
4708,-93.750000
4709,-93.750000
4710,-93.750000
4711,-93.750000
4712,-93.750000
4713,-93.750000
4714,-93.750000
4715,-93.750000
4716,-93.750000
4717,-97.656250
4718,-97.656250
4719,-97.656250
4720,-97.656250
4721,-97.656250
4722,-97.656250
4723,-97.656250
4724,-97.656250
4725,-97.656250
4726,-97.656250
4727,-97.656250
4728,-97.656250
4729,-97.656250
4730,-97.656250
4731,-97.656250
4732,-97.656250
4733,-101.562500
4734,-97.656250
4735,-97.656250
4736,-101.562500
4737,-101.562500
4738,-101.562500
4739,-101.562500
4740,-101.562500
4741,-101.562500
4742,-101.562500
4743,-101.562500
4744,-101.562500
4745,-101.562500
4746,-101.562500
4747,-101.562500
4748,-101.562500
4749,-101.562500
4750,-101.562500
4751,-101.562500
4752,-101.562500
4753,-101.562500
4754,-101.562500
4755,-101.562500
4756,-101.562500
4757,-101.562500
4758,-101.562500
4759,-101.562500
4760,-101.562500
4761,-101.562500
4762,-101.562500
4763,-101.562500
4764,-101.562500
4765,-101.562500
4766,-101.562500
4767,-101.562500
4768,-101.562500
4769,-101.562500
4770,-101.562500
4771,-101.562500
4772,-105.468750
4773,-105.468750
4774,-105.468750
4775,-105.468750
4776,-105.468750
4777,-105.468750
4778,-101.562500
4779,-101.562500
4780,-101.562500
4781,-101.562500
4782,-101.562500
4783,-105.468750
4784,-105.468750
4785,-101.562500
4786,-105.468750
4787,-101.562500
4788,-101.562500
4789,-101.562500
4790,-101.562500
4791,-101.562500
4792,-101.562500
4793,-101.562500
4794,-101.562500
4795,-101.562500
4796,-105.468750
4797,-101.562500
4798,-101.562500
4799,-101.562500
4800,-101.562500
4801,-101.562500
4802,-101.562500
4803,-101.562500
4804,-101.562500
4805,-101.562500
4806,-101.562500
4807,-101.562500
4808,-101.562500
4809,-101.562500
4810,-101.562500
4811,-101.562500
4812,-101.562500
4813,-101.562500
4814,-101.562500
4815,-101.562500
4816,-101.562500
4817,-101.562500
4818,-101.562500
4819,-101.562500
4820,-101.562500
4821,-101.562500
4822,-101.562500
4823,-101.562500
4824,-101.562500
4825,-101.562500
4826,-101.562500
4827,-97.656250
4828,-97.656250
4829,-97.656250
4830,-97.656250
4831,-97.656250
4832,-97.656250
4833,-97.656250
4834,-97.656250
4835,-97.656250
4836,-97.656250
4837,-97.656250
4838,-97.656250
4839,-97.656250
4840,-97.656250
4841,-97.656250
4842,-97.656250
4843,-97.656250
4844,-93.750000
4845,-93.750000
4846,-93.750000
4847,-93.750000
4848,-93.750000
4849,-93.750000
4850,-93.750000
4851,-93.750000
4852,-93.750000
4853,-93.750000
4854,-93.750000
4855,-93.750000
4856,-93.750000
4857,-93.750000
4858,-89.843750
4859,-89.843750
4860,-89.843750
4861,-89.843750
4862,-89.843750
4863,-89.843750
4864,-89.843750
4865,-89.843750
4866,-89.843750
4867,-89.843750
4868,-89.843750
4869,-89.843750
4870,-85.937500
4871,-85.937500
4872,-85.937500
4873,-85.937500
4874,-85.937500
4875,-85.937500
4876,-85.937500
4877,-85.937500
4878,-85.937500
4879,-82.031250
4880,-82.031250
4881,-85.937500
4882,-82.031250
4883,-82.031250
4884,-82.031250
4885,-82.031250
4886,-82.031250
4887,-82.031250
4888,-82.031250
4889,-82.031250
4890,-82.031250
4891,-82.031250
4892,-82.031250
4893,-78.125000
4894,-78.125000
4895,-78.125000
4896,-78.125000
4897,-78.125000
4898,-78.125000
4899,-78.125000
4900,-78.125000
4901,-74.218750
4902,-74.218750
4903,-74.218750
4904,-74.218750
4905,-74.218750
4906,-74.218750
4907,-74.218750
4908,-74.218750
4909,-74.218750
4910,-74.218750
4911,-70.312500
4912,-70.312500
4913,-70.312500
4914,-70.312500
4915,-70.312500
4916,-70.312500
4917,-70.312500
4918,-70.312500
4919,-66.406250
4920,-66.406250
4921,-66.406250
4922,-66.406250
4923,-66.406250
4924,-66.406250
4925,-66.406250
4926,-66.406250
4927,-66.406250
4928,-62.500000
4929,-62.500000
4930,-62.500000
4931,-62.500000
4932,-62.500000
4933,-62.500000
4934,-62.500000
4935,-62.500000
4936,-58.593750
4937,-58.593750
4938,-58.593750
4939,-58.593750
4940,-58.593750
4941,-58.593750
4942,-54.687500
4943,-54.687500
4944,-54.687500
4945,-54.687500
4946,-54.687500
4947,-54.687500
4948,-50.781250
4949,-54.687500
4950,-54.687500
4951,-50.781250
4952,-50.781250
4953,-50.781250
4954,-50.781250
4955,-50.781250
4956,-50.781250
4957,-46.875000
4958,-46.875000
4959,-46.875000
4960,-46.875000
4961,-46.875000
4962,-46.875000
4963,-46.875000
4964,-42.968750
4965,-42.968750
4966,-42.968750
4967,-42.968750
4968,-42.968750
4969,-42.968750
4970,-42.968750
4971,-42.968750
4972,-39.062500
4973,-39.062500
4974,-39.062500
4975,-39.062500
4976,-39.062500
4977,-39.062500
4978,-39.062500
4979,-35.156250
4980,-35.156250
4981,-35.156250
4982,-35.156250
4983,-35.156250
4984,-35.156250
4985,-31.250000
4986,-31.250000
4987,-31.250000
4988,-31.250000
4989,-31.250000
4990,-31.250000
4991,-31.250000
4992,-31.250000
4993,-27.343750
4994,-27.343750
4995,-27.343750
4996,-27.343750
4997,-27.343750
4998,-27.343750
4999,-27.343750
5000,-23.437500
5001,-23.437500
5002,-23.437500
5003,-23.437500
5004,-23.437500
5005,-23.437500
5006,-19.531250
5007,-19.531250
5008,-19.531250
5009,-19.531250
5010,-19.531250
5011,-19.531250
5012,-19.531250
5013,-15.625000
5014,-15.625000
5015,-15.625000
5016,-15.625000
5017,-15.625000
5018,-15.625000
5019,-15.625000
5020,-15.625000
5021,-11.718750
5022,-11.718750
5023,-11.718750
5024,-11.718750
5025,-11.718750
5026,-7.812500
5027,-11.718750
5028,-7.812500
5029,-7.812500
5030,-7.812500
5031,-7.812500
5032,-7.812500
5033,-7.812500
5034,-3.906250
5035,-3.906250
5036,-3.906250
5037,-3.906250
5038,-3.906250
5039,-3.906250
5040,0.000000
5041,0.000000
5042,0.000000
5043,0.000000
5044,0.000000
5045,0.000000
5046,0.000000
5047,0.000000
5048,3.906250
5049,3.906250
5050,3.906250
5051,3.906250
5052,3.906250
5053,3.906250
5054,3.906250
5055,3.906250
5056,7.812500
5057,7.812500
5058,7.812500
5059,7.812500
5060,7.812500
5061,7.812500
5062,7.812500
5063,11.718750
5064,11.718750
5065,11.718750
5066,11.718750
5067,11.718750
5068,11.718750
5069,11.718750
5070,15.625000
5071,15.625000
5072,15.625000
5073,15.625000
5074,15.625000
5075,15.625000
5076,15.625000
5077,15.625000
5078,19.531250
5079,19.531250
5080,19.531250
5081,19.531250
5082,19.531250
5083,19.531250
5084,19.531250
5085,23.437500
5086,23.437500
5087,23.437500
5088,23.437500
5089,23.437500
5090,23.437500
5091,23.437500
5092,23.437500
5093,23.437500
5094,27.343750
5095,27.343750
5096,27.343750
5097,27.343750
5098,27.343750
5099,27.343750
5100,27.343750
5101,27.343750
5102,31.250000
5103,31.250000
5104,31.250000
5105,31.250000
5106,31.250000
5107,31.250000
5108,31.250000
5109,31.250000
5110,35.156250
5111,35.156250
5112,35.156250
5113,35.156250
5114,35.156250
5115,35.156250
5116,35.156250
5117,35.156250
5118,39.062500
5119,39.062500
5120,39.062500
5121,39.062500
5122,39.062500
5123,39.062500
5124,39.062500
5125,39.062500
5126,39.062500
5127,39.062500
5128,39.062500
5129,42.968750
5130,42.968750
5131,42.968750
5132,42.968750
5133,42.968750
5134,42.968750
5135,42.968750
5136,42.968750
5137,46.875000
5138,46.875000
5139,46.875000
5140,46.875000
5141,46.875000
5142,46.875000
5143,46.875000
5144,46.875000
5145,46.875000
5146,46.875000
5147,46.875000
5148,50.781250
5149,46.875000
5150,50.781250
5151,50.781250
5152,50.781250
5153,50.781250
5154,50.781250
5155,50.781250
5156,50.781250
5157,50.781250
5158,50.781250
5159,50.781250
5160,50.781250
5161,54.687500
5162,54.687500
5163,54.687500
5164,54.687500
5165,54.687500
5166,54.687500
5167,54.687500
5168,54.687500
5169,54.687500
5170,58.593750
5171,54.687500
5172,58.593750
5173,58.593750
5174,58.593750
5175,58.593750
5176,58.593750
5177,58.593750
5178,58.593750
5179,58.593750
5180,58.593750
5181,58.593750
5182,58.593750
5183,58.593750
5184,58.593750
5185,58.593750
5186,58.593750
5187,58.593750
5188,62.500000
5189,62.500000
5190,62.500000
5191,62.500000
5192,62.500000
5193,62.500000
5194,62.500000
5195,62.500000
5196,62.500000
5197,62.500000
5198,62.500000
5199,62.500000
5200,62.500000
5201,62.500000
5202,66.406250
5203,66.406250
5204,66.406250
5205,66.406250
5206,66.406250
5207,66.406250
5208,66.406250
5209,66.406250
5210,66.406250
5211,66.406250
5212,66.406250
5213,66.406250
5214,66.406250
5215,66.406250
5216,66.406250
5217,66.406250
5218,66.406250
5219,70.312500
5220,66.406250
5221,66.406250
5222,66.406250
5223,70.312500
5224,70.312500
5225,70.312500
5226,70.312500
5227,70.312500
5228,70.312500
5229,70.312500
5230,70.312500
5231,70.312500
5232,70.312500
5233,70.312500
5234,70.312500
5235,70.312500
5236,70.312500
5237,70.312500
5238,70.312500
5239,70.312500
5240,70.312500
5241,70.312500
5242,66.406250
5243,70.312500
5244,70.312500
5245,70.312500
5246,70.312500
5247,70.312500
5248,70.312500
5249,70.312500
5250,70.312500
5251,70.312500
5252,74.218750
5253,74.218750
5254,74.218750
5255,74.218750
5256,74.218750
5257,74.218750
5258,74.218750
5259,74.218750
5260,74.218750
5261,74.218750
5262,74.218750
5263,74.218750
5264,74.218750
5265,74.218750
5266,74.218750
5267,74.218750
5268,74.218750
5269,74.218750
5270,74.218750
5271,74.218750
5272,74.218750
5273,74.218750
5274,74.218750
5275,74.218750
5276,74.218750
5277,74.218750
5278,74.218750
5279,74.218750
5280,74.218750
5281,74.218750
5282,74.218750
5283,74.218750
5284,74.218750
5285,74.218750
5286,74.218750
5287,74.218750
5288,74.218750
5289,74.218750
5290,74.218750
5291,74.218750
5292,74.218750
5293,74.218750
5294,70.312500
5295,70.312500
5296,70.312500
5297,70.312500
5298,70.312500
5299,70.312500
5300,70.312500
5301,70.312500
5302,70.312500
5303,70.312500
5304,70.312500
5305,70.312500
5306,70.312500
5307,70.312500
5308,70.312500
5309,70.312500
5310,70.312500
5311,70.312500
5312,70.312500
5313,70.312500
5314,70.312500
5315,70.312500
5316,70.312500
5317,70.312500
5318,70.312500
5319,70.312500
5320,70.312500
5321,70.312500
5322,70.312500
5323,70.312500
5324,70.312500
5325,70.312500
5326,70.312500
5327,70.312500
5328,70.312500
5329,70.312500
5330,70.312500
5331,66.406250
5332,66.406250
5333,66.406250
5334,66.406250
5335,66.406250
5336,66.406250
5337,66.406250
5338,66.406250
5339,66.406250
5340,66.406250
5341,66.406250
5342,66.406250
5343,66.406250
5344,66.406250
5345,66.406250
5346,66.406250
5347,66.406250
5348,62.500000
5349,66.406250
5350,66.406250
5351,66.406250
5352,66.406250
5353,62.500000
5354,62.500000
5355,62.500000
5356,62.500000
5357,62.500000
5358,62.500000
5359,62.500000
5360,62.500000
5361,62.500000
5362,62.500000
5363,62.500000
5364,62.500000
5365,62.500000
5366,58.593750
5367,62.500000
5368,58.593750
5369,58.593750
5370,58.593750
5371,58.593750
5372,58.593750
5373,58.593750
5374,58.593750
5375,58.593750
5376,58.593750
5377,58.593750
5378,58.593750
5379,58.593750
5380,54.687500
5381,54.687500
5382,54.687500
5383,54.687500
5384,54.687500
5385,54.687500
5386,54.687500
5387,54.687500
5388,54.687500
5389,54.687500
5390,54.687500
5391,54.687500
5392,54.687500
5393,54.687500
5394,50.781250
5395,50.781250
5396,50.781250
5397,50.781250
5398,50.781250
5399,50.781250
5400,50.781250
5401,50.781250
5402,50.781250
5403,50.781250
5404,50.781250
5405,46.875000
5406,46.875000
5407,46.875000
5408,46.875000
5409,46.875000
5410,46.875000
5411,46.875000
5412,46.875000
5413,46.875000
5414,42.968750
5415,46.875000
5416,42.968750
5417,42.968750
5418,42.968750
5419,42.968750
5420,42.968750
5421,42.968750
5422,42.968750
5423,42.968750
5424,39.062500
5425,39.062500
5426,39.062500
5427,39.062500
5428,39.062500
5429,39.062500
5430,39.062500
5431,39.062500
5432,39.062500
5433,39.062500
5434,35.156250
5435,35.156250
5436,35.156250
5437,35.156250
5438,35.156250
5439,35.156250
5440,35.156250
5441,31.250000
5442,31.250000
5443,31.250000
5444,31.250000
5445,31.250000
5446,31.250000
5447,31.250000
5448,31.250000
5449,31.250000
5450,27.343750
5451,27.343750
5452,27.343750
5453,27.343750
5454,27.343750
5455,27.343750
5456,27.343750
5457,27.343750
5458,27.343750
5459,23.437500
5460,23.437500
5461,23.437500
5462,23.437500
5463,23.437500
5464,23.437500
5465,23.437500
5466,19.531250
5467,19.531250
5468,19.531250
5469,19.531250
5470,19.531250
5471,19.531250
5472,19.531250
5473,19.531250
5474,19.531250
5475,15.625000
5476,15.625000
5477,15.625000
5478,15.625000
5479,15.625000
5480,15.625000
5481,15.625000
5482,11.718750
5483,11.718750
5484,11.718750
5485,11.718750
5486,11.718750
5487,11.718750
5488,7.812500
5489,7.812500
5490,7.812500
5491,7.812500
5492,7.812500
5493,7.812500
5494,7.812500
5495,7.812500
5496,3.906250
5497,3.906250
5498,3.906250
5499,3.906250
5500,3.906250
5501,3.906250
5502,3.906250
5503,0.000000
5504,0.000000
5505,0.000000
5506,0.000000
5507,0.000000
5508,0.000000
5509,0.000000
5510,0.000000
5511,-3.906250
5512,-3.906250
5513,-3.906250
5514,-3.906250
5515,-3.906250
5516,-3.906250
5517,-3.906250
5518,-7.812500
5519,-7.812500
5520,-7.812500
5521,-7.812500
5522,-7.812500
5523,-7.812500
5524,-11.718750
5525,-7.812500
5526,-11.718750
5527,-11.718750
5528,-11.718750
5529,-11.718750
5530,-11.718750
5531,-15.625000
5532,-15.625000
5533,-15.625000
5534,-15.625000
5535,-15.625000
5536,-15.625000
5537,-15.625000
5538,-19.531250
5539,-19.531250
5540,-19.531250
5541,-19.531250
5542,-19.531250
5543,-19.531250
5544,-19.531250
5545,-23.437500
5546,-23.437500
5547,-23.437500
5548,-23.437500
5549,-23.437500
5550,-23.437500
5551,-23.437500
5552,-27.343750
5553,-27.343750
5554,-27.343750
5555,-27.343750
5556,-27.343750
5557,-27.343750
5558,-31.250000
5559,-31.250000
5560,-31.250000
5561,-31.250000
5562,-31.250000
5563,-31.250000
5564,-35.156250
5565,-35.156250
5566,-35.156250
5567,-35.156250
5568,-35.156250
5569,-35.156250
5570,-35.156250
5571,-35.156250
5572,-35.156250
5573,-39.062500
5574,-39.062500
5575,-39.062500
5576,-39.062500
5577,-39.062500
5578,-39.062500
5579,-39.062500
5580,-42.968750
5581,-42.968750
5582,-42.968750
5583,-42.968750
5584,-42.968750
5585,-42.968750
5586,-42.968750
5587,-46.875000
5588,-46.875000
5589,-46.875000
5590,-46.875000
5591,-46.875000
5592,-46.875000
5593,-46.875000
5594,-50.781250
5595,-50.781250
5596,-50.781250
5597,-50.781250
5598,-50.781250
5599,-50.781250
5600,-50.781250
5601,-50.781250
5602,-54.687500
5603,-54.687500
5604,-54.687500
5605,-54.687500
5606,-54.687500
5607,-54.687500
5608,-58.593750
5609,-58.593750
5610,-58.593750
5611,-58.593750
5612,-58.593750
5613,-58.593750
5614,-58.593750
5615,-58.593750
5616,-62.500000
5617,-62.500000
5618,-62.500000
5619,-62.500000
5620,-62.500000
5621,-62.500000
5622,-62.500000
5623,-62.500000
5624,-66.406250
5625,-66.406250
5626,-66.406250
5627,-66.406250
5628,-66.406250
5629,-70.312500
5630,-66.406250
5631,-66.406250
5632,-66.406250
5633,-70.312500
5634,-70.312500
5635,-70.312500
5636,-70.312500
5637,-70.312500
5638,-74.218750
5639,-70.312500
5640,-70.312500
5641,-70.312500
5642,-74.218750
5643,-74.218750
5644,-74.218750
5645,-74.218750
5646,-74.218750
5647,-74.218750
5648,-74.218750
5649,-74.218750
5650,-78.125000
5651,-78.125000
5652,-78.125000
5653,-78.125000
5654,-78.125000
5655,-78.125000
5656,-78.125000
5657,-78.125000
5658,-82.031250
5659,-82.031250
5660,-82.031250
5661,-82.031250
5662,-82.031250
5663,-82.031250
5664,-82.031250
5665,-82.031250
5666,-82.031250
5667,-82.031250
5668,-82.031250
5669,-82.031250
5670,-85.937500
5671,-85.937500
5672,-85.937500
5673,-82.031250
5674,-85.937500
5675,-85.937500
5676,-85.937500
5677,-85.937500
5678,-85.937500
5679,-85.937500
5680,-89.843750
5681,-89.843750
5682,-89.843750
5683,-89.843750
5684,-89.843750
5685,-89.843750
5686,-89.843750
5687,-89.843750
5688,-89.843750
5689,-89.843750
5690,-93.750000
5691,-93.750000
5692,-93.750000
5693,-93.750000
5694,-93.750000
5695,-93.750000
5696,-93.750000
5697,-93.750000
5698,-93.750000
5699,-93.750000
5700,-93.750000
5701,-93.750000
5702,-93.750000
5703,-93.750000
5704,-93.750000
5705,-93.750000
5706,-93.750000
5707,-97.656250
5708,-97.656250
5709,-97.656250
5710,-97.656250
5711,-97.656250
5712,-97.656250
5713,-97.656250
5714,-97.656250
5715,-97.656250
5716,-97.656250
5717,-97.656250
5718,-97.656250
5719,-97.656250
5720,-97.656250
5721,-97.656250
5722,-97.656250
5723,-97.656250
5724,-97.656250
5725,-97.656250
5726,-97.656250
5727,-101.562500
5728,-101.562500
5729,-101.562500
5730,-101.562500
5731,-101.562500
5732,-101.562500
5733,-101.562500
5734,-101.562500
5735,-101.562500
5736,-101.562500
5737,-101.562500
5738,-101.562500
5739,-101.562500
5740,-101.562500
5741,-101.562500
5742,-101.562500
5743,-101.562500
5744,-101.562500
5745,-101.562500
5746,-101.562500
5747,-101.562500
5748,-101.562500
5749,-101.562500
5750,-101.562500
5751,-101.562500
5752,-101.562500
5753,-101.562500
5754,-101.562500
5755,-101.562500
5756,-101.562500
5757,-101.562500
5758,-105.468750
5759,-101.562500
5760,-101.562500
5761,-105.468750
5762,-105.468750
5763,-101.562500
5764,-105.468750
5765,-101.562500
5766,-101.562500
5767,-101.562500
5768,-101.562500
5769,-101.562500
5770,-101.562500
5771,-105.468750
5772,-101.562500
5773,-105.468750
5774,-101.562500
5775,-101.562500
5776,-105.468750
5777,-105.468750
5778,-101.562500
5779,-101.562500
5780,-101.562500
5781,-101.562500
5782,-101.562500
5783,-101.562500
5784,-101.562500
5785,-101.562500
5786,-105.468750
5787,-101.562500
5788,-101.562500
5789,-101.562500
5790,-101.562500
5791,-101.562500
5792,-101.562500
5793,-101.562500
5794,-101.562500
5795,-101.562500
5796,-101.562500
5797,-101.562500
5798,-101.562500
5799,-101.562500
5800,-101.562500
5801,-101.562500
5802,-101.562500
5803,-101.562500
5804,-101.562500
5805,-101.562500
5806,-101.562500
5807,-101.562500
5808,-101.562500
5809,-101.562500
5810,-101.562500
5811,-101.562500
5812,-101.562500
5813,-101.562500
5814,-97.656250
5815,-97.656250
5816,-97.656250
5817,-101.562500
5818,-97.656250
5819,-97.656250
5820,-97.656250
5821,-97.656250
5822,-97.656250
5823,-97.656250
5824,-97.656250
5825,-97.656250
5826,-97.656250
5827,-97.656250
5828,-97.656250
5829,-97.656250
5830,-97.656250
5831,-97.656250
5832,-97.656250
5833,-97.656250
5834,-97.656250
5835,-93.750000
5836,-93.750000
5837,-93.750000
5838,-93.750000
5839,-93.750000
5840,-93.750000
5841,-93.750000
5842,-93.750000
5843,-93.750000
5844,-93.750000
5845,-93.750000
5846,-93.750000
5847,-89.843750
5848,-89.843750
5849,-89.843750
5850,-89.843750
5851,-89.843750
5852,-89.843750
5853,-89.843750
5854,-89.843750
5855,-89.843750
5856,-89.843750
5857,-89.843750
5858,-89.843750
5859,-89.843750
5860,-85.937500
5861,-85.937500
5862,-85.937500
5863,-85.937500
5864,-85.937500
5865,-85.937500
5866,-85.937500
5867,-85.937500
5868,-85.937500
5869,-85.937500
5870,-85.937500
5871,-82.031250
5872,-82.031250
5873,-82.031250
5874,-82.031250
5875,-82.031250
5876,-82.031250
5877,-82.031250
5878,-82.031250
5879,-82.031250
5880,-82.031250
5881,-82.031250
5882,-78.125000
5883,-78.125000
5884,-78.125000
5885,-78.125000
5886,-78.125000
5887,-78.125000
5888,-78.125000
5889,-78.125000
5890,-78.125000
5891,-74.218750
5892,-74.218750
5893,-74.218750
5894,-74.218750
5895,-74.218750
5896,-74.218750
5897,-74.218750
5898,-74.218750
5899,-70.312500
5900,-70.312500
5901,-70.312500
5902,-70.312500
5903,-70.312500
5904,-70.312500
5905,-70.312500
5906,-70.312500
5907,-70.312500
5908,-70.312500
5909,-66.406250
5910,-66.406250
5911,-66.406250
5912,-66.406250
5913,-66.406250
5914,-66.406250
5915,-62.500000
5916,-62.500000
5917,-62.500000
5918,-62.500000
5919,-62.500000
5920,-62.500000
5921,-62.500000
5922,-62.500000
5923,-62.500000
5924,-58.593750
5925,-58.593750
5926,-58.593750
5927,-58.593750
5928,-58.593750
5929,-58.593750
5930,-58.593750
5931,-58.593750
5932,-54.687500
5933,-54.687500
5934,-54.687500
5935,-54.687500
5936,-54.687500
5937,-54.687500
5938,-54.687500
5939,-54.687500
5940,-50.781250
5941,-50.781250
5942,-50.781250
5943,-50.781250
5944,-50.781250
5945,-50.781250
5946,-50.781250
5947,-50.781250
5948,-46.875000
5949,-46.875000
5950,-46.875000
5951,-46.875000
5952,-46.875000
5953,-42.968750
5954,-42.968750
5955,-42.968750
5956,-42.968750
5957,-42.968750
5958,-42.968750
5959,-42.968750
5960,-42.968750
5961,-39.062500
5962,-39.062500
5963,-39.062500
5964,-39.062500
5965,-39.062500
5966,-39.062500
5967,-39.062500
5968,-35.156250
5969,-35.156250
5970,-35.156250
5971,-35.156250
5972,-35.156250
5973,-35.156250
5974,-35.156250
5975,-31.250000
5976,-31.250000
5977,-31.250000
5978,-31.250000
5979,-31.250000
5980,-31.250000
5981,-31.250000
5982,-27.343750
5983,-27.343750
5984,-27.343750
5985,-27.343750
5986,-27.343750
5987,-27.343750
5988,-27.343750
5989,-23.437500
5990,-27.343750
5991,-23.437500
5992,-23.437500
5993,-23.437500
5994,-23.437500
5995,-19.531250
5996,-19.531250
5997,-19.531250
5998,-19.531250
5999,-19.531250
6000,-19.531250
6001,-19.531250
6002,-19.531250
6003,-15.625000
6004,-15.625000
6005,-15.625000
6006,-15.625000
6007,-15.625000
6008,-15.625000
6009,-15.625000
6010,-11.718750
6011,-11.718750
6012,-11.718750
6013,-11.718750
6014,-11.718750
6015,-7.812500
6016,-7.812500
6017,-7.812500
6018,-7.812500
6019,-7.812500
6020,-7.812500
6021,-7.812500
6022,-7.812500
6023,-3.906250
6024,-3.906250
6025,-3.906250
6026,-3.906250
6027,-3.906250
6028,-3.906250
6029,-3.906250
6030,-3.906250
6031,0.000000
6032,0.000000
6033,0.000000
6034,0.000000
6035,0.000000
6036,0.000000
6037,3.906250
6038,3.906250
6039,3.906250
6040,3.906250
6041,3.906250
6042,3.906250
6043,3.906250
6044,7.812500
6045,7.812500
6046,7.812500
6047,7.812500
6048,7.812500
6049,7.812500
6050,7.812500
6051,7.812500
6052,11.718750
6053,11.718750
6054,11.718750
6055,11.718750
6056,11.718750
6057,11.718750
6058,11.718750
6059,11.718750
6060,15.625000
6061,15.625000
6062,15.625000
6063,15.625000
6064,15.625000
6065,15.625000
6066,15.625000
6067,15.625000
6068,19.531250
6069,19.531250
6070,19.531250
6071,19.531250
6072,19.531250
6073,19.531250
6074,19.531250
6075,23.437500
6076,19.531250
6077,23.437500
6078,23.437500
6079,27.343750
6080,23.437500
6081,23.437500
6082,23.437500
6083,23.437500
6084,27.343750
6085,27.343750
6086,27.343750
6087,27.343750
6088,27.343750
6089,27.343750
6090,27.343750
6091,31.250000
6092,31.250000
6093,31.250000
6094,31.250000
6095,31.250000
6096,31.250000
6097,31.250000
6098,35.156250
6099,31.250000
6100,35.156250
6101,35.156250
6102,35.156250
6103,35.156250
6104,35.156250
6105,35.156250
6106,35.156250
6107,39.062500
6108,39.062500
6109,39.062500
6110,39.062500
6111,39.062500
6112,39.062500
6113,39.062500
6114,39.062500
6115,39.062500
6116,39.062500
6117,42.968750
6118,42.968750
6119,42.968750
6120,42.968750
6121,42.968750
6122,42.968750
6123,42.968750
6124,42.968750
6125,46.875000
6126,46.875000
6127,46.875000
6128,46.875000
6129,46.875000
6130,46.875000
6131,46.875000
6132,46.875000
6133,46.875000
6134,46.875000
6135,46.875000
6136,50.781250
6137,46.875000
6138,50.781250
6139,50.781250
6140,50.781250
6141,50.781250
6142,50.781250
6143,50.781250
6144,50.781250
6145,50.781250
6146,50.781250
6147,50.781250
6148,50.781250
6149,54.687500
6150,54.687500
6151,54.687500
6152,54.687500
6153,54.687500
6154,54.687500
6155,54.687500
6156,54.687500
6157,54.687500
6158,54.687500
6159,58.593750
6160,54.687500
6161,58.593750
6162,58.593750
6163,58.593750
6164,58.593750
6165,58.593750
6166,58.593750
6167,58.593750
6168,58.593750
6169,58.593750
6170,58.593750
6171,58.593750
6172,58.593750
6173,62.500000
6174,62.500000
6175,62.500000
6176,62.500000
6177,62.500000
6178,62.500000
6179,62.500000
6180,62.500000
6181,62.500000
6182,62.500000
6183,62.500000
6184,62.500000
6185,62.500000
6186,62.500000
6187,62.500000
6188,66.406250
6189,66.406250
6190,66.406250
6191,66.406250
6192,66.406250
6193,66.406250
6194,66.406250
6195,66.406250
6196,66.406250
6197,66.406250
6198,66.406250
6199,66.406250
6200,66.406250
6201,66.406250
6202,66.406250
6203,66.406250
6204,66.406250
6205,66.406250
6206,66.406250
6207,66.406250
6208,66.406250
6209,66.406250
6210,70.312500
6211,70.312500
6212,70.312500
6213,70.312500
6214,70.312500
6215,70.312500
6216,70.312500
6217,70.312500
6218,70.312500
6219,70.312500
6220,70.312500
6221,70.312500
6222,70.312500
6223,70.312500
6224,70.312500
6225,70.312500
6226,70.312500
6227,70.312500
6228,70.312500
6229,70.312500
6230,70.312500
6231,70.312500
6232,70.312500
6233,70.312500
6234,70.312500
6235,70.312500
6236,70.312500
6237,70.312500
6238,70.312500
6239,70.312500
6240,74.218750
6241,70.312500
6242,70.312500
6243,70.312500
6244,70.312500
6245,70.312500
6246,74.218750
6247,74.218750
6248,74.218750
6249,74.218750
6250,74.218750
6251,74.218750
6252,70.312500
6253,74.218750
6254,74.218750
6255,74.218750
6256,74.218750
6257,74.218750
6258,74.218750
6259,74.218750
6260,74.218750
6261,74.218750
6262,74.218750
6263,74.218750
6264,74.218750
6265,74.218750
6266,74.218750
6267,74.218750
6268,74.218750
6269,74.218750
6270,74.218750
6271,74.218750
6272,74.218750
6273,74.218750
6274,74.218750
6275,74.218750
6276,74.218750
6277,74.218750
6278,74.218750
6279,74.218750
6280,74.218750
6281,74.218750
6282,74.218750
6283,74.218750
6284,74.218750
6285,74.218750
6286,70.312500
6287,74.218750
6288,70.312500
6289,70.312500
6290,74.218750
6291,70.312500
6292,74.218750
6293,74.218750
6294,70.312500
6295,74.218750
6296,70.312500
6297,70.312500
6298,70.312500
6299,70.312500
6300,70.312500
6301,70.312500
6302,70.312500
6303,70.312500
6304,70.312500
6305,70.312500
6306,70.312500
6307,70.312500
6308,70.312500
6309,70.312500
6310,70.312500
6311,70.312500
6312,70.312500
6313,70.312500
6314,70.312500
6315,70.312500
6316,70.312500
6317,70.312500
6318,70.312500
6319,70.312500
6320,66.406250
6321,70.312500
6322,70.312500
6323,66.406250
6324,66.406250
6325,66.406250
6326,66.406250
6327,66.406250
6328,66.406250
6329,66.406250
6330,66.406250
6331,66.406250
6332,66.406250
6333,66.406250
6334,66.406250
6335,66.406250
6336,66.406250
6337,66.406250
6338,66.406250
6339,66.406250
6340,66.406250
6341,62.500000
6342,62.500000
6343,62.500000
6344,62.500000
6345,62.500000
6346,62.500000
6347,62.500000
6348,62.500000
6349,62.500000
6350,62.500000
6351,62.500000
6352,62.500000
6353,62.500000
6354,62.500000
6355,62.500000
6356,62.500000
6357,62.500000
6358,58.593750
6359,58.593750
6360,58.593750
6361,58.593750
6362,58.593750
6363,58.593750
6364,58.593750
6365,58.593750
6366,58.593750
6367,58.593750
6368,58.593750
6369,54.687500
6370,54.687500
6371,54.687500
6372,54.687500
6373,54.687500
6374,54.687500
6375,54.687500
6376,54.687500
6377,54.687500
6378,54.687500
6379,54.687500
6380,54.687500
6381,54.687500
6382,50.781250
6383,50.781250
6384,50.781250
6385,50.781250
6386,50.781250
6387,50.781250
6388,50.781250
6389,50.781250
6390,50.781250
6391,50.781250
6392,50.781250
6393,50.781250
6394,46.875000
6395,46.875000
6396,46.875000
6397,46.875000
6398,46.875000
6399,46.875000
6400,46.875000
6401,46.875000
6402,46.875000
6403,46.875000
6404,42.968750
6405,42.968750
6406,42.968750
6407,42.968750
6408,42.968750
6409,42.968750
6410,42.968750
6411,42.968750
6412,42.968750
6413,42.968750
6414,39.062500
6415,39.062500
6416,39.062500
6417,39.062500
6418,39.062500
6419,39.062500
6420,39.062500
6421,39.062500
6422,35.156250
6423,35.156250
6424,35.156250
6425,35.156250
6426,35.156250
6427,35.156250
6428,35.156250
6429,35.156250
6430,35.156250
6431,35.156250
6432,35.156250
6433,31.250000
6434,31.250000
6435,31.250000
6436,31.250000
6437,31.250000
6438,31.250000
6439,31.250000
6440,31.250000
6441,27.343750
6442,27.343750
6443,27.343750
6444,27.343750
6445,27.343750
6446,27.343750
6447,27.343750
6448,23.437500
6449,23.437500
6450,23.437500
6451,23.437500
6452,23.437500
6453,23.437500
6454,23.437500
6455,23.437500
6456,19.531250
6457,19.531250
6458,19.531250
6459,19.531250
6460,19.531250
6461,19.531250
6462,19.531250
6463,19.531250
6464,19.531250
6465,15.625000
6466,15.625000
6467,15.625000
6468,15.625000
6469,15.625000
6470,15.625000
6471,15.625000
6472,11.718750
6473,11.718750
6474,11.718750
6475,11.718750
6476,11.718750
6477,11.718750
6478,11.718750
6479,7.812500
6480,7.812500
6481,7.812500
6482,7.812500
6483,7.812500
6484,7.812500
6485,7.812500
6486,3.906250
6487,3.906250
6488,3.906250
6489,3.906250
6490,3.906250
6491,3.906250
6492,3.906250
6493,3.906250
6494,0.000000
6495,0.000000
6496,0.000000
6497,0.000000
6498,0.000000
6499,0.000000
6500,-3.906250
6501,-3.906250
6502,-3.906250
6503,-3.906250
6504,-3.906250
6505,-3.906250
6506,-3.906250
6507,-3.906250
6508,-7.812500
6509,-7.812500
6510,-7.812500
6511,-7.812500
6512,-7.812500
6513,-7.812500
6514,-11.718750
6515,-11.718750
6516,-11.718750
6517,-11.718750
6518,-11.718750
6519,-11.718750
6520,-11.718750
6521,-15.625000
6522,-15.625000
6523,-15.625000
6524,-15.625000
6525,-15.625000
6526,-15.625000
6527,-15.625000
6528,-15.625000
6529,-19.531250
6530,-19.531250
6531,-19.531250
6532,-19.531250
6533,-19.531250
6534,-23.437500
6535,-19.531250
6536,-23.437500
6537,-23.437500
6538,-23.437500
6539,-23.437500
6540,-23.437500
6541,-23.437500
6542,-27.343750
6543,-27.343750
6544,-27.343750
6545,-27.343750
6546,-27.343750
6547,-27.343750
6548,-27.343750
6549,-31.250000
6550,-31.250000
6551,-31.250000
6552,-31.250000
6553,-31.250000
6554,-31.250000
6555,-31.250000
6556,-35.156250
6557,-35.156250
6558,-35.156250
6559,-35.156250
6560,-35.156250
6561,-35.156250
6562,-39.062500
6563,-39.062500
6564,-39.062500
6565,-39.062500
6566,-39.062500
6567,-39.062500
6568,-39.062500
6569,-39.062500
6570,-42.968750
6571,-42.968750
6572,-42.968750
6573,-42.968750
6574,-42.968750
6575,-42.968750
6576,-42.968750
6577,-46.875000
6578,-46.875000
6579,-46.875000
6580,-46.875000
6581,-46.875000
6582,-50.781250
6583,-46.875000
6584,-50.781250
6585,-50.781250
6586,-50.781250
6587,-50.781250
6588,-50.781250
6589,-50.781250
6590,-50.781250
6591,-54.687500
6592,-54.687500
6593,-54.687500
6594,-54.687500
6595,-54.687500
6596,-54.687500
6597,-54.687500
6598,-54.687500
6599,-54.687500
6600,-58.593750
6601,-58.593750
6602,-58.593750
6603,-58.593750
6604,-58.593750
6605,-58.593750
6606,-62.500000
6607,-62.500000
6608,-62.500000
6609,-62.500000
6610,-62.500000
6611,-62.500000
6612,-62.500000
6613,-62.500000
6614,-66.406250
6615,-66.406250
6616,-66.406250
6617,-66.406250
6618,-66.406250
6619,-66.406250
6620,-66.406250
6621,-66.406250
6622,-70.312500
6623,-70.312500
6624,-70.312500
6625,-70.312500
6626,-70.312500
6627,-70.312500
6628,-70.312500
6629,-70.312500
6630,-74.218750
6631,-74.218750
6632,-74.218750
6633,-74.218750
6634,-74.218750
6635,-74.218750
6636,-74.218750
6637,-74.218750
6638,-74.218750
6639,-74.218750
6640,-78.125000
6641,-78.125000
6642,-78.125000
6643,-78.125000
6644,-78.125000
6645,-78.125000
6646,-78.125000
6647,-78.125000
6648,-78.125000
6649,-82.031250
6650,-82.031250
6651,-82.031250
6652,-82.031250
6653,-82.031250
6654,-82.031250
6655,-82.031250
6656,-82.031250
6657,-82.031250
6658,-82.031250
6659,-82.031250
6660,-85.937500
6661,-85.937500
6662,-85.937500
6663,-85.937500
6664,-85.937500
6665,-85.937500
6666,-85.937500
6667,-85.937500
6668,-85.937500
6669,-85.937500
6670,-85.937500
6671,-89.843750
6672,-89.843750
6673,-89.843750
6674,-89.843750
6675,-89.843750
6676,-89.843750
6677,-89.843750
6678,-89.843750
6679,-89.843750
6680,-89.843750
6681,-89.843750
6682,-93.750000
6683,-89.843750
6684,-93.750000
6685,-93.750000
6686,-93.750000
6687,-93.750000
6688,-93.750000
6689,-93.750000
6690,-93.750000
6691,-93.750000
6692,-93.750000
6693,-93.750000
6694,-93.750000
6695,-93.750000
6696,-93.750000
6697,-93.750000
6698,-97.656250
6699,-93.750000
6700,-97.656250
6701,-97.656250
6702,-97.656250
6703,-97.656250
6704,-97.656250
6705,-97.656250
6706,-97.656250
6707,-97.656250
6708,-97.656250
6709,-97.656250
6710,-97.656250
6711,-97.656250
6712,-97.656250
6713,-97.656250
6714,-97.656250
6715,-97.656250
6716,-97.656250
6717,-101.562500
6718,-101.562500
6719,-101.562500
6720,-101.562500
6721,-101.562500
6722,-101.562500
6723,-101.562500
6724,-101.562500
6725,-101.562500
6726,-101.562500
6727,-101.562500
6728,-101.562500
6729,-101.562500
6730,-101.562500
6731,-101.562500
6732,-101.562500
6733,-101.562500
6734,-101.562500
6735,-101.562500
6736,-101.562500
6737,-101.562500
6738,-101.562500
6739,-101.562500
6740,-101.562500
6741,-101.562500
6742,-101.562500
6743,-101.562500
6744,-101.562500
6745,-101.562500
6746,-105.468750
6747,-101.562500
6748,-101.562500
6749,-101.562500
6750,-101.562500
6751,-101.562500
6752,-101.562500
6753,-101.562500
6754,-105.468750
6755,-105.468750
6756,-105.468750
6757,-105.468750
6758,-105.468750
6759,-101.562500
6760,-101.562500
6761,-101.562500
6762,-101.562500
6763,-101.562500
6764,-105.468750
6765,-101.562500
6766,-101.562500
6767,-101.562500
6768,-101.562500
6769,-101.562500
6770,-101.562500
6771,-101.562500
6772,-101.562500
6773,-101.562500
6774,-101.562500
6775,-101.562500
6776,-101.562500
6777,-101.562500
6778,-101.562500
6779,-101.562500
6780,-101.562500
6781,-101.562500
6782,-101.562500
6783,-101.562500
6784,-101.562500
6785,-101.562500
6786,-101.562500
6787,-101.562500
6788,-101.562500
6789,-101.562500
6790,-101.562500
6791,-101.562500
6792,-101.562500
6793,-101.562500
6794,-101.562500
6795,-101.562500
6796,-101.562500
6797,-101.562500
6798,-101.562500
6799,-101.562500
6800,-101.562500
6801,-101.562500
6802,-101.562500
6803,-97.656250
6804,-97.656250
6805,-97.656250
6806,-97.656250
6807,-97.656250
6808,-97.656250
6809,-97.656250
6810,-97.656250
6811,-97.656250
6812,-97.656250
6813,-97.656250
6814,-97.656250
6815,-97.656250
6816,-97.656250
6817,-97.656250
6818,-97.656250
6819,-97.656250
6820,-97.656250
6821,-93.750000
6822,-93.750000
6823,-93.750000
6824,-93.750000
6825,-93.750000
6826,-93.750000
6827,-93.750000
6828,-93.750000
6829,-93.750000
6830,-93.750000
6831,-93.750000
6832,-93.750000
6833,-93.750000
6834,-93.750000
6835,-93.750000
6836,-89.843750
6837,-89.843750
6838,-89.843750
6839,-89.843750
6840,-89.843750
6841,-89.843750
6842,-89.843750
6843,-89.843750
6844,-89.843750
6845,-89.843750
6846,-89.843750
6847,-89.843750
6848,-89.843750
6849,-85.937500
6850,-85.937500
6851,-85.937500
6852,-85.937500
6853,-85.937500
6854,-85.937500
6855,-85.937500
6856,-85.937500
6857,-85.937500
6858,-85.937500
6859,-85.937500
6860,-85.937500
6861,-82.031250
6862,-85.937500
6863,-82.031250
6864,-82.031250
6865,-82.031250
6866,-82.031250
6867,-82.031250
6868,-82.031250
6869,-82.031250
6870,-82.031250
6871,-78.125000
6872,-82.031250
6873,-78.125000
6874,-78.125000
6875,-78.125000
6876,-78.125000
6877,-78.125000
6878,-78.125000
6879,-78.125000
6880,-74.218750
6881,-74.218750
6882,-74.218750
6883,-74.218750
6884,-74.218750
6885,-74.218750
6886,-74.218750
6887,-74.218750
6888,-74.218750
6889,-74.218750
6890,-70.312500
6891,-70.312500
6892,-70.312500
6893,-70.312500
6894,-70.312500
6895,-70.312500
6896,-70.312500
6897,-70.312500
6898,-70.312500
6899,-66.406250
6900,-66.406250
6901,-66.406250
6902,-66.406250
6903,-66.406250
6904,-66.406250
6905,-62.500000
6906,-62.500000
6907,-62.500000
6908,-62.500000
6909,-62.500000
6910,-62.500000
6911,-62.500000
6912,-62.500000
6913,-58.593750
6914,-62.500000
6915,-58.593750
6916,-58.593750
6917,-58.593750
6918,-58.593750
6919,-58.593750
6920,-58.593750
6921,-58.593750
6922,-54.687500
6923,-54.687500
6924,-54.687500
6925,-54.687500
6926,-54.687500
6927,-54.687500
6928,-54.687500
6929,-54.687500
6930,-50.781250
6931,-50.781250
6932,-50.781250
6933,-50.781250
6934,-50.781250
6935,-46.875000
6936,-46.875000
6937,-46.875000
6938,-46.875000
6939,-46.875000
6940,-46.875000
6941,-46.875000
6942,-46.875000
6943,-42.968750
6944,-42.968750
6945,-42.968750
6946,-42.968750
6947,-42.968750
6948,-42.968750
6949,-42.968750
6950,-42.968750
6951,-42.968750
6952,-39.062500
6953,-39.062500
6954,-39.062500
6955,-39.062500
6956,-39.062500
6957,-35.156250
6958,-35.156250
6959,-35.156250
6960,-35.156250
6961,-35.156250
6962,-35.156250
6963,-35.156250
6964,-35.156250
6965,-31.250000
6966,-31.250000
6967,-31.250000
6968,-31.250000
6969,-31.250000
6970,-31.250000
6971,-31.250000
6972,-27.343750
6973,-27.343750
6974,-27.343750
6975,-27.343750
6976,-27.343750
6977,-27.343750
6978,-27.343750
6979,-23.437500
6980,-23.437500
6981,-23.437500
6982,-23.437500
6983,-23.437500
6984,-23.437500
6985,-19.531250
6986,-19.531250
6987,-19.531250
6988,-19.531250
6989,-19.531250
6990,-19.531250
6991,-19.531250
6992,-19.531250
6993,-19.531250
6994,-15.625000
6995,-15.625000
6996,-15.625000
6997,-15.625000
6998,-15.625000
6999,-11.718750
7000,-11.718750
7001,-11.718750
7002,-11.718750
7003,-11.718750
7004,-11.718750
7005,-7.812500
7006,-7.812500
7007,-7.812500
7008,-7.812500
7009,-7.812500
7010,-7.812500
7011,-7.812500
7012,-7.812500
7013,-3.906250
7014,-3.906250
7015,-3.906250
7016,-3.906250
7017,-3.906250
7018,-3.906250
7019,-3.906250
7020,-3.906250
7021,0.000000
7022,0.000000
7023,0.000000
7024,0.000000
7025,0.000000
7026,0.000000
7027,3.906250
7028,3.906250
7029,3.906250
7030,3.906250
7031,3.906250
7032,3.906250
7033,3.906250
7034,7.812500
7035,7.812500
7036,7.812500
7037,7.812500
7038,7.812500
7039,7.812500
7040,7.812500
7041,11.718750
7042,11.718750
7043,11.718750
7044,11.718750
7045,11.718750
7046,11.718750
7047,11.718750
7048,11.718750
7049,15.625000
7050,15.625000
7051,15.625000
7052,15.625000
7053,15.625000
7054,15.625000
7055,15.625000
7056,19.531250
7057,19.531250
7058,19.531250
7059,19.531250
7060,19.531250
7061,19.531250
7062,19.531250
7063,19.531250
7064,23.437500
7065,23.437500
7066,23.437500
7067,23.437500
7068,23.437500
7069,23.437500
7070,23.437500
7071,23.437500
7072,23.437500
7073,27.343750
7074,27.343750
7075,27.343750
7076,27.343750
7077,27.343750
7078,27.343750
7079,27.343750
7080,31.250000
7081,31.250000
7082,31.250000
7083,31.250000
7084,31.250000
7085,31.250000
7086,31.250000
7087,31.250000
7088,31.250000
7089,35.156250
7090,35.156250
7091,35.156250
7092,35.156250
7093,35.156250
7094,35.156250
7095,35.156250
7096,35.156250
7097,35.156250
7098,35.156250
7099,39.062500
7100,39.062500
7101,39.062500
7102,39.062500
7103,39.062500
7104,39.062500
7105,39.062500
7106,42.968750
7107,42.968750
7108,42.968750
7109,42.968750
7110,42.968750
7111,42.968750
7112,42.968750
7113,42.968750
7114,42.968750
7115,42.968750
7116,42.968750
7117,46.875000
7118,46.875000
7119,46.875000
7120,46.875000
7121,46.875000
7122,46.875000
7123,46.875000
7124,46.875000
7125,46.875000
7126,46.875000
7127,50.781250
7128,50.781250
7129,50.781250
7130,50.781250
7131,50.781250
7132,50.781250
7133,50.781250
7134,50.781250
7135,50.781250
7136,50.781250
7137,50.781250
7138,50.781250
7139,54.687500
7140,54.687500
7141,54.687500
7142,54.687500
7143,54.687500
7144,54.687500
7145,54.687500
7146,54.687500
7147,54.687500
7148,54.687500
7149,58.593750
7150,58.593750
7151,58.593750
7152,58.593750
7153,58.593750
7154,58.593750
7155,58.593750
7156,58.593750
7157,58.593750
7158,58.593750
7159,58.593750
7160,58.593750
7161,58.593750
7162,62.500000
7163,62.500000
7164,62.500000
7165,62.500000
7166,62.500000
7167,62.500000
7168,62.500000
7169,62.500000
7170,62.500000
7171,62.500000
7172,62.500000
7173,62.500000
7174,62.500000
7175,62.500000
7176,62.500000
7177,62.500000
7178,62.500000
7179,66.406250
7180,66.406250
7181,66.406250
7182,66.406250
7183,66.406250
7184,66.406250
7185,66.406250
7186,66.406250
7187,66.406250
7188,66.406250
7189,66.406250
7190,66.406250
7191,66.406250
7192,66.406250
7193,66.406250
7194,66.406250
7195,66.406250
7196,66.406250
7197,66.406250
7198,70.312500
7199,70.312500
7200,70.312500
7201,70.312500
7202,70.312500
7203,70.312500
7204,70.312500
7205,70.312500
7206,70.312500
7207,70.312500
7208,70.312500
7209,70.312500
7210,70.312500
7211,70.312500
7212,70.312500
7213,70.312500
7214,70.312500
7215,70.312500
7216,70.312500
7217,70.312500
7218,70.312500
7219,74.218750
7220,70.312500
7221,74.218750
7222,74.218750
7223,70.312500
7224,70.312500
7225,70.312500
7226,70.312500
7227,74.218750
7228,70.312500
7229,74.218750
7230,74.218750
7231,74.218750
7232,70.312500
7233,74.218750
7234,70.312500
7235,74.218750
7236,74.218750
7237,74.218750
7238,70.312500
7239,74.218750
7240,74.218750
7241,74.218750
7242,74.218750
7243,74.218750
7244,74.218750
7245,74.218750
7246,74.218750
7247,74.218750
7248,74.218750
7249,74.218750
7250,74.218750
7251,74.218750
7252,74.218750
7253,74.218750
7254,74.218750
7255,74.218750
7256,74.218750
7257,74.218750
7258,74.218750
7259,74.218750
7260,74.218750
7261,74.218750
7262,74.218750
7263,74.218750
7264,74.218750
7265,74.218750
7266,74.218750
7267,74.218750
7268,74.218750
7269,74.218750
7270,74.218750
7271,74.218750
7272,74.218750
7273,74.218750
7274,74.218750
7275,74.218750
7276,74.218750
7277,74.218750
7278,74.218750
7279,74.218750
7280,70.312500
7281,74.218750
7282,74.218750
7283,74.218750
7284,70.312500
7285,70.312500
7286,70.312500
7287,70.312500
7288,70.312500
7289,70.312500
7290,70.312500
7291,70.312500
7292,70.312500
7293,70.312500
7294,70.312500
7295,70.312500
7296,70.312500
7297,70.312500
7298,70.312500
7299,70.312500
7300,70.312500
7301,70.312500
7302,70.312500
7303,70.312500
7304,70.312500
7305,70.312500
7306,70.312500
7307,70.312500
7308,70.312500
7309,70.312500
7310,70.312500
7311,70.312500
7312,70.312500
7313,70.312500
7314,66.406250
7315,66.406250
7316,66.406250
7317,70.312500
7318,66.406250
7319,66.406250
7320,66.406250
7321,66.406250
7322,66.406250
7323,66.406250
7324,66.406250
7325,66.406250
7326,66.406250
7327,66.406250
7328,66.406250
7329,66.406250
7330,66.406250
7331,66.406250
7332,62.500000
7333,66.406250
7334,62.500000
7335,66.406250
7336,62.500000
7337,62.500000
7338,62.500000
7339,62.500000
7340,62.500000
7341,62.500000
7342,62.500000
7343,62.500000
7344,62.500000
7345,62.500000
7346,62.500000
7347,62.500000
7348,58.593750
7349,62.500000
7350,58.593750
7351,58.593750
7352,58.593750
7353,58.593750
7354,58.593750
7355,58.593750
7356,58.593750
7357,58.593750
7358,58.593750
7359,58.593750
7360,58.593750
7361,58.593750
7362,54.687500
7363,54.687500
7364,54.687500
7365,54.687500
7366,54.687500
7367,54.687500
7368,54.687500
7369,54.687500
7370,54.687500
7371,54.687500
7372,54.687500
7373,50.781250
7374,54.687500
7375,50.781250
7376,50.781250
7377,50.781250
7378,50.781250
7379,50.781250
7380,50.781250
7381,50.781250
7382,50.781250
7383,50.781250
7384,46.875000
7385,46.875000
7386,46.875000
7387,46.875000
7388,46.875000
7389,46.875000
7390,46.875000
7391,46.875000
7392,46.875000
7393,46.875000
7394,42.968750
7395,42.968750
7396,42.968750
7397,42.968750
7398,42.968750
7399,42.968750
7400,42.968750
7401,42.968750
7402,42.968750
7403,42.968750
7404,42.968750
7405,39.062500
7406,39.062500
7407,39.062500
7408,39.062500
7409,39.062500
7410,39.062500
7411,39.062500
7412,39.062500
7413,39.062500
7414,39.062500
7415,35.156250
7416,35.156250
7417,35.156250
7418,35.156250
7419,35.156250
7420,35.156250
7421,35.156250
7422,35.156250
7423,31.250000
7424,31.250000
7425,31.250000
7426,31.250000
7427,31.250000
7428,31.250000
7429,31.250000
7430,31.250000
7431,27.343750
7432,27.343750
7433,27.343750
7434,27.343750
7435,27.343750
7436,27.343750
7437,27.343750
7438,23.437500
7439,27.343750
7440,23.437500
7441,23.437500
7442,23.437500
7443,23.437500
7444,23.437500
7445,23.437500
7446,23.437500
7447,19.531250
7448,19.531250
7449,19.531250
7450,19.531250
7451,19.531250
7452,19.531250
7453,19.531250
7454,19.531250
7455,15.625000
7456,15.625000
7457,15.625000
7458,15.625000
7459,15.625000
7460,15.625000
7461,15.625000
7462,11.718750
7463,11.718750
7464,11.718750
7465,11.718750
7466,11.718750
7467,11.718750
7468,11.718750
7469,11.718750
7470,7.812500
7471,7.812500
7472,7.812500
7473,7.812500
7474,7.812500
7475,7.812500
7476,7.812500
7477,7.812500
7478,3.906250
7479,3.906250
7480,3.906250
7481,3.906250
7482,3.906250
7483,3.906250
7484,3.906250
7485,3.906250
7486,0.000000
7487,0.000000
7488,0.000000
7489,0.000000
7490,0.000000
7491,0.000000
7492,-3.906250
7493,-3.906250
7494,-3.906250
7495,-3.906250
7496,-3.906250
7497,-3.906250
7498,-7.812500
7499,-7.812500
7500,-7.812500
7501,-7.812500
7502,-7.812500
7503,-7.812500
7504,-7.812500
7505,-11.718750
7506,-11.718750
7507,-11.718750
7508,-11.718750
7509,-11.718750
7510,-11.718750
7511,-11.718750
7512,-11.718750
7513,-15.625000
7514,-19.531250
7515,-15.625000
7516,-15.625000
7517,-19.531250
7518,-15.625000
7519,-19.531250
7520,-19.531250
7521,-19.531250
7522,-19.531250
7523,-19.531250
7524,-19.531250
7525,-23.437500
7526,-23.437500
7527,-23.437500
7528,-23.437500
7529,-23.437500
7530,-23.437500
7531,-23.437500
7532,-27.343750
7533,-27.343750
7534,-27.343750
7535,-27.343750
7536,-27.343750
7537,-27.343750
7538,-27.343750
7539,-31.250000
7540,-31.250000
7541,-31.250000
7542,-31.250000
7543,-31.250000
7544,-31.250000
7545,-35.156250
7546,-35.156250
7547,-35.156250
7548,-35.156250
7549,-35.156250
7550,-35.156250
7551,-35.156250
7552,-35.156250
7553,-35.156250
7554,-39.062500
7555,-39.062500
7556,-39.062500
7557,-39.062500
7558,-39.062500
7559,-39.062500
7560,-42.968750
7561,-42.968750
7562,-42.968750
7563,-42.968750
7564,-42.968750
7565,-42.968750
7566,-46.875000
7567,-46.875000
7568,-46.875000
7569,-46.875000
7570,-46.875000
7571,-46.875000
7572,-46.875000
7573,-50.781250
7574,-50.781250
7575,-50.781250
7576,-50.781250
7577,-50.781250
7578,-50.781250
7579,-50.781250
7580,-50.781250
7581,-54.687500
7582,-54.687500
7583,-54.687500
7584,-54.687500
7585,-54.687500
7586,-50.781250
7587,-54.687500
7588,-54.687500
7589,-58.593750
7590,-58.593750
7591,-58.593750
7592,-58.593750
7593,-58.593750
7594,-58.593750
7595,-58.593750
7596,-58.593750
7597,-62.500000
7598,-62.500000
7599,-62.500000
7600,-62.500000
7601,-62.500000
7602,-62.500000
7603,-62.500000
7604,-66.406250
7605,-66.406250
7606,-66.406250
7607,-66.406250
7608,-66.406250
7609,-66.406250
7610,-66.406250
7611,-70.312500
7612,-70.312500
7613,-70.312500
7614,-70.312500
7615,-70.312500
7616,-70.312500
7617,-70.312500
7618,-70.312500
7619,-70.312500
7620,-74.218750
7621,-74.218750
7622,-74.218750
7623,-74.218750
7624,-74.218750
7625,-74.218750
7626,-74.218750
7627,-74.218750
7628,-78.125000
7629,-78.125000
7630,-78.125000
7631,-78.125000
7632,-78.125000
7633,-78.125000
7634,-78.125000
7635,-78.125000
7636,-78.125000
7637,-82.031250
7638,-82.031250
7639,-82.031250
7640,-82.031250
7641,-82.031250
7642,-82.031250
7643,-82.031250
7644,-85.937500
7645,-82.031250
7646,-82.031250
7647,-82.031250
7648,-85.937500
7649,-85.937500
7650,-85.937500
7651,-85.937500
7652,-85.937500
7653,-85.937500
7654,-85.937500
7655,-85.937500
7656,-85.937500
7657,-89.843750
7658,-85.937500
7659,-89.843750
7660,-89.843750
7661,-89.843750
7662,-89.843750
7663,-89.843750
7664,-89.843750
7665,-89.843750
7666,-89.843750
7667,-89.843750
7668,-89.843750
7669,-89.843750
7670,-93.750000
7671,-93.750000
7672,-93.750000
7673,-93.750000
7674,-93.750000
7675,-93.750000
7676,-93.750000
7677,-93.750000
7678,-93.750000
7679,-93.750000
7680,-93.750000
7681,-93.750000
7682,-93.750000
7683,-93.750000
7684,-97.656250
7685,-93.750000
7686,-97.656250
7687,-97.656250
7688,-97.656250
7689,-97.656250
7690,-97.656250
7691,-97.656250
7692,-97.656250
7693,-97.656250
7694,-97.656250
7695,-97.656250
7696,-97.656250
7697,-97.656250
7698,-97.656250
7699,-97.656250
7700,-97.656250
7701,-97.656250
7702,-97.656250
7703,-97.656250
7704,-101.562500
7705,-101.562500
7706,-101.562500
7707,-101.562500
7708,-101.562500
7709,-101.562500
7710,-101.562500
7711,-101.562500
7712,-101.562500
7713,-101.562500
7714,-101.562500
7715,-101.562500
7716,-101.562500
7717,-101.562500
7718,-101.562500
7719,-101.562500
7720,-101.562500
7721,-101.562500
7722,-101.562500
7723,-101.562500
7724,-101.562500
7725,-101.562500
7726,-101.562500
7727,-101.562500
7728,-101.562500
7729,-101.562500
7730,-101.562500
7731,-101.562500
7732,-105.468750
7733,-105.468750
7734,-105.468750
7735,-101.562500
7736,-101.562500
7737,-101.562500
7738,-101.562500
7739,-101.562500
7740,-101.562500
7741,-105.468750
7742,-105.468750
7743,-105.468750
7744,-105.468750
7745,-101.562500
7746,-105.468750
7747,-105.468750
7748,-105.468750
7749,-101.562500
7750,-101.562500
7751,-101.562500
7752,-105.468750
7753,-105.468750
7754,-105.468750
7755,-105.468750
7756,-105.468750
7757,-101.562500
7758,-101.562500
7759,-101.562500
7760,-105.468750
7761,-101.562500
7762,-105.468750
7763,-105.468750
7764,-101.562500
7765,-101.562500
7766,-101.562500
7767,-101.562500
7768,-105.468750
7769,-101.562500
7770,-101.562500
7771,-101.562500
7772,-101.562500
7773,-101.562500
7774,-101.562500
7775,-101.562500
7776,-101.562500
7777,-101.562500
7778,-101.562500
7779,-101.562500
7780,-101.562500
7781,-101.562500
7782,-101.562500
7783,-101.562500
7784,-101.562500
7785,-101.562500
7786,-101.562500
7787,-101.562500
7788,-101.562500
7789,-101.562500
7790,-101.562500
7791,-101.562500
7792,-101.562500
7793,-101.562500
7794,-101.562500
7795,-101.562500
7796,-101.562500
7797,-97.656250
7798,-101.562500
7799,-97.656250
7800,-97.656250
7801,-97.656250
7802,-97.656250
7803,-97.656250
7804,-97.656250
7805,-97.656250
7806,-97.656250
7807,-97.656250
7808,-97.656250
7809,-97.656250
7810,-97.656250
7811,-97.656250
7812,-97.656250
7813,-93.750000
7814,-93.750000
7815,-93.750000
7816,-93.750000
7817,-93.750000
7818,-93.750000
7819,-93.750000
7820,-93.750000
7821,-93.750000
7822,-93.750000
7823,-93.750000
7824,-93.750000
7825,-93.750000
7826,-93.750000
7827,-93.750000
7828,-89.843750
7829,-89.843750
7830,-89.843750
7831,-89.843750
7832,-89.843750
7833,-89.843750
7834,-89.843750
7835,-89.843750
7836,-89.843750
7837,-89.843750
7838,-89.843750
7839,-85.937500
7840,-85.937500
7841,-85.937500
7842,-85.937500
7843,-85.937500
7844,-85.937500
7845,-85.937500
7846,-85.937500
7847,-85.937500
7848,-85.937500
7849,-85.937500
7850,-82.031250
7851,-82.031250
7852,-82.031250
7853,-82.031250
7854,-82.031250
7855,-82.031250
7856,-82.031250
7857,-82.031250
7858,-82.031250
7859,-82.031250
7860,-78.125000
7861,-78.125000
7862,-78.125000
7863,-78.125000
7864,-78.125000
7865,-78.125000
7866,-78.125000
7867,-78.125000
7868,-78.125000
7869,-78.125000
7870,-78.125000
7871,-74.218750
7872,-74.218750
7873,-74.218750
7874,-74.218750
7875,-74.218750
7876,-74.218750
7877,-74.218750
7878,-74.218750
7879,-74.218750
7880,-70.312500
7881,-70.312500
7882,-70.312500
7883,-70.312500
7884,-70.312500
7885,-70.312500
7886,-70.312500
7887,-66.406250
7888,-66.406250
7889,-66.406250
7890,-66.406250
7891,-66.406250
7892,-66.406250
7893,-66.406250
7894,-66.406250
7895,-66.406250
7896,-66.406250
7897,-62.500000
7898,-62.500000
7899,-62.500000
7900,-62.500000
7901,-62.500000
7902,-62.500000
7903,-62.500000
7904,-58.593750
7905,-58.593750
7906,-58.593750
7907,-58.593750
7908,-58.593750
7909,-58.593750
7910,-58.593750
7911,-54.687500
7912,-54.687500
7913,-54.687500
7914,-54.687500
7915,-54.687500
7916,-54.687500
7917,-54.687500
7918,-50.781250
7919,-50.781250
7920,-50.781250
7921,-50.781250
7922,-50.781250
7923,-50.781250
7924,-50.781250
7925,-50.781250
7926,-46.875000
7927,-46.875000
7928,-46.875000
7929,-46.875000
7930,-46.875000
7931,-46.875000
7932,-46.875000
7933,-42.968750
7934,-42.968750
7935,-42.968750
7936,-42.968750
7937,-42.968750
7938,-42.968750
7939,-42.968750
7940,-42.968750
7941,-39.062500
7942,-39.062500
7943,-39.062500
7944,-39.062500
7945,-39.062500
7946,-39.062500
7947,-35.156250
7948,-35.156250
7949,-35.156250
7950,-35.156250
7951,-35.156250
7952,-35.156250
7953,-35.156250
7954,-31.250000
7955,-31.250000
7956,-31.250000
7957,-31.250000
7958,-31.250000
7959,-31.250000
7960,-31.250000
7961,-31.250000
7962,-27.343750
7963,-27.343750
7964,-27.343750
7965,-27.343750
7966,-27.343750
7967,-27.343750
7968,-23.437500
7969,-23.437500
7970,-23.437500
7971,-23.437500
7972,-23.437500
7973,-23.437500
7974,-23.437500
7975,-19.531250
7976,-19.531250
7977,-19.531250
7978,-19.531250
7979,-19.531250
7980,-19.531250
7981,-19.531250
7982,-15.625000
7983,-15.625000
7984,-15.625000
7985,-15.625000
7986,-15.625000
7987,-15.625000
7988,-15.625000
7989,-11.718750
7990,-11.718750
7991,-11.718750
7992,-11.718750
7993,-11.718750
7994,-11.718750
7995,-7.812500
7996,-7.812500
7997,-7.812500
7998,-7.812500
7999,-7.812500
8000,-7.812500
8001,-7.812500
8002,-7.812500
8003,-3.906250
8004,-3.906250
8005,-3.906250
8006,-3.906250
8007,-3.906250
8008,-3.906250
8009,-3.906250
8010,0.000000
8011,0.000000
8012,0.000000
8013,0.000000
8014,0.000000
8015,0.000000
8016,0.000000
8017,3.906250
8018,3.906250
8019,3.906250
8020,3.906250
8021,3.906250
8022,3.906250
8023,3.906250
8024,3.906250
8025,7.812500
8026,7.812500
8027,7.812500
8028,7.812500
8029,7.812500
8030,7.812500
8031,11.718750
8032,11.718750
8033,11.718750
8034,11.718750
8035,11.718750
8036,11.718750
8037,11.718750
8038,11.718750
8039,15.625000
8040,15.625000
8041,15.625000
8042,15.625000
8043,15.625000
8044,15.625000
8045,19.531250
8046,15.625000
8047,19.531250
8048,19.531250
8049,19.531250
8050,19.531250
8051,19.531250
8052,19.531250
8053,19.531250
8054,23.437500
8055,23.437500
8056,23.437500
8057,23.437500
8058,23.437500
8059,23.437500
8060,23.437500
8061,23.437500
8062,27.343750
8063,27.343750
8064,27.343750
8065,27.343750
8066,27.343750
8067,27.343750
8068,27.343750
8069,31.250000
8070,31.250000
8071,31.250000
8072,31.250000
8073,31.250000
8074,31.250000
8075,31.250000
8076,31.250000
8077,31.250000
8078,35.156250
8079,35.156250
8080,35.156250
8081,35.156250
8082,35.156250
8083,35.156250
8084,35.156250
8085,35.156250
8086,39.062500
8087,39.062500
8088,39.062500
8089,39.062500
8090,39.062500
8091,39.062500
8092,39.062500
8093,39.062500
8094,39.062500
8095,42.968750
8096,42.968750
8097,42.968750
8098,42.968750
8099,42.968750
8100,42.968750
8101,42.968750
8102,42.968750
8103,42.968750
8104,42.968750
8105,42.968750
8106,46.875000
8107,46.875000
8108,46.875000
8109,46.875000
8110,46.875000
8111,46.875000
8112,46.875000
8113,46.875000
8114,46.875000
8115,46.875000
8116,46.875000
8117,50.781250
8118,50.781250
8119,50.781250
8120,50.781250
8121,50.781250
8122,50.781250
8123,50.781250
8124,50.781250
8125,50.781250
8126,50.781250
8127,54.687500
8128,54.687500
8129,54.687500
8130,54.687500
8131,54.687500
8132,54.687500
8133,54.687500
8134,54.687500
8135,54.687500
8136,54.687500
8137,54.687500
8138,54.687500
8139,58.593750
8140,58.593750
8141,58.593750
8142,58.593750
8143,58.593750
8144,58.593750
8145,58.593750
8146,58.593750
8147,58.593750
8148,58.593750
8149,58.593750
8150,58.593750
8151,58.593750
8152,58.593750
8153,62.500000
8154,62.500000
8155,62.500000
8156,62.500000
8157,62.500000
8158,62.500000
8159,62.500000
8160,62.500000
8161,62.500000
8162,62.500000
8163,62.500000
8164,62.500000
8165,62.500000
8166,62.500000
8167,62.500000
8168,62.500000
8169,66.406250
8170,66.406250
8171,66.406250
8172,66.406250
8173,66.406250
8174,66.406250
8175,66.406250
8176,66.406250
8177,66.406250
8178,66.406250
8179,66.406250
8180,66.406250
8181,66.406250
8182,66.406250
8183,66.406250
8184,66.406250
8185,66.406250
8186,66.406250
8187,70.312500
8188,70.312500
8189,70.312500
8190,70.312500
8191,70.312500
8192,70.312500
8193,70.312500
8194,70.312500
8195,70.312500
8196,70.312500
8197,70.312500
8198,70.312500
8199,70.312500
8200,70.312500
8201,70.312500
8202,70.312500
8203,70.312500
8204,70.312500
8205,70.312500
8206,70.312500
8207,70.312500
8208,70.312500
8209,70.312500
8210,70.312500
8211,70.312500
8212,70.312500
8213,70.312500
8214,70.312500
8215,70.312500
8216,70.312500
8217,70.312500
8218,70.312500
8219,74.218750
8220,70.312500
8221,74.218750
8222,74.218750
8223,74.218750
8224,74.218750
8225,74.218750
8226,74.218750
8227,74.218750
8228,74.218750
8229,74.218750
8230,74.218750
8231,74.218750
8232,74.218750
8233,74.218750
8234,74.218750
8235,74.218750
8236,74.218750
8237,74.218750
8238,74.218750
8239,74.218750
8240,74.218750
8241,74.218750
8242,74.218750
8243,74.218750
8244,74.218750
8245,74.218750
8246,74.218750
8247,74.218750
8248,74.218750
8249,74.218750
8250,74.218750
8251,74.218750
8252,74.218750
8253,74.218750
8254,74.218750
8255,74.218750
8256,74.218750
8257,74.218750
8258,74.218750
8259,74.218750
8260,74.218750
8261,74.218750
8262,74.218750
8263,74.218750
8264,70.312500
8265,74.218750
8266,70.312500
8267,74.218750
8268,70.312500
8269,74.218750
8270,70.312500
8271,74.218750
8272,70.312500
8273,70.312500
8274,70.312500
8275,70.312500
8276,70.312500
8277,70.312500
8278,74.218750
8279,70.312500
8280,70.312500
8281,70.312500
8282,70.312500
8283,70.312500
8284,70.312500
8285,70.312500
8286,70.312500
8287,70.312500
8288,70.312500
8289,70.312500
8290,70.312500
8291,70.312500
8292,70.312500
8293,70.312500
8294,70.312500
8295,70.312500
8296,70.312500
8297,70.312500
8298,70.312500
8299,70.312500
8300,66.406250
8301,66.406250
8302,66.406250
8303,70.312500
8304,66.406250
8305,66.406250
8306,66.406250
8307,66.406250
8308,66.406250
8309,66.406250
8310,66.406250
8311,66.406250
8312,66.406250
8313,66.406250
8314,66.406250
8315,66.406250
8316,66.406250
8317,66.406250
8318,66.406250
8319,66.406250
8320,66.406250
8321,66.406250
8322,62.500000
8323,62.500000
8324,62.500000
8325,62.500000
8326,62.500000
8327,62.500000
8328,62.500000
8329,62.500000
8330,62.500000
8331,62.500000
8332,62.500000
8333,62.500000
8334,62.500000
8335,62.500000
8336,62.500000
8337,58.593750
8338,58.593750
8339,62.500000
8340,58.593750
8341,58.593750
8342,58.593750
8343,58.593750
8344,58.593750
8345,58.593750
8346,58.593750
8347,58.593750
8348,58.593750
8349,58.593750
8350,58.593750
8351,58.593750
8352,54.687500
8353,54.687500
8354,54.687500
8355,54.687500
8356,54.687500
8357,54.687500
8358,54.687500
8359,54.687500
8360,54.687500
8361,54.687500
8362,50.781250
8363,54.687500
8364,54.687500
8365,50.781250
8366,50.781250
8367,50.781250
8368,50.781250
8369,50.781250
8370,50.781250
8371,50.781250
8372,50.781250
8373,50.781250
8374,50.781250
8375,46.875000
8376,46.875000
8377,46.875000
8378,46.875000
8379,46.875000
8380,46.875000
8381,46.875000
8382,46.875000
8383,46.875000
8384,46.875000
8385,46.875000
8386,42.968750
8387,42.968750
8388,42.968750
8389,42.968750
8390,42.968750
8391,42.968750
8392,42.968750
8393,42.968750
8394,39.062500
8395,39.062500
8396,39.062500
8397,39.062500
8398,39.062500
8399,39.062500
8400,39.062500
8401,39.062500
8402,39.062500
8403,35.156250
8404,35.156250
8405,35.156250
8406,35.156250
8407,35.156250
8408,35.156250
8409,35.156250
8410,35.156250
8411,35.156250
8412,31.250000
8413,31.250000
8414,31.250000
8415,31.250000
8416,31.250000
8417,31.250000
8418,31.250000
8419,31.250000
8420,27.343750
8421,27.343750
8422,27.343750
8423,27.343750
8424,27.343750
8425,27.343750
8426,27.343750
8427,27.343750
8428,23.437500
8429,23.437500
8430,23.437500
8431,23.437500
8432,23.437500
8433,23.437500
8434,23.437500
8435,23.437500
8436,19.531250
8437,19.531250
8438,19.531250
8439,19.531250
8440,19.531250
8441,19.531250
8442,19.531250
8443,19.531250
8444,15.625000
8445,15.625000
8446,15.625000
8447,15.625000
8448,15.625000
8449,15.625000
8450,15.625000
8451,11.718750
8452,11.718750
8453,11.718750
8454,11.718750
8455,11.718750
8456,11.718750
8457,11.718750
8458,11.718750
8459,7.812500
8460,7.812500
8461,7.812500
8462,7.812500
8463,7.812500
8464,7.812500
8465,7.812500
8466,3.906250
8467,3.906250
8468,3.906250
8469,3.906250
8470,3.906250
8471,3.906250
8472,3.906250
8473,0.000000
8474,0.000000
8475,0.000000
8476,0.000000
8477,0.000000
8478,0.000000
8479,0.000000
8480,-3.906250
8481,-3.906250
8482,-3.906250
8483,-3.906250
8484,-3.906250
8485,-3.906250
8486,-7.812500
8487,-7.812500
8488,-7.812500
8489,-7.812500
8490,-7.812500
8491,-7.812500
8492,-7.812500
8493,-7.812500
8494,-11.718750
8495,-11.718750
8496,-11.718750
8497,-11.718750
8498,-11.718750
8499,-11.718750
8500,-11.718750
8501,-11.718750
8502,-15.625000
8503,-15.625000
8504,-15.625000
8505,-15.625000
8506,-15.625000
8507,-15.625000
8508,-19.531250
8509,-19.531250
8510,-19.531250
8511,-19.531250
8512,-19.531250
8513,-19.531250
8514,-19.531250
8515,-23.437500
8516,-23.437500
8517,-23.437500
8518,-23.437500
8519,-23.437500
8520,-23.437500
8521,-27.343750
8522,-27.343750
8523,-27.343750
8524,-27.343750
8525,-27.343750
8526,-27.343750
8527,-27.343750
8528,-31.250000
8529,-31.250000
8530,-31.250000
8531,-31.250000
8532,-31.250000
8533,-31.250000
8534,-31.250000
8535,-35.156250
8536,-35.156250
8537,-35.156250
8538,-35.156250
8539,-35.156250
8540,-35.156250
8541,-35.156250
8542,-39.062500
8543,-39.062500
8544,-39.062500
8545,-39.062500
8546,-39.062500
8547,-39.062500
8548,-39.062500
8549,-39.062500
8550,-42.968750
8551,-42.968750
8552,-42.968750
8553,-42.968750
8554,-42.968750
8555,-42.968750
8556,-46.875000
8557,-46.875000
8558,-46.875000
8559,-46.875000
8560,-46.875000
8561,-46.875000
8562,-50.781250
8563,-46.875000
8564,-50.781250
8565,-50.781250
8566,-50.781250
8567,-50.781250
8568,-50.781250
8569,-54.687500
8570,-54.687500
8571,-54.687500
8572,-54.687500
8573,-54.687500
8574,-54.687500
8575,-54.687500
8576,-54.687500
8577,-54.687500
8578,-58.593750
8579,-58.593750
8580,-58.593750
8581,-58.593750
8582,-58.593750
8583,-58.593750
8584,-58.593750
8585,-62.500000
8586,-62.500000
8587,-62.500000
8588,-62.500000
8589,-62.500000
8590,-62.500000
8591,-62.500000
8592,-62.500000
8593,-62.500000
8594,-66.406250
8595,-66.406250
8596,-66.406250
8597,-66.406250
8598,-66.406250
8599,-66.406250
8600,-66.406250
8601,-70.312500
8602,-70.312500
8603,-70.312500
8604,-70.312500
8605,-70.312500
8606,-70.312500
8607,-70.312500
8608,-70.312500
8609,-70.312500
8610,-74.218750
8611,-74.218750
8612,-74.218750
8613,-74.218750
8614,-74.218750
8615,-74.218750
8616,-74.218750
8617,-74.218750
8618,-74.218750
8619,-78.125000
8620,-78.125000
8621,-78.125000
8622,-78.125000
8623,-78.125000
8624,-78.125000
8625,-78.125000
8626,-78.125000
8627,-78.125000
8628,-78.125000
8629,-82.031250
8630,-82.031250
8631,-82.031250
8632,-82.031250
8633,-82.031250
8634,-82.031250
8635,-82.031250
8636,-82.031250
8637,-82.031250
8638,-85.937500
8639,-85.937500
8640,-85.937500
8641,-85.937500
8642,-85.937500
8643,-85.937500
8644,-85.937500
8645,-85.937500
8646,-85.937500
8647,-85.937500
8648,-89.843750
8649,-85.937500
8650,-89.843750
8651,-89.843750
8652,-89.843750
8653,-89.843750
8654,-89.843750
8655,-89.843750
8656,-89.843750
8657,-89.843750
8658,-89.843750
8659,-89.843750
8660,-89.843750
8661,-93.750000
8662,-93.750000
8663,-93.750000
8664,-93.750000
8665,-93.750000
8666,-93.750000
8667,-93.750000
8668,-93.750000
8669,-93.750000
8670,-93.750000
8671,-93.750000
8672,-93.750000
8673,-93.750000
8674,-97.656250
8675,-97.656250
8676,-97.656250
8677,-97.656250
8678,-97.656250
8679,-97.656250
8680,-97.656250
8681,-97.656250
8682,-97.656250
8683,-97.656250
8684,-97.656250
8685,-97.656250
8686,-97.656250
8687,-97.656250
8688,-97.656250
8689,-97.656250
8690,-97.656250
8691,-101.562500
8692,-101.562500
8693,-101.562500
8694,-101.562500
8695,-101.562500
8696,-101.562500
8697,-101.562500
8698,-101.562500
8699,-101.562500
8700,-101.562500
8701,-101.562500
8702,-101.562500
8703,-101.562500
8704,-101.562500
8705,-101.562500
8706,-101.562500
8707,-101.562500
8708,-101.562500
8709,-101.562500
8710,-101.562500
8711,-101.562500
8712,-101.562500
8713,-101.562500
8714,-101.562500
8715,-101.562500
8716,-101.562500
8717,-101.562500
8718,-101.562500
8719,-101.562500
8720,-105.468750
8721,-101.562500
8722,-105.468750
8723,-101.562500
8724,-101.562500
8725,-101.562500
8726,-101.562500
8727,-105.468750
8728,-105.468750
8729,-105.468750
8730,-105.468750
8731,-101.562500
8732,-105.468750
8733,-101.562500
8734,-105.468750
8735,-105.468750
8736,-105.468750
8737,-105.468750
8738,-105.468750
8739,-105.468750
8740,-105.468750
8741,-105.468750
8742,-105.468750
8743,-105.468750
8744,-105.468750
8745,-105.468750
8746,-105.468750
8747,-101.562500
8748,-105.468750
8749,-101.562500
8750,-101.562500
8751,-101.562500
8752,-101.562500
8753,-105.468750
8754,-101.562500
8755,-105.468750
8756,-101.562500
8757,-101.562500
8758,-101.562500
8759,-101.562500
8760,-101.562500
8761,-101.562500
8762,-101.562500
8763,-101.562500
8764,-101.562500
8765,-101.562500
8766,-101.562500
8767,-101.562500
8768,-101.562500
8769,-101.562500
8770,-101.562500
8771,-101.562500
8772,-101.562500
8773,-101.562500
8774,-101.562500
8775,-101.562500
8776,-101.562500
8777,-101.562500
8778,-101.562500
8779,-101.562500
8780,-101.562500
8781,-101.562500
8782,-101.562500
8783,-101.562500
8784,-101.562500
8785,-97.656250
8786,-97.656250
8787,-97.656250
8788,-97.656250
8789,-97.656250
8790,-97.656250
8791,-97.656250
8792,-97.656250
8793,-97.656250
8794,-97.656250
8795,-97.656250
8796,-97.656250
8797,-97.656250
8798,-97.656250
8799,-97.656250
8800,-97.656250
8801,-97.656250
8802,-97.656250
8803,-97.656250
8804,-97.656250
8805,-93.750000
8806,-93.750000
8807,-93.750000
8808,-93.750000
8809,-93.750000
8810,-93.750000
8811,-93.750000
8812,-93.750000
8813,-93.750000
8814,-93.750000
8815,-93.750000
8816,-89.843750
8817,-89.843750
8818,-93.750000
8819,-89.843750
8820,-89.843750
8821,-89.843750
8822,-89.843750
8823,-89.843750
8824,-89.843750
8825,-89.843750
8826,-89.843750
8827,-89.843750
8828,-89.843750
8829,-85.937500
8830,-85.937500
8831,-85.937500
8832,-85.937500
8833,-85.937500
8834,-85.937500
8835,-85.937500
8836,-85.937500
8837,-85.937500
8838,-85.937500
8839,-85.937500
8840,-85.937500
8841,-82.031250
8842,-82.031250
8843,-82.031250
8844,-82.031250
8845,-82.031250
8846,-82.031250
8847,-82.031250
8848,-82.031250
8849,-82.031250
8850,-82.031250
8851,-78.125000
8852,-78.125000
8853,-78.125000
8854,-78.125000
8855,-78.125000
8856,-78.125000
8857,-78.125000
8858,-78.125000
8859,-78.125000
8860,-78.125000
8861,-74.218750
8862,-74.218750
8863,-74.218750
8864,-74.218750
8865,-74.218750
8866,-74.218750
8867,-74.218750
8868,-74.218750
8869,-74.218750
8870,-70.312500
8871,-70.312500
8872,-70.312500
8873,-70.312500
8874,-70.312500
8875,-70.312500
8876,-70.312500
8877,-70.312500
8878,-66.406250
8879,-66.406250
8880,-66.406250
8881,-66.406250
8882,-66.406250
8883,-66.406250
8884,-66.406250
8885,-66.406250
8886,-62.500000
8887,-62.500000
8888,-62.500000
8889,-62.500000
8890,-62.500000
8891,-62.500000
8892,-62.500000
8893,-62.500000
8894,-58.593750
8895,-58.593750
8896,-58.593750
8897,-58.593750
8898,-58.593750
8899,-58.593750
8900,-54.687500
8901,-54.687500
8902,-54.687500
8903,-54.687500
8904,-54.687500
8905,-54.687500
8906,-54.687500
8907,-54.687500
8908,-54.687500
8909,-54.687500
8910,-50.781250
8911,-50.781250
8912,-50.781250
8913,-50.781250
8914,-50.781250
8915,-50.781250
8916,-50.781250
8917,-46.875000
8918,-46.875000
8919,-46.875000
8920,-46.875000
8921,-46.875000
8922,-46.875000
8923,-46.875000
8924,-42.968750
8925,-42.968750
8926,-42.968750
8927,-42.968750
8928,-42.968750
8929,-42.968750
8930,-39.062500
8931,-39.062500
8932,-39.062500
8933,-39.062500
8934,-39.062500
8935,-39.062500
8936,-39.062500
8937,-39.062500
8938,-35.156250
8939,-35.156250
8940,-35.156250
8941,-35.156250
8942,-35.156250
8943,-35.156250
8944,-35.156250
8945,-31.250000
8946,-31.250000
8947,-31.250000
8948,-31.250000
8949,-31.250000
8950,-31.250000
8951,-31.250000
8952,-31.250000
8953,-27.343750
8954,-27.343750
8955,-27.343750
8956,-27.343750
8957,-27.343750
8958,-27.343750
8959,-23.437500
8960,-23.437500
8961,-23.437500
8962,-23.437500
8963,-23.437500
8964,-23.437500
8965,-23.437500
8966,-19.531250
8967,-19.531250
8968,-19.531250
8969,-19.531250
8970,-19.531250
8971,-19.531250
8972,-15.625000
8973,-15.625000
8974,-15.625000
8975,-15.625000
8976,-15.625000
8977,-15.625000
8978,-15.625000
8979,-11.718750
8980,-11.718750
8981,-11.718750
8982,-11.718750
8983,-11.718750
8984,-11.718750
8985,-7.812500
8986,-7.812500
8987,-7.812500
8988,-7.812500
8989,-7.812500
8990,-7.812500
8991,-7.812500
8992,-3.906250
8993,-3.906250
8994,-3.906250
8995,-3.906250
8996,-3.906250
8997,-3.906250
8998,-3.906250
8999,-3.906250
9000,0.000000
9001,0.000000
9002,0.000000
9003,0.000000
9004,0.000000
9005,0.000000
9006,0.000000
9007,3.906250
9008,3.906250
9009,3.906250
9010,3.906250
9011,3.906250
9012,3.906250
9013,7.812500
9014,7.812500
9015,7.812500
9016,7.812500
9017,7.812500
9018,7.812500
9019,7.812500
9020,7.812500
9021,11.718750
9022,11.718750
9023,11.718750
9024,11.718750
9025,11.718750
9026,11.718750
9027,11.718750
9028,11.718750
9029,15.625000
9030,15.625000
9031,15.625000
9032,15.625000
9033,15.625000
9034,19.531250
9035,19.531250
9036,19.531250
9037,19.531250
9038,19.531250
9039,19.531250
9040,19.531250
9041,19.531250
9042,19.531250
9043,19.531250
9044,23.437500
9045,23.437500
9046,23.437500
9047,23.437500
9048,23.437500
9049,23.437500
9050,23.437500
9051,23.437500
9052,27.343750
9053,27.343750
9054,27.343750
9055,27.343750
9056,27.343750
9057,27.343750
9058,27.343750
9059,27.343750
9060,27.343750
9061,31.250000
9062,31.250000
9063,31.250000
9064,31.250000
9065,31.250000
9066,31.250000
9067,31.250000
9068,35.156250
9069,35.156250
9070,35.156250
9071,35.156250
9072,35.156250
9073,35.156250
9074,35.156250
9075,35.156250
9076,35.156250
9077,35.156250
9078,39.062500
9079,39.062500
9080,39.062500
9081,39.062500
9082,39.062500
9083,39.062500
9084,39.062500
9085,39.062500
9086,39.062500
9087,42.968750
9088,42.968750
9089,42.968750
9090,42.968750
9091,42.968750
9092,42.968750
9093,46.875000
9094,42.968750
9095,39.062500
9096,46.875000
9097,46.875000
9098,46.875000
9099,46.875000
9100,46.875000
9101,42.968750
9102,50.781250
9103,46.875000
9104,46.875000
9105,46.875000
9106,50.781250
9107,50.781250
9108,50.781250
9109,50.781250
9110,50.781250
9111,50.781250
9112,50.781250
9113,50.781250
9114,50.781250
9115,50.781250
9116,54.687500
9117,54.687500
9118,54.687500
9119,54.687500
9120,54.687500
9121,54.687500
9122,54.687500
9123,54.687500
9124,54.687500
9125,54.687500
9126,54.687500
9127,58.593750
9128,58.593750
9129,54.687500
9130,54.687500
9131,58.593750
9132,58.593750
9133,58.593750
9134,58.593750
9135,58.593750
9136,58.593750
9137,58.593750
9138,58.593750
9139,58.593750
9140,58.593750
9141,58.593750
9142,62.500000
9143,62.500000
9144,62.500000
9145,62.500000
9146,58.593750
9147,62.500000
9148,62.500000
9149,62.500000
9150,62.500000
9151,62.500000
9152,62.500000
9153,62.500000
9154,62.500000
9155,62.500000
9156,62.500000
9157,66.406250
9158,66.406250
9159,66.406250
9160,66.406250
9161,66.406250
9162,66.406250
9163,66.406250
9164,66.406250
9165,66.406250
9166,66.406250
9167,66.406250
9168,66.406250
9169,66.406250
9170,66.406250
9171,66.406250
9172,66.406250
9173,66.406250
9174,66.406250
9175,66.406250
9176,66.406250
9177,70.312500
9178,70.312500
9179,70.312500
9180,70.312500
9181,70.312500
9182,70.312500
9183,70.312500
9184,70.312500
9185,70.312500
9186,70.312500
9187,70.312500
9188,70.312500
9189,70.312500
9190,70.312500
9191,70.312500
9192,70.312500
9193,70.312500
9194,70.312500
9195,70.312500
9196,70.312500
9197,70.312500
9198,70.312500
9199,70.312500
9200,70.312500
9201,70.312500
9202,70.312500
9203,70.312500
9204,70.312500
9205,70.312500
9206,74.218750
9207,70.312500
9208,70.312500
9209,70.312500
9210,70.312500
9211,74.218750
9212,74.218750
9213,74.218750
9214,70.312500
9215,74.218750
9216,74.218750
9217,74.218750
9218,74.218750
9219,74.218750
9220,74.218750
9221,74.218750
9222,74.218750
9223,74.218750
9224,74.218750
9225,74.218750
9226,74.218750
9227,74.218750
9228,74.218750
9229,74.218750
9230,74.218750
9231,74.218750
9232,74.218750
9233,74.218750
9234,74.218750
9235,74.218750
9236,74.218750
9237,74.218750
9238,74.218750
9239,74.218750
9240,74.218750
9241,74.218750
9242,74.218750
9243,74.218750
9244,74.218750
9245,74.218750
9246,74.218750
9247,74.218750
9248,74.218750
9249,74.218750
9250,74.218750
9251,74.218750
9252,74.218750
9253,74.218750
9254,74.218750
9255,74.218750
9256,70.312500
9257,74.218750
9258,70.312500
9259,74.218750
9260,70.312500
9261,70.312500
9262,70.312500
9263,70.312500
9264,70.312500
9265,70.312500
9266,70.312500
9267,70.312500
9268,70.312500
9269,70.312500
9270,70.312500
9271,70.312500
9272,70.312500
9273,70.312500
9274,70.312500
9275,70.312500
9276,70.312500
9277,70.312500
9278,70.312500
9279,70.312500
9280,70.312500
9281,70.312500
9282,70.312500
9283,70.312500
9284,70.312500
9285,70.312500
9286,70.312500
9287,70.312500
9288,70.312500
9289,66.406250
9290,70.312500
9291,66.406250
9292,66.406250
9293,70.312500
9294,66.406250
9295,66.406250
9296,66.406250
9297,66.406250
9298,66.406250
9299,66.406250
9300,66.406250
9301,66.406250
9302,66.406250
9303,66.406250
9304,66.406250
9305,66.406250
9306,66.406250
9307,66.406250
9308,66.406250
9309,66.406250
9310,62.500000
9311,62.500000
9312,62.500000
9313,66.406250
9314,62.500000
9315,62.500000
9316,62.500000
9317,62.500000
9318,62.500000
9319,62.500000
9320,62.500000
9321,62.500000
9322,58.593750
9323,62.500000
9324,62.500000
9325,62.500000
9326,58.593750
9327,62.500000
9328,58.593750
9329,58.593750
9330,58.593750
9331,58.593750
9332,58.593750
9333,58.593750
9334,58.593750
9335,58.593750
9336,58.593750
9337,58.593750
9338,58.593750
9339,58.593750
9340,54.687500
9341,54.687500
9342,54.687500
9343,54.687500
9344,54.687500
9345,54.687500
9346,54.687500
9347,54.687500
9348,54.687500
9349,54.687500
9350,50.781250
9351,54.687500
9352,54.687500
9353,50.781250
9354,50.781250
9355,50.781250
9356,50.781250
9357,50.781250
9358,50.781250
9359,50.781250
9360,50.781250
9361,50.781250
9362,50.781250
9363,50.781250
9364,46.875000
9365,46.875000
9366,46.875000
9367,46.875000
9368,46.875000
9369,46.875000
9370,46.875000
9371,46.875000
9372,46.875000
9373,42.968750
9374,42.968750
9375,42.968750
9376,42.968750
9377,42.968750
9378,42.968750
9379,42.968750
9380,42.968750
9381,42.968750
9382,42.968750
9383,42.968750
9384,39.062500
9385,39.062500
9386,39.062500
9387,39.062500
9388,39.062500
9389,39.062500
9390,39.062500
9391,35.156250
9392,39.062500
9393,39.062500
9394,35.156250
9395,35.156250
9396,35.156250
9397,35.156250
9398,35.156250
9399,35.156250
9400,35.156250
9401,31.250000
9402,31.250000
9403,31.250000
9404,31.250000
9405,31.250000
9406,31.250000
9407,31.250000
9408,31.250000
9409,27.343750
9410,27.343750
9411,27.343750
9412,27.343750
9413,27.343750
9414,27.343750
9415,27.343750
9416,27.343750
9417,27.343750
9418,23.437500
9419,23.437500
9420,23.437500
9421,23.437500
9422,23.437500
9423,23.437500
9424,23.437500
9425,23.437500
9426,19.531250
9427,19.531250
9428,19.531250
9429,19.531250
9430,19.531250
9431,19.531250
9432,19.531250
9433,15.625000
9434,15.625000
9435,15.625000
9436,15.625000
9437,15.625000
9438,15.625000
9439,15.625000
9440,11.718750
9441,11.718750
9442,11.718750
9443,11.718750
9444,11.718750
9445,11.718750
9446,11.718750
9447,11.718750
9448,7.812500
9449,7.812500
9450,7.812500
9451,7.812500
9452,7.812500
9453,7.812500
9454,3.906250
9455,3.906250
9456,3.906250
9457,3.906250
9458,3.906250
9459,3.906250
9460,3.906250
9461,0.000000
9462,0.000000
9463,0.000000
9464,0.000000
9465,0.000000
9466,0.000000
9467,0.000000
9468,0.000000
9469,-3.906250
9470,-3.906250
9471,-3.906250
9472,-3.906250
9473,-3.906250
9474,-3.906250
9475,-3.906250
9476,-7.812500
9477,-7.812500
9478,-7.812500
9479,-7.812500
9480,-7.812500
9481,-7.812500
9482,-11.718750
9483,-11.718750
9484,-11.718750
9485,-11.718750
9486,-11.718750
9487,-11.718750
9488,-11.718750
9489,-11.718750
9490,-15.625000
9491,-15.625000
9492,-15.625000
9493,-15.625000
9494,-15.625000
9495,-15.625000
9496,-15.625000
9497,-19.531250
9498,-19.531250
9499,-19.531250
9500,-19.531250
9501,-19.531250
9502,-23.437500
9503,-19.531250
9504,-23.437500
9505,-23.437500
9506,-23.437500
9507,-23.437500
9508,-23.437500
9509,-23.437500
9510,-23.437500
9511,-27.343750
9512,-27.343750
9513,-27.343750
9514,-27.343750
9515,-27.343750
9516,-27.343750
9517,-27.343750
9518,-31.250000
9519,-31.250000
9520,-31.250000
9521,-31.250000
9522,-31.250000
9523,-31.250000
9524,-35.156250
9525,-35.156250
9526,-35.156250
9527,-35.156250
9528,-35.156250
9529,-35.156250
9530,-35.156250
9531,-35.156250
9532,-39.062500
9533,-39.062500
9534,-39.062500
9535,-39.062500
9536,-39.062500
9537,-39.062500
9538,-39.062500
9539,-42.968750
9540,-42.968750
9541,-42.968750
9542,-42.968750
9543,-42.968750
9544,-42.968750
9545,-42.968750
9546,-46.875000
9547,-46.875000
9548,-46.875000
9549,-46.875000
9550,-46.875000
9551,-46.875000
9552,-50.781250
9553,-50.781250
9554,-50.781250
9555,-50.781250
9556,-50.781250
9557,-50.781250
9558,-50.781250
9559,-50.781250
9560,-54.687500
9561,-54.687500
9562,-54.687500
9563,-54.687500
9564,-54.687500
9565,-54.687500
9566,-54.687500
9567,-58.593750
9568,-58.593750
9569,-58.593750
9570,-58.593750
9571,-58.593750
9572,-58.593750
9573,-58.593750
9574,-62.500000
9575,-62.500000
9576,-62.500000
9577,-62.500000
9578,-62.500000
9579,-62.500000
9580,-62.500000
9581,-62.500000
9582,-62.500000
9583,-66.406250
9584,-66.406250
9585,-66.406250
9586,-66.406250
9587,-66.406250
9588,-66.406250
9589,-66.406250
9590,-70.312500
9591,-70.312500
9592,-70.312500
9593,-70.312500
9594,-70.312500
9595,-70.312500
9596,-70.312500
9597,-70.312500
9598,-70.312500
9599,-74.218750
9600,-74.218750
9601,-74.218750
9602,-74.218750
9603,-74.218750
9604,-74.218750
9605,-74.218750
9606,-78.125000
9607,-74.218750
9608,-78.125000
9609,-78.125000
9610,-78.125000
9611,-78.125000
9612,-78.125000
9613,-78.125000
9614,-78.125000
9615,-78.125000
9616,-82.031250
9617,-82.031250
9618,-82.031250
9619,-82.031250
9620,-82.031250
9621,-82.031250
9622,-82.031250
9623,-82.031250
9624,-82.031250
9625,-82.031250
9626,-82.031250
9627,-82.031250
9628,-85.937500
9629,-85.937500
9630,-85.937500
9631,-85.937500
9632,-85.937500
9633,-85.937500
9634,-85.937500
9635,-85.937500
9636,-85.937500
9637,-85.937500
9638,-89.843750
9639,-89.843750
9640,-89.843750
9641,-89.843750
9642,-89.843750
9643,-89.843750
9644,-89.843750
9645,-89.843750
9646,-89.843750
9647,-89.843750
9648,-89.843750
9649,-89.843750
9650,-89.843750
9651,-93.750000
9652,-93.750000
9653,-93.750000
9654,-93.750000
9655,-93.750000
9656,-93.750000
9657,-93.750000
9658,-93.750000
9659,-93.750000
9660,-93.750000
9661,-93.750000
9662,-97.656250
9663,-93.750000
9664,-93.750000
9665,-93.750000
9666,-93.750000
9667,-97.656250
9668,-97.656250
9669,-97.656250
9670,-97.656250
9671,-97.656250
9672,-97.656250
9673,-97.656250
9674,-97.656250
9675,-97.656250
9676,-97.656250
9677,-97.656250
9678,-97.656250
9679,-97.656250
9680,-97.656250
9681,-97.656250
9682,-101.562500
9683,-101.562500
9684,-101.562500
9685,-101.562500
9686,-101.562500
9687,-101.562500
9688,-101.562500
9689,-101.562500
9690,-101.562500
9691,-101.562500
9692,-101.562500
9693,-101.562500
9694,-101.562500
9695,-101.562500
9696,-101.562500
9697,-101.562500
9698,-101.562500
9699,-101.562500
9700,-101.562500
9701,-101.562500
9702,-101.562500
9703,-101.562500
9704,-101.562500
9705,-101.562500
9706,-101.562500
9707,-101.562500
9708,-101.562500
9709,-101.562500
9710,-101.562500
9711,-101.562500
9712,-105.468750
9713,-101.562500
9714,-101.562500
9715,-105.468750
9716,-105.468750
9717,-105.468750
9718,-105.468750
9719,-105.468750
9720,-105.468750
9721,-101.562500
9722,-105.468750
9723,-105.468750
9724,-105.468750
9725,-105.468750
9726,-105.468750
9727,-105.468750
9728,-105.468750
9729,-101.562500
9730,-105.468750
9731,-105.468750
9732,-105.468750
9733,-105.468750
9734,-105.468750
9735,-105.468750
9736,-105.468750
9737,-101.562500
9738,-101.562500
9739,-101.562500
9740,-105.468750
9741,-105.468750
9742,-105.468750
9743,-105.468750
9744,-101.562500
9745,-101.562500
9746,-101.562500
9747,-101.562500
9748,-101.562500
9749,-101.562500
9750,-101.562500
9751,-101.562500
9752,-101.562500
9753,-101.562500
9754,-101.562500
9755,-101.562500
9756,-101.562500
9757,-101.562500
9758,-101.562500
9759,-101.562500
9760,-101.562500
9761,-101.562500
9762,-101.562500
9763,-101.562500
9764,-101.562500
9765,-101.562500
9766,-101.562500
9767,-101.562500
9768,-101.562500
9769,-101.562500
9770,-101.562500
9771,-101.562500
9772,-97.656250
9773,-101.562500
9774,-97.656250
9775,-97.656250
9776,-97.656250
9777,-97.656250
9778,-97.656250
9779,-97.656250
9780,-97.656250
9781,-97.656250
9782,-97.656250
9783,-97.656250
9784,-97.656250
9785,-97.656250
9786,-97.656250
9787,-97.656250
9788,-97.656250
9789,-97.656250
9790,-97.656250
9791,-93.750000
9792,-97.656250
9793,-93.750000
9794,-93.750000
9795,-93.750000
9796,-93.750000
9797,-93.750000
9798,-93.750000
9799,-93.750000
9800,-93.750000
9801,-93.750000
9802,-93.750000
9803,-93.750000
9804,-93.750000
9805,-93.750000
9806,-93.750000
9807,-93.750000
9808,-89.843750
9809,-93.750000
9810,-89.843750
9811,-89.843750
9812,-89.843750
9813,-89.843750
9814,-89.843750
9815,-89.843750
9816,-89.843750
9817,-89.843750
9818,-89.843750
9819,-89.843750
9820,-89.843750
9821,-85.937500
9822,-85.937500
9823,-85.937500
9824,-85.937500
9825,-85.937500
9826,-85.937500
9827,-85.937500
9828,-85.937500
9829,-85.937500
9830,-85.937500
9831,-85.937500
9832,-82.031250
9833,-82.031250
9834,-82.031250
9835,-82.031250
9836,-82.031250
9837,-82.031250
9838,-82.031250
9839,-82.031250
9840,-82.031250
9841,-82.031250
9842,-78.125000
9843,-78.125000
9844,-78.125000
9845,-78.125000
9846,-78.125000
9847,-78.125000
9848,-78.125000
9849,-78.125000
9850,-78.125000
9851,-74.218750
9852,-74.218750
9853,-74.218750
9854,-74.218750
9855,-74.218750
9856,-74.218750
9857,-74.218750
9858,-74.218750
9859,-70.312500
9860,-74.218750
9861,-70.312500
9862,-70.312500
9863,-70.312500
9864,-70.312500
9865,-70.312500
9866,-70.312500
9867,-66.406250
9868,-66.406250
9869,-66.406250
9870,-66.406250
9871,-66.406250
9872,-66.406250
9873,-66.406250
9874,-66.406250
9875,-66.406250
9876,-62.500000
9877,-62.500000
9878,-62.500000
9879,-62.500000
9880,-62.500000
9881,-62.500000
9882,-62.500000
9883,-62.500000
9884,-58.593750
9885,-58.593750
9886,-58.593750
9887,-58.593750
9888,-58.593750
9889,-58.593750
9890,-58.593750
9891,-58.593750
9892,-54.687500
9893,-54.687500
9894,-54.687500
9895,-54.687500
9896,-54.687500
9897,-54.687500
9898,-50.781250
9899,-50.781250
9900,-50.781250
9901,-50.781250
9902,-50.781250
9903,-50.781250
9904,-50.781250
9905,-50.781250
9906,-46.875000
9907,-46.875000
9908,-46.875000
9909,-46.875000
9910,-46.875000
9911,-46.875000
9912,-46.875000
9913,-42.968750
9914,-42.968750
9915,-42.968750
9916,-42.968750
9917,-42.968750
9918,-42.968750
9919,-42.968750
9920,-39.062500
9921,-39.062500
9922,-39.062500
9923,-39.062500
9924,-39.062500
9925,-39.062500
9926,-39.062500
9927,-39.062500
9928,-35.156250
9929,-35.156250
9930,-35.156250
9931,-35.156250
9932,-35.156250
9933,-35.156250
9934,-35.156250
9935,-31.250000
9936,-31.250000
9937,-31.250000
9938,-31.250000
9939,-31.250000
9940,-31.250000
9941,-27.343750
9942,-27.343750
9943,-27.343750
9944,-27.343750
9945,-27.343750
9946,-27.343750
9947,-27.343750
9948,-27.343750
9949,-23.437500
9950,-23.437500
9951,-23.437500
9952,-23.437500
9953,-23.437500
9954,-23.437500
9955,-19.531250
9956,-19.531250
9957,-19.531250
9958,-19.531250
9959,-19.531250
9960,-19.531250
9961,-19.531250
9962,-19.531250
9963,-15.625000
9964,-15.625000
9965,-15.625000
9966,-15.625000
9967,-15.625000
9968,-15.625000
9969,-15.625000
9970,-15.625000
9971,-11.718750
9972,-11.718750
9973,-11.718750
9974,-11.718750
9975,-11.718750
9976,-7.812500
9977,-7.812500
9978,-7.812500
9979,-7.812500
9980,-7.812500
9981,-7.812500
9982,-3.906250
9983,-7.812500
9984,-3.906250
9985,-3.906250
9986,-3.906250
9987,-3.906250
9988,-3.906250
9989,-3.906250
9990,-3.906250
9991,0.000000
9992,0.000000
9993,0.000000
9994,0.000000
9995,0.000000
9996,0.000000
9997,0.000000
9998,3.906250
9999,3.906250
10000,3.906250
