Channel              :,CH1
Frequency            :,1.010kHz
Period               :,0.990ms
PK-PK                :,234.4mV
Probe attenuation    :,1X
Voltage per ADC value:,0.244141mV
Time interval        :,1.00000us

index,CH1_Voltage(mV)
1,-58.593750
2,-58.593750
3,-54.687500
4,-54.687500
5,-54.687500
6,-54.687500
7,-54.687500
8,-54.687500
9,-50.781250
10,-50.781250
11,-50.781250
12,-50.781250
13,-50.781250
14,-50.781250
15,-46.875000
16,-46.875000
17,-46.875000
18,-46.875000
19,-46.875000
20,-46.875000
21,-42.968750
22,-42.968750
23,-42.968750
24,-42.968750
25,-39.062500
26,-39.062500
27,-39.062500
28,-39.062500
29,-39.062500
30,-39.062500
31,-35.156250
32,-35.156250
33,-35.156250
34,-35.156250
35,-35.156250
36,-31.250000
37,-31.250000
38,-31.250000
39,-31.250000
40,-31.250000
41,-31.250000
42,-27.343750
43,-27.343750
44,-27.343750
45,-27.343750
46,-27.343750
47,-23.437500
48,-23.437500
49,-23.437500
50,-23.437500
51,-23.437500
52,-23.437500
53,-19.531250
54,-19.531250
55,-19.531250
56,-19.531250
57,-15.625000
58,-15.625000
59,-15.625000
60,-15.625000
61,-15.625000
62,-15.625000
63,-15.625000
64,-11.718750
65,-11.718750
66,-11.718750
67,-11.718750
68,-11.718750
69,-7.812500
70,-7.812500
71,-7.812500
72,-7.812500
73,-7.812500
74,-3.906250
75,-3.906250
76,-3.906250
77,-3.906250
78,-3.906250
79,-3.906250
80,0.000000
81,0.000000
82,0.000000
83,0.000000
84,0.000000
85,0.000000
86,3.906250
87,3.906250
88,3.906250
89,3.906250
90,3.906250
91,7.812500
92,7.812500
93,7.812500
94,7.812500
95,7.812500
96,11.718750
97,11.718750
98,11.718750
99,11.718750
100,11.718750
101,11.718750
102,15.625000
103,15.625000
104,15.625000
105,15.625000
106,15.625000
107,15.625000
108,19.531250
109,19.531250
110,19.531250
111,19.531250
112,19.531250
113,19.531250
114,19.531250
115,23.437500
116,23.437500
117,23.437500
118,23.437500
119,23.437500
120,27.343750
121,27.343750
122,27.343750
123,27.343750
124,27.343750
125,27.343750
126,31.250000
127,31.250000
128,31.250000
129,31.250000
130,31.250000
131,31.250000
132,31.250000
133,35.156250
134,35.156250
135,35.156250
136,35.156250
137,35.156250
138,39.062500
139,35.156250
140,39.062500
141,39.062500
142,39.062500
143,39.062500
144,39.062500
145,39.062500
146,42.968750
147,42.968750
148,42.968750
149,42.968750
150,42.968750
151,46.875000
152,46.875000
153,46.875000
154,46.875000
155,46.875000
156,46.875000
157,46.875000
158,46.875000
159,50.781250
160,50.781250
161,50.781250
162,50.781250
163,50.781250
164,50.781250
165,50.781250
166,50.781250
167,50.781250
168,54.687500
169,54.687500
170,54.687500
171,54.687500
172,54.687500
173,58.593750
174,58.593750
175,58.593750
176,58.593750
177,58.593750
178,58.593750
179,58.593750
180,58.593750
181,58.593750
182,62.500000
183,62.500000
184,62.500000
185,62.500000
186,62.500000
187,62.500000
188,62.500000
189,62.500000
190,66.406250
191,66.406250
192,66.406250
193,66.406250
194,66.406250
195,66.406250
196,66.406250
197,66.406250
198,66.406250
199,70.312500
200,70.312500
201,70.312500
202,70.312500
203,70.312500
204,70.312500
205,70.312500
206,70.312500
207,70.312500
208,70.312500
209,74.218750
210,74.218750
211,74.218750
212,74.218750
213,74.218750
214,74.218750
215,74.218750
216,74.218750
217,78.125000
218,78.125000
219,78.125000
220,78.125000
221,78.125000
222,78.125000
223,78.125000
224,78.125000
225,78.125000
226,78.125000
227,78.125000
228,78.125000
229,78.125000
230,82.031250
231,82.031250
232,82.031250
233,82.031250
234,82.031250
235,82.031250
236,82.031250
237,82.031250
238,82.031250
239,82.031250
240,82.031250
241,82.031250
242,82.031250
243,82.031250
244,85.937500
245,85.937500
246,85.937500
247,85.937500
248,85.937500
249,85.937500
250,85.937500
251,85.937500
252,85.937500
253,85.937500
254,85.937500
255,85.937500
256,85.937500
257,85.937500
258,89.843750
259,89.843750
260,89.843750
261,89.843750
262,89.843750
263,89.843750
264,89.843750
265,89.843750
266,89.843750
267,89.843750
268,89.843750
269,89.843750
270,89.843750
271,89.843750
272,89.843750
273,89.843750
274,89.843750
275,93.750000
276,89.843750
277,93.750000
278,93.750000
279,93.750000
280,93.750000
281,93.750000
282,93.750000
283,93.750000
284,93.750000
285,93.750000
286,89.843750
287,93.750000
288,93.750000
289,93.750000
290,93.750000
291,93.750000
292,93.750000
293,93.750000
294,93.750000
295,93.750000
296,93.750000
297,93.750000
298,93.750000
299,93.750000
300,93.750000
301,93.750000
302,93.750000
303,93.750000
304,93.750000
305,93.750000
306,93.750000
307,93.750000
308,93.750000
309,93.750000
310,93.750000
311,93.750000
312,93.750000
313,93.750000
314,93.750000
315,93.750000
316,93.750000
317,93.750000
318,93.750000
319,93.750000
320,93.750000
321,93.750000
322,93.750000
323,93.750000
324,93.750000
325,93.750000
326,93.750000
327,93.750000
328,93.750000
329,93.750000
330,93.750000
331,93.750000
332,93.750000
333,93.750000
334,93.750000
335,93.750000
336,93.750000
337,93.750000
338,93.750000
339,93.750000
340,93.750000
341,93.750000
342,93.750000
343,93.750000
344,93.750000
345,93.750000
346,93.750000
347,93.750000
348,93.750000
349,93.750000
350,93.750000
351,93.750000
352,93.750000
353,89.843750
354,93.750000
355,93.750000
356,93.750000
357,89.843750
358,89.843750
359,89.843750
360,89.843750
361,89.843750
362,89.843750
363,89.843750
364,89.843750
365,89.843750
366,89.843750
367,89.843750
368,89.843750
369,89.843750
370,89.843750
371,89.843750
372,89.843750
373,89.843750
374,89.843750
375,89.843750
376,89.843750
377,85.937500
378,85.937500
379,85.937500
380,85.937500
381,85.937500
382,85.937500
383,85.937500
384,85.937500
385,85.937500
386,85.937500
387,85.937500
388,85.937500
389,85.937500
390,85.937500
391,85.937500
392,85.937500
393,82.031250
394,82.031250
395,82.031250
396,82.031250
397,82.031250
398,82.031250
399,82.031250
400,82.031250
401,82.031250
402,82.031250
403,82.031250
404,82.031250
405,82.031250
406,78.125000
407,78.125000
408,78.125000
409,78.125000
410,78.125000
411,78.125000
412,78.125000
413,78.125000
414,78.125000
415,78.125000
416,78.125000
417,78.125000
418,74.218750
419,74.218750
420,74.218750
421,74.218750
422,74.218750
423,74.218750
424,74.218750
425,74.218750
426,70.312500
427,70.312500
428,70.312500
429,70.312500
430,70.312500
431,70.312500
432,70.312500
433,70.312500
434,70.312500
435,70.312500
436,66.406250
437,66.406250
438,66.406250
439,66.406250
440,66.406250
441,66.406250
442,66.406250
443,66.406250
444,66.406250
445,62.500000
446,62.500000
447,62.500000
448,62.500000
449,62.500000
450,62.500000
451,62.500000
452,62.500000
453,58.593750
454,58.593750
455,58.593750
456,58.593750
457,58.593750
458,58.593750
459,58.593750
460,58.593750
461,58.593750
462,54.687500
463,54.687500
464,54.687500
465,54.687500
466,54.687500
467,54.687500
468,50.781250
469,50.781250
470,54.687500
471,50.781250
472,50.781250
473,50.781250
474,50.781250
475,50.781250
476,46.875000
477,46.875000
478,46.875000
479,46.875000
480,46.875000
481,46.875000
482,46.875000
483,46.875000
484,42.968750
485,42.968750
486,42.968750
487,42.968750
488,42.968750
489,42.968750
490,42.968750
491,39.062500
492,39.062500
493,39.062500
494,39.062500
495,35.156250
496,35.156250
497,35.156250
498,35.156250
499,35.156250
500,35.156250
501,35.156250
502,35.156250
503,31.250000
504,31.250000
505,31.250000
506,31.250000
507,31.250000
508,27.343750
509,27.343750
510,27.343750
511,27.343750
512,27.343750
513,27.343750
514,27.343750
515,23.437500
516,23.437500
517,23.437500
518,23.437500
519,23.437500
520,23.437500
521,23.437500
522,19.531250
523,19.531250
524,19.531250
525,19.531250
526,19.531250
527,15.625000
528,15.625000
529,15.625000
530,15.625000
531,15.625000
532,11.718750
533,11.718750
534,11.718750
535,11.718750
536,11.718750
537,7.812500
538,7.812500
539,7.812500
540,7.812500
541,7.812500
542,7.812500
543,7.812500
544,7.812500
545,3.906250
546,3.906250
547,3.906250
548,0.000000
549,0.000000
550,0.000000
551,0.000000
552,0.000000
553,0.000000
554,0.000000
555,0.000000
556,-3.906250
557,-3.906250
558,-3.906250
559,-3.906250
560,-7.812500
561,-7.812500
562,-7.812500
563,-7.812500
564,-7.812500
565,-7.812500
566,-11.718750
567,-11.718750
568,-11.718750
569,-11.718750
570,-11.718750
571,-15.625000
572,-15.625000
573,-15.625000
574,-15.625000
575,-15.625000
576,-15.625000
577,-19.531250
578,-19.531250
579,-19.531250
580,-19.531250
581,-19.531250
582,-19.531250
583,-23.437500
584,-23.437500
585,-23.437500
586,-23.437500
587,-27.343750
588,-27.343750
589,-27.343750
590,-27.343750
591,-27.343750
592,-27.343750
593,-31.250000
594,-31.250000
595,-31.250000
596,-31.250000
597,-31.250000
598,-35.156250
599,-35.156250
600,-35.156250
601,-35.156250
602,-35.156250
603,-35.156250
604,-39.062500
605,-39.062500
606,-39.062500
607,-39.062500
608,-39.062500
609,-42.968750
610,-42.968750
611,-42.968750
612,-42.968750
613,-42.968750
614,-42.968750
615,-46.875000
616,-46.875000
617,-46.875000
618,-46.875000
619,-46.875000
620,-50.781250
621,-50.781250
622,-50.781250
623,-50.781250
624,-50.781250
625,-54.687500
626,-54.687500
627,-54.687500
628,-54.687500
629,-54.687500
630,-54.687500
631,-58.593750
632,-58.593750
633,-58.593750
634,-58.593750
635,-58.593750
636,-58.593750
637,-62.500000
638,-62.500000
639,-62.500000
640,-62.500000
641,-62.500000
642,-66.406250
643,-66.406250
644,-66.406250
645,-66.406250
646,-66.406250
647,-66.406250
648,-70.312500
649,-70.312500
650,-70.312500
651,-70.312500
652,-70.312500
653,-70.312500
654,-74.218750
655,-74.218750
656,-74.218750
657,-74.218750
658,-74.218750
659,-74.218750
660,-74.218750
661,-78.125000
662,-78.125000
663,-78.125000
664,-78.125000
665,-78.125000
666,-82.031250
667,-82.031250
668,-82.031250
669,-82.031250
670,-82.031250
671,-82.031250
672,-82.031250
673,-82.031250
674,-82.031250
675,-85.937500
676,-85.937500
677,-85.937500
678,-85.937500
679,-89.843750
680,-89.843750
681,-89.843750
682,-89.843750
683,-89.843750
684,-89.843750
685,-93.750000
686,-89.843750
687,-89.843750
688,-93.750000
689,-93.750000
690,-93.750000
691,-93.750000
692,-93.750000
693,-93.750000
694,-97.656250
695,-97.656250
696,-97.656250
697,-97.656250
698,-97.656250
699,-97.656250
700,-97.656250
701,-101.562500
702,-101.562500
703,-101.562500
704,-101.562500
705,-101.562500
706,-101.562500
707,-101.562500
708,-101.562500
709,-101.562500
710,-105.468750
711,-105.468750
712,-105.468750
713,-105.468750
714,-105.468750
715,-105.468750
716,-105.468750
717,-105.468750
718,-109.375000
719,-109.375000
720,-109.375000
721,-109.375000
722,-109.375000
723,-109.375000
724,-109.375000
725,-109.375000
726,-109.375000
727,-109.375000
728,-113.281250
729,-113.281250
730,-113.281250
731,-113.281250
732,-113.281250
733,-113.281250
734,-113.281250
735,-113.281250
736,-117.187500
737,-117.187500
738,-117.187500
739,-117.187500
740,-117.187500
741,-117.187500
742,-117.187500
743,-117.187500
744,-117.187500
745,-117.187500
746,-121.093750
747,-121.093750
748,-121.093750
749,-121.093750
750,-121.093750
751,-121.093750
752,-121.093750
753,-121.093750
754,-121.093750
755,-121.093750
756,-121.093750
757,-121.093750
758,-121.093750
759,-121.093750
760,-125.000000
761,-121.093750
762,-125.000000
763,-125.000000
764,-125.000000
765,-125.000000
766,-125.000000
767,-125.000000
768,-125.000000
769,-125.000000
770,-125.000000
771,-125.000000
772,-125.000000
773,-125.000000
774,-125.000000
775,-125.000000
776,-125.000000
777,-125.000000
778,-125.000000
779,-128.906250
780,-128.906250
781,-128.906250
782,-128.906250
783,-128.906250
784,-128.906250
785,-128.906250
786,-128.906250
787,-128.906250
788,-128.906250
789,-128.906250
790,-128.906250
791,-128.906250
792,-128.906250
793,-128.906250
794,-128.906250
795,-128.906250
796,-128.906250
797,-128.906250
798,-128.906250
799,-128.906250
800,-128.906250
801,-128.906250
802,-128.906250
803,-128.906250
804,-128.906250
805,-128.906250
806,-128.906250
807,-128.906250
808,-128.906250
809,-128.906250
810,-128.906250
811,-128.906250
812,-128.906250
813,-128.906250
814,-128.906250
815,-128.906250
816,-128.906250
817,-128.906250
818,-128.906250
819,-128.906250
820,-128.906250
821,-128.906250
822,-128.906250
823,-128.906250
824,-128.906250
825,-128.906250
826,-128.906250
827,-128.906250
828,-128.906250
829,-128.906250
830,-128.906250
831,-128.906250
832,-128.906250
833,-128.906250
834,-128.906250
835,-128.906250
836,-128.906250
837,-128.906250
838,-128.906250
839,-128.906250
840,-125.000000
841,-128.906250
842,-128.906250
843,-125.000000
844,-125.000000
845,-125.000000
846,-128.906250
847,-125.000000
848,-125.000000
849,-125.000000
850,-128.906250
851,-125.000000
852,-125.000000
853,-125.000000
854,-125.000000
855,-125.000000
856,-125.000000
857,-125.000000
858,-125.000000
859,-125.000000
860,-125.000000
861,-125.000000
862,-125.000000
863,-121.093750
864,-121.093750
865,-121.093750
866,-121.093750
867,-121.093750
868,-121.093750
869,-121.093750
870,-121.093750
871,-121.093750
872,-121.093750
873,-121.093750
874,-121.093750
875,-121.093750
876,-121.093750
877,-117.187500
878,-117.187500
879,-117.187500
880,-117.187500
881,-117.187500
882,-117.187500
883,-117.187500
884,-117.187500
885,-117.187500
886,-117.187500
887,-117.187500
888,-117.187500
889,-113.281250
890,-113.281250
891,-113.281250
892,-113.281250
893,-113.281250
894,-113.281250
895,-113.281250
896,-113.281250
897,-113.281250
898,-109.375000
899,-113.281250
900,-109.375000
901,-109.375000
902,-109.375000
903,-109.375000
904,-109.375000
905,-109.375000
906,-109.375000
907,-109.375000
908,-105.468750
909,-105.468750
910,-105.468750
911,-105.468750
912,-105.468750
913,-105.468750
914,-105.468750
915,-105.468750
916,-105.468750
917,-105.468750
918,-101.562500
919,-101.562500
920,-101.562500
921,-101.562500
922,-101.562500
923,-101.562500
924,-97.656250
925,-97.656250
926,-97.656250
927,-97.656250
928,-97.656250
929,-97.656250
930,-97.656250
931,-97.656250
932,-93.750000
933,-93.750000
934,-93.750000
935,-93.750000
936,-93.750000
937,-93.750000
938,-93.750000
939,-89.843750
940,-89.843750
941,-89.843750
942,-89.843750
943,-89.843750
944,-89.843750
945,-89.843750
946,-89.843750
947,-85.937500
948,-85.937500
949,-85.937500
950,-85.937500
951,-82.031250
952,-82.031250
953,-82.031250
954,-82.031250
955,-82.031250
956,-82.031250
957,-82.031250
958,-78.125000
959,-78.125000
960,-78.125000
961,-78.125000
962,-78.125000
963,-78.125000
964,-78.125000
965,-74.218750
966,-74.218750
967,-74.218750
968,-74.218750
969,-74.218750
970,-70.312500
971,-70.312500
972,-70.312500
973,-70.312500
974,-70.312500
975,-66.406250
976,-70.312500
977,-66.406250
978,-66.406250
979,-66.406250
980,-66.406250
981,-66.406250
982,-62.500000
983,-62.500000
984,-62.500000
985,-62.500000
986,-62.500000
987,-62.500000
988,-58.593750
989,-58.593750
990,-58.593750
991,-58.593750
992,-58.593750
993,-58.593750
994,-54.687500
995,-54.687500
996,-54.687500
997,-54.687500
998,-50.781250
999,-50.781250
1000,-50.781250
1001,-50.781250
1002,-50.781250
1003,-50.781250
1004,-46.875000
1005,-46.875000
1006,-46.875000
1007,-46.875000
1008,-46.875000
1009,-46.875000
1010,-46.875000
1011,-42.968750
1012,-42.968750
1013,-42.968750
1014,-42.968750
1015,-42.968750
1016,-39.062500
1017,-39.062500
1018,-39.062500
1019,-39.062500
1020,-39.062500
1021,-35.156250
1022,-35.156250
1023,-35.156250
1024,-35.156250
1025,-35.156250
1026,-31.250000
1027,-31.250000
1028,-31.250000
1029,-31.250000
1030,-31.250000
1031,-27.343750
1032,-27.343750
1033,-27.343750
1034,-27.343750
1035,-27.343750
1036,-27.343750
1037,-27.343750
1038,-23.437500
1039,-23.437500
1040,-23.437500
1041,-23.437500
1042,-23.437500
1043,-19.531250
1044,-19.531250
1045,-19.531250
1046,-19.531250
1047,-15.625000
1048,-15.625000
1049,-15.625000
1050,-15.625000
1051,-15.625000
1052,-15.625000
1053,-11.718750
1054,-11.718750
1055,-11.718750
1056,-11.718750
1057,-11.718750
1058,-7.812500
1059,-7.812500
1060,-7.812500
1061,-7.812500
1062,-7.812500
1063,-7.812500
1064,-7.812500
1065,-3.906250
1066,-3.906250
1067,-3.906250
1068,-3.906250
1069,-3.906250
1070,0.000000
1071,0.000000
1072,0.000000
1073,0.000000
1074,0.000000
1075,3.906250
1076,3.906250
1077,3.906250
1078,3.906250
1079,3.906250
1080,3.906250
1081,7.812500
1082,7.812500
1083,7.812500
1084,7.812500
1085,7.812500
1086,11.718750
1087,11.718750
1088,11.718750
1089,11.718750
1090,11.718750
1091,11.718750
1092,15.625000
1093,15.625000
1094,15.625000
1095,15.625000
1096,15.625000
1097,19.531250
1098,15.625000
1099,19.531250
1100,19.531250
1101,19.531250
1102,19.531250
1103,23.437500
1104,23.437500
1105,23.437500
1106,23.437500
1107,23.437500
1108,23.437500
1109,27.343750
1110,27.343750
1111,27.343750
1112,27.343750
1113,27.343750
1114,27.343750
1115,31.250000
1116,31.250000
1117,31.250000
1118,31.250000
1119,31.250000
1120,31.250000
1121,35.156250
1122,35.156250
1123,35.156250
1124,35.156250
1125,35.156250
1126,35.156250
1127,35.156250
1128,35.156250
1129,39.062500
1130,39.062500
1131,39.062500
1132,39.062500
1133,42.968750
1134,39.062500
1135,42.968750
1136,42.968750
1137,42.968750
1138,42.968750
1139,46.875000
1140,46.875000
1141,46.875000
1142,46.875000
1143,46.875000
1144,46.875000
1145,46.875000
1146,46.875000
1147,50.781250
1148,50.781250
1149,50.781250
1150,50.781250
1151,50.781250
1152,50.781250
1153,50.781250
1154,50.781250
1155,50.781250
1156,54.687500
1157,54.687500
1158,54.687500
1159,54.687500
1160,54.687500
1161,54.687500
1162,54.687500
1163,54.687500
1164,58.593750
1165,58.593750
1166,58.593750
1167,58.593750
1168,58.593750
1169,58.593750
1170,62.500000
1171,62.500000
1172,62.500000
1173,62.500000
1174,62.500000
1175,62.500000
1176,62.500000
1177,62.500000
1178,62.500000
1179,62.500000
1180,66.406250
1181,66.406250
1182,66.406250
1183,66.406250
1184,66.406250
1185,66.406250
1186,66.406250
1187,70.312500
1188,70.312500
1189,70.312500
1190,70.312500
1191,70.312500
1192,70.312500
1193,70.312500
1194,70.312500
1195,70.312500
1196,74.218750
1197,74.218750
1198,74.218750
1199,74.218750
1200,70.312500
1201,74.218750
1202,74.218750
1203,74.218750
1204,74.218750
1205,74.218750
1206,78.125000
1207,78.125000
1208,78.125000
1209,78.125000
1210,78.125000
1211,78.125000
1212,78.125000
1213,78.125000
1214,78.125000
1215,78.125000
1216,78.125000
1217,82.031250
1218,78.125000
1219,78.125000
1220,78.125000
1221,82.031250
1222,82.031250
1223,82.031250
1224,82.031250
1225,82.031250
1226,82.031250
1227,82.031250
1228,82.031250
1229,82.031250
1230,82.031250
1231,82.031250
1232,85.937500
1233,85.937500
1234,85.937500
1235,85.937500
1236,85.937500
1237,85.937500
1238,85.937500
1239,85.937500
1240,85.937500
1241,85.937500
1242,85.937500
1243,85.937500
1244,85.937500
1245,85.937500
1246,89.843750
1247,89.843750
1248,89.843750
1249,89.843750
1250,89.843750
1251,89.843750
1252,89.843750
1253,89.843750
1254,89.843750
1255,89.843750
1256,89.843750
1257,89.843750
1258,89.843750
1259,89.843750
1260,89.843750
1261,89.843750
1262,89.843750
1263,89.843750
1264,93.750000
1265,93.750000
1266,93.750000
1267,93.750000
1268,93.750000
1269,93.750000
1270,89.843750
1271,93.750000
1272,89.843750
1273,93.750000
1274,93.750000
1275,93.750000
1276,93.750000
1277,93.750000
1278,93.750000
1279,93.750000
1280,93.750000
1281,93.750000
1282,93.750000
1283,93.750000
1284,93.750000
1285,93.750000
1286,93.750000
1287,93.750000
1288,93.750000
1289,93.750000
1290,93.750000
1291,93.750000
1292,93.750000
1293,93.750000
1294,93.750000
1295,93.750000
1296,93.750000
1297,93.750000
1298,93.750000
1299,93.750000
1300,93.750000
1301,93.750000
1302,93.750000
1303,93.750000
1304,93.750000
1305,93.750000
1306,93.750000
1307,93.750000
1308,93.750000
1309,93.750000
1310,93.750000
1311,93.750000
1312,93.750000
1313,93.750000
1314,93.750000
1315,93.750000
1316,93.750000
1317,93.750000
1318,93.750000
1319,93.750000
1320,93.750000
1321,93.750000
1322,93.750000
1323,93.750000
1324,93.750000
1325,93.750000
1326,93.750000
1327,93.750000
1328,93.750000
1329,93.750000
1330,93.750000
1331,93.750000
1332,93.750000
1333,93.750000
1334,93.750000
1335,93.750000
1336,93.750000
1337,93.750000
1338,93.750000
1339,93.750000
1340,93.750000
1341,93.750000
1342,93.750000
1343,93.750000
1344,93.750000
1345,89.843750
1346,89.843750
1347,89.843750
1348,89.843750
1349,89.843750
1350,89.843750
1351,93.750000
1352,89.843750
1353,89.843750
1354,89.843750
1355,89.843750
1356,89.843750
1357,89.843750
1358,89.843750
1359,89.843750
1360,89.843750
1361,89.843750
1362,89.843750
1363,89.843750
1364,89.843750
1365,89.843750
1366,85.937500
1367,85.937500
1368,85.937500
1369,85.937500
1370,85.937500
1371,85.937500
1372,85.937500
1373,85.937500
1374,85.937500
1375,85.937500
1376,85.937500
1377,85.937500
1378,85.937500
1379,85.937500
1380,85.937500
1381,85.937500
1382,85.937500
1383,85.937500
1384,82.031250
1385,82.031250
1386,82.031250
1387,82.031250
1388,82.031250
1389,82.031250
1390,82.031250
1391,82.031250
1392,82.031250
1393,82.031250
1394,82.031250
1395,78.125000
1396,78.125000
1397,78.125000
1398,78.125000
1399,78.125000
1400,78.125000
1401,78.125000
1402,78.125000
1403,78.125000
1404,78.125000
1405,74.218750
1406,74.218750
1407,74.218750
1408,74.218750
1409,74.218750
1410,74.218750
1411,74.218750
1412,74.218750
1413,74.218750
1414,74.218750
1415,74.218750
1416,70.312500
1417,70.312500
1418,70.312500
1419,70.312500
1420,70.312500
1421,70.312500
1422,70.312500
1423,70.312500
1424,70.312500
1425,70.312500
1426,66.406250
1427,66.406250
1428,66.406250
1429,66.406250
1430,66.406250
1431,66.406250
1432,66.406250
1433,66.406250
1434,66.406250
1435,62.500000
1436,62.500000
1437,62.500000
1438,62.500000
1439,62.500000
1440,62.500000
1441,62.500000
1442,62.500000
1443,58.593750
1444,58.593750
1445,58.593750
1446,58.593750
1447,58.593750
1448,58.593750
1449,58.593750
1450,58.593750
1451,54.687500
1452,54.687500
1453,54.687500
1454,54.687500
1455,54.687500
1456,54.687500
1457,54.687500
1458,54.687500
1459,54.687500
1460,50.781250
1461,50.781250
1462,50.781250
1463,50.781250
1464,50.781250
1465,50.781250
1466,46.875000
1467,46.875000
1468,46.875000
1469,46.875000
1470,46.875000
1471,46.875000
1472,42.968750
1473,42.968750
1474,42.968750
1475,42.968750
1476,42.968750
1477,42.968750
1478,42.968750
1479,39.062500
1480,39.062500
1481,39.062500
1482,39.062500
1483,39.062500
1484,39.062500
1485,39.062500
1486,35.156250
1487,35.156250
1488,35.156250
1489,35.156250
1490,35.156250
1491,35.156250
1492,31.250000
1493,31.250000
1494,31.250000
1495,31.250000
1496,31.250000
1497,31.250000
1498,31.250000
1499,27.343750
1500,27.343750
1501,27.343750
1502,27.343750
1503,27.343750
1504,23.437500
1505,23.437500
1506,23.437500
1507,23.437500
1508,23.437500
1509,23.437500
1510,23.437500
1511,19.531250
1512,19.531250
1513,19.531250
1514,19.531250
1515,19.531250
1516,15.625000
1517,15.625000
1518,15.625000
1519,15.625000
1520,15.625000
1521,15.625000
1522,11.718750
1523,11.718750
1524,11.718750
1525,11.718750
1526,11.718750
1527,11.718750
1528,7.812500
1529,7.812500
1530,7.812500
1531,7.812500
1532,7.812500
1533,3.906250
1534,3.906250
1535,3.906250
1536,3.906250
1537,3.906250
1538,3.906250
1539,3.906250
1540,0.000000
1541,0.000000
1542,0.000000
1543,0.000000
1544,-3.906250
1545,-3.906250
1546,-3.906250
1547,-3.906250
1548,-3.906250
1549,-3.906250
1550,-7.812500
1551,-7.812500
1552,-7.812500
1553,-7.812500
1554,-11.718750
1555,-11.718750
1556,-11.718750
1557,-11.718750
1558,-11.718750
1559,-11.718750
1560,-11.718750
1561,-15.625000
1562,-15.625000
1563,-15.625000
1564,-15.625000
1565,-15.625000
1566,-19.531250
1567,-19.531250
1568,-19.531250
1569,-19.531250
1570,-23.437500
1571,-19.531250
1572,-23.437500
1573,-23.437500
1574,-23.437500
1575,-23.437500
1576,-27.343750
1577,-27.343750
1578,-27.343750
1579,-27.343750
1580,-27.343750
1581,-27.343750
1582,-31.250000
1583,-27.343750
1584,-31.250000
1585,-31.250000
1586,-31.250000
1587,-31.250000
1588,-35.156250
1589,-35.156250
1590,-35.156250
1591,-35.156250
1592,-35.156250
1593,-35.156250
1594,-39.062500
1595,-39.062500
1596,-39.062500
1597,-39.062500
1598,-42.968750
1599,-42.968750
1600,-42.968750
1601,-42.968750
1602,-42.968750
1603,-42.968750
1604,-46.875000
1605,-42.968750
1606,-46.875000
1607,-46.875000
1608,-46.875000
1609,-46.875000
1610,-50.781250
1611,-50.781250
1612,-50.781250
1613,-50.781250
1614,-54.687500
1615,-54.687500
1616,-54.687500
1617,-54.687500
1618,-54.687500
1619,-54.687500
1620,-54.687500
1621,-54.687500
1622,-58.593750
1623,-58.593750
1624,-58.593750
1625,-58.593750
1626,-62.500000
1627,-62.500000
1628,-62.500000
1629,-62.500000
1630,-62.500000
1631,-62.500000
1632,-66.406250
1633,-66.406250
1634,-66.406250
1635,-66.406250
1636,-66.406250
1637,-66.406250
1638,-66.406250
1639,-70.312500
1640,-70.312500
1641,-70.312500
1642,-70.312500
1643,-74.218750
1644,-74.218750
1645,-74.218750
1646,-74.218750
1647,-74.218750
1648,-74.218750
1649,-74.218750
1650,-78.125000
1651,-78.125000
1652,-78.125000
1653,-78.125000
1654,-78.125000
1655,-78.125000
1656,-82.031250
1657,-82.031250
1658,-82.031250
1659,-82.031250
1660,-82.031250
1661,-82.031250
1662,-82.031250
1663,-82.031250
1664,-85.937500
1665,-85.937500
1666,-85.937500
1667,-85.937500
1668,-85.937500
1669,-89.843750
1670,-89.843750
1671,-89.843750
1672,-89.843750
1673,-89.843750
1674,-89.843750
1675,-89.843750
1676,-89.843750
1677,-93.750000
1678,-93.750000
1679,-93.750000
1680,-93.750000
1681,-93.750000
1682,-93.750000
1683,-97.656250
1684,-97.656250
1685,-97.656250
1686,-97.656250
1687,-97.656250
1688,-97.656250
1689,-97.656250
1690,-97.656250
1691,-101.562500
1692,-101.562500
1693,-101.562500
1694,-101.562500
1695,-101.562500
1696,-101.562500
1697,-101.562500
1698,-101.562500
1699,-105.468750
1700,-105.468750
1701,-105.468750
1702,-105.468750
1703,-105.468750
1704,-105.468750
1705,-105.468750
1706,-105.468750
1707,-105.468750
1708,-109.375000
1709,-109.375000
1710,-109.375000
1711,-109.375000
1712,-109.375000
1713,-109.375000
1714,-109.375000
1715,-109.375000
1716,-109.375000
1717,-113.281250
1718,-113.281250
1719,-113.281250
1720,-113.281250
1721,-113.281250
1722,-113.281250
1723,-113.281250
1724,-113.281250
1725,-113.281250
1726,-113.281250
1727,-113.281250
1728,-117.187500
1729,-117.187500
1730,-117.187500
1731,-117.187500
1732,-117.187500
1733,-117.187500
1734,-117.187500
1735,-117.187500
1736,-117.187500
1737,-117.187500
1738,-117.187500
1739,-121.093750
1740,-121.093750
1741,-121.093750
1742,-121.093750
1743,-121.093750
1744,-121.093750
1745,-121.093750
1746,-121.093750
1747,-121.093750
1748,-121.093750
1749,-121.093750
1750,-125.000000
1751,-121.093750
1752,-125.000000
1753,-125.000000
1754,-125.000000
1755,-125.000000
1756,-125.000000
1757,-125.000000
1758,-125.000000
1759,-125.000000
1760,-125.000000
1761,-125.000000
1762,-125.000000
1763,-125.000000
1764,-125.000000
1765,-128.906250
1766,-125.000000
1767,-125.000000
1768,-125.000000
1769,-125.000000
1770,-125.000000
1771,-128.906250
1772,-128.906250
1773,-128.906250
1774,-128.906250
1775,-128.906250
1776,-128.906250
1777,-128.906250
1778,-128.906250
1779,-128.906250
1780,-128.906250
1781,-128.906250
1782,-128.906250
1783,-128.906250
1784,-128.906250
1785,-128.906250
1786,-128.906250
1787,-128.906250
1788,-128.906250
1789,-128.906250
1790,-128.906250
1791,-128.906250
1792,-128.906250
1793,-128.906250
1794,-128.906250
1795,-128.906250
1796,-128.906250
1797,-128.906250
1798,-128.906250
1799,-128.906250
1800,-128.906250
1801,-128.906250
1802,-128.906250
1803,-128.906250
1804,-128.906250
1805,-128.906250
1806,-128.906250
1807,-128.906250
1808,-128.906250
1809,-128.906250
1810,-128.906250
1811,-128.906250
1812,-128.906250
1813,-128.906250
1814,-128.906250
1815,-128.906250
1816,-128.906250
1817,-128.906250
1818,-128.906250
1819,-128.906250
1820,-128.906250
1821,-128.906250
1822,-128.906250
1823,-128.906250
1824,-128.906250
1825,-128.906250
1826,-128.906250
1827,-128.906250
1828,-128.906250
1829,-128.906250
1830,-128.906250
1831,-125.000000
1832,-128.906250
1833,-128.906250
1834,-128.906250
1835,-128.906250
1836,-128.906250
1837,-128.906250
1838,-125.000000
1839,-125.000000
1840,-125.000000
1841,-125.000000
1842,-125.000000
1843,-125.000000
1844,-125.000000
1845,-125.000000
1846,-125.000000
1847,-125.000000
1848,-125.000000
1849,-125.000000
1850,-125.000000
1851,-125.000000
1852,-125.000000
1853,-125.000000
1854,-121.093750
1855,-121.093750
1856,-121.093750
1857,-121.093750
1858,-121.093750
1859,-121.093750
1860,-121.093750
1861,-121.093750
1862,-121.093750
1863,-121.093750
1864,-121.093750
1865,-121.093750
1866,-121.093750
1867,-117.187500
1868,-117.187500
1869,-117.187500
1870,-117.187500
1871,-117.187500
1872,-117.187500
1873,-117.187500
1874,-117.187500
1875,-117.187500
1876,-117.187500
1877,-117.187500
1878,-117.187500
1879,-113.281250
1880,-113.281250
1881,-113.281250
1882,-113.281250
1883,-113.281250
1884,-113.281250
1885,-113.281250
1886,-113.281250
1887,-113.281250
1888,-113.281250
1889,-109.375000
1890,-109.375000
1891,-109.375000
1892,-109.375000
1893,-109.375000
1894,-109.375000
1895,-109.375000
1896,-109.375000
1897,-109.375000
1898,-105.468750
1899,-105.468750
1900,-105.468750
1901,-105.468750
1902,-105.468750
1903,-105.468750
1904,-105.468750
1905,-105.468750
1906,-101.562500
1907,-101.562500
1908,-101.562500
1909,-101.562500
1910,-101.562500
1911,-101.562500
1912,-101.562500
1913,-97.656250
1914,-97.656250
1915,-97.656250
1916,-97.656250
1917,-97.656250
1918,-97.656250
1919,-97.656250
1920,-93.750000
1921,-93.750000
1922,-93.750000
1923,-93.750000
1924,-93.750000
1925,-93.750000
1926,-93.750000
1927,-93.750000
1928,-93.750000
1929,-89.843750
1930,-89.843750
1931,-89.843750
1932,-89.843750
1933,-89.843750
1934,-89.843750
1935,-85.937500
1936,-85.937500
1937,-85.937500
1938,-85.937500
1939,-85.937500
1940,-85.937500
1941,-82.031250
1942,-82.031250
1943,-82.031250
1944,-82.031250
1945,-82.031250
1946,-82.031250
1947,-82.031250
1948,-78.125000
1949,-78.125000
1950,-78.125000
1951,-78.125000
1952,-78.125000
1953,-78.125000
1954,-78.125000
1955,-74.218750
1956,-74.218750
1957,-74.218750
1958,-74.218750
1959,-74.218750
1960,-74.218750
1961,-70.312500
1962,-70.312500
1963,-70.312500
1964,-70.312500
1965,-70.312500
1966,-70.312500
1967,-66.406250
1968,-66.406250
1969,-66.406250
1970,-66.406250
1971,-66.406250
1972,-62.500000
1973,-62.500000
1974,-62.500000
1975,-62.500000
1976,-62.500000
1977,-58.593750
1978,-58.593750
1979,-58.593750
1980,-58.593750
1981,-58.593750
1982,-58.593750
1983,-54.687500
1984,-54.687500
1985,-54.687500
1986,-54.687500
1987,-54.687500
1988,-54.687500
1989,-54.687500
1990,-50.781250
1991,-50.781250
1992,-50.781250
1993,-50.781250
1994,-46.875000
1995,-46.875000
1996,-46.875000
1997,-46.875000
1998,-46.875000
1999,-46.875000
2000,-46.875000
2001,-42.968750
2002,-42.968750
2003,-42.968750
2004,-42.968750
2005,-39.062500
2006,-39.062500
2007,-39.062500
2008,-39.062500
2009,-39.062500
2010,-39.062500
2011,-35.156250
2012,-35.156250
2013,-35.156250
2014,-35.156250
2015,-35.156250
2016,-31.250000
2017,-31.250000
2018,-31.250000
2019,-31.250000
2020,-31.250000
2021,-31.250000
2022,-27.343750
2023,-27.343750
2024,-27.343750
2025,-27.343750
2026,-27.343750
2027,-23.437500
2028,-23.437500
2029,-23.437500
2030,-23.437500
2031,-23.437500
2032,-19.531250
2033,-19.531250
2034,-19.531250
2035,-19.531250
2036,-19.531250
2037,-19.531250
2038,-19.531250
2039,-15.625000
2040,-15.625000
2041,-15.625000
2042,-15.625000
2043,-11.718750
2044,-11.718750
2045,-11.718750
2046,-11.718750
2047,-11.718750
2048,-11.718750
2049,-7.812500
2050,-7.812500
2051,-7.812500
2052,-7.812500
2053,-3.906250
2054,-3.906250
2055,-3.906250
2056,-3.906250
2057,-3.906250
2058,-3.906250
2059,-3.906250
2060,0.000000
2061,0.000000
2062,0.000000
2063,0.000000
2064,0.000000
2065,3.906250
2066,3.906250
2067,3.906250
2068,3.906250
2069,3.906250
2070,3.906250
2071,3.906250
2072,7.812500
2073,7.812500
2074,7.812500
2075,7.812500
2076,7.812500
2077,11.718750
2078,11.718750
2079,11.718750
2080,11.718750
2081,11.718750
2082,11.718750
2083,15.625000
2084,15.625000
2085,15.625000
2086,15.625000
2087,15.625000
2088,19.531250
2089,19.531250
2090,19.531250
2091,19.531250
2092,19.531250
2093,19.531250
2094,19.531250
2095,23.437500
2096,23.437500
2097,23.437500
2098,23.437500
2099,27.343750
2100,27.343750
2101,27.343750
2102,27.343750
2103,27.343750
2104,27.343750
2105,27.343750
2106,27.343750
2107,31.250000
2108,31.250000
2109,31.250000
2110,31.250000
2111,31.250000
2112,31.250000
2113,35.156250
2114,35.156250
2115,35.156250
2116,35.156250
2117,39.062500
2118,35.156250
2119,39.062500
2120,39.062500
2121,39.062500
2122,39.062500
2123,39.062500
2124,39.062500
2125,42.968750
2126,42.968750
2127,42.968750
2128,42.968750
2129,42.968750
2130,42.968750
2131,46.875000
2132,46.875000
2133,46.875000
2134,46.875000
2135,46.875000
2136,46.875000
2137,46.875000
2138,46.875000
2139,50.781250
2140,50.781250
2141,50.781250
2142,50.781250
2143,50.781250
2144,50.781250
2145,54.687500
2146,54.687500
2147,54.687500
2148,54.687500
2149,54.687500
2150,54.687500
2151,54.687500
2152,54.687500
2153,54.687500
2154,58.593750
2155,58.593750
2156,58.593750
2157,58.593750
2158,58.593750
2159,58.593750
2160,58.593750
2161,58.593750
2162,62.500000
2163,62.500000
2164,62.500000
2165,62.500000
2166,62.500000
2167,62.500000
2168,62.500000
2169,66.406250
2170,62.500000
2171,66.406250
2172,66.406250
2173,66.406250
2174,66.406250
2175,66.406250
2176,66.406250
2177,66.406250
2178,66.406250
2179,66.406250
2180,66.406250
2181,70.312500
2182,70.312500
2183,70.312500
2184,70.312500
2185,70.312500
2186,70.312500
2187,70.312500
2188,70.312500
2189,70.312500
2190,74.218750
2191,74.218750
2192,74.218750
2193,74.218750
2194,74.218750
2195,74.218750
2196,74.218750
2197,74.218750
2198,74.218750
2199,78.125000
2200,78.125000
2201,78.125000
2202,78.125000
2203,78.125000
2204,78.125000
2205,78.125000
2206,78.125000
2207,78.125000
2208,78.125000
2209,78.125000
2210,82.031250
2211,82.031250
2212,82.031250
2213,82.031250
2214,82.031250
2215,82.031250
2216,82.031250
2217,82.031250
2218,82.031250
2219,82.031250
2220,82.031250
2221,82.031250
2222,82.031250
2223,82.031250
2224,82.031250
2225,85.937500
2226,85.937500
2227,85.937500
2228,85.937500
2229,85.937500
2230,85.937500
2231,85.937500
2232,85.937500
2233,85.937500
2234,85.937500
2235,85.937500
2236,85.937500
2237,85.937500
2238,85.937500
2239,89.843750
2240,89.843750
2241,89.843750
2242,89.843750
2243,89.843750
2244,89.843750
2245,89.843750
2246,89.843750
2247,89.843750
2248,89.843750
2249,89.843750
2250,89.843750
2251,89.843750
2252,89.843750
2253,89.843750
2254,89.843750
2255,89.843750
2256,89.843750
2257,93.750000
2258,89.843750
2259,89.843750
2260,89.843750
2261,89.843750
2262,93.750000
2263,89.843750
2264,93.750000
2265,93.750000
2266,93.750000
2267,93.750000
2268,93.750000
2269,93.750000
2270,93.750000
2271,93.750000
2272,93.750000
2273,93.750000
2274,93.750000
2275,93.750000
2276,93.750000
2277,93.750000
2278,93.750000
2279,93.750000
2280,93.750000
2281,93.750000
2282,93.750000
2283,93.750000
2284,93.750000
2285,93.750000
2286,93.750000
2287,93.750000
2288,93.750000
2289,93.750000
2290,93.750000
2291,93.750000
2292,93.750000
2293,93.750000
2294,97.656250
2295,93.750000
2296,93.750000
2297,93.750000
2298,93.750000
2299,93.750000
2300,93.750000
2301,93.750000
2302,93.750000
2303,93.750000
2304,93.750000
2305,93.750000
2306,93.750000
2307,93.750000
2308,93.750000
2309,93.750000
2310,93.750000
2311,93.750000
2312,93.750000
2313,93.750000
2314,93.750000
2315,93.750000
2316,93.750000
2317,93.750000
2318,93.750000
2319,93.750000
2320,93.750000
2321,93.750000
2322,93.750000
2323,93.750000
2324,93.750000
2325,93.750000
2326,93.750000
2327,93.750000
2328,93.750000
2329,93.750000
2330,93.750000
2331,93.750000
2332,89.843750
2333,89.843750
2334,89.843750
2335,89.843750
2336,89.843750
2337,89.843750
2338,89.843750
2339,89.843750
2340,93.750000
2341,89.843750
2342,89.843750
2343,89.843750
2344,89.843750
2345,89.843750
2346,89.843750
2347,89.843750
2348,89.843750
2349,89.843750
2350,89.843750
2351,89.843750
2352,89.843750
2353,89.843750
2354,89.843750
2355,85.937500
2356,85.937500
2357,89.843750
2358,89.843750
2359,85.937500
2360,85.937500
2361,82.031250
2362,85.937500
2363,82.031250
2364,85.937500
2365,85.937500
2366,85.937500
2367,85.937500
2368,85.937500
2369,85.937500
2370,82.031250
2371,85.937500
2372,82.031250
2373,82.031250
2374,82.031250
2375,82.031250
2376,82.031250
2377,82.031250
2378,82.031250
2379,82.031250
2380,82.031250
2381,82.031250
2382,82.031250
2383,82.031250
2384,82.031250
2385,82.031250
2386,78.125000
2387,78.125000
2388,78.125000
2389,78.125000
2390,78.125000
2391,78.125000
2392,78.125000
2393,74.218750
2394,78.125000
2395,78.125000
2396,74.218750
2397,78.125000
2398,78.125000
2399,74.218750
2400,74.218750
2401,74.218750
2402,74.218750
2403,74.218750
2404,74.218750
2405,74.218750
2406,74.218750
2407,74.218750
2408,70.312500
2409,70.312500
2410,70.312500
2411,70.312500
2412,70.312500
2413,70.312500
2414,70.312500
2415,70.312500
2416,66.406250
2417,66.406250
2418,66.406250
2419,66.406250
2420,66.406250
2421,66.406250
2422,66.406250
2423,66.406250
2424,62.500000
2425,66.406250
2426,62.500000
2427,62.500000
2428,62.500000
2429,62.500000
2430,62.500000
2431,58.593750
2432,62.500000
2433,58.593750
2434,58.593750
2435,58.593750
2436,58.593750
2437,58.593750
2438,58.593750
2439,58.593750
2440,58.593750
2441,58.593750
2442,54.687500
2443,54.687500
2444,54.687500
2445,54.687500
2446,54.687500
2447,54.687500
2448,50.781250
2449,50.781250
2450,50.781250
2451,50.781250
2452,50.781250
2453,50.781250
2454,50.781250
2455,50.781250
2456,46.875000
2457,46.875000
2458,46.875000
2459,46.875000
2460,42.968750
2461,46.875000
2462,46.875000
2463,46.875000
2464,42.968750
2465,42.968750
2466,42.968750
2467,42.968750
2468,39.062500
2469,39.062500
2470,39.062500
2471,39.062500
2472,39.062500
2473,39.062500
2474,39.062500
2475,39.062500
2476,35.156250
2477,35.156250
2478,35.156250
2479,35.156250
2480,35.156250
2481,35.156250
2482,31.250000
2483,31.250000
2484,31.250000
2485,31.250000
2486,31.250000
2487,31.250000
2488,27.343750
2489,27.343750
2490,27.343750
2491,27.343750
2492,27.343750
2493,23.437500
2494,23.437500
2495,27.343750
2496,23.437500
2497,23.437500
2498,23.437500
2499,23.437500
2500,19.531250
2501,19.531250
2502,19.531250
2503,19.531250
2504,19.531250
2505,19.531250
2506,15.625000
2507,15.625000
2508,15.625000
2509,15.625000
2510,15.625000
2511,15.625000
2512,11.718750
2513,11.718750
2514,11.718750
2515,11.718750
2516,11.718750
2517,11.718750
2518,7.812500
2519,7.812500
2520,7.812500
2521,7.812500
2522,7.812500
2523,7.812500
2524,3.906250
2525,3.906250
2526,3.906250
2527,3.906250
2528,3.906250
2529,3.906250
2530,0.000000
2531,0.000000
2532,0.000000
2533,0.000000
2534,0.000000
2535,-3.906250
2536,-3.906250
2537,-3.906250
2538,-3.906250
2539,-3.906250
2540,-7.812500
2541,-7.812500
2542,-7.812500
2543,-7.812500
2544,-7.812500
2545,-7.812500
2546,-11.718750
2547,-11.718750
2548,-11.718750
2549,-11.718750
2550,-11.718750
2551,-15.625000
2552,-15.625000
2553,-15.625000
2554,-15.625000
2555,-15.625000
2556,-19.531250
2557,-19.531250
2558,-19.531250
2559,-19.531250
2560,-19.531250
2561,-23.437500
2562,-23.437500
2563,-23.437500
2564,-23.437500
2565,-23.437500
2566,-23.437500
2567,-23.437500
2568,-27.343750
2569,-27.343750
2570,-27.343750
2571,-27.343750
2572,-31.250000
2573,-31.250000
2574,-31.250000
2575,-31.250000
2576,-31.250000
2577,-31.250000
2578,-35.156250
2579,-35.156250
2580,-35.156250
2581,-35.156250
2582,-35.156250
2583,-35.156250
2584,-39.062500
2585,-39.062500
2586,-39.062500
2587,-39.062500
2588,-42.968750
2589,-42.968750
2590,-42.968750
2591,-42.968750
2592,-42.968750
2593,-42.968750
2594,-46.875000
2595,-46.875000
2596,-46.875000
2597,-46.875000
2598,-50.781250
2599,-50.781250
2600,-50.781250
2601,-50.781250
2602,-50.781250
2603,-50.781250
2604,-50.781250
2605,-50.781250
2606,-54.687500
2607,-54.687500
2608,-54.687500
2609,-54.687500
2610,-54.687500
2611,-58.593750
2612,-58.593750
2613,-58.593750
2614,-58.593750
2615,-58.593750
2616,-58.593750
2617,-62.500000
2618,-62.500000
2619,-62.500000
2620,-62.500000
2621,-62.500000
2622,-62.500000
2623,-66.406250
2624,-66.406250
2625,-66.406250
2626,-66.406250
2627,-66.406250
2628,-70.312500
2629,-70.312500
2630,-70.312500
2631,-70.312500
2632,-70.312500
2633,-70.312500
2634,-74.218750
2635,-74.218750
2636,-74.218750
2637,-74.218750
2638,-74.218750
2639,-74.218750
2640,-74.218750
2641,-78.125000
2642,-78.125000
2643,-78.125000
2644,-78.125000
2645,-78.125000
2646,-78.125000
2647,-82.031250
2648,-82.031250
2649,-82.031250
2650,-82.031250
2651,-82.031250
2652,-82.031250
2653,-85.937500
2654,-85.937500
2655,-85.937500
2656,-85.937500
2657,-85.937500
2658,-85.937500
2659,-85.937500
2660,-89.843750
2661,-89.843750
2662,-89.843750
2663,-89.843750
2664,-89.843750
2665,-89.843750
2666,-93.750000
2667,-93.750000
2668,-93.750000
2669,-93.750000
2670,-93.750000
2671,-93.750000
2672,-93.750000
2673,-93.750000
2674,-93.750000
2675,-97.656250
2676,-97.656250
2677,-97.656250
2678,-97.656250
2679,-97.656250
2680,-97.656250
2681,-97.656250
2682,-101.562500
2683,-101.562500
2684,-101.562500
2685,-101.562500
2686,-101.562500
2687,-101.562500
2688,-101.562500
2689,-101.562500
2690,-105.468750
2691,-105.468750
2692,-105.468750
2693,-105.468750
2694,-105.468750
2695,-105.468750
2696,-105.468750
2697,-109.375000
2698,-109.375000
2699,-105.468750
2700,-109.375000
2701,-109.375000
2702,-109.375000
2703,-109.375000
2704,-109.375000
2705,-109.375000
2706,-109.375000
2707,-109.375000
2708,-113.281250
2709,-113.281250
2710,-113.281250
2711,-113.281250
2712,-113.281250
2713,-113.281250
2714,-113.281250
2715,-113.281250
2716,-117.187500
2717,-117.187500
2718,-117.187500
2719,-117.187500
2720,-117.187500
2721,-117.187500
2722,-117.187500
2723,-117.187500
2724,-117.187500
2725,-117.187500
2726,-117.187500
2727,-117.187500
2728,-121.093750
2729,-121.093750
2730,-121.093750
2731,-121.093750
2732,-121.093750
2733,-121.093750
2734,-121.093750
2735,-121.093750
2736,-121.093750
2737,-121.093750
2738,-121.093750
2739,-121.093750
2740,-121.093750
2741,-121.093750
2742,-125.000000
2743,-125.000000
2744,-125.000000
2745,-125.000000
2746,-125.000000
2747,-125.000000
2748,-125.000000
2749,-125.000000
2750,-125.000000
2751,-125.000000
2752,-125.000000
2753,-125.000000
2754,-125.000000
2755,-125.000000
2756,-125.000000
2757,-125.000000
2758,-125.000000
2759,-125.000000
2760,-128.906250
2761,-125.000000
2762,-128.906250
2763,-128.906250
2764,-128.906250
2765,-128.906250
2766,-128.906250
2767,-128.906250
2768,-128.906250
2769,-128.906250
2770,-128.906250
2771,-128.906250
2772,-128.906250
2773,-128.906250
2774,-128.906250
2775,-128.906250
2776,-128.906250
2777,-128.906250
2778,-128.906250
2779,-128.906250
2780,-128.906250
2781,-128.906250
2782,-128.906250
2783,-128.906250
2784,-128.906250
2785,-128.906250
2786,-128.906250
2787,-128.906250
2788,-128.906250
2789,-128.906250
2790,-128.906250
2791,-128.906250
2792,-128.906250
2793,-128.906250
2794,-128.906250
2795,-128.906250
2796,-128.906250
2797,-128.906250
2798,-128.906250
2799,-128.906250
2800,-128.906250
2801,-128.906250
2802,-128.906250
2803,-128.906250
2804,-128.906250
2805,-128.906250
2806,-128.906250
2807,-128.906250
2808,-128.906250
2809,-128.906250
2810,-128.906250
2811,-128.906250
2812,-128.906250
2813,-128.906250
2814,-128.906250
2815,-128.906250
2816,-128.906250
2817,-128.906250
2818,-128.906250
2819,-128.906250
2820,-128.906250
2821,-128.906250
2822,-128.906250
2823,-125.000000
2824,-128.906250
2825,-125.000000
2826,-125.000000
2827,-125.000000
2828,-125.000000
2829,-125.000000
2830,-125.000000
2831,-125.000000
2832,-125.000000
2833,-125.000000
2834,-125.000000
2835,-125.000000
2836,-125.000000
2837,-125.000000
2838,-125.000000
2839,-125.000000
2840,-125.000000
2841,-125.000000
2842,-125.000000
2843,-121.093750
2844,-121.093750
2845,-121.093750
2846,-121.093750
2847,-121.093750
2848,-121.093750
2849,-121.093750
2850,-117.187500
2851,-121.093750
2852,-121.093750
2853,-121.093750
2854,-121.093750
2855,-117.187500
2856,-121.093750
2857,-117.187500
2858,-117.187500
2859,-117.187500
2860,-117.187500
2861,-117.187500
2862,-113.281250
2863,-117.187500
2864,-117.187500
2865,-117.187500
2866,-117.187500
2867,-117.187500
2868,-113.281250
2869,-113.281250
2870,-113.281250
2871,-113.281250
2872,-113.281250
2873,-113.281250
2874,-113.281250
2875,-113.281250
2876,-113.281250
2877,-113.281250
2878,-113.281250
2879,-109.375000
2880,-109.375000
2881,-109.375000
2882,-109.375000
2883,-109.375000
2884,-109.375000
2885,-109.375000
2886,-109.375000
2887,-109.375000
2888,-105.468750
2889,-105.468750
2890,-105.468750
2891,-105.468750
2892,-105.468750
2893,-105.468750
2894,-105.468750
2895,-101.562500
2896,-101.562500
2897,-101.562500
2898,-101.562500
2899,-101.562500
2900,-101.562500
2901,-101.562500
2902,-101.562500
2903,-101.562500
2904,-101.562500
2905,-97.656250
2906,-97.656250
2907,-97.656250
2908,-97.656250
2909,-97.656250
2910,-93.750000
2911,-93.750000
2912,-93.750000
2913,-93.750000
2914,-93.750000
2915,-93.750000
2916,-93.750000
2917,-89.843750
2918,-89.843750
2919,-89.843750
2920,-89.843750
2921,-89.843750
2922,-89.843750
2923,-85.937500
2924,-85.937500
2925,-85.937500
2926,-85.937500
2927,-85.937500
2928,-85.937500
2929,-85.937500
2930,-85.937500
2931,-82.031250
2932,-82.031250
2933,-82.031250
2934,-82.031250
2935,-82.031250
2936,-82.031250
2937,-82.031250
2938,-78.125000
2939,-78.125000
2940,-78.125000
2941,-78.125000
2942,-78.125000
2943,-78.125000
2944,-74.218750
2945,-74.218750
2946,-74.218750
2947,-74.218750
2948,-74.218750
2949,-70.312500
2950,-70.312500
2951,-70.312500
2952,-70.312500
2953,-70.312500
2954,-70.312500
2955,-70.312500
2956,-66.406250
2957,-66.406250
2958,-66.406250
2959,-66.406250
2960,-66.406250
2961,-62.500000
2962,-62.500000
2963,-62.500000
2964,-62.500000
2965,-62.500000
2966,-62.500000
2967,-62.500000
2968,-58.593750
2969,-58.593750
2970,-58.593750
2971,-58.593750
2972,-58.593750
2973,-54.687500
2974,-54.687500
2975,-54.687500
2976,-54.687500
2977,-54.687500
2978,-54.687500
2979,-50.781250
2980,-50.781250
2981,-50.781250
2982,-50.781250
2983,-50.781250
2984,-46.875000
2985,-46.875000
2986,-46.875000
2987,-46.875000
2988,-46.875000
2989,-46.875000
2990,-46.875000
2991,-42.968750
2992,-42.968750
2993,-42.968750
2994,-42.968750
2995,-39.062500
2996,-39.062500
2997,-39.062500
2998,-39.062500
2999,-39.062500
3000,-39.062500
3001,-35.156250
3002,-35.156250
3003,-35.156250
3004,-35.156250
3005,-35.156250
3006,-35.156250
3007,-31.250000
3008,-31.250000
3009,-31.250000
3010,-31.250000
3011,-31.250000
3012,-27.343750
3013,-27.343750
3014,-27.343750
3015,-27.343750
3016,-27.343750
3017,-27.343750
3018,-23.437500
3019,-23.437500
3020,-23.437500
3021,-23.437500
3022,-23.437500
3023,-19.531250
3024,-19.531250
3025,-19.531250
3026,-19.531250
3027,-19.531250
3028,-19.531250
3029,-15.625000
3030,-15.625000
3031,-15.625000
3032,-15.625000
3033,-11.718750
3034,-11.718750
3035,-11.718750
3036,-11.718750
3037,-11.718750
3038,-11.718750
3039,-7.812500
3040,-7.812500
3041,-7.812500
3042,-7.812500
3043,-7.812500
3044,-7.812500
3045,-3.906250
3046,-3.906250
3047,-3.906250
3048,-3.906250
3049,-3.906250
3050,-3.906250
3051,0.000000
3052,0.000000
3053,0.000000
3054,0.000000
3055,3.906250
3056,3.906250
3057,3.906250
3058,3.906250
3059,3.906250
3060,3.906250
3061,3.906250
3062,7.812500
3063,7.812500
3064,7.812500
3065,7.812500
3066,7.812500
3067,11.718750
3068,11.718750
3069,11.718750
3070,11.718750
3071,11.718750
3072,15.625000
3073,15.625000
3074,15.625000
3075,15.625000
3076,15.625000
3077,15.625000
3078,15.625000
3079,19.531250
3080,19.531250
3081,19.531250
3082,19.531250
3083,19.531250
3084,19.531250
3085,23.437500
3086,23.437500
3087,23.437500
3088,23.437500
3089,23.437500
3090,23.437500
3091,27.343750
3092,27.343750
3093,27.343750
3094,27.343750
3095,27.343750
3096,31.250000
3097,31.250000
3098,31.250000
3099,31.250000
3100,31.250000
3101,31.250000
3102,31.250000
3103,35.156250
3104,35.156250
3105,35.156250
3106,35.156250
3107,35.156250
3108,35.156250
3109,35.156250
3110,39.062500
3111,39.062500
3112,39.062500
3113,39.062500
3114,39.062500
3115,42.968750
3116,42.968750
3117,42.968750
3118,42.968750
3119,42.968750
3120,42.968750
3121,42.968750
3122,46.875000
3123,46.875000
3124,46.875000
3125,46.875000
3126,46.875000
3127,46.875000
3128,46.875000
3129,50.781250
3130,50.781250
3131,50.781250
3132,50.781250
3133,50.781250
3134,50.781250
3135,50.781250
3136,54.687500
3137,54.687500
3138,54.687500
3139,54.687500
3140,54.687500
3141,54.687500
3142,54.687500
3143,54.687500
3144,58.593750
3145,58.593750
3146,58.593750
3147,58.593750
3148,58.593750
3149,58.593750
3150,58.593750
3151,58.593750
3152,62.500000
3153,62.500000
3154,62.500000
3155,62.500000
3156,62.500000
3157,62.500000
3158,62.500000
3159,62.500000
3160,66.406250
3161,66.406250
3162,66.406250
3163,66.406250
3164,66.406250
3165,66.406250
3166,66.406250
3167,66.406250
3168,66.406250
3169,70.312500
3170,70.312500
3171,70.312500
3172,70.312500
3173,70.312500
3174,70.312500
3175,70.312500
3176,70.312500
3177,70.312500
3178,70.312500
3179,74.218750
3180,74.218750
3181,74.218750
3182,74.218750
3183,74.218750
3184,74.218750
3185,74.218750
3186,74.218750
3187,78.125000
3188,78.125000
3189,78.125000
3190,78.125000
3191,78.125000
3192,78.125000
3193,78.125000
3194,78.125000
3195,78.125000
3196,78.125000
3197,78.125000
3198,78.125000
3199,82.031250
3200,78.125000
3201,82.031250
3202,82.031250
3203,82.031250
3204,82.031250
3205,82.031250
3206,82.031250
3207,82.031250
3208,82.031250
3209,82.031250
3210,82.031250
3211,85.937500
3212,85.937500
3213,85.937500
3214,85.937500
3215,85.937500
3216,85.937500
3217,85.937500
3218,85.937500
3219,85.937500
3220,85.937500
3221,85.937500
3222,85.937500
3223,85.937500
3224,85.937500
3225,85.937500
3226,85.937500
3227,85.937500
3228,85.937500
3229,89.843750
3230,89.843750
3231,89.843750
3232,89.843750
3233,89.843750
3234,89.843750
3235,89.843750
3236,89.843750
3237,89.843750
3238,89.843750
3239,89.843750
3240,89.843750
3241,89.843750
3242,89.843750
3243,89.843750
3244,89.843750
3245,89.843750
3246,89.843750
3247,89.843750
3248,89.843750
3249,89.843750
3250,93.750000
3251,93.750000
3252,93.750000
3253,93.750000
3254,93.750000
3255,89.843750
3256,89.843750
3257,93.750000
3258,89.843750
3259,93.750000
3260,93.750000
3261,93.750000
3262,93.750000
3263,93.750000
3264,93.750000
3265,93.750000
3266,93.750000
3267,93.750000
3268,93.750000
3269,93.750000
3270,93.750000
3271,93.750000
3272,93.750000
3273,93.750000
3274,93.750000
3275,93.750000
3276,93.750000
3277,93.750000
3278,93.750000
3279,93.750000
3280,93.750000
3281,93.750000
3282,93.750000
3283,93.750000
3284,93.750000
3285,93.750000
3286,93.750000
3287,93.750000
3288,93.750000
3289,93.750000
3290,93.750000
3291,93.750000
3292,93.750000
3293,93.750000
3294,93.750000
3295,93.750000
3296,93.750000
3297,93.750000
3298,93.750000
3299,93.750000
3300,93.750000
3301,93.750000
3302,93.750000
3303,93.750000
3304,93.750000
3305,93.750000
3306,93.750000
3307,93.750000
3308,93.750000
3309,93.750000
3310,93.750000
3311,93.750000
3312,93.750000
3313,93.750000
3314,93.750000
3315,93.750000
3316,93.750000
3317,93.750000
3318,93.750000
3319,93.750000
3320,89.843750
3321,93.750000
3322,89.843750
3323,93.750000
3324,93.750000
3325,89.843750
3326,93.750000
3327,89.843750
3328,89.843750
3329,89.843750
3330,89.843750
3331,89.843750
3332,89.843750
3333,89.843750
3334,89.843750
3335,89.843750
3336,89.843750
3337,89.843750
3338,89.843750
3339,89.843750
3340,89.843750
3341,89.843750
3342,89.843750
3343,89.843750
3344,89.843750
3345,89.843750
3346,85.937500
3347,85.937500
3348,85.937500
3349,85.937500
3350,85.937500
3351,85.937500
3352,85.937500
3353,85.937500
3354,85.937500
3355,85.937500
3356,85.937500
3357,85.937500
3358,85.937500
3359,85.937500
3360,85.937500
3361,85.937500
3362,82.031250
3363,85.937500
3364,85.937500
3365,82.031250
3366,82.031250
3367,82.031250
3368,82.031250
3369,82.031250
3370,82.031250
3371,82.031250
3372,82.031250
3373,82.031250
3374,82.031250
3375,82.031250
3376,78.125000
3377,78.125000
3378,78.125000
3379,78.125000
3380,78.125000
3381,78.125000
3382,78.125000
3383,78.125000
3384,78.125000
3385,78.125000
3386,78.125000
3387,78.125000
3388,74.218750
3389,74.218750
3390,74.218750
3391,74.218750
3392,74.218750
3393,74.218750
3394,74.218750
3395,74.218750
3396,74.218750
3397,70.312500
3398,70.312500
3399,70.312500
3400,70.312500
3401,70.312500
3402,70.312500
3403,70.312500
3404,70.312500
3405,70.312500
3406,66.406250
3407,66.406250
3408,66.406250
3409,66.406250
3410,66.406250
3411,66.406250
3412,66.406250
3413,66.406250
3414,66.406250
3415,66.406250
3416,62.500000
3417,62.500000
3418,62.500000
3419,62.500000
3420,62.500000
3421,62.500000
3422,62.500000
3423,62.500000
3424,58.593750
3425,58.593750
3426,58.593750
3427,58.593750
3428,58.593750
3429,58.593750
3430,58.593750
3431,58.593750
3432,54.687500
3433,54.687500
3434,54.687500
3435,54.687500
3436,54.687500
3437,54.687500
3438,50.781250
3439,50.781250
3440,50.781250
3441,50.781250
3442,50.781250
3443,50.781250
3444,50.781250
3445,50.781250
3446,50.781250
3447,46.875000
3448,46.875000
3449,46.875000
3450,46.875000
3451,46.875000
3452,42.968750
3453,42.968750
3454,42.968750
3455,42.968750
3456,42.968750
3457,42.968750
3458,42.968750
3459,42.968750
3460,42.968750
3461,39.062500
3462,39.062500
3463,39.062500
3464,39.062500
3465,39.062500
3466,35.156250
3467,35.156250
3468,35.156250
3469,35.156250
3470,35.156250
3471,35.156250
3472,35.156250
3473,35.156250
3474,31.250000
3475,31.250000
3476,31.250000
3477,31.250000
3478,31.250000
3479,27.343750
3480,27.343750
3481,27.343750
3482,27.343750
3483,27.343750
3484,23.437500
3485,23.437500
3486,23.437500
3487,23.437500
3488,23.437500
3489,23.437500
3490,19.531250
3491,19.531250
3492,19.531250
3493,19.531250
3494,19.531250
3495,19.531250
3496,19.531250
3497,15.625000
3498,15.625000
3499,15.625000
3500,15.625000
3501,15.625000
3502,11.718750
3503,11.718750
3504,11.718750
3505,11.718750
3506,11.718750
3507,11.718750
3508,7.812500
3509,7.812500
3510,7.812500
3511,7.812500
3512,7.812500
3513,3.906250
3514,3.906250
3515,3.906250
3516,3.906250
3517,3.906250
3518,3.906250
3519,3.906250
3520,0.000000
3521,0.000000
3522,0.000000
3523,0.000000
3524,0.000000
3525,0.000000
3526,-3.906250
3527,-3.906250
3528,-3.906250
3529,-3.906250
3530,-7.812500
3531,-7.812500
3532,-7.812500
3533,-7.812500
3534,-7.812500
3535,-7.812500
3536,-11.718750
3537,-11.718750
3538,-11.718750
3539,-11.718750
3540,-11.718750
3541,-15.625000
3542,-15.625000
3543,-15.625000
3544,-15.625000
3545,-15.625000
3546,-15.625000
3547,-19.531250
3548,-19.531250
3549,-19.531250
3550,-19.531250
3551,-19.531250
3552,-19.531250
3553,-23.437500
3554,-23.437500
3555,-23.437500
3556,-23.437500
3557,-27.343750
3558,-27.343750
3559,-27.343750
3560,-27.343750
3561,-27.343750
3562,-27.343750
3563,-31.250000
3564,-31.250000
3565,-31.250000
3566,-31.250000
3567,-31.250000
3568,-35.156250
3569,-35.156250
3570,-35.156250
3571,-35.156250
3572,-35.156250
3573,-35.156250
3574,-39.062500
3575,-39.062500
3576,-39.062500
3577,-39.062500
3578,-39.062500
3579,-39.062500
3580,-42.968750
3581,-42.968750
3582,-42.968750
3583,-42.968750
3584,-42.968750
3585,-46.875000
3586,-46.875000
3587,-46.875000
3588,-46.875000
3589,-46.875000
3590,-46.875000
3591,-50.781250
3592,-50.781250
3593,-50.781250
3594,-50.781250
3595,-50.781250
3596,-54.687500
3597,-54.687500
3598,-54.687500
3599,-54.687500
3600,-54.687500
3601,-58.593750
3602,-54.687500
3603,-58.593750
3604,-58.593750
3605,-58.593750
3606,-58.593750
3607,-58.593750
3608,-62.500000
3609,-62.500000
3610,-62.500000
3611,-62.500000
3612,-66.406250
3613,-66.406250
3614,-66.406250
3615,-66.406250
3616,-66.406250
3617,-66.406250
3618,-70.312500
3619,-70.312500
3620,-70.312500
3621,-70.312500
3622,-70.312500
3623,-70.312500
3624,-74.218750
3625,-74.218750
3626,-74.218750
3627,-74.218750
3628,-74.218750
3629,-74.218750
3630,-74.218750
3631,-78.125000
3632,-78.125000
3633,-78.125000
3634,-78.125000
3635,-78.125000
3636,-82.031250
3637,-82.031250
3638,-82.031250
3639,-82.031250
3640,-82.031250
3641,-82.031250
3642,-82.031250
3643,-85.937500
3644,-85.937500
3645,-85.937500
3646,-85.937500
3647,-85.937500
3648,-85.937500
3649,-85.937500
3650,-89.843750
3651,-89.843750
3652,-89.843750
3653,-89.843750
3654,-89.843750
3655,-89.843750
3656,-89.843750
3657,-93.750000
3658,-93.750000
3659,-93.750000
3660,-93.750000
3661,-93.750000
3662,-93.750000
3663,-97.656250
3664,-97.656250
3665,-97.656250
3666,-97.656250
3667,-97.656250
3668,-97.656250
3669,-97.656250
3670,-101.562500
3671,-97.656250
3672,-101.562500
3673,-101.562500
3674,-101.562500
3675,-101.562500
3676,-101.562500
3677,-101.562500
3678,-101.562500
3679,-105.468750
3680,-105.468750
3681,-105.468750
3682,-105.468750
3683,-105.468750
3684,-105.468750
3685,-105.468750
3686,-109.375000
3687,-109.375000
3688,-109.375000
3689,-109.375000
3690,-109.375000
3691,-109.375000
3692,-109.375000
3693,-109.375000
3694,-109.375000
3695,-109.375000
3696,-109.375000
3697,-109.375000
3698,-113.281250
3699,-113.281250
3700,-113.281250
3701,-113.281250
3702,-113.281250
3703,-113.281250
3704,-113.281250
3705,-113.281250
3706,-117.187500
3707,-117.187500
3708,-117.187500
3709,-117.187500
3710,-117.187500
3711,-117.187500
3712,-117.187500
3713,-117.187500
3714,-117.187500
3715,-117.187500
3716,-121.093750
3717,-117.187500
3718,-117.187500
3719,-121.093750
3720,-121.093750
3721,-121.093750
3722,-121.093750
3723,-121.093750
3724,-121.093750
3725,-121.093750
3726,-121.093750
3727,-121.093750
3728,-121.093750
3729,-121.093750
3730,-125.000000
3731,-125.000000
3732,-125.000000
3733,-121.093750
3734,-125.000000
3735,-125.000000
3736,-125.000000
3737,-125.000000
3738,-125.000000
3739,-125.000000
3740,-125.000000
3741,-125.000000
3742,-125.000000
3743,-125.000000
3744,-125.000000
3745,-125.000000
3746,-125.000000
3747,-125.000000
3748,-125.000000
3749,-125.000000
3750,-125.000000
3751,-128.906250
3752,-128.906250
3753,-128.906250
3754,-128.906250
3755,-128.906250
3756,-128.906250
3757,-128.906250
3758,-128.906250
3759,-128.906250
3760,-128.906250
3761,-128.906250
3762,-128.906250
3763,-128.906250
3764,-128.906250
3765,-128.906250
3766,-128.906250
3767,-128.906250
3768,-128.906250
3769,-128.906250
3770,-128.906250
3771,-128.906250
3772,-128.906250
3773,-128.906250
3774,-128.906250
3775,-128.906250
3776,-128.906250
3777,-128.906250
3778,-128.906250
3779,-128.906250
3780,-128.906250
3781,-128.906250
3782,-128.906250
3783,-128.906250
3784,-128.906250
3785,-128.906250
3786,-128.906250
3787,-128.906250
3788,-128.906250
3789,-128.906250
3790,-128.906250
3791,-128.906250
3792,-128.906250
3793,-128.906250
3794,-128.906250
3795,-128.906250
3796,-128.906250
3797,-128.906250
3798,-128.906250
3799,-128.906250
3800,-128.906250
3801,-128.906250
3802,-128.906250
3803,-128.906250
3804,-128.906250
3805,-128.906250
3806,-128.906250
3807,-128.906250
3808,-128.906250
3809,-128.906250
3810,-128.906250
3811,-128.906250
3812,-128.906250
3813,-125.000000
3814,-125.000000
3815,-125.000000
3816,-125.000000
3817,-125.000000
3818,-125.000000
3819,-125.000000
3820,-125.000000
3821,-125.000000
3822,-125.000000
3823,-125.000000
3824,-125.000000
3825,-125.000000
3826,-125.000000
3827,-125.000000
3828,-125.000000
3829,-125.000000
3830,-125.000000
3831,-121.093750
3832,-121.093750
3833,-121.093750
3834,-121.093750
3835,-121.093750
3836,-121.093750
3837,-121.093750
3838,-121.093750
3839,-121.093750
3840,-121.093750
3841,-121.093750
3842,-121.093750
3843,-121.093750
3844,-121.093750
3845,-121.093750
3846,-121.093750
3847,-117.187500
3848,-117.187500
3849,-117.187500
3850,-117.187500
3851,-117.187500
3852,-117.187500
3853,-117.187500
3854,-117.187500
3855,-117.187500
3856,-113.281250
3857,-117.187500
3858,-117.187500
3859,-117.187500
3860,-113.281250
3861,-113.281250
3862,-113.281250
3863,-113.281250
3864,-113.281250
3865,-113.281250
3866,-109.375000
3867,-109.375000
3868,-113.281250
3869,-109.375000
3870,-113.281250
3871,-113.281250
3872,-109.375000
3873,-109.375000
3874,-109.375000
3875,-105.468750
3876,-109.375000
3877,-109.375000
3878,-105.468750
3879,-105.468750
3880,-105.468750
3881,-105.468750
3882,-105.468750
3883,-105.468750
3884,-105.468750
3885,-101.562500
3886,-101.562500
3887,-101.562500
3888,-101.562500
3889,-101.562500
3890,-101.562500
3891,-101.562500
3892,-101.562500
3893,-97.656250
3894,-97.656250
3895,-97.656250
3896,-97.656250
3897,-97.656250
3898,-97.656250
3899,-97.656250
3900,-97.656250
3901,-93.750000
3902,-93.750000
3903,-93.750000
3904,-93.750000
3905,-93.750000
3906,-93.750000
3907,-93.750000
3908,-89.843750
3909,-89.843750
3910,-89.843750
3911,-89.843750
3912,-89.843750
3913,-89.843750
3914,-85.937500
3915,-89.843750
3916,-85.937500
3917,-85.937500
3918,-85.937500
3919,-85.937500
3920,-85.937500
3921,-82.031250
3922,-82.031250
3923,-82.031250
3924,-82.031250
3925,-82.031250
3926,-82.031250
3927,-82.031250
3928,-78.125000
3929,-78.125000
3930,-78.125000
3931,-78.125000
3932,-78.125000
3933,-78.125000
3934,-78.125000
3935,-74.218750
3936,-74.218750
3937,-74.218750
3938,-74.218750
3939,-74.218750
3940,-74.218750
3941,-70.312500
3942,-70.312500
3943,-70.312500
3944,-66.406250
3945,-66.406250
3946,-66.406250
3947,-62.500000
3948,-66.406250
3949,-66.406250
3950,-66.406250
3951,-62.500000
3952,-62.500000
3953,-58.593750
3954,-62.500000
3955,-58.593750
3956,-62.500000
3957,-58.593750
3958,-58.593750
3959,-58.593750
3960,-58.593750
3961,-58.593750
3962,-58.593750
3963,-54.687500
3964,-54.687500
3965,-54.687500
3966,-54.687500
3967,-54.687500
3968,-50.781250
3969,-50.781250
3970,-50.781250
3971,-50.781250
3972,-50.781250
3973,-50.781250
3974,-50.781250
3975,-46.875000
3976,-46.875000
3977,-46.875000
3978,-46.875000
3979,-46.875000
3980,-42.968750
3981,-42.968750
3982,-42.968750
3983,-42.968750
3984,-42.968750
3985,-42.968750
3986,-39.062500
3987,-39.062500
3988,-39.062500
3989,-39.062500
3990,-39.062500
3991,-35.156250
3992,-35.156250
3993,-35.156250
3994,-35.156250
3995,-35.156250
3996,-35.156250
3997,-31.250000
3998,-31.250000
3999,-31.250000
4000,-31.250000
4001,-31.250000
4002,-27.343750
4003,-27.343750
4004,-27.343750
4005,-27.343750
4006,-27.343750
4007,-23.437500
4008,-23.437500
4009,-23.437500
4010,-23.437500
4011,-23.437500
4012,-23.437500
4013,-19.531250
4014,-19.531250
4015,-19.531250
4016,-19.531250
4017,-19.531250
4018,-19.531250
4019,-15.625000
4020,-15.625000
4021,-11.718750
4022,-11.718750
4023,-11.718750
4024,-11.718750
4025,-11.718750
4026,-11.718750
4027,-11.718750
4028,-11.718750
4029,-7.812500
4030,-7.812500
4031,-7.812500
4032,-7.812500
4033,-7.812500
4034,-7.812500
4035,-3.906250
4036,-3.906250
4037,-3.906250
4038,-3.906250
4039,-3.906250
4040,0.000000
4041,0.000000
4042,0.000000
4043,0.000000
4044,0.000000
4045,3.906250
4046,0.000000
4047,3.906250
4048,3.906250
4049,3.906250
4050,3.906250
4051,7.812500
4052,7.812500
4053,7.812500
4054,7.812500
4055,7.812500
4056,7.812500
4057,11.718750
4058,11.718750
4059,11.718750
4060,11.718750
4061,11.718750
4062,15.625000
4063,15.625000
4064,15.625000
4065,15.625000
4066,15.625000
4067,15.625000
4068,19.531250
4069,19.531250
4070,19.531250
4071,19.531250
4072,19.531250
4073,19.531250
4074,23.437500
4075,23.437500
4076,23.437500
4077,23.437500
4078,23.437500
4079,23.437500
4080,27.343750
4081,27.343750
4082,27.343750
4083,27.343750
4084,27.343750
4085,31.250000
4086,31.250000
4087,31.250000
4088,31.250000
4089,31.250000
4090,31.250000
4091,31.250000
4092,35.156250
4093,35.156250
4094,35.156250
4095,35.156250
4096,35.156250
4097,35.156250
4098,39.062500
4099,39.062500
4100,39.062500
4101,39.062500
4102,39.062500
4103,39.062500
4104,39.062500
4105,42.968750
4106,42.968750
4107,42.968750
4108,42.968750
4109,42.968750
4110,42.968750
4111,46.875000
4112,46.875000
4113,46.875000
4114,46.875000
4115,46.875000
4116,46.875000
4117,46.875000
4118,46.875000
4119,50.781250
4120,50.781250
4121,50.781250
4122,50.781250
4123,50.781250
4124,50.781250
4125,54.687500
4126,54.687500
4127,54.687500
4128,54.687500
4129,54.687500
4130,54.687500
4131,54.687500
4132,58.593750
4133,58.593750
4134,58.593750
4135,58.593750
4136,58.593750
4137,58.593750
4138,58.593750
4139,58.593750
4140,58.593750
4141,62.500000
4142,62.500000
4143,62.500000
4144,62.500000
4145,62.500000
4146,62.500000
4147,62.500000
4148,62.500000
4149,66.406250
4150,66.406250
4151,66.406250
4152,66.406250
4153,66.406250
4154,66.406250
4155,66.406250
4156,66.406250
4157,66.406250
4158,70.312500
4159,70.312500
4160,70.312500
4161,70.312500
4162,70.312500
4163,70.312500
4164,70.312500
4165,70.312500
4166,70.312500
4167,70.312500
4168,70.312500
4169,74.218750
4170,74.218750
4171,74.218750
4172,74.218750
4173,74.218750
4174,74.218750
4175,74.218750
4176,74.218750
4177,78.125000
4178,78.125000
4179,78.125000
4180,78.125000
4181,78.125000
4182,78.125000
4183,78.125000
4184,78.125000
4185,78.125000
4186,78.125000
4187,78.125000
4188,78.125000
4189,82.031250
4190,82.031250
4191,82.031250
4192,82.031250
4193,82.031250
4194,82.031250
4195,82.031250
4196,82.031250
4197,82.031250
4198,82.031250
4199,82.031250
4200,82.031250
4201,85.937500
4202,85.937500
4203,85.937500
4204,85.937500
4205,85.937500
4206,85.937500
4207,85.937500
4208,85.937500
4209,85.937500
4210,85.937500
4211,85.937500
4212,85.937500
4213,85.937500
4214,85.937500
4215,89.843750
4216,85.937500
4217,89.843750
4218,89.843750
4219,85.937500
4220,89.843750
4221,89.843750
4222,85.937500
4223,89.843750
4224,89.843750
4225,89.843750
4226,89.843750
4227,89.843750
4228,89.843750
4229,89.843750
4230,89.843750
4231,89.843750
4232,89.843750
4233,89.843750
4234,89.843750
4235,93.750000
4236,93.750000
4237,89.843750
4238,89.843750
4239,89.843750
4240,93.750000
4241,93.750000
4242,89.843750
4243,93.750000
4244,93.750000
4245,93.750000
4246,93.750000
4247,93.750000
4248,93.750000
4249,93.750000
4250,93.750000
4251,93.750000
4252,93.750000
4253,93.750000
4254,93.750000
4255,93.750000
4256,93.750000
4257,93.750000
4258,93.750000
4259,93.750000
4260,93.750000
4261,93.750000
4262,93.750000
4263,93.750000
4264,93.750000
4265,93.750000
4266,93.750000
4267,93.750000
4268,93.750000
4269,93.750000
4270,93.750000
4271,93.750000
4272,93.750000
4273,93.750000
4274,93.750000
4275,93.750000
4276,93.750000
4277,93.750000
4278,93.750000
4279,93.750000
4280,93.750000
4281,93.750000
4282,93.750000
4283,93.750000
4284,93.750000
4285,93.750000
4286,93.750000
4287,93.750000
4288,93.750000
4289,93.750000
4290,93.750000
4291,93.750000
4292,93.750000
4293,93.750000
4294,93.750000
4295,93.750000
4296,93.750000
4297,93.750000
4298,93.750000
4299,93.750000
4300,93.750000
4301,93.750000
4302,93.750000
4303,93.750000
4304,93.750000
4305,93.750000
4306,93.750000
4307,93.750000
4308,93.750000
4309,93.750000
4310,93.750000
4311,93.750000
4312,89.843750
4313,93.750000
4314,89.843750
4315,89.843750
4316,89.843750
4317,93.750000
4318,89.843750
4319,89.843750
4320,89.843750
4321,89.843750
4322,89.843750
4323,89.843750
4324,89.843750
4325,89.843750
4326,89.843750
4327,89.843750
4328,89.843750
4329,89.843750
4330,85.937500
4331,89.843750
4332,89.843750
4333,89.843750
4334,89.843750
4335,89.843750
4336,85.937500
4337,85.937500
4338,85.937500
4339,85.937500
4340,85.937500
4341,85.937500
4342,85.937500
4343,85.937500
4344,85.937500
4345,85.937500
4346,85.937500
4347,85.937500
4348,85.937500
4349,82.031250
4350,85.937500
4351,82.031250
4352,85.937500
4353,85.937500
4354,82.031250
4355,82.031250
4356,82.031250
4357,82.031250
4358,82.031250
4359,82.031250
4360,82.031250
4361,82.031250
4362,82.031250
4363,78.125000
4364,82.031250
4365,82.031250
4366,78.125000
4367,78.125000
4368,78.125000
4369,78.125000
4370,78.125000
4371,78.125000
4372,78.125000
4373,78.125000
4374,78.125000
4375,78.125000
4376,74.218750
4377,74.218750
4378,74.218750
4379,74.218750
4380,74.218750
4381,74.218750
4382,74.218750
4383,74.218750
4384,74.218750
4385,70.312500
4386,70.312500
4387,70.312500
4388,70.312500
4389,70.312500
4390,70.312500
4391,70.312500
4392,70.312500
4393,70.312500
4394,70.312500
4395,66.406250
4396,66.406250
4397,66.406250
4398,66.406250
4399,66.406250
4400,66.406250
4401,66.406250
4402,66.406250
4403,66.406250
4404,62.500000
4405,62.500000
4406,62.500000
4407,62.500000
4408,62.500000
4409,62.500000
4410,62.500000
4411,62.500000
4412,62.500000
4413,58.593750
4414,58.593750
4415,58.593750
4416,58.593750
4417,58.593750
4418,58.593750
4419,58.593750
4420,54.687500
4421,54.687500
4422,54.687500
4423,54.687500
4424,54.687500
4425,54.687500
4426,54.687500
4427,54.687500
4428,54.687500
4429,50.781250
4430,50.781250
4431,50.781250
4432,50.781250
4433,50.781250
4434,46.875000
4435,46.875000
4436,46.875000
4437,46.875000
4438,46.875000
4439,46.875000
4440,46.875000
4441,46.875000
4442,46.875000
4443,42.968750
4444,42.968750
4445,42.968750
4446,42.968750
4447,42.968750
4448,39.062500
4449,39.062500
4450,39.062500
4451,39.062500
4452,39.062500
4453,39.062500
4454,35.156250
4455,35.156250
4456,35.156250
4457,35.156250
4458,35.156250
4459,35.156250
4460,35.156250
4461,35.156250
4462,31.250000
4463,31.250000
4464,31.250000
4465,31.250000
4466,31.250000
4467,27.343750
4468,27.343750
4469,27.343750
4470,27.343750
4471,27.343750
4472,27.343750
4473,27.343750
4474,23.437500
4475,23.437500
4476,23.437500
4477,23.437500
4478,23.437500
4479,23.437500
4480,19.531250
4481,19.531250
4482,19.531250
4483,19.531250
4484,19.531250
4485,19.531250
4486,15.625000
4487,15.625000
4488,15.625000
4489,15.625000
4490,15.625000
4491,15.625000
4492,11.718750
4493,11.718750
4494,11.718750
4495,11.718750
4496,11.718750
4497,7.812500
4498,7.812500
4499,7.812500
4500,7.812500
4501,7.812500
4502,3.906250
4503,3.906250
4504,3.906250
4505,3.906250
4506,3.906250
4507,3.906250
4508,0.000000
4509,0.000000
4510,0.000000
4511,0.000000
4512,0.000000
4513,0.000000
4514,-3.906250
4515,-3.906250
4516,-3.906250
4517,-3.906250
4518,-3.906250
4519,-7.812500
4520,-7.812500
4521,-7.812500
4522,-7.812500
4523,-7.812500
4524,-7.812500
4525,-7.812500
4526,-11.718750
4527,-11.718750
4528,-11.718750
4529,-11.718750
4530,-11.718750
4531,-15.625000
4532,-15.625000
4533,-15.625000
4534,-15.625000
4535,-15.625000
4536,-19.531250
4537,-19.531250
4538,-19.531250
4539,-19.531250
4540,-23.437500
4541,-23.437500
4542,-23.437500
4543,-23.437500
4544,-23.437500
4545,-23.437500
4546,-23.437500
4547,-27.343750
4548,-27.343750
4549,-27.343750
4550,-27.343750
4551,-27.343750
4552,-31.250000
4553,-31.250000
4554,-31.250000
4555,-31.250000
4556,-31.250000
4557,-35.156250
4558,-35.156250
4559,-35.156250
4560,-35.156250
4561,-35.156250
4562,-35.156250
4563,-35.156250
4564,-39.062500
4565,-39.062500
4566,-39.062500
4567,-39.062500
4568,-42.968750
4569,-42.968750
4570,-42.968750
4571,-42.968750
4572,-42.968750
4573,-42.968750
4574,-46.875000
4575,-46.875000
4576,-46.875000
4577,-46.875000
4578,-46.875000
4579,-46.875000
4580,-50.781250
4581,-50.781250
4582,-50.781250
4583,-50.781250
4584,-50.781250
4585,-50.781250
4586,-54.687500
4587,-54.687500
4588,-54.687500
4589,-54.687500
4590,-54.687500
4591,-58.593750
4592,-58.593750
4593,-58.593750
4594,-58.593750
4595,-58.593750
4596,-58.593750
4597,-62.500000
4598,-62.500000
4599,-62.500000
4600,-62.500000
4601,-62.500000
4602,-66.406250
4603,-66.406250
4604,-66.406250
4605,-66.406250
4606,-66.406250
4607,-66.406250
4608,-70.312500
4609,-70.312500
4610,-70.312500
4611,-70.312500
4612,-70.312500
4613,-70.312500
4614,-70.312500
4615,-74.218750
4616,-74.218750
4617,-74.218750
4618,-74.218750
4619,-78.125000
4620,-78.125000
4621,-78.125000
4622,-78.125000
4623,-78.125000
4624,-78.125000
4625,-78.125000
4626,-78.125000
4627,-82.031250
4628,-82.031250
4629,-82.031250
4630,-82.031250
4631,-82.031250
4632,-85.937500
4633,-85.937500
4634,-82.031250
4635,-85.937500
4636,-85.937500
4637,-85.937500
4638,-85.937500
4639,-89.843750
4640,-89.843750
4641,-89.843750
4642,-89.843750
4643,-89.843750
4644,-89.843750
4645,-89.843750
4646,-93.750000
4647,-93.750000
4648,-93.750000
4649,-93.750000
4650,-93.750000
4651,-93.750000
4652,-93.750000
4653,-97.656250
4654,-97.656250
4655,-97.656250
4656,-97.656250
4657,-97.656250
4658,-97.656250
4659,-97.656250
4660,-97.656250
4661,-97.656250
4662,-101.562500
4663,-101.562500
4664,-101.562500
4665,-101.562500
4666,-101.562500
4667,-101.562500
4668,-105.468750
4669,-101.562500
4670,-105.468750
4671,-105.468750
4672,-105.468750
4673,-105.468750
4674,-105.468750
4675,-105.468750
4676,-105.468750
4677,-109.375000
4678,-109.375000
4679,-109.375000
4680,-109.375000
4681,-109.375000
4682,-109.375000
4683,-109.375000
4684,-109.375000
4685,-109.375000
4686,-109.375000
4687,-113.281250
4688,-113.281250
4689,-113.281250
4690,-113.281250
4691,-113.281250
4692,-113.281250
4693,-113.281250
4694,-113.281250
4695,-113.281250
4696,-117.187500
4697,-117.187500
4698,-117.187500
4699,-117.187500
4700,-117.187500
4701,-117.187500
4702,-117.187500
4703,-117.187500
4704,-117.187500
4705,-117.187500
4706,-117.187500
4707,-117.187500
4708,-117.187500
4709,-121.093750
4710,-121.093750
4711,-121.093750
4712,-121.093750
4713,-121.093750
4714,-121.093750
4715,-121.093750
4716,-121.093750
4717,-121.093750
4718,-121.093750
4719,-121.093750
4720,-121.093750
4721,-121.093750
4722,-125.000000
4723,-121.093750
4724,-125.000000
4725,-125.000000
4726,-125.000000
4727,-125.000000
4728,-125.000000
4729,-125.000000
4730,-125.000000
4731,-125.000000
4732,-125.000000
4733,-125.000000
4734,-125.000000
4735,-125.000000
4736,-125.000000
4737,-125.000000
4738,-125.000000
4739,-125.000000
4740,-128.906250
4741,-128.906250
4742,-125.000000
4743,-125.000000
4744,-128.906250
4745,-125.000000
4746,-128.906250
4747,-128.906250
4748,-128.906250
4749,-125.000000
4750,-128.906250
4751,-128.906250
4752,-128.906250
4753,-128.906250
4754,-128.906250
4755,-128.906250
4756,-128.906250
4757,-128.906250
4758,-128.906250
4759,-128.906250
4760,-128.906250
4761,-128.906250
4762,-128.906250
4763,-128.906250
4764,-128.906250
4765,-128.906250
4766,-128.906250
4767,-128.906250
4768,-128.906250
4769,-128.906250
4770,-128.906250
4771,-128.906250
4772,-128.906250
4773,-128.906250
4774,-128.906250
4775,-128.906250
4776,-128.906250
4777,-128.906250
4778,-128.906250
4779,-128.906250
4780,-128.906250
4781,-128.906250
4782,-128.906250
4783,-128.906250
4784,-128.906250
4785,-128.906250
4786,-128.906250
4787,-128.906250
4788,-128.906250
4789,-128.906250
4790,-128.906250
4791,-128.906250
4792,-128.906250
4793,-128.906250
4794,-128.906250
4795,-128.906250
4796,-128.906250
4797,-125.000000
4798,-128.906250
4799,-128.906250
4800,-128.906250
4801,-128.906250
4802,-128.906250
4803,-125.000000
4804,-125.000000
4805,-125.000000
4806,-125.000000
4807,-125.000000
4808,-125.000000
4809,-125.000000
4810,-125.000000
4811,-125.000000
4812,-125.000000
4813,-125.000000
4814,-125.000000
4815,-125.000000
4816,-125.000000
4817,-125.000000
4818,-125.000000
4819,-125.000000
4820,-125.000000
4821,-125.000000
4822,-125.000000
4823,-121.093750
4824,-121.093750
4825,-121.093750
4826,-121.093750
4827,-121.093750
4828,-121.093750
4829,-121.093750
4830,-121.093750
4831,-121.093750
4832,-121.093750
4833,-121.093750
4834,-117.187500
4835,-117.187500
4836,-117.187500
4837,-117.187500
4838,-117.187500
4839,-117.187500
4840,-117.187500
4841,-117.187500
4842,-117.187500
4843,-117.187500
4844,-117.187500
4845,-117.187500
4846,-117.187500
4847,-113.281250
4848,-113.281250
4849,-113.281250
4850,-113.281250
4851,-113.281250
4852,-113.281250
4853,-113.281250
4854,-113.281250
4855,-113.281250
4856,-113.281250
4857,-113.281250
4858,-109.375000
4859,-109.375000
4860,-109.375000
4861,-109.375000
4862,-109.375000
4863,-109.375000
4864,-109.375000
4865,-109.375000
4866,-109.375000
4867,-105.468750
4868,-109.375000
4869,-105.468750
4870,-105.468750
4871,-105.468750
4872,-105.468750
4873,-105.468750
4874,-105.468750
4875,-101.562500
4876,-101.562500
4877,-101.562500
4878,-101.562500
4879,-101.562500
4880,-101.562500
4881,-101.562500
4882,-101.562500
4883,-101.562500
4884,-97.656250
4885,-97.656250
4886,-97.656250
4887,-97.656250
4888,-97.656250
4889,-97.656250
4890,-97.656250
4891,-93.750000
4892,-93.750000
4893,-93.750000
4894,-93.750000
4895,-93.750000
4896,-93.750000
4897,-93.750000
4898,-93.750000
4899,-89.843750
4900,-89.843750
4901,-89.843750
4902,-89.843750
4903,-89.843750
4904,-89.843750
4905,-85.937500
4906,-85.937500
4907,-85.937500
4908,-85.937500
4909,-85.937500
4910,-85.937500
4911,-85.937500
4912,-82.031250
4913,-82.031250
4914,-82.031250
4915,-82.031250
4916,-82.031250
4917,-82.031250
4918,-82.031250
4919,-78.125000
4920,-78.125000
4921,-78.125000
4922,-78.125000
4923,-78.125000
4924,-78.125000
4925,-74.218750
4926,-74.218750
4927,-74.218750
4928,-74.218750
4929,-74.218750
4930,-74.218750
4931,-70.312500
4932,-70.312500
4933,-70.312500
4934,-70.312500
4935,-70.312500
4936,-70.312500
4937,-66.406250
4938,-66.406250
4939,-66.406250
4940,-66.406250
4941,-66.406250
4942,-66.406250
4943,-62.500000
4944,-62.500000
4945,-62.500000
4946,-62.500000
4947,-62.500000
4948,-58.593750
4949,-58.593750
4950,-58.593750
4951,-58.593750
4952,-58.593750
4953,-54.687500
4954,-54.687500
4955,-54.687500
4956,-54.687500
4957,-54.687500
4958,-54.687500
4959,-54.687500
4960,-50.781250
4961,-50.781250
4962,-50.781250
4963,-50.781250
4964,-50.781250
4965,-50.781250
4966,-46.875000
4967,-46.875000
4968,-46.875000
4969,-46.875000
4970,-42.968750
4971,-42.968750
4972,-42.968750
4973,-42.968750
4974,-42.968750
4975,-42.968750
4976,-39.062500
4977,-39.062500
4978,-39.062500
4979,-39.062500
4980,-39.062500
4981,-39.062500
4982,-35.156250
4983,-35.156250
4984,-35.156250
4985,-31.250000
4986,-31.250000
4987,-35.156250
4988,-31.250000
4989,-31.250000
4990,-31.250000
4991,-27.343750
4992,-31.250000
4993,-27.343750
4994,-27.343750
4995,-27.343750
4996,-27.343750
4997,-23.437500
4998,-23.437500
4999,-23.437500
5000,-23.437500
5001,-23.437500
5002,-23.437500
5003,-19.531250
5004,-19.531250
5005,-19.531250
5006,-19.531250
5007,-19.531250
5008,-19.531250
5009,-15.625000
5010,-15.625000
5011,-15.625000
5012,-15.625000
5013,-11.718750
5014,-11.718750
5015,-11.718750
5016,-11.718750
5017,-11.718750
5018,-11.718750
5019,-7.812500
5020,-7.812500
5021,-7.812500
5022,-7.812500
5023,-7.812500
5024,-7.812500
5025,-3.906250
5026,-3.906250
5027,-3.906250
5028,-3.906250
5029,0.000000
5030,0.000000
5031,0.000000
5032,0.000000
5033,0.000000
5034,0.000000
5035,3.906250
5036,3.906250
5037,3.906250
5038,3.906250
5039,3.906250
5040,3.906250
5041,7.812500
5042,7.812500
5043,7.812500
5044,7.812500
5045,7.812500
5046,7.812500
5047,11.718750
5048,11.718750
5049,11.718750
5050,11.718750
5051,15.625000
5052,15.625000
5053,15.625000
5054,15.625000
5055,15.625000
5056,15.625000
5057,19.531250
5058,19.531250
5059,19.531250
5060,19.531250
5061,19.531250
5062,19.531250
5063,19.531250
5064,23.437500
5065,23.437500
5066,23.437500
5067,23.437500
5068,23.437500
5069,23.437500
5070,27.343750
5071,27.343750
5072,27.343750
5073,27.343750
5074,27.343750
5075,27.343750
5076,27.343750
5077,31.250000
5078,31.250000
5079,31.250000
5080,31.250000
5081,31.250000
5082,31.250000
5083,35.156250
5084,35.156250
5085,35.156250
5086,35.156250
5087,39.062500
5088,39.062500
5089,39.062500
5090,39.062500
5091,39.062500
5092,39.062500
5093,39.062500
5094,39.062500
5095,42.968750
5096,42.968750
5097,42.968750
5098,42.968750
5099,42.968750
5100,42.968750
5101,46.875000
5102,46.875000
5103,46.875000
5104,46.875000
5105,46.875000
5106,46.875000
5107,46.875000
5108,46.875000
5109,50.781250
5110,50.781250
5111,50.781250
5112,50.781250
5113,50.781250
5114,50.781250
5115,54.687500
5116,54.687500
5117,54.687500
5118,54.687500
5119,54.687500
5120,54.687500
5121,54.687500
5122,58.593750
5123,58.593750
5124,58.593750
5125,58.593750
5126,58.593750
5127,58.593750
5128,58.593750
5129,58.593750
5130,62.500000
5131,62.500000
5132,62.500000
5133,62.500000
5134,62.500000
5135,62.500000
5136,62.500000
5137,66.406250
5138,66.406250
5139,66.406250
5140,66.406250
5141,66.406250
5142,66.406250
5143,66.406250
5144,66.406250
5145,66.406250
5146,66.406250
5147,66.406250
5148,66.406250
5149,70.312500
5150,70.312500
5151,70.312500
5152,70.312500
5153,70.312500
5154,70.312500
5155,70.312500
5156,70.312500
5157,74.218750
5158,74.218750
5159,74.218750
5160,74.218750
5161,74.218750
5162,74.218750
5163,74.218750
5164,74.218750
5165,74.218750
5166,74.218750
5167,78.125000
5168,78.125000
5169,78.125000
5170,78.125000
5171,78.125000
5172,78.125000
5173,78.125000
5174,78.125000
5175,78.125000
5176,78.125000
5177,78.125000
5178,78.125000
5179,78.125000
5180,82.031250
5181,82.031250
5182,82.031250
5183,82.031250
5184,82.031250
5185,82.031250
5186,82.031250
5187,82.031250
5188,82.031250
5189,82.031250
5190,82.031250
5191,85.937500
5192,85.937500
5193,82.031250
5194,85.937500
5195,85.937500
5196,85.937500
5197,85.937500
5198,85.937500
5199,85.937500
5200,85.937500
5201,85.937500
5202,85.937500
5203,85.937500
5204,89.843750
5205,85.937500
5206,85.937500
5207,85.937500
5208,89.843750
5209,85.937500
5210,89.843750
5211,89.843750
5212,89.843750
5213,89.843750
5214,89.843750
5215,89.843750
5216,89.843750
5217,89.843750
5218,89.843750
5219,89.843750
5220,89.843750
5221,89.843750
5222,89.843750
5223,89.843750
5224,89.843750
5225,89.843750
5226,93.750000
5227,93.750000
5228,93.750000
5229,89.843750
5230,93.750000
5231,93.750000
5232,93.750000
5233,93.750000
5234,93.750000
5235,93.750000
5236,93.750000
5237,93.750000
5238,93.750000
5239,93.750000
5240,93.750000
5241,93.750000
5242,93.750000
5243,93.750000
5244,93.750000
5245,93.750000
5246,93.750000
5247,93.750000
5248,93.750000
5249,93.750000
5250,93.750000
5251,93.750000
5252,93.750000
5253,93.750000
5254,93.750000
5255,93.750000
5256,93.750000
5257,93.750000
5258,93.750000
5259,93.750000
5260,93.750000
5261,93.750000
5262,93.750000
5263,93.750000
5264,93.750000
5265,93.750000
5266,93.750000
5267,93.750000
5268,93.750000
5269,93.750000
5270,93.750000
5271,93.750000
5272,93.750000
5273,93.750000
5274,93.750000
5275,93.750000
5276,93.750000
5277,93.750000
5278,93.750000
5279,93.750000
5280,93.750000
5281,93.750000
5282,93.750000
5283,93.750000
5284,93.750000
5285,93.750000
5286,93.750000
5287,93.750000
5288,93.750000
5289,93.750000
5290,93.750000
5291,93.750000
5292,93.750000
5293,93.750000
5294,93.750000
5295,93.750000
5296,93.750000
5297,93.750000
5298,93.750000
5299,93.750000
5300,93.750000
5301,93.750000
5302,93.750000
5303,93.750000
5304,93.750000
5305,93.750000
5306,89.843750
5307,89.843750
5308,89.843750
5309,89.843750
5310,89.843750
5311,89.843750
5312,89.843750
5313,89.843750
5314,89.843750
5315,89.843750
5316,89.843750
5317,89.843750
5318,89.843750
5319,89.843750
5320,89.843750
5321,89.843750
5322,89.843750
5323,89.843750
5324,85.937500
5325,89.843750
5326,85.937500
5327,85.937500
5328,85.937500
5329,85.937500
5330,85.937500
5331,85.937500
5332,85.937500
5333,85.937500
5334,85.937500
5335,85.937500
5336,85.937500
5337,85.937500
5338,85.937500
5339,85.937500
5340,85.937500
5341,85.937500
5342,85.937500
5343,82.031250
5344,82.031250
5345,82.031250
5346,82.031250
5347,82.031250
5348,82.031250
5349,82.031250
5350,82.031250
5351,82.031250
5352,82.031250
5353,82.031250
5354,82.031250
5355,82.031250
5356,78.125000
5357,78.125000
5358,78.125000
5359,78.125000
5360,78.125000
5361,78.125000
5362,78.125000
5363,78.125000
5364,74.218750
5365,78.125000
5366,78.125000
5367,78.125000
5368,74.218750
5369,74.218750
5370,74.218750
5371,74.218750
5372,74.218750
5373,74.218750
5374,74.218750
5375,74.218750
5376,74.218750
5377,74.218750
5378,70.312500
5379,70.312500
5380,70.312500
5381,70.312500
5382,70.312500
5383,70.312500
5384,70.312500
5385,70.312500
5386,66.406250
5387,66.406250
5388,66.406250
5389,66.406250
5390,66.406250
5391,66.406250
5392,66.406250
5393,66.406250
5394,66.406250
5395,62.500000
5396,62.500000
5397,62.500000
5398,62.500000
5399,62.500000
5400,62.500000
5401,62.500000
5402,62.500000
5403,62.500000
5404,58.593750
5405,58.593750
5406,58.593750
5407,58.593750
5408,58.593750
5409,58.593750
5410,58.593750
5411,54.687500
5412,54.687500
5413,54.687500
5414,54.687500
5415,54.687500
5416,54.687500
5417,54.687500
5418,50.781250
5419,50.781250
5420,50.781250
5421,50.781250
5422,50.781250
5423,50.781250
5424,50.781250
5425,46.875000
5426,46.875000
5427,46.875000
5428,46.875000
5429,46.875000
5430,46.875000
5431,46.875000
5432,42.968750
5433,42.968750
5434,42.968750
5435,42.968750
5436,42.968750
5437,42.968750
5438,42.968750
5439,42.968750
5440,39.062500
5441,39.062500
5442,39.062500
5443,39.062500
5444,39.062500
5445,39.062500
5446,35.156250
5447,35.156250
5448,35.156250
5449,35.156250
5450,35.156250
5451,35.156250
5452,31.250000
5453,31.250000
5454,31.250000
5455,31.250000
5456,31.250000
5457,31.250000
5458,27.343750
5459,27.343750
5460,27.343750
5461,27.343750
5462,27.343750
5463,27.343750
5464,23.437500
5465,23.437500
5466,23.437500
5467,23.437500
5468,23.437500
5469,19.531250
5470,23.437500
5471,19.531250
5472,19.531250
5473,19.531250
5474,19.531250
5475,19.531250
5476,19.531250
5477,15.625000
5478,15.625000
5479,15.625000
5480,15.625000
5481,15.625000
5482,11.718750
5483,11.718750
5484,11.718750
5485,11.718750
5486,11.718750
5487,11.718750
5488,7.812500
5489,7.812500
5490,7.812500
5491,7.812500
5492,7.812500
5493,7.812500
5494,3.906250
5495,3.906250
5496,3.906250
5497,3.906250
5498,3.906250
5499,0.000000
5500,0.000000
5501,0.000000
5502,0.000000
5503,0.000000
5504,0.000000
5505,-3.906250
5506,-3.906250
5507,-7.812500
5508,-3.906250
5509,-3.906250
5510,-7.812500
5511,-7.812500
5512,-7.812500
5513,-7.812500
5514,-7.812500
5515,-7.812500
5516,-11.718750
5517,-11.718750
5518,-11.718750
5519,-11.718750
5520,-11.718750
5521,-15.625000
5522,-15.625000
5523,-15.625000
5524,-15.625000
5525,-15.625000
5526,-19.531250
5527,-19.531250
5528,-19.531250
5529,-19.531250
5530,-19.531250
5531,-19.531250
5532,-23.437500
5533,-23.437500
5534,-23.437500
5535,-23.437500
5536,-23.437500
5537,-27.343750
5538,-27.343750
5539,-27.343750
5540,-27.343750
5541,-27.343750
5542,-31.250000
5543,-31.250000
5544,-31.250000
5545,-31.250000
5546,-31.250000
5547,-31.250000
5548,-35.156250
5549,-35.156250
5550,-35.156250
5551,-35.156250
5552,-35.156250
5553,-39.062500
5554,-39.062500
5555,-39.062500
5556,-39.062500
5557,-39.062500
5558,-42.968750
5559,-42.968750
5560,-42.968750
5561,-42.968750
5562,-42.968750
5563,-42.968750
5564,-46.875000
5565,-46.875000
5566,-46.875000
5567,-46.875000
5568,-46.875000
5569,-50.781250
5570,-50.781250
5571,-50.781250
5572,-50.781250
5573,-50.781250
5574,-54.687500
5575,-50.781250
5576,-54.687500
5577,-54.687500
5578,-54.687500
5579,-54.687500
5580,-58.593750
5581,-58.593750
5582,-58.593750
5583,-58.593750
5584,-58.593750
5585,-58.593750
5586,-62.500000
5587,-62.500000
5588,-62.500000
5589,-62.500000
5590,-62.500000
5591,-62.500000
5592,-66.406250
5593,-66.406250
5594,-66.406250
5595,-66.406250
5596,-66.406250
5597,-70.312500
5598,-70.312500
5599,-70.312500
5600,-70.312500
5601,-70.312500
5602,-70.312500
5603,-70.312500
5604,-74.218750
5605,-74.218750
5606,-74.218750
5607,-74.218750
5608,-74.218750
5609,-74.218750
5610,-78.125000
5611,-78.125000
5612,-78.125000
5613,-78.125000
5614,-78.125000
5615,-78.125000
5616,-82.031250
5617,-82.031250
5618,-82.031250
5619,-82.031250
5620,-82.031250
5621,-82.031250
5622,-85.937500
5623,-85.937500
5624,-85.937500
5625,-85.937500
5626,-85.937500
5627,-85.937500
5628,-85.937500
5629,-85.937500
5630,-89.843750
5631,-89.843750
5632,-89.843750
5633,-89.843750
5634,-89.843750
5635,-89.843750
5636,-93.750000
5637,-93.750000
5638,-93.750000
5639,-93.750000
5640,-93.750000
5641,-93.750000
5642,-97.656250
5643,-97.656250
5644,-97.656250
5645,-97.656250
5646,-97.656250
5647,-97.656250
5648,-97.656250
5649,-97.656250
5650,-97.656250
5651,-97.656250
5652,-101.562500
5653,-101.562500
5654,-101.562500
5655,-101.562500
5656,-101.562500
5657,-101.562500
5658,-101.562500
5659,-105.468750
5660,-105.468750
5661,-105.468750
5662,-105.468750
5663,-105.468750
5664,-105.468750
5665,-105.468750
5666,-109.375000
5667,-105.468750
5668,-109.375000
5669,-109.375000
5670,-109.375000
5671,-109.375000
5672,-109.375000
5673,-109.375000
5674,-109.375000
5675,-109.375000
5676,-113.281250
5677,-113.281250
5678,-113.281250
5679,-113.281250
5680,-113.281250
5681,-113.281250
5682,-113.281250
5683,-113.281250
5684,-113.281250
5685,-113.281250
5686,-117.187500
5687,-117.187500
5688,-117.187500
5689,-117.187500
5690,-117.187500
5691,-117.187500
5692,-117.187500
5693,-117.187500
5694,-117.187500
5695,-117.187500
5696,-121.093750
5697,-121.093750
5698,-121.093750
5699,-121.093750
5700,-121.093750
5701,-121.093750
5702,-121.093750
5703,-121.093750
5704,-121.093750
5705,-121.093750
5706,-121.093750
5707,-121.093750
5708,-121.093750
5709,-121.093750
5710,-121.093750
5711,-125.000000
5712,-125.000000
5713,-125.000000
5714,-125.000000
5715,-125.000000
5716,-125.000000
5717,-125.000000
5718,-125.000000
5719,-125.000000
5720,-125.000000
5721,-125.000000
5722,-125.000000
5723,-125.000000
5724,-125.000000
5725,-125.000000
5726,-125.000000
5727,-125.000000
5728,-125.000000
5729,-125.000000
5730,-128.906250
5731,-128.906250
5732,-128.906250
5733,-128.906250
5734,-128.906250
5735,-128.906250
5736,-128.906250
5737,-128.906250
5738,-128.906250
5739,-128.906250
5740,-128.906250
5741,-128.906250
5742,-128.906250
5743,-128.906250
5744,-128.906250
5745,-128.906250
5746,-128.906250
5747,-128.906250
5748,-128.906250
5749,-128.906250
5750,-128.906250
5751,-128.906250
5752,-128.906250
5753,-128.906250
5754,-128.906250
5755,-128.906250
5756,-128.906250
5757,-128.906250
5758,-128.906250
5759,-128.906250
5760,-128.906250
5761,-128.906250
5762,-128.906250
5763,-128.906250
5764,-128.906250
5765,-128.906250
5766,-128.906250
5767,-128.906250
5768,-128.906250
5769,-128.906250
5770,-128.906250
5771,-128.906250
5772,-128.906250
5773,-128.906250
5774,-128.906250
5775,-128.906250
5776,-128.906250
5777,-128.906250
5778,-128.906250
5779,-128.906250
5780,-128.906250
5781,-128.906250
5782,-128.906250
5783,-128.906250
5784,-128.906250
5785,-128.906250
5786,-128.906250
5787,-128.906250
5788,-128.906250
5789,-128.906250
5790,-125.000000
5791,-128.906250
5792,-128.906250
5793,-125.000000
5794,-125.000000
5795,-125.000000
5796,-125.000000
5797,-125.000000
5798,-125.000000
5799,-125.000000
5800,-125.000000
5801,-125.000000
5802,-125.000000
5803,-125.000000
5804,-125.000000
5805,-125.000000
5806,-125.000000
5807,-125.000000
5808,-125.000000
5809,-125.000000
5810,-125.000000
5811,-125.000000
5812,-121.093750
5813,-125.000000
5814,-121.093750
5815,-121.093750
5816,-121.093750
5817,-121.093750
5818,-121.093750
5819,-121.093750
5820,-121.093750
5821,-121.093750
5822,-121.093750
5823,-121.093750
5824,-121.093750
5825,-121.093750
5826,-121.093750
5827,-117.187500
5828,-117.187500
5829,-117.187500
5830,-117.187500
5831,-117.187500
5832,-117.187500
5833,-117.187500
5834,-117.187500
5835,-117.187500
5836,-117.187500
5837,-113.281250
5838,-113.281250
5839,-113.281250
5840,-113.281250
5841,-113.281250
5842,-113.281250
5843,-113.281250
5844,-113.281250
5845,-113.281250
5846,-113.281250
5847,-113.281250
5848,-109.375000
5849,-109.375000
5850,-109.375000
5851,-109.375000
5852,-109.375000
5853,-109.375000
5854,-109.375000
5855,-109.375000
5856,-105.468750
5857,-105.468750
5858,-109.375000
5859,-105.468750
5860,-105.468750
5861,-105.468750
5862,-105.468750
5863,-105.468750
5864,-105.468750
5865,-101.562500
5866,-101.562500
5867,-105.468750
5868,-97.656250
5869,-101.562500
5870,-101.562500
5871,-101.562500
5872,-101.562500
5873,-97.656250
5874,-97.656250
5875,-97.656250
5876,-97.656250
5877,-97.656250
5878,-97.656250
5879,-97.656250
5880,-97.656250
5881,-93.750000
5882,-93.750000
5883,-93.750000
5884,-93.750000
5885,-93.750000
5886,-93.750000
5887,-93.750000
5888,-93.750000
5889,-89.843750
5890,-89.843750
5891,-89.843750
5892,-89.843750
5893,-89.843750
5894,-89.843750
5895,-85.937500
5896,-85.937500
5897,-85.937500
5898,-85.937500
5899,-85.937500
5900,-82.031250
5901,-82.031250
5902,-82.031250
5903,-82.031250
5904,-82.031250
5905,-82.031250
5906,-82.031250
5907,-82.031250
5908,-78.125000
5909,-78.125000
5910,-78.125000
5911,-78.125000
5912,-78.125000
5913,-74.218750
5914,-74.218750
5915,-74.218750
5916,-74.218750
5917,-74.218750
5918,-74.218750
5919,-74.218750
5920,-74.218750
5921,-70.312500
5922,-70.312500
5923,-70.312500
5924,-70.312500
5925,-70.312500
5926,-70.312500
5927,-66.406250
5928,-66.406250
5929,-66.406250
5930,-66.406250
5931,-62.500000
5932,-66.406250
5933,-62.500000
5934,-62.500000
5935,-62.500000
5936,-62.500000
5937,-58.593750
5938,-58.593750
5939,-58.593750
5940,-58.593750
5941,-58.593750
5942,-58.593750
5943,-54.687500
5944,-54.687500
5945,-54.687500
5946,-54.687500
5947,-54.687500
5948,-54.687500
5949,-54.687500
5950,-50.781250
5951,-50.781250
5952,-50.781250
5953,-46.875000
5954,-50.781250
5955,-46.875000
5956,-46.875000
5957,-46.875000
5958,-46.875000
5959,-46.875000
5960,-46.875000
5961,-42.968750
5962,-42.968750
5963,-42.968750
5964,-42.968750
5965,-42.968750
5966,-39.062500
5967,-39.062500
5968,-39.062500
5969,-39.062500
5970,-39.062500
5971,-35.156250
5972,-35.156250
5973,-35.156250
5974,-35.156250
5975,-35.156250
5976,-35.156250
5977,-31.250000
5978,-31.250000
5979,-31.250000
5980,-31.250000
5981,-31.250000
5982,-27.343750
5983,-27.343750
5984,-27.343750
5985,-27.343750
5986,-27.343750
5987,-23.437500
5988,-23.437500
5989,-23.437500
5990,-23.437500
5991,-23.437500
5992,-23.437500
5993,-19.531250
5994,-19.531250
5995,-19.531250
5996,-19.531250
5997,-15.625000
5998,-15.625000
5999,-15.625000
6000,-15.625000
6001,-15.625000
6002,-15.625000
6003,-15.625000
6004,-11.718750
6005,-11.718750
6006,-11.718750
6007,-11.718750
6008,-11.718750
6009,-7.812500
6010,-7.812500
6011,-7.812500
6012,-7.812500
6013,-7.812500
6014,-3.906250
6015,-3.906250
6016,-3.906250
6017,-3.906250
6018,0.000000
6019,0.000000
6020,0.000000
6021,0.000000
6022,0.000000
6023,0.000000
6024,0.000000
6025,3.906250
6026,3.906250
6027,3.906250
6028,3.906250
6029,3.906250
6030,3.906250
6031,7.812500
6032,7.812500
6033,7.812500
6034,7.812500
6035,7.812500
6036,11.718750
6037,11.718750
6038,11.718750
6039,11.718750
6040,11.718750
6041,11.718750
6042,15.625000
6043,15.625000
6044,15.625000
6045,15.625000
6046,19.531250
6047,19.531250
6048,19.531250
6049,19.531250
6050,19.531250
6051,19.531250
6052,19.531250
6053,19.531250
6054,23.437500
6055,23.437500
6056,23.437500
6057,23.437500
6058,23.437500
6059,23.437500
6060,23.437500
6061,27.343750
6062,27.343750
6063,27.343750
6064,27.343750
6065,31.250000
6066,31.250000
6067,31.250000
6068,31.250000
6069,31.250000
6070,31.250000
6071,31.250000
6072,31.250000
6073,35.156250
6074,35.156250
6075,35.156250
6076,35.156250
6077,35.156250
6078,35.156250
6079,39.062500
6080,39.062500
6081,39.062500
6082,39.062500
6083,39.062500
6084,39.062500
6085,42.968750
6086,42.968750
6087,42.968750
6088,42.968750
6089,42.968750
6090,42.968750
6091,46.875000
6092,46.875000
6093,46.875000
6094,46.875000
6095,46.875000
6096,46.875000
6097,46.875000
6098,46.875000
6099,50.781250
6100,50.781250
6101,50.781250
6102,50.781250
6103,50.781250
6104,54.687500
6105,54.687500
6106,50.781250
6107,54.687500
6108,54.687500
6109,54.687500
6110,54.687500
6111,54.687500
6112,54.687500
6113,58.593750
6114,58.593750
6115,58.593750
6116,58.593750
6117,58.593750
6118,58.593750
6119,58.593750
6120,58.593750
6121,58.593750
6122,62.500000
6123,62.500000
6124,62.500000
6125,62.500000
6126,62.500000
6127,62.500000
6128,62.500000
6129,66.406250
6130,62.500000
6131,66.406250
6132,66.406250
6133,66.406250
6134,66.406250
6135,66.406250
6136,66.406250
6137,70.312500
6138,66.406250
6139,66.406250
6140,70.312500
6141,70.312500
6142,70.312500
6143,70.312500
6144,70.312500
6145,70.312500
6146,70.312500
6147,70.312500
6148,74.218750
6149,74.218750
6150,74.218750
6151,74.218750
6152,74.218750
6153,74.218750
6154,74.218750
6155,74.218750
6156,74.218750
6157,74.218750
6158,78.125000
6159,78.125000
6160,78.125000
6161,78.125000
6162,78.125000
6163,78.125000
6164,78.125000
6165,78.125000
6166,78.125000
6167,78.125000
6168,78.125000
6169,82.031250
6170,78.125000
6171,82.031250
6172,82.031250
6173,82.031250
6174,82.031250
6175,82.031250
6176,82.031250
6177,82.031250
6178,82.031250
6179,82.031250
6180,82.031250
6181,82.031250
6182,82.031250
6183,85.937500
6184,85.937500
6185,85.937500
6186,85.937500
6187,85.937500
6188,85.937500
6189,85.937500
6190,85.937500
6191,85.937500
6192,85.937500
6193,85.937500
6194,85.937500
6195,89.843750
6196,89.843750
6197,89.843750
6198,89.843750
6199,89.843750
6200,89.843750
6201,89.843750
6202,89.843750
6203,89.843750
6204,89.843750
6205,89.843750
6206,89.843750
6207,89.843750
6208,89.843750
6209,89.843750
6210,89.843750
6211,89.843750
6212,89.843750
6213,89.843750
6214,89.843750
6215,89.843750
6216,89.843750
6217,89.843750
6218,89.843750
6219,89.843750
6220,93.750000
6221,93.750000
6222,93.750000
6223,93.750000
6224,93.750000
6225,93.750000
6226,93.750000
6227,93.750000
6228,93.750000
6229,93.750000
6230,93.750000
6231,93.750000
6232,93.750000
6233,93.750000
6234,93.750000
6235,93.750000
6236,93.750000
6237,93.750000
6238,93.750000
6239,93.750000
6240,93.750000
6241,93.750000
6242,93.750000
6243,93.750000
6244,93.750000
6245,93.750000
6246,93.750000
6247,93.750000
6248,93.750000
6249,93.750000
6250,93.750000
6251,93.750000
6252,93.750000
6253,93.750000
6254,93.750000
6255,93.750000
6256,93.750000
6257,93.750000
6258,93.750000
6259,93.750000
6260,93.750000
6261,93.750000
6262,93.750000
6263,93.750000
6264,93.750000
6265,93.750000
6266,93.750000
6267,93.750000
6268,93.750000
6269,93.750000
6270,93.750000
6271,93.750000
6272,93.750000
6273,93.750000
6274,93.750000
6275,93.750000
6276,93.750000
6277,93.750000
6278,93.750000
6279,93.750000
6280,93.750000
6281,93.750000
6282,93.750000
6283,93.750000
6284,93.750000
6285,93.750000
6286,93.750000
6287,93.750000
6288,93.750000
6289,93.750000
6290,93.750000
6291,93.750000
6292,93.750000
6293,89.843750
6294,93.750000
6295,89.843750
6296,89.843750
6297,93.750000
6298,93.750000
6299,89.843750
6300,89.843750
6301,89.843750
6302,89.843750
6303,89.843750
6304,89.843750
6305,89.843750
6306,89.843750
6307,89.843750
6308,89.843750
6309,89.843750
6310,89.843750
6311,89.843750
6312,89.843750
6313,89.843750
6314,89.843750
6315,89.843750
6316,89.843750
6317,85.937500
6318,85.937500
6319,85.937500
6320,85.937500
6321,85.937500
6322,85.937500
6323,85.937500
6324,85.937500
6325,85.937500
6326,85.937500
6327,85.937500
6328,85.937500
6329,85.937500
6330,82.031250
6331,82.031250
6332,82.031250
6333,82.031250
6334,82.031250
6335,82.031250
6336,82.031250
6337,82.031250
6338,82.031250
6339,82.031250
6340,82.031250
6341,82.031250
6342,82.031250
6343,82.031250
6344,82.031250
6345,82.031250
6346,78.125000
6347,78.125000
6348,78.125000
6349,78.125000
6350,78.125000
6351,78.125000
6352,78.125000
6353,78.125000
6354,78.125000
6355,78.125000
6356,78.125000
6357,74.218750
6358,74.218750
6359,74.218750
6360,74.218750
6361,74.218750
6362,74.218750
6363,74.218750
6364,74.218750
6365,74.218750
6366,70.312500
6367,70.312500
6368,70.312500
6369,70.312500
6370,70.312500
6371,70.312500
6372,70.312500
6373,70.312500
6374,70.312500
6375,70.312500
6376,66.406250
6377,66.406250
6378,66.406250
6379,66.406250
6380,66.406250
6381,66.406250
6382,66.406250
6383,66.406250
6384,66.406250
6385,66.406250
6386,62.500000
6387,62.500000
6388,62.500000
6389,62.500000
6390,62.500000
6391,58.593750
6392,58.593750
6393,62.500000
6394,58.593750
6395,58.593750
6396,58.593750
6397,58.593750
6398,58.593750
6399,58.593750
6400,54.687500
6401,54.687500
6402,54.687500
6403,54.687500
6404,54.687500
6405,54.687500
6406,54.687500
6407,54.687500
6408,50.781250
6409,50.781250
6410,50.781250
6411,50.781250
6412,50.781250
6413,50.781250
6414,50.781250
6415,50.781250
6416,50.781250
6417,46.875000
6418,46.875000
6419,46.875000
6420,46.875000
6421,42.968750
6422,46.875000
6423,42.968750
6424,42.968750
6425,42.968750
6426,42.968750
6427,42.968750
6428,42.968750
6429,39.062500
6430,39.062500
6431,39.062500
6432,39.062500
6433,39.062500
6434,39.062500
6435,39.062500
6436,39.062500
6437,35.156250
6438,35.156250
6439,35.156250
6440,35.156250
6441,35.156250
6442,31.250000
6443,31.250000
6444,31.250000
6445,31.250000
6446,31.250000
6447,31.250000
6448,31.250000
6449,31.250000
6450,27.343750
6451,27.343750
6452,27.343750
6453,27.343750
6454,27.343750
6455,23.437500
6456,23.437500
6457,23.437500
6458,23.437500
6459,23.437500
6460,23.437500
6461,23.437500
6462,19.531250
6463,19.531250
6464,19.531250
6465,19.531250
6466,15.625000
6467,15.625000
6468,15.625000
6469,15.625000
6470,15.625000
6471,15.625000
6472,11.718750
6473,11.718750
6474,11.718750
6475,11.718750
6476,11.718750
6477,7.812500
6478,7.812500
6479,7.812500
6480,7.812500
6481,7.812500
6482,7.812500
6483,7.812500
6484,3.906250
6485,3.906250
6486,3.906250
6487,3.906250
6488,3.906250
6489,0.000000
6490,0.000000
6491,0.000000
6492,0.000000
6493,0.000000
6494,0.000000
6495,0.000000
6496,-3.906250
6497,-3.906250
6498,-3.906250
6499,-3.906250
6500,-7.812500
6501,-7.812500
6502,-7.812500
6503,-7.812500
6504,-7.812500
6505,-7.812500
6506,-11.718750
6507,-11.718750
6508,-11.718750
6509,-11.718750
6510,-11.718750
6511,-15.625000
6512,-15.625000
6513,-15.625000
6514,-15.625000
6515,-15.625000
6516,-19.531250
6517,-19.531250
6518,-19.531250
6519,-19.531250
6520,-19.531250
6521,-19.531250
6522,-23.437500
6523,-23.437500
6524,-23.437500
6525,-23.437500
6526,-23.437500
6527,-27.343750
6528,-27.343750
6529,-27.343750
6530,-27.343750
6531,-27.343750
6532,-27.343750
6533,-31.250000
6534,-31.250000
6535,-31.250000
6536,-31.250000
6537,-31.250000
6538,-35.156250
6539,-35.156250
6540,-35.156250
6541,-35.156250
6542,-35.156250
6543,-35.156250
6544,-39.062500
6545,-39.062500
6546,-39.062500
6547,-39.062500
6548,-39.062500
6549,-42.968750
6550,-42.968750
6551,-42.968750
6552,-42.968750
6553,-42.968750
6554,-42.968750
6555,-46.875000
6556,-46.875000
6557,-46.875000
6558,-46.875000
6559,-46.875000
6560,-50.781250
6561,-50.781250
6562,-50.781250
6563,-50.781250
6564,-50.781250
6565,-54.687500
6566,-54.687500
6567,-54.687500
6568,-54.687500
6569,-54.687500
6570,-54.687500
6571,-54.687500
6572,-58.593750
6573,-58.593750
6574,-58.593750
6575,-58.593750
6576,-62.500000
6577,-62.500000
6578,-62.500000
6579,-62.500000
6580,-62.500000
6581,-62.500000
6582,-62.500000
6583,-66.406250
6584,-66.406250
6585,-66.406250
6586,-66.406250
6587,-66.406250
6588,-66.406250
6589,-70.312500
6590,-70.312500
6591,-70.312500
6592,-70.312500
6593,-70.312500
6594,-70.312500
6595,-74.218750
6596,-74.218750
6597,-74.218750
6598,-74.218750
6599,-74.218750
6600,-78.125000
6601,-78.125000
6602,-78.125000
6603,-78.125000
6604,-78.125000
6605,-78.125000
6606,-78.125000
6607,-82.031250
6608,-82.031250
6609,-82.031250
6610,-82.031250
6611,-82.031250
6612,-82.031250
6613,-85.937500
6614,-85.937500
6615,-85.937500
6616,-85.937500
6617,-85.937500
6618,-85.937500
6619,-85.937500
6620,-89.843750
6621,-89.843750
6622,-89.843750
6623,-89.843750
6624,-89.843750
6625,-89.843750
6626,-89.843750
6627,-93.750000
6628,-93.750000
6629,-93.750000
6630,-93.750000
6631,-93.750000
6632,-97.656250
6633,-93.750000
6634,-97.656250
6635,-97.656250
6636,-97.656250
6637,-97.656250
6638,-97.656250
6639,-97.656250
6640,-101.562500
6641,-101.562500
6642,-101.562500
6643,-101.562500
6644,-101.562500
6645,-101.562500
6646,-101.562500
6647,-101.562500
6648,-101.562500
6649,-105.468750
6650,-105.468750
6651,-105.468750
6652,-105.468750
6653,-105.468750
6654,-105.468750
6655,-105.468750
6656,-105.468750
6657,-105.468750
6658,-109.375000
6659,-109.375000
6660,-109.375000
6661,-109.375000
6662,-109.375000
6663,-109.375000
6664,-109.375000
6665,-109.375000
6666,-109.375000
6667,-113.281250
6668,-113.281250
6669,-113.281250
6670,-113.281250
6671,-113.281250
6672,-113.281250
6673,-113.281250
6674,-113.281250
6675,-113.281250
6676,-117.187500
6677,-117.187500
6678,-117.187500
6679,-117.187500
6680,-117.187500
6681,-117.187500
6682,-117.187500
6683,-117.187500
6684,-117.187500
6685,-117.187500
6686,-117.187500
6687,-117.187500
6688,-121.093750
6689,-121.093750
6690,-121.093750
6691,-121.093750
6692,-121.093750
6693,-121.093750
6694,-121.093750
6695,-121.093750
6696,-121.093750
6697,-121.093750
6698,-121.093750
6699,-125.000000
6700,-125.000000
6701,-125.000000
6702,-125.000000
6703,-125.000000
6704,-125.000000
6705,-125.000000
6706,-125.000000
6707,-125.000000
6708,-125.000000
6709,-125.000000
6710,-125.000000
6711,-125.000000
6712,-125.000000
6713,-125.000000
6714,-125.000000
6715,-125.000000
6716,-128.906250
6717,-125.000000
6718,-125.000000
6719,-128.906250
6720,-128.906250
6721,-128.906250
6722,-128.906250
6723,-128.906250
6724,-128.906250
6725,-128.906250
6726,-128.906250
6727,-128.906250
6728,-128.906250
6729,-128.906250
6730,-128.906250
6731,-128.906250
6732,-128.906250
6733,-128.906250
6734,-128.906250
6735,-128.906250
6736,-128.906250
6737,-128.906250
6738,-128.906250
6739,-128.906250
6740,-128.906250
6741,-128.906250
6742,-128.906250
6743,-128.906250
6744,-128.906250
6745,-128.906250
6746,-128.906250
6747,-128.906250
6748,-128.906250
6749,-128.906250
6750,-128.906250
6751,-128.906250
6752,-128.906250
6753,-132.812500
6754,-128.906250
6755,-128.906250
6756,-128.906250
6757,-128.906250
6758,-128.906250
6759,-128.906250
6760,-128.906250
6761,-128.906250
6762,-128.906250
6763,-128.906250
6764,-128.906250
6765,-128.906250
6766,-128.906250
6767,-128.906250
6768,-128.906250
6769,-128.906250
6770,-128.906250
6771,-128.906250
6772,-128.906250
6773,-128.906250
6774,-128.906250
6775,-128.906250
6776,-128.906250
6777,-128.906250
6778,-128.906250
6779,-128.906250
6780,-128.906250
6781,-128.906250
6782,-128.906250
6783,-128.906250
6784,-125.000000
6785,-128.906250
6786,-128.906250
6787,-128.906250
6788,-125.000000
6789,-125.000000
6790,-125.000000
6791,-125.000000
6792,-125.000000
6793,-125.000000
6794,-125.000000
6795,-125.000000
6796,-125.000000
6797,-125.000000
6798,-125.000000
6799,-125.000000
6800,-125.000000
6801,-125.000000
6802,-125.000000
6803,-121.093750
6804,-125.000000
6805,-121.093750
6806,-121.093750
6807,-121.093750
6808,-121.093750
6809,-121.093750
6810,-121.093750
6811,-121.093750
6812,-121.093750
6813,-121.093750
6814,-121.093750
6815,-121.093750
6816,-121.093750
6817,-121.093750
6818,-117.187500
6819,-117.187500
6820,-117.187500
6821,-117.187500
6822,-117.187500
6823,-117.187500
6824,-117.187500
6825,-117.187500
6826,-117.187500
6827,-117.187500
6828,-117.187500
6829,-117.187500
6830,-113.281250
6831,-113.281250
6832,-113.281250
6833,-113.281250
6834,-113.281250
6835,-113.281250
6836,-113.281250
6837,-113.281250
6838,-113.281250
6839,-109.375000
6840,-109.375000
6841,-109.375000
6842,-109.375000
6843,-109.375000
6844,-109.375000
6845,-109.375000
6846,-109.375000
6847,-109.375000
6848,-105.468750
6849,-105.468750
6850,-105.468750
6851,-105.468750
6852,-105.468750
6853,-105.468750
6854,-105.468750
6855,-105.468750
6856,-105.468750
6857,-101.562500
6858,-101.562500
6859,-101.562500
6860,-101.562500
6861,-101.562500
6862,-101.562500
6863,-101.562500
6864,-101.562500
6865,-97.656250
6866,-97.656250
6867,-97.656250
6868,-97.656250
6869,-97.656250
6870,-97.656250
6871,-97.656250
6872,-97.656250
6873,-93.750000
6874,-93.750000
6875,-93.750000
6876,-93.750000
6877,-93.750000
6878,-93.750000
6879,-93.750000
6880,-89.843750
6881,-89.843750
6882,-89.843750
6883,-89.843750
6884,-89.843750
6885,-89.843750
6886,-89.843750
6887,-85.937500
6888,-85.937500
6889,-85.937500
6890,-85.937500
6891,-85.937500
6892,-82.031250
6893,-82.031250
6894,-82.031250
6895,-82.031250
6896,-82.031250
6897,-82.031250
6898,-82.031250
6899,-78.125000
6900,-78.125000
6901,-78.125000
6902,-78.125000
6903,-78.125000
6904,-74.218750
6905,-74.218750
6906,-74.218750
6907,-74.218750
6908,-74.218750
6909,-74.218750
6910,-70.312500
6911,-70.312500
6912,-70.312500
6913,-70.312500
6914,-70.312500
6915,-70.312500
6916,-70.312500
6917,-66.406250
6918,-66.406250
6919,-66.406250
6920,-66.406250
6921,-62.500000
6922,-66.406250
6923,-62.500000
6924,-62.500000
6925,-62.500000
6926,-62.500000
6927,-58.593750
6928,-58.593750
6929,-58.593750
6930,-58.593750
6931,-58.593750
6932,-58.593750
6933,-54.687500
6934,-54.687500
6935,-54.687500
6936,-54.687500
6937,-54.687500
6938,-54.687500
6939,-50.781250
6940,-50.781250
6941,-50.781250
6942,-50.781250
6943,-50.781250
6944,-50.781250
6945,-46.875000
6946,-46.875000
6947,-46.875000
6948,-46.875000
6949,-46.875000
6950,-42.968750
6951,-42.968750
6952,-42.968750
6953,-42.968750
6954,-42.968750
6955,-39.062500
6956,-39.062500
6957,-39.062500
6958,-39.062500
6959,-39.062500
6960,-39.062500
6961,-35.156250
6962,-35.156250
6963,-35.156250
6964,-35.156250
6965,-35.156250
6966,-31.250000
6967,-31.250000
6968,-31.250000
6969,-31.250000
6970,-31.250000
6971,-31.250000
6972,-27.343750
6973,-27.343750
6974,-27.343750
6975,-27.343750
6976,-27.343750
6977,-23.437500
6978,-23.437500
6979,-23.437500
6980,-23.437500
6981,-23.437500
6982,-19.531250
6983,-19.531250
6984,-19.531250
6985,-19.531250
6986,-19.531250
6987,-19.531250
6988,-15.625000
6989,-15.625000
6990,-15.625000
6991,-15.625000
6992,-15.625000
6993,-11.718750
6994,-11.718750
6995,-11.718750
6996,-11.718750
6997,-11.718750
6998,-11.718750
6999,-7.812500
7000,-7.812500
7001,-7.812500
7002,-7.812500
7003,-7.812500
7004,-3.906250
7005,-3.906250
7006,-3.906250
7007,-3.906250
7008,-3.906250
7009,-3.906250
7010,0.000000
7011,0.000000
7012,0.000000
7013,0.000000
7014,3.906250
7015,3.906250
7016,3.906250
7017,3.906250
7018,3.906250
7019,3.906250
7020,3.906250
7021,7.812500
7022,7.812500
7023,7.812500
7024,7.812500
7025,7.812500
7026,11.718750
7027,11.718750
7028,11.718750
7029,11.718750
7030,11.718750
7031,15.625000
7032,11.718750
7033,15.625000
7034,15.625000
7035,15.625000
7036,15.625000
7037,15.625000
7038,19.531250
7039,19.531250
7040,19.531250
7041,19.531250
7042,19.531250
7043,23.437500
7044,23.437500
7045,23.437500
7046,23.437500
7047,23.437500
7048,23.437500
7049,23.437500
7050,27.343750
7051,27.343750
7052,27.343750
7053,27.343750
7054,27.343750
7055,31.250000
7056,31.250000
7057,31.250000
7058,31.250000
7059,31.250000
7060,31.250000
7061,35.156250
7062,35.156250
7063,35.156250
7064,35.156250
7065,35.156250
7066,35.156250
7067,35.156250
7068,39.062500
7069,39.062500
7070,39.062500
7071,39.062500
7072,39.062500
7073,39.062500
7074,42.968750
7075,42.968750
7076,42.968750
7077,42.968750
7078,42.968750
7079,42.968750
7080,42.968750
7081,46.875000
7082,46.875000
7083,46.875000
7084,46.875000
7085,46.875000
7086,46.875000
7087,46.875000
7088,50.781250
7089,50.781250
7090,50.781250
7091,50.781250
7092,50.781250
7093,50.781250
7094,50.781250
7095,54.687500
7096,54.687500
7097,54.687500
7098,54.687500
7099,54.687500
7100,54.687500
7101,54.687500
7102,54.687500
7103,54.687500
7104,58.593750
7105,58.593750
7106,58.593750
7107,58.593750
7108,58.593750
7109,58.593750
7110,58.593750
7111,62.500000
7112,58.593750
7113,62.500000
7114,66.406250
7115,62.500000
7116,62.500000
7117,62.500000
7118,62.500000
7119,66.406250
7120,66.406250
7121,66.406250
7122,66.406250
7123,66.406250
7124,66.406250
7125,66.406250
7126,66.406250
7127,70.312500
7128,70.312500
7129,70.312500
7130,70.312500
7131,70.312500
7132,70.312500
7133,70.312500
7134,70.312500
7135,74.218750
7136,70.312500
7137,74.218750
7138,70.312500
7139,74.218750
7140,74.218750
7141,74.218750
7142,74.218750
7143,74.218750
7144,74.218750
7145,78.125000
7146,78.125000
7147,74.218750
7148,74.218750
7149,78.125000
7150,78.125000
7151,78.125000
7152,78.125000
7153,78.125000
7154,78.125000
7155,78.125000
7156,78.125000
7157,78.125000
7158,78.125000
7159,82.031250
7160,82.031250
7161,82.031250
7162,82.031250
7163,82.031250
7164,82.031250
7165,82.031250
7166,82.031250
7167,82.031250
7168,82.031250
7169,82.031250
7170,82.031250
7171,85.937500
7172,85.937500
7173,85.937500
7174,85.937500
7175,85.937500
7176,85.937500
7177,85.937500
7178,85.937500
7179,85.937500
7180,85.937500
7181,85.937500
7182,85.937500
7183,89.843750
7184,85.937500
7185,85.937500
7186,85.937500
7187,89.843750
7188,89.843750
7189,89.843750
7190,89.843750
7191,89.843750
7192,89.843750
7193,89.843750
7194,89.843750
7195,89.843750
7196,89.843750
7197,89.843750
7198,89.843750
7199,89.843750
7200,89.843750
7201,89.843750
7202,89.843750
7203,89.843750
7204,93.750000
7205,93.750000
7206,93.750000
7207,93.750000
7208,93.750000
7209,93.750000
7210,93.750000
7211,93.750000
7212,93.750000
7213,93.750000
7214,93.750000
7215,93.750000
7216,93.750000
7217,93.750000
7218,93.750000
7219,93.750000
7220,93.750000
7221,93.750000
7222,93.750000
7223,93.750000
7224,93.750000
7225,93.750000
7226,93.750000
7227,93.750000
7228,93.750000
7229,93.750000
7230,93.750000
7231,93.750000
7232,93.750000
7233,93.750000
7234,93.750000
7235,93.750000
7236,93.750000
7237,93.750000
7238,93.750000
7239,93.750000
7240,93.750000
7241,93.750000
7242,93.750000
7243,93.750000
7244,93.750000
7245,93.750000
7246,93.750000
7247,93.750000
7248,93.750000
7249,93.750000
7250,93.750000
7251,93.750000
7252,93.750000
7253,93.750000
7254,93.750000
7255,93.750000
7256,93.750000
7257,93.750000
7258,93.750000
7259,93.750000
7260,93.750000
7261,93.750000
7262,93.750000
7263,93.750000
7264,93.750000
7265,93.750000
7266,93.750000
7267,93.750000
7268,93.750000
7269,93.750000
7270,93.750000
7271,93.750000
7272,93.750000
7273,93.750000
7274,93.750000
7275,93.750000
7276,93.750000
7277,93.750000
7278,93.750000
7279,93.750000
7280,93.750000
7281,93.750000
7282,93.750000
7283,93.750000
7284,89.843750
7285,93.750000
7286,93.750000
7287,93.750000
7288,89.843750
7289,89.843750
7290,89.843750
7291,89.843750
7292,89.843750
7293,89.843750
7294,89.843750
7295,89.843750
7296,89.843750
7297,89.843750
7298,89.843750
7299,89.843750
7300,89.843750
7301,89.843750
7302,89.843750
7303,89.843750
7304,89.843750
7305,89.843750
7306,89.843750
7307,85.937500
7308,85.937500
7309,85.937500
7310,85.937500
7311,85.937500
7312,85.937500
7313,85.937500
7314,85.937500
7315,85.937500
7316,85.937500
7317,85.937500
7318,85.937500
7319,85.937500
7320,85.937500
7321,85.937500
7322,82.031250
7323,85.937500
7324,82.031250
7325,82.031250
7326,82.031250
7327,82.031250
7328,82.031250
7329,82.031250
7330,82.031250
7331,82.031250
7332,82.031250
7333,82.031250
7334,78.125000
7335,78.125000
7336,78.125000
7337,78.125000
7338,78.125000
7339,78.125000
7340,78.125000
7341,78.125000
7342,78.125000
7343,78.125000
7344,78.125000
7345,78.125000
7346,74.218750
7347,74.218750
7348,78.125000
7349,74.218750
7350,74.218750
7351,74.218750
7352,74.218750
7353,74.218750
7354,74.218750
7355,74.218750
7356,74.218750
7357,74.218750
7358,70.312500
7359,70.312500
7360,70.312500
7361,70.312500
7362,70.312500
7363,70.312500
7364,70.312500
7365,70.312500
7366,70.312500
7367,66.406250
7368,66.406250
7369,66.406250
7370,66.406250
7371,66.406250
7372,66.406250
7373,66.406250
7374,66.406250
7375,62.500000
7376,62.500000
7377,62.500000
7378,62.500000
7379,62.500000
7380,62.500000
7381,58.593750
7382,62.500000
7383,58.593750
7384,58.593750
7385,58.593750
7386,58.593750
7387,58.593750
7388,58.593750
7389,58.593750
7390,54.687500
7391,54.687500
7392,54.687500
7393,54.687500
7394,54.687500
7395,54.687500
7396,54.687500
7397,50.781250
7398,50.781250
7399,50.781250
7400,50.781250
7401,50.781250
7402,50.781250
7403,50.781250
7404,46.875000
7405,46.875000
7406,46.875000
7407,46.875000
7408,46.875000
7409,46.875000
7410,46.875000
7411,46.875000
7412,42.968750
7413,42.968750
7414,42.968750
7415,42.968750
7416,42.968750
7417,42.968750
7418,42.968750
7419,39.062500
7420,39.062500
7421,39.062500
7422,39.062500
7423,39.062500
7424,39.062500
7425,39.062500
7426,35.156250
7427,35.156250
7428,35.156250
7429,35.156250
7430,35.156250
7431,31.250000
7432,31.250000
7433,31.250000
7434,31.250000
7435,27.343750
7436,31.250000
7437,31.250000
7438,27.343750
7439,27.343750
7440,27.343750
7441,27.343750
7442,23.437500
7443,27.343750
7444,23.437500
7445,23.437500
7446,27.343750
7447,23.437500
7448,19.531250
7449,23.437500
7450,23.437500
7451,19.531250
7452,19.531250
7453,19.531250
7454,19.531250
7455,19.531250
7456,15.625000
7457,15.625000
7458,15.625000
7459,15.625000
7460,15.625000
7461,15.625000
7462,11.718750
7463,11.718750
7464,11.718750
7465,11.718750
7466,11.718750
7467,7.812500
7468,7.812500
7469,7.812500
7470,7.812500
7471,7.812500
7472,7.812500
7473,3.906250
7474,3.906250
7475,3.906250
7476,3.906250
7477,3.906250
7478,3.906250
7479,0.000000
7480,0.000000
7481,0.000000
7482,0.000000
7483,0.000000
7484,-3.906250
7485,-3.906250
7486,-3.906250
7487,-3.906250
7488,-3.906250
7489,-7.812500
7490,-7.812500
7491,-7.812500
7492,-7.812500
7493,-7.812500
7494,-11.718750
7495,-7.812500
7496,-11.718750
7497,-11.718750
7498,-11.718750
7499,-11.718750
7500,-11.718750
7501,-15.625000
7502,-15.625000
7503,-15.625000
7504,-15.625000
7505,-19.531250
7506,-19.531250
7507,-19.531250
7508,-19.531250
7509,-19.531250
7510,-19.531250
7511,-23.437500
7512,-23.437500
7513,-23.437500
7514,-23.437500
7515,-23.437500
7516,-27.343750
7517,-27.343750
7518,-27.343750
7519,-27.343750
7520,-31.250000
7521,-27.343750
7522,-31.250000
7523,-31.250000
7524,-31.250000
7525,-31.250000
7526,-31.250000
7527,-31.250000
7528,-35.156250
7529,-35.156250
7530,-35.156250
7531,-35.156250
7532,-35.156250
7533,-39.062500
7534,-39.062500
7535,-39.062500
7536,-39.062500
7537,-39.062500
7538,-42.968750
7539,-42.968750
7540,-42.968750
7541,-42.968750
7542,-42.968750
7543,-42.968750
7544,-46.875000
7545,-46.875000
7546,-46.875000
7547,-46.875000
7548,-50.781250
7549,-50.781250
7550,-50.781250
7551,-50.781250
7552,-50.781250
7553,-50.781250
7554,-54.687500
7555,-54.687500
7556,-54.687500
7557,-54.687500
7558,-54.687500
7559,-54.687500
7560,-54.687500
7561,-58.593750
7562,-58.593750
7563,-58.593750
7564,-58.593750
7565,-58.593750
7566,-62.500000
7567,-62.500000
7568,-62.500000
7569,-62.500000
7570,-62.500000
7571,-62.500000
7572,-66.406250
7573,-66.406250
7574,-66.406250
7575,-66.406250
7576,-66.406250
7577,-66.406250
7578,-70.312500
7579,-70.312500
7580,-70.312500
7581,-70.312500
7582,-70.312500
7583,-70.312500
7584,-74.218750
7585,-74.218750
7586,-74.218750
7587,-74.218750
7588,-74.218750
7589,-78.125000
7590,-78.125000
7591,-78.125000
7592,-78.125000
7593,-78.125000
7594,-78.125000
7595,-78.125000
7596,-82.031250
7597,-82.031250
7598,-82.031250
7599,-82.031250
7600,-82.031250
7601,-82.031250
7602,-82.031250
7603,-85.937500
7604,-85.937500
7605,-85.937500
7606,-85.937500
7607,-85.937500
7608,-85.937500
7609,-85.937500
7610,-89.843750
7611,-89.843750
7612,-89.843750
7613,-89.843750
7614,-89.843750
7615,-89.843750
7616,-89.843750
7617,-93.750000
7618,-93.750000
7619,-93.750000
7620,-93.750000
7621,-93.750000
7622,-93.750000
7623,-97.656250
7624,-97.656250
7625,-97.656250
7626,-97.656250
7627,-97.656250
7628,-97.656250
7629,-97.656250
7630,-101.562500
7631,-101.562500
7632,-101.562500
7633,-101.562500
7634,-101.562500
7635,-101.562500
7636,-105.468750
7637,-101.562500
7638,-105.468750
7639,-105.468750
7640,-105.468750
7641,-105.468750
7642,-105.468750
7643,-105.468750
7644,-105.468750
7645,-105.468750
7646,-109.375000
7647,-109.375000
7648,-109.375000
7649,-109.375000
7650,-109.375000
7651,-109.375000
7652,-109.375000
7653,-109.375000
7654,-113.281250
7655,-113.281250
7656,-113.281250
7657,-113.281250
7658,-113.281250
7659,-113.281250
7660,-113.281250
7661,-113.281250
7662,-113.281250
7663,-113.281250
7664,-117.187500
7665,-117.187500
7666,-117.187500
7667,-117.187500
7668,-117.187500
7669,-117.187500
7670,-117.187500
7671,-117.187500
7672,-117.187500
7673,-117.187500
7674,-117.187500
7675,-117.187500
7676,-117.187500
7677,-121.093750
7678,-121.093750
7679,-121.093750
7680,-121.093750
7681,-121.093750
7682,-121.093750
7683,-121.093750
7684,-121.093750
7685,-121.093750
7686,-121.093750
7687,-121.093750
7688,-125.000000
7689,-121.093750
7690,-125.000000
7691,-121.093750
7692,-125.000000
7693,-125.000000
7694,-125.000000
7695,-125.000000
7696,-125.000000
7697,-125.000000
7698,-125.000000
7699,-125.000000
7700,-125.000000
7701,-125.000000
7702,-125.000000
7703,-125.000000
7704,-125.000000
7705,-125.000000
7706,-125.000000
7707,-125.000000
7708,-125.000000
7709,-128.906250
7710,-128.906250
7711,-128.906250
7712,-128.906250
7713,-128.906250
7714,-128.906250
7715,-128.906250
7716,-128.906250
7717,-128.906250
7718,-128.906250
7719,-128.906250
7720,-128.906250
7721,-128.906250
7722,-128.906250
7723,-128.906250
7724,-128.906250
7725,-128.906250
7726,-128.906250
7727,-128.906250
7728,-128.906250
7729,-128.906250
7730,-128.906250
7731,-128.906250
7732,-128.906250
7733,-128.906250
7734,-128.906250
7735,-128.906250
7736,-128.906250
7737,-128.906250
7738,-128.906250
7739,-128.906250
7740,-128.906250
7741,-128.906250
7742,-128.906250
7743,-128.906250
7744,-128.906250
7745,-128.906250
7746,-128.906250
7747,-128.906250
7748,-128.906250
7749,-128.906250
7750,-128.906250
7751,-128.906250
7752,-128.906250
7753,-128.906250
7754,-128.906250
7755,-128.906250
7756,-128.906250
7757,-128.906250
7758,-128.906250
7759,-128.906250
7760,-128.906250
7761,-128.906250
7762,-128.906250
7763,-128.906250
7764,-128.906250
7765,-128.906250
7766,-128.906250
7767,-128.906250
7768,-128.906250
7769,-128.906250
7770,-128.906250
7771,-128.906250
7772,-128.906250
7773,-128.906250
7774,-128.906250
7775,-125.000000
7776,-125.000000
7777,-125.000000
7778,-125.000000
7779,-125.000000
7780,-125.000000
7781,-125.000000
7782,-125.000000
7783,-125.000000
7784,-125.000000
7785,-125.000000
7786,-125.000000
7787,-125.000000
7788,-125.000000
7789,-125.000000
7790,-125.000000
7791,-121.093750
7792,-121.093750
7793,-121.093750
7794,-121.093750
7795,-121.093750
7796,-121.093750
7797,-121.093750
7798,-121.093750
7799,-121.093750
7800,-121.093750
7801,-121.093750
7802,-121.093750
7803,-121.093750
7804,-121.093750
7805,-117.187500
7806,-117.187500
7807,-117.187500
7808,-117.187500
7809,-117.187500
7810,-117.187500
7811,-117.187500
7812,-117.187500
7813,-117.187500
7814,-117.187500
7815,-117.187500
7816,-113.281250
7817,-113.281250
7818,-113.281250
7819,-113.281250
7820,-113.281250
7821,-113.281250
7822,-113.281250
7823,-113.281250
7824,-113.281250
7825,-113.281250
7826,-109.375000
7827,-109.375000
7828,-109.375000
7829,-109.375000
7830,-109.375000
7831,-109.375000
7832,-109.375000
7833,-109.375000
7834,-109.375000
7835,-109.375000
7836,-105.468750
7837,-105.468750
7838,-105.468750
7839,-105.468750
7840,-105.468750
7841,-105.468750
7842,-105.468750
7843,-105.468750
7844,-105.468750
7845,-101.562500
7846,-101.562500
7847,-101.562500
7848,-101.562500
7849,-101.562500
7850,-101.562500
7851,-101.562500
7852,-101.562500
7853,-101.562500
7854,-97.656250
7855,-97.656250
7856,-97.656250
7857,-97.656250
7858,-97.656250
7859,-97.656250
7860,-93.750000
7861,-93.750000
7862,-93.750000
7863,-93.750000
7864,-93.750000
7865,-93.750000
7866,-93.750000
7867,-93.750000
7868,-93.750000
7869,-89.843750
7870,-89.843750
7871,-89.843750
7872,-89.843750
7873,-89.843750
7874,-85.937500
7875,-85.937500
7876,-85.937500
7877,-85.937500
7878,-85.937500
7879,-85.937500
7880,-85.937500
7881,-85.937500
7882,-82.031250
7883,-82.031250
7884,-82.031250
7885,-82.031250
7886,-82.031250
7887,-78.125000
7888,-82.031250
7889,-78.125000
7890,-78.125000
7891,-78.125000
7892,-78.125000
7893,-78.125000
7894,-78.125000
7895,-74.218750
7896,-74.218750
7897,-74.218750
7898,-74.218750
7899,-70.312500
7900,-70.312500
7901,-70.312500
7902,-70.312500
7903,-70.312500
7904,-70.312500
7905,-70.312500
7906,-70.312500
7907,-66.406250
7908,-66.406250
7909,-66.406250
7910,-66.406250
7911,-66.406250
7912,-62.500000
7913,-62.500000
7914,-62.500000
7915,-62.500000
7916,-62.500000
7917,-58.593750
7918,-58.593750
7919,-58.593750
7920,-58.593750
7921,-58.593750
7922,-58.593750
7923,-54.687500
7924,-54.687500
7925,-54.687500
7926,-54.687500
7927,-54.687500
7928,-54.687500
7929,-50.781250
7930,-50.781250
7931,-50.781250
7932,-50.781250
7933,-50.781250
7934,-50.781250
7935,-46.875000
7936,-46.875000
7937,-46.875000
7938,-46.875000
7939,-46.875000
7940,-42.968750
7941,-42.968750
7942,-42.968750
7943,-42.968750
7944,-42.968750
7945,-39.062500
7946,-39.062500
7947,-39.062500
7948,-39.062500
7949,-39.062500
7950,-39.062500
7951,-35.156250
7952,-35.156250
7953,-35.156250
7954,-35.156250
7955,-35.156250
7956,-31.250000
7957,-31.250000
7958,-31.250000
7959,-31.250000
7960,-31.250000
7961,-27.343750
7962,-27.343750
7963,-27.343750
7964,-27.343750
7965,-27.343750
7966,-27.343750
7967,-27.343750
7968,-23.437500
7969,-23.437500
7970,-23.437500
7971,-23.437500
7972,-23.437500
7973,-19.531250
7974,-19.531250
7975,-19.531250
7976,-19.531250
7977,-15.625000
7978,-15.625000
7979,-15.625000
7980,-15.625000
7981,-15.625000
7982,-15.625000
7983,-15.625000
7984,-11.718750
7985,-11.718750
7986,-11.718750
7987,-11.718750
7988,-7.812500
7989,-7.812500
7990,-7.812500
7991,-7.812500
7992,-7.812500
7993,-7.812500
7994,-3.906250
7995,-3.906250
7996,-3.906250
7997,-3.906250
7998,-3.906250
7999,0.000000
8000,0.000000
8001,0.000000
8002,0.000000
8003,3.906250
8004,0.000000
8005,3.906250
8006,3.906250
8007,3.906250
8008,3.906250
8009,3.906250
8010,3.906250
8011,7.812500
8012,7.812500
8013,7.812500
8014,7.812500
8015,7.812500
8016,7.812500
8017,11.718750
8018,11.718750
8019,11.718750
8020,11.718750
8021,11.718750
8022,11.718750
8023,15.625000
8024,15.625000
8025,15.625000
8026,15.625000
8027,19.531250
8028,19.531250
8029,19.531250
8030,19.531250
8031,19.531250
8032,19.531250
8033,19.531250
8034,19.531250
8035,23.437500
8036,23.437500
8037,23.437500
8038,23.437500
8039,27.343750
8040,27.343750
8041,27.343750
8042,27.343750
8043,27.343750
8044,27.343750
8045,27.343750
8046,31.250000
8047,31.250000
8048,31.250000
8049,31.250000
8050,31.250000
8051,31.250000
8052,35.156250
8053,35.156250
8054,35.156250
8055,35.156250
8056,35.156250
8057,35.156250
8058,39.062500
8059,39.062500
8060,39.062500
8061,39.062500
8062,39.062500
8063,39.062500
8064,39.062500
8065,42.968750
8066,42.968750
8067,42.968750
8068,42.968750
8069,42.968750
8070,42.968750
8071,46.875000
8072,46.875000
8073,46.875000
8074,46.875000
8075,46.875000
8076,46.875000
8077,46.875000
8078,46.875000
8079,50.781250
8080,50.781250
8081,50.781250
8082,50.781250
8083,50.781250
8084,50.781250
8085,50.781250
8086,50.781250
8087,54.687500
8088,54.687500
8089,54.687500
8090,54.687500
8091,54.687500
8092,58.593750
8093,58.593750
8094,58.593750
8095,58.593750
8096,58.593750
8097,58.593750
8098,58.593750
8099,58.593750
8100,62.500000
8101,62.500000
8102,62.500000
8103,62.500000
8104,62.500000
8105,62.500000
8106,62.500000
8107,62.500000
8108,62.500000
8109,66.406250
8110,66.406250
8111,66.406250
8112,66.406250
8113,66.406250
8114,66.406250
8115,66.406250
8116,66.406250
8117,70.312500
8118,66.406250
8119,70.312500
8120,70.312500
8121,70.312500
8122,70.312500
8123,70.312500
8124,70.312500
8125,70.312500
8126,70.312500
8127,74.218750
8128,74.218750
8129,74.218750
8130,74.218750
8131,74.218750
8132,74.218750
8133,74.218750
8134,74.218750
8135,74.218750
8136,78.125000
8137,78.125000
8138,78.125000
8139,78.125000
8140,78.125000
8141,78.125000
8142,78.125000
8143,78.125000
8144,78.125000
8145,78.125000
8146,78.125000
8147,82.031250
8148,78.125000
8149,82.031250
8150,82.031250
8151,82.031250
8152,82.031250
8153,82.031250
8154,82.031250
8155,82.031250
8156,82.031250
8157,82.031250
8158,82.031250
8159,85.937500
8160,82.031250
8161,85.937500
8162,85.937500
8163,85.937500
8164,85.937500
8165,85.937500
8166,85.937500
8167,85.937500
8168,85.937500
8169,85.937500
8170,85.937500
8171,85.937500
8172,85.937500
8173,85.937500
8174,85.937500
8175,85.937500
8176,85.937500
8177,89.843750
8178,89.843750
8179,89.843750
8180,89.843750
8181,89.843750
8182,89.843750
8183,89.843750
8184,89.843750
8185,89.843750
8186,89.843750
8187,89.843750
8188,89.843750
8189,89.843750
8190,89.843750
8191,89.843750
8192,89.843750
8193,89.843750
8194,89.843750
8195,89.843750
8196,89.843750
8197,89.843750
8198,89.843750
8199,89.843750
8200,89.843750
8201,93.750000
8202,93.750000
8203,93.750000
8204,93.750000
8205,93.750000
8206,93.750000
8207,93.750000
8208,93.750000
8209,93.750000
8210,93.750000
8211,93.750000
8212,93.750000
8213,93.750000
8214,93.750000
8215,93.750000
8216,93.750000
8217,93.750000
8218,93.750000
8219,93.750000
8220,93.750000
8221,93.750000
8222,93.750000
8223,93.750000
8224,93.750000
8225,93.750000
8226,93.750000
8227,93.750000
8228,93.750000
8229,93.750000
8230,93.750000
8231,93.750000
8232,93.750000
8233,93.750000
8234,93.750000
8235,93.750000
8236,93.750000
8237,93.750000
8238,93.750000
8239,93.750000
8240,93.750000
8241,93.750000
8242,93.750000
8243,93.750000
8244,93.750000
8245,93.750000
8246,93.750000
8247,93.750000
8248,93.750000
8249,93.750000
8250,93.750000
8251,93.750000
8252,93.750000
8253,93.750000
8254,93.750000
8255,93.750000
8256,93.750000
8257,93.750000
8258,93.750000
8259,93.750000
8260,93.750000
8261,93.750000
8262,93.750000
8263,93.750000
8264,93.750000
8265,93.750000
8266,93.750000
8267,93.750000
8268,93.750000
8269,93.750000
8270,93.750000
8271,93.750000
8272,93.750000
8273,93.750000
8274,93.750000
8275,89.843750
8276,89.843750
8277,89.843750
8278,89.843750
8279,89.843750
8280,89.843750
8281,89.843750
8282,89.843750
8283,89.843750
8284,89.843750
8285,89.843750
8286,89.843750
8287,89.843750
8288,89.843750
8289,89.843750
8290,89.843750
8291,89.843750
8292,89.843750
8293,89.843750
8294,89.843750
8295,89.843750
8296,89.843750
8297,85.937500
8298,85.937500
8299,85.937500
8300,85.937500
8301,85.937500
8302,85.937500
8303,85.937500
8304,85.937500
8305,85.937500
8306,85.937500
8307,85.937500
8308,85.937500
8309,85.937500
8310,85.937500
8311,85.937500
8312,85.937500
8313,82.031250
8314,82.031250
8315,82.031250
8316,82.031250
8317,82.031250
8318,82.031250
8319,82.031250
8320,82.031250
8321,82.031250
8322,82.031250
8323,82.031250
8324,82.031250
8325,82.031250
8326,78.125000
8327,78.125000
8328,78.125000
8329,78.125000
8330,78.125000
8331,78.125000
8332,78.125000
8333,74.218750
8334,78.125000
8335,78.125000
8336,74.218750
8337,74.218750
8338,74.218750
8339,74.218750
8340,74.218750
8341,74.218750
8342,74.218750
8343,74.218750
8344,70.312500
8345,70.312500
8346,70.312500
8347,70.312500
8348,70.312500
8349,70.312500
8350,70.312500
8351,70.312500
8352,70.312500
8353,70.312500
8354,70.312500
8355,70.312500
8356,70.312500
8357,66.406250
8358,66.406250
8359,66.406250
8360,66.406250
8361,66.406250
8362,66.406250
8363,62.500000
8364,62.500000
8365,62.500000
8366,62.500000
8367,62.500000
8368,62.500000
8369,62.500000
8370,62.500000
8371,62.500000
8372,62.500000
8373,62.500000
8374,58.593750
8375,58.593750
8376,58.593750
8377,58.593750
8378,58.593750
8379,58.593750
8380,58.593750
8381,58.593750
8382,54.687500
8383,54.687500
8384,54.687500
8385,54.687500
8386,54.687500
8387,50.781250
8388,50.781250
8389,50.781250
8390,50.781250
8391,50.781250
8392,50.781250
8393,50.781250
8394,46.875000
8395,46.875000
8396,46.875000
8397,46.875000
8398,46.875000
8399,46.875000
8400,46.875000
8401,46.875000
8402,46.875000
8403,42.968750
8404,42.968750
8405,42.968750
8406,42.968750
8407,42.968750
8408,42.968750
8409,39.062500
8410,39.062500
8411,39.062500
8412,39.062500
8413,39.062500
8414,35.156250
8415,35.156250
8416,35.156250
8417,35.156250
8418,35.156250
8419,35.156250
8420,35.156250
8421,35.156250
8422,31.250000
8423,31.250000
8424,31.250000
8425,31.250000
8426,31.250000
8427,31.250000
8428,31.250000
8429,27.343750
8430,27.343750
8431,27.343750
8432,27.343750
8433,27.343750
8434,23.437500
8435,23.437500
8436,23.437500
8437,23.437500
8438,23.437500
8439,19.531250
8440,19.531250
8441,19.531250
8442,19.531250
8443,19.531250
8444,19.531250
8445,19.531250
8446,15.625000
8447,15.625000
8448,15.625000
8449,15.625000
8450,15.625000
8451,15.625000
8452,11.718750
8453,11.718750
8454,11.718750
8455,11.718750
8456,11.718750
8457,7.812500
8458,7.812500
8459,7.812500
8460,7.812500
8461,7.812500
8462,7.812500
8463,7.812500
8464,3.906250
8465,3.906250
8466,3.906250
8467,3.906250
8468,3.906250
8469,0.000000
8470,0.000000
8471,0.000000
8472,0.000000
8473,0.000000
8474,-3.906250
8475,-3.906250
8476,-3.906250
8477,-3.906250
8478,-3.906250
8479,-3.906250
8480,-7.812500
8481,-7.812500
8482,-7.812500
8483,-7.812500
8484,-7.812500
8485,-11.718750
8486,-11.718750
8487,-11.718750
8488,-11.718750
8489,-11.718750
8490,-15.625000
8491,-15.625000
8492,-15.625000
8493,-15.625000
8494,-15.625000
8495,-15.625000
8496,-19.531250
8497,-19.531250
8498,-19.531250
8499,-19.531250
8500,-19.531250
8501,-19.531250
8502,-23.437500
8503,-23.437500
8504,-23.437500
8505,-23.437500
8506,-27.343750
8507,-23.437500
8508,-27.343750
8509,-27.343750
8510,-27.343750
8511,-27.343750
8512,-27.343750
8513,-31.250000
8514,-31.250000
8515,-31.250000
8516,-31.250000
8517,-31.250000
8518,-35.156250
8519,-35.156250
8520,-35.156250
8521,-35.156250
8522,-35.156250
8523,-35.156250
8524,-39.062500
8525,-39.062500
8526,-39.062500
8527,-39.062500
8528,-39.062500
8529,-42.968750
8530,-42.968750
8531,-42.968750
8532,-42.968750
8533,-46.875000
8534,-46.875000
8535,-46.875000
8536,-46.875000
8537,-46.875000
8538,-46.875000
8539,-50.781250
8540,-50.781250
8541,-50.781250
8542,-50.781250
8543,-50.781250
8544,-50.781250
8545,-54.687500
8546,-54.687500
8547,-54.687500
8548,-54.687500
8549,-54.687500
8550,-54.687500
8551,-58.593750
8552,-58.593750
8553,-58.593750
8554,-58.593750
8555,-62.500000
8556,-62.500000
8557,-62.500000
8558,-62.500000
8559,-62.500000
8560,-62.500000
8561,-62.500000
8562,-66.406250
8563,-66.406250
8564,-66.406250
8565,-66.406250
8566,-66.406250
8567,-66.406250
8568,-66.406250
8569,-70.312500
8570,-70.312500
8571,-70.312500
8572,-70.312500
8573,-74.218750
8574,-74.218750
8575,-74.218750
8576,-74.218750
8577,-74.218750
8578,-74.218750
8579,-74.218750
8580,-78.125000
8581,-78.125000
8582,-78.125000
8583,-78.125000
8584,-78.125000
8585,-82.031250
8586,-82.031250
8587,-82.031250
8588,-82.031250
8589,-82.031250
8590,-82.031250
8591,-82.031250
8592,-85.937500
8593,-85.937500
8594,-85.937500
8595,-85.937500
8596,-85.937500
8597,-85.937500
8598,-85.937500
8599,-89.843750
8600,-85.937500
8601,-93.750000
8602,-89.843750
8603,-89.843750
8604,-89.843750
8605,-89.843750
8606,-93.750000
8607,-93.750000
8608,-93.750000
8609,-93.750000
8610,-93.750000
8611,-93.750000
8612,-93.750000
8613,-93.750000
8614,-97.656250
8615,-97.656250
8616,-97.656250
8617,-97.656250
8618,-97.656250
8619,-101.562500
8620,-101.562500
8621,-101.562500
8622,-101.562500
8623,-101.562500
8624,-101.562500
8625,-101.562500
8626,-101.562500
8627,-101.562500
8628,-105.468750
8629,-105.468750
8630,-105.468750
8631,-105.468750
8632,-105.468750
8633,-105.468750
8634,-105.468750
8635,-109.375000
8636,-109.375000
8637,-109.375000
8638,-109.375000
8639,-109.375000
8640,-109.375000
8641,-109.375000
8642,-109.375000
8643,-109.375000
8644,-109.375000
8645,-113.281250
8646,-113.281250
8647,-113.281250
8648,-113.281250
8649,-113.281250
8650,-113.281250
8651,-113.281250
8652,-113.281250
8653,-117.187500
8654,-113.281250
8655,-117.187500
8656,-117.187500
8657,-117.187500
8658,-117.187500
8659,-117.187500
8660,-117.187500
8661,-117.187500
8662,-117.187500
8663,-117.187500
8664,-121.093750
8665,-117.187500
8666,-121.093750
8667,-121.093750
8668,-121.093750
8669,-121.093750
8670,-121.093750
8671,-121.093750
8672,-121.093750
8673,-121.093750
8674,-121.093750
8675,-121.093750
8676,-121.093750
8677,-121.093750
8678,-125.000000
8679,-125.000000
8680,-125.000000
8681,-125.000000
8682,-125.000000
8683,-125.000000
8684,-125.000000
8685,-125.000000
8686,-125.000000
8687,-125.000000
8688,-125.000000
8689,-125.000000
8690,-128.906250
8691,-125.000000
8692,-125.000000
8693,-128.906250
8694,-125.000000
8695,-128.906250
8696,-128.906250
8697,-128.906250
8698,-128.906250
8699,-125.000000
8700,-128.906250
8701,-128.906250
8702,-128.906250
8703,-128.906250
8704,-128.906250
8705,-128.906250
8706,-128.906250
8707,-128.906250
8708,-128.906250
8709,-128.906250
8710,-128.906250
8711,-128.906250
8712,-128.906250
8713,-128.906250
8714,-128.906250
8715,-128.906250
8716,-128.906250
8717,-128.906250
8718,-128.906250
8719,-128.906250
8720,-128.906250
8721,-128.906250
8722,-128.906250
8723,-128.906250
8724,-128.906250
8725,-128.906250
8726,-128.906250
8727,-128.906250
8728,-128.906250
8729,-128.906250
8730,-128.906250
8731,-128.906250
8732,-128.906250
8733,-128.906250
8734,-128.906250
8735,-128.906250
8736,-128.906250
8737,-128.906250
8738,-128.906250
8739,-128.906250
8740,-128.906250
8741,-128.906250
8742,-128.906250
8743,-128.906250
8744,-128.906250
8745,-128.906250
8746,-128.906250
8747,-128.906250
8748,-128.906250
8749,-128.906250
8750,-128.906250
8751,-128.906250
8752,-128.906250
8753,-128.906250
8754,-128.906250
8755,-128.906250
8756,-128.906250
8757,-128.906250
8758,-128.906250
8759,-128.906250
8760,-128.906250
8761,-128.906250
8762,-128.906250
8763,-125.000000
8764,-125.000000
8765,-125.000000
8766,-125.000000
8767,-125.000000
8768,-125.000000
8769,-125.000000
8770,-125.000000
8771,-125.000000
8772,-125.000000
8773,-125.000000
8774,-125.000000
8775,-125.000000
8776,-125.000000
8777,-125.000000
8778,-125.000000
8779,-125.000000
8780,-125.000000
8781,-125.000000
8782,-125.000000
8783,-125.000000
8784,-125.000000
8785,-121.093750
8786,-121.093750
8787,-121.093750
8788,-121.093750
8789,-121.093750
8790,-121.093750
8791,-121.093750
8792,-121.093750
8793,-121.093750
8794,-121.093750
8795,-121.093750
8796,-121.093750
8797,-117.187500
8798,-117.187500
8799,-117.187500
8800,-117.187500
8801,-117.187500
8802,-117.187500
8803,-117.187500
8804,-117.187500
8805,-117.187500
8806,-117.187500
8807,-113.281250
8808,-113.281250
8809,-113.281250
8810,-113.281250
8811,-113.281250
8812,-113.281250
8813,-113.281250
8814,-113.281250
8815,-113.281250
8816,-113.281250
8817,-113.281250
8818,-113.281250
8819,-109.375000
8820,-109.375000
8821,-109.375000
8822,-109.375000
8823,-109.375000
8824,-109.375000
8825,-109.375000
8826,-109.375000
8827,-105.468750
8828,-105.468750
8829,-105.468750
8830,-105.468750
8831,-105.468750
8832,-105.468750
8833,-105.468750
8834,-105.468750
8835,-105.468750
8836,-101.562500
8837,-101.562500
8838,-101.562500
8839,-101.562500
8840,-101.562500
8841,-101.562500
8842,-101.562500
8843,-97.656250
8844,-97.656250
8845,-97.656250
8846,-97.656250
8847,-97.656250
8848,-97.656250
8849,-97.656250
8850,-97.656250
8851,-93.750000
8852,-93.750000
8853,-93.750000
8854,-93.750000
8855,-93.750000
8856,-93.750000
8857,-93.750000
8858,-89.843750
8859,-89.843750
8860,-89.843750
8861,-89.843750
8862,-89.843750
8863,-89.843750
8864,-85.937500
8865,-85.937500
8866,-85.937500
8867,-85.937500
8868,-85.937500
8869,-85.937500
8870,-85.937500
8871,-85.937500
8872,-82.031250
8873,-82.031250
8874,-82.031250
8875,-82.031250
8876,-82.031250
8877,-78.125000
8878,-78.125000
8879,-78.125000
8880,-78.125000
8881,-78.125000
8882,-78.125000
8883,-78.125000
8884,-78.125000
8885,-74.218750
8886,-74.218750
8887,-74.218750
8888,-74.218750
8889,-74.218750
8890,-70.312500
8891,-70.312500
8892,-70.312500
8893,-70.312500
8894,-70.312500
8895,-70.312500
8896,-66.406250
8897,-66.406250
8898,-66.406250
8899,-66.406250
8900,-66.406250
8901,-66.406250
8902,-62.500000
8903,-62.500000
8904,-62.500000
8905,-62.500000
8906,-62.500000
8907,-62.500000
8908,-58.593750
8909,-58.593750
8910,-58.593750
8911,-58.593750
8912,-58.593750
8913,-54.687500
8914,-54.687500
8915,-54.687500
8916,-54.687500
8917,-50.781250
8918,-54.687500
8919,-50.781250
8920,-50.781250
8921,-50.781250
8922,-50.781250
8923,-50.781250
8924,-50.781250
8925,-46.875000
8926,-46.875000
8927,-46.875000
8928,-46.875000
8929,-46.875000
8930,-42.968750
8931,-42.968750
8932,-42.968750
8933,-42.968750
8934,-42.968750
8935,-42.968750
8936,-39.062500
8937,-39.062500
8938,-39.062500
8939,-39.062500
8940,-35.156250
8941,-35.156250
8942,-35.156250
8943,-35.156250
8944,-35.156250
8945,-35.156250
8946,-35.156250
8947,-31.250000
8948,-31.250000
8949,-31.250000
8950,-31.250000
8951,-31.250000
8952,-31.250000
8953,-27.343750
8954,-27.343750
8955,-23.437500
8956,-27.343750
8957,-23.437500
8958,-23.437500
8959,-23.437500
8960,-23.437500
8961,-19.531250
8962,-19.531250
8963,-19.531250
8964,-19.531250
8965,-19.531250
8966,-19.531250
8967,-15.625000
8968,-15.625000
8969,-15.625000
8970,-15.625000
8971,-15.625000
8972,-15.625000
8973,-11.718750
8974,-11.718750
8975,-11.718750
8976,-11.718750
8977,-11.718750
8978,-11.718750
8979,-7.812500
8980,-7.812500
8981,-7.812500
8982,-7.812500
8983,-7.812500
8984,-3.906250
8985,-3.906250
8986,-3.906250
8987,-3.906250
8988,-3.906250
8989,-3.906250
8990,0.000000
8991,0.000000
8992,0.000000
8993,0.000000
8994,0.000000
8995,0.000000
8996,3.906250
8997,3.906250
8998,3.906250
8999,3.906250
9000,3.906250
9001,7.812500
9002,7.812500
9003,7.812500
9004,7.812500
9005,7.812500
9006,7.812500
9007,11.718750
9008,11.718750
9009,11.718750
9010,11.718750
9011,11.718750
9012,15.625000
9013,15.625000
9014,15.625000
9015,15.625000
9016,15.625000
9017,19.531250
9018,19.531250
9019,19.531250
9020,19.531250
9021,19.531250
9022,19.531250
9023,23.437500
9024,23.437500
9025,23.437500
9026,23.437500
9027,27.343750
9028,23.437500
9029,23.437500
9030,27.343750
9031,27.343750
9032,27.343750
9033,27.343750
9034,27.343750
9035,31.250000
9036,31.250000
9037,31.250000
9038,31.250000
9039,31.250000
9040,31.250000
9041,35.156250
9042,35.156250
9043,35.156250
9044,35.156250
9045,35.156250
9046,35.156250
9047,35.156250
9048,39.062500
9049,39.062500
9050,39.062500
9051,39.062500
9052,39.062500
9053,39.062500
9054,39.062500
9055,42.968750
9056,42.968750
9057,42.968750
9058,42.968750
9059,42.968750
9060,42.968750
9061,46.875000
9062,42.968750
9063,46.875000
9064,46.875000
9065,46.875000
9066,46.875000
9067,46.875000
9068,46.875000
9069,50.781250
9070,50.781250
9071,50.781250
9072,50.781250
9073,50.781250
9074,50.781250
9075,54.687500
9076,54.687500
9077,54.687500
9078,54.687500
9079,54.687500
9080,54.687500
9081,54.687500
9082,54.687500
9083,58.593750
9084,58.593750
9085,58.593750
9086,58.593750
9087,58.593750
9088,58.593750
9089,58.593750
9090,58.593750
9091,62.500000
9092,62.500000
9093,62.500000
9094,62.500000
9095,62.500000
9096,62.500000
9097,62.500000
9098,62.500000
9099,66.406250
9100,66.406250
9101,66.406250
9102,66.406250
9103,66.406250
9104,66.406250
9105,66.406250
9106,66.406250
9107,70.312500
9108,70.312500
9109,70.312500
9110,70.312500
9111,70.312500
9112,70.312500
9113,70.312500
9114,70.312500
9115,70.312500
9116,74.218750
9117,74.218750
9118,74.218750
9119,74.218750
9120,74.218750
9121,74.218750
9122,74.218750
9123,74.218750
9124,74.218750
9125,78.125000
9126,78.125000
9127,78.125000
9128,78.125000
9129,78.125000
9130,78.125000
9131,78.125000
9132,78.125000
9133,78.125000
9134,78.125000
9135,78.125000
9136,78.125000
9137,78.125000
9138,78.125000
9139,82.031250
9140,82.031250
9141,82.031250
9142,82.031250
9143,82.031250
9144,82.031250
9145,82.031250
9146,82.031250
9147,82.031250
9148,82.031250
9149,82.031250
9150,85.937500
9151,85.937500
9152,85.937500
9153,85.937500
9154,85.937500
9155,85.937500
9156,85.937500
9157,85.937500
9158,85.937500
9159,85.937500
9160,85.937500
9161,85.937500
9162,85.937500
9163,85.937500
9164,85.937500
9165,85.937500
9166,85.937500
9167,85.937500
9168,89.843750
9169,89.843750
9170,89.843750
9171,89.843750
9172,89.843750
9173,89.843750
9174,89.843750
9175,89.843750
9176,89.843750
9177,89.843750
9178,89.843750
9179,89.843750
9180,89.843750
9181,89.843750
9182,89.843750
9183,89.843750
9184,93.750000
9185,89.843750
9186,89.843750
9187,89.843750
9188,89.843750
9189,93.750000
9190,93.750000
9191,93.750000
9192,89.843750
9193,93.750000
9194,93.750000
9195,93.750000
9196,93.750000
9197,93.750000
9198,93.750000
9199,93.750000
9200,93.750000
9201,93.750000
9202,93.750000
9203,93.750000
9204,93.750000
9205,93.750000
9206,93.750000
9207,93.750000
9208,93.750000
9209,93.750000
9210,93.750000
9211,93.750000
9212,93.750000
9213,93.750000
9214,93.750000
9215,93.750000
9216,93.750000
9217,93.750000
9218,93.750000
9219,93.750000
9220,93.750000
9221,93.750000
9222,93.750000
9223,93.750000
9224,93.750000
9225,93.750000
9226,93.750000
9227,93.750000
9228,93.750000
9229,93.750000
9230,93.750000
9231,93.750000
9232,93.750000
9233,93.750000
9234,93.750000
9235,93.750000
9236,93.750000
9237,93.750000
9238,93.750000
9239,93.750000
9240,93.750000
9241,93.750000
9242,93.750000
9243,93.750000
9244,93.750000
9245,93.750000
9246,93.750000
9247,93.750000
9248,93.750000
9249,93.750000
9250,93.750000
9251,93.750000
9252,93.750000
9253,93.750000
9254,93.750000
9255,93.750000
9256,93.750000
9257,93.750000
9258,93.750000
9259,89.843750
9260,93.750000
9261,89.843750
9262,93.750000
9263,93.750000
9264,93.750000
9265,93.750000
9266,93.750000
9267,93.750000
9268,89.843750
9269,89.843750
9270,89.843750
9271,89.843750
9272,89.843750
9273,89.843750
9274,89.843750
9275,89.843750
9276,89.843750
9277,89.843750
9278,89.843750
9279,89.843750
9280,89.843750
9281,89.843750
9282,89.843750
9283,89.843750
9284,89.843750
9285,89.843750
9286,89.843750
9287,85.937500
9288,85.937500
9289,85.937500
9290,85.937500
9291,85.937500
9292,85.937500
9293,85.937500
9294,85.937500
9295,85.937500
9296,85.937500
9297,85.937500
9298,85.937500
9299,85.937500
9300,85.937500
9301,85.937500
9302,82.031250
9303,82.031250
9304,82.031250
9305,82.031250
9306,82.031250
9307,82.031250
9308,82.031250
9309,82.031250
9310,82.031250
9311,82.031250
9312,82.031250
9313,82.031250
9314,82.031250
9315,82.031250
9316,78.125000
9317,78.125000
9318,78.125000
9319,78.125000
9320,78.125000
9321,78.125000
9322,78.125000
9323,78.125000
9324,74.218750
9325,78.125000
9326,78.125000
9327,74.218750
9328,74.218750
9329,74.218750
9330,74.218750
9331,74.218750
9332,74.218750
9333,74.218750
9334,74.218750
9335,74.218750
9336,70.312500
9337,70.312500
9338,70.312500
9339,70.312500
9340,70.312500
9341,70.312500
9342,70.312500
9343,70.312500
9344,70.312500
9345,66.406250
9346,66.406250
9347,66.406250
9348,66.406250
9349,66.406250
9350,66.406250
9351,66.406250
9352,66.406250
9353,66.406250
9354,62.500000
9355,62.500000
9356,62.500000
9357,62.500000
9358,62.500000
9359,62.500000
9360,62.500000
9361,62.500000
9362,62.500000
9363,58.593750
9364,58.593750
9365,58.593750
9366,58.593750
9367,58.593750
9368,58.593750
9369,58.593750
9370,54.687500
9371,54.687500
9372,54.687500
9373,54.687500
9374,54.687500
9375,54.687500
9376,54.687500
9377,54.687500
9378,54.687500
9379,50.781250
9380,50.781250
9381,50.781250
9382,50.781250
9383,50.781250
9384,50.781250
9385,50.781250
9386,46.875000
9387,46.875000
9388,46.875000
9389,46.875000
9390,46.875000
9391,46.875000
9392,46.875000
9393,46.875000
9394,42.968750
9395,42.968750
9396,42.968750
9397,42.968750
9398,39.062500
9399,39.062500
9400,39.062500
9401,39.062500
9402,39.062500
9403,39.062500
9404,39.062500
9405,39.062500
9406,35.156250
9407,35.156250
9408,35.156250
9409,35.156250
9410,35.156250
9411,35.156250
9412,31.250000
9413,31.250000
9414,31.250000
9415,31.250000
9416,31.250000
9417,31.250000
9418,27.343750
9419,27.343750
9420,27.343750
9421,27.343750
9422,27.343750
9423,27.343750
9424,23.437500
9425,23.437500
9426,23.437500
9427,23.437500
9428,23.437500
9429,23.437500
9430,23.437500
9431,19.531250
9432,19.531250
9433,19.531250
9434,19.531250
9435,19.531250
9436,15.625000
9437,15.625000
9438,15.625000
9439,15.625000
9440,15.625000
9441,15.625000
9442,11.718750
9443,11.718750
9444,11.718750
9445,11.718750
9446,11.718750
9447,7.812500
9448,7.812500
9449,7.812500
9450,7.812500
9451,7.812500
9452,7.812500
9453,3.906250
9454,3.906250
9455,3.906250
9456,3.906250
9457,3.906250
9458,3.906250
9459,0.000000
9460,0.000000
9461,0.000000
9462,0.000000
9463,-3.906250
9464,-3.906250
9465,-3.906250
9466,-3.906250
9467,-3.906250
9468,-3.906250
9469,-3.906250
9470,-7.812500
9471,-7.812500
9472,-7.812500
9473,-7.812500
9474,-7.812500
9475,-11.718750
9476,-11.718750
9477,-11.718750
9478,-11.718750
9479,-11.718750
9480,-15.625000
9481,-15.625000
9482,-15.625000
9483,-15.625000
9484,-15.625000
9485,-15.625000
9486,-19.531250
9487,-19.531250
9488,-19.531250
9489,-19.531250
9490,-19.531250
9491,-23.437500
9492,-23.437500
9493,-23.437500
9494,-23.437500
9495,-23.437500
9496,-23.437500
9497,-27.343750
9498,-27.343750
9499,-27.343750
9500,-27.343750
9501,-27.343750
9502,-31.250000
9503,-31.250000
9504,-31.250000
9505,-31.250000
9506,-35.156250
9507,-35.156250
9508,-35.156250
9509,-35.156250
9510,-35.156250
9511,-35.156250
9512,-35.156250
9513,-39.062500
9514,-39.062500
9515,-39.062500
9516,-39.062500
9517,-39.062500
9518,-39.062500
9519,-42.968750
9520,-42.968750
9521,-42.968750
9522,-42.968750
9523,-46.875000
9524,-46.875000
9525,-46.875000
9526,-46.875000
9527,-46.875000
9528,-46.875000
9529,-50.781250
9530,-50.781250
9531,-50.781250
9532,-50.781250
9533,-50.781250
9534,-50.781250
9535,-54.687500
9536,-54.687500
9537,-54.687500
9538,-54.687500
9539,-54.687500
9540,-58.593750
9541,-58.593750
9542,-58.593750
9543,-58.593750
9544,-58.593750
9545,-58.593750
9546,-58.593750
9547,-62.500000
9548,-62.500000
9549,-62.500000
9550,-66.406250
9551,-62.500000
9552,-66.406250
9553,-66.406250
9554,-66.406250
9555,-66.406250
9556,-66.406250
9557,-66.406250
9558,-70.312500
9559,-70.312500
9560,-70.312500
9561,-70.312500
9562,-74.218750
9563,-74.218750
9564,-70.312500
9565,-74.218750
9566,-74.218750
9567,-74.218750
9568,-74.218750
9569,-78.125000
9570,-78.125000
9571,-78.125000
9572,-78.125000
9573,-78.125000
9574,-78.125000
9575,-78.125000
9576,-82.031250
9577,-82.031250
9578,-82.031250
9579,-82.031250
9580,-82.031250
9581,-82.031250
9582,-85.937500
9583,-85.937500
9584,-85.937500
9585,-85.937500
9586,-85.937500
9587,-85.937500
9588,-89.843750
9589,-89.843750
9590,-89.843750
9591,-89.843750
9592,-89.843750
9593,-89.843750
9594,-93.750000
9595,-89.843750
9596,-93.750000
9597,-93.750000
9598,-93.750000
9599,-93.750000
9600,-93.750000
9601,-93.750000
9602,-97.656250
9603,-97.656250
9604,-97.656250
9605,-97.656250
9606,-97.656250
9607,-97.656250
9608,-97.656250
9609,-101.562500
9610,-101.562500
9611,-101.562500
9612,-101.562500
9613,-101.562500
9614,-101.562500
9615,-101.562500
9616,-101.562500
9617,-105.468750
9618,-105.468750
9619,-105.468750
9620,-105.468750
9621,-105.468750
9622,-105.468750
9623,-105.468750
9624,-105.468750
9625,-105.468750
9626,-109.375000
9627,-109.375000
9628,-109.375000
9629,-109.375000
9630,-109.375000
9631,-109.375000
9632,-109.375000
9633,-109.375000
9634,-109.375000
9635,-113.281250
9636,-109.375000
9637,-113.281250
9638,-113.281250
9639,-113.281250
9640,-113.281250
9641,-113.281250
9642,-113.281250
9643,-113.281250
9644,-117.187500
9645,-117.187500
9646,-117.187500
9647,-117.187500
9648,-117.187500
9649,-117.187500
9650,-117.187500
9651,-117.187500
9652,-117.187500
9653,-117.187500
9654,-117.187500
9655,-117.187500
9656,-117.187500
9657,-117.187500
9658,-121.093750
9659,-121.093750
9660,-121.093750
9661,-121.093750
9662,-121.093750
9663,-121.093750
9664,-121.093750
9665,-121.093750
9666,-121.093750
9667,-121.093750
9668,-125.000000
9669,-125.000000
9670,-125.000000
9671,-125.000000
9672,-125.000000
9673,-125.000000
9674,-125.000000
9675,-125.000000
9676,-125.000000
9677,-125.000000
9678,-125.000000
9679,-125.000000
9680,-125.000000
9681,-125.000000
9682,-125.000000
9683,-125.000000
9684,-125.000000
9685,-125.000000
9686,-125.000000
9687,-125.000000
9688,-128.906250
9689,-128.906250
9690,-128.906250
9691,-128.906250
9692,-128.906250
9693,-128.906250
9694,-128.906250
9695,-128.906250
9696,-128.906250
9697,-128.906250
9698,-128.906250
9699,-128.906250
9700,-128.906250
9701,-128.906250
9702,-128.906250
9703,-128.906250
9704,-128.906250
9705,-128.906250
9706,-128.906250
9707,-128.906250
9708,-128.906250
9709,-128.906250
9710,-128.906250
9711,-128.906250
9712,-128.906250
9713,-128.906250
9714,-128.906250
9715,-128.906250
9716,-128.906250
9717,-128.906250
9718,-128.906250
9719,-128.906250
9720,-128.906250
9721,-128.906250
9722,-128.906250
9723,-128.906250
9724,-128.906250
9725,-128.906250
9726,-128.906250
9727,-128.906250
9728,-128.906250
9729,-128.906250
9730,-128.906250
9731,-128.906250
9732,-128.906250
9733,-128.906250
9734,-128.906250
9735,-128.906250
9736,-128.906250
9737,-128.906250
9738,-128.906250
9739,-128.906250
9740,-128.906250
9741,-128.906250
9742,-128.906250
9743,-128.906250
9744,-128.906250
9745,-128.906250
9746,-128.906250
9747,-128.906250
9748,-128.906250
9749,-128.906250
9750,-128.906250
9751,-128.906250
9752,-128.906250
9753,-128.906250
9754,-128.906250
9755,-128.906250
9756,-125.000000
9757,-125.000000
9758,-125.000000
9759,-125.000000
9760,-125.000000
9761,-125.000000
9762,-125.000000
9763,-125.000000
9764,-125.000000
9765,-125.000000
9766,-125.000000
9767,-125.000000
9768,-125.000000
9769,-125.000000
9770,-125.000000
9771,-125.000000
9772,-121.093750
9773,-121.093750
9774,-121.093750
9775,-121.093750
9776,-121.093750
9777,-121.093750
9778,-121.093750
9779,-121.093750
9780,-121.093750
9781,-121.093750
9782,-121.093750
9783,-121.093750
9784,-121.093750
9785,-121.093750
9786,-121.093750
9787,-121.093750
9788,-121.093750
9789,-117.187500
9790,-117.187500
9791,-117.187500
9792,-117.187500
9793,-117.187500
9794,-117.187500
9795,-117.187500
9796,-117.187500
9797,-117.187500
9798,-117.187500
9799,-113.281250
9800,-117.187500
9801,-113.281250
9802,-113.281250
9803,-113.281250
9804,-113.281250
9805,-113.281250
9806,-113.281250
9807,-113.281250
9808,-113.281250
9809,-109.375000
9810,-109.375000
9811,-109.375000
9812,-109.375000
9813,-109.375000
9814,-109.375000
9815,-109.375000
9816,-105.468750
9817,-105.468750
9818,-105.468750
9819,-105.468750
9820,-105.468750
9821,-105.468750
9822,-105.468750
9823,-105.468750
9824,-105.468750
9825,-101.562500
9826,-101.562500
9827,-101.562500
9828,-101.562500
9829,-101.562500
9830,-101.562500
9831,-101.562500
9832,-101.562500
9833,-101.562500
9834,-97.656250
9835,-97.656250
9836,-97.656250
9837,-97.656250
9838,-97.656250
9839,-97.656250
9840,-97.656250
9841,-97.656250
9842,-93.750000
9843,-93.750000
9844,-93.750000
9845,-93.750000
9846,-93.750000
9847,-93.750000
9848,-89.843750
9849,-89.843750
9850,-89.843750
9851,-89.843750
9852,-89.843750
9853,-89.843750
9854,-89.843750
9855,-89.843750
9856,-85.937500
9857,-85.937500
9858,-85.937500
9859,-85.937500
9860,-85.937500
9861,-85.937500
9862,-85.937500
9863,-82.031250
9864,-82.031250
9865,-82.031250
9866,-82.031250
9867,-82.031250
9868,-78.125000
9869,-78.125000
9870,-78.125000
9871,-78.125000
9872,-78.125000
9873,-78.125000
9874,-78.125000
9875,-74.218750
9876,-74.218750
9877,-74.218750
9878,-74.218750
9879,-70.312500
9880,-70.312500
9881,-70.312500
9882,-70.312500
9883,-70.312500
9884,-70.312500
9885,-70.312500
9886,-70.312500
9887,-66.406250
9888,-66.406250
9889,-66.406250
9890,-66.406250
9891,-66.406250
9892,-62.500000
9893,-62.500000
9894,-62.500000
9895,-62.500000
9896,-62.500000
9897,-58.593750
9898,-58.593750
9899,-58.593750
9900,-58.593750
9901,-58.593750
9902,-58.593750
9903,-54.687500
9904,-54.687500
9905,-54.687500
9906,-54.687500
9907,-54.687500
9908,-54.687500
9909,-50.781250
9910,-50.781250
9911,-50.781250
9912,-50.781250
9913,-50.781250
9914,-50.781250
9915,-46.875000
9916,-46.875000
9917,-46.875000
9918,-46.875000
9919,-46.875000
9920,-42.968750
9921,-42.968750
9922,-42.968750
9923,-42.968750
9924,-42.968750
9925,-42.968750
9926,-39.062500
9927,-39.062500
9928,-39.062500
9929,-39.062500
9930,-39.062500
9931,-35.156250
9932,-35.156250
9933,-35.156250
9934,-35.156250
9935,-35.156250
9936,-31.250000
9937,-31.250000
9938,-31.250000
9939,-31.250000
9940,-31.250000
9941,-27.343750
9942,-27.343750
9943,-27.343750
9944,-27.343750
9945,-27.343750
9946,-27.343750
9947,-23.437500
9948,-23.437500
9949,-23.437500
9950,-23.437500
9951,-23.437500
9952,-23.437500
9953,-19.531250
9954,-19.531250
9955,-19.531250
9956,-19.531250
9957,-15.625000
9958,-15.625000
9959,-15.625000
9960,-15.625000
9961,-15.625000
9962,-11.718750
9963,-11.718750
9964,-11.718750
9965,-11.718750
9966,-11.718750
9967,-11.718750
9968,-11.718750
9969,-7.812500
9970,-7.812500
9971,-7.812500
9972,-7.812500
9973,-7.812500
9974,-3.906250
9975,-3.906250
9976,-3.906250
9977,-3.906250
9978,-3.906250
9979,0.000000
9980,0.000000
9981,0.000000
9982,0.000000
9983,0.000000
9984,0.000000
9985,0.000000
9986,3.906250
9987,3.906250
9988,3.906250
9989,3.906250
9990,7.812500
9991,7.812500
9992,7.812500
9993,7.812500
9994,7.812500
9995,7.812500
9996,11.718750
9997,11.718750
9998,11.718750
9999,11.718750
10000,11.718750
