Channel              :,CH1
Frequency            :,1.010kHz
Period               :,0.990ms
PK-PK                :,300.8mV
Probe attenuation    :,1X
Voltage per ADC value:,0.244141mV
Time interval        :,1.00000us

index,CH1_Voltage(mV)
1,-70.312500
2,-70.312500
3,-70.312500
4,-70.312500
5,-70.312500
6,-70.312500
7,-66.406250
8,-66.406250
9,-66.406250
10,-66.406250
11,-62.500000
12,-62.500000
13,-62.500000
14,-62.500000
15,-58.593750
16,-58.593750
17,-58.593750
18,-58.593750
19,-54.687500
20,-54.687500
21,-54.687500
22,-54.687500
23,-50.781250
24,-50.781250
25,-50.781250
26,-50.781250
27,-46.875000
28,-46.875000
29,-46.875000
30,-46.875000
31,-42.968750
32,-42.968750
33,-42.968750
34,-42.968750
35,-39.062500
36,-39.062500
37,-39.062500
38,-35.156250
39,-35.156250
40,-35.156250
41,-35.156250
42,-35.156250
43,-31.250000
44,-31.250000
45,-31.250000
46,-31.250000
47,-27.343750
48,-27.343750
49,-27.343750
50,-23.437500
51,-23.437500
52,-23.437500
53,-23.437500
54,-23.437500
55,-19.531250
56,-19.531250
57,-19.531250
58,-15.625000
59,-15.625000
60,-15.625000
61,-15.625000
62,-15.625000
63,-11.718750
64,-11.718750
65,-11.718750
66,-7.812500
67,-7.812500
68,-7.812500
69,-7.812500
70,-7.812500
71,-3.906250
72,-3.906250
73,-3.906250
74,-3.906250
75,0.000000
76,0.000000
77,0.000000
78,0.000000
79,3.906250
80,3.906250
81,3.906250
82,7.812500
83,7.812500
84,7.812500
85,7.812500
86,7.812500
87,7.812500
88,11.718750
89,11.718750
90,11.718750
91,11.718750
92,15.625000
93,15.625000
94,15.625000
95,15.625000
96,19.531250
97,19.531250
98,19.531250
99,19.531250
100,23.437500
101,23.437500
102,23.437500
103,23.437500
104,23.437500
105,27.343750
106,27.343750
107,27.343750
108,27.343750
109,31.250000
110,31.250000
111,31.250000
112,31.250000
113,31.250000
114,35.156250
115,35.156250
116,35.156250
117,35.156250
118,39.062500
119,39.062500
120,39.062500
121,39.062500
122,42.968750
123,42.968750
124,42.968750
125,42.968750
126,42.968750
127,46.875000
128,46.875000
129,46.875000
130,46.875000
131,46.875000
132,50.781250
133,50.781250
134,50.781250
135,50.781250
136,54.687500
137,54.687500
138,54.687500
139,54.687500
140,54.687500
141,54.687500
142,58.593750
143,58.593750
144,58.593750
145,58.593750
146,58.593750
147,62.500000
148,62.500000
149,62.500000
150,62.500000
151,62.500000
152,66.406250
153,66.406250
154,66.406250
155,66.406250
156,66.406250
157,66.406250
158,70.312500
159,70.312500
160,70.312500
161,70.312500
162,74.218750
163,74.218750
164,74.218750
165,74.218750
166,74.218750
167,74.218750
168,78.125000
169,78.125000
170,78.125000
171,78.125000
172,78.125000
173,82.031250
174,78.125000
175,82.031250
176,82.031250
177,82.031250
178,82.031250
179,82.031250
180,85.937500
181,85.937500
182,85.937500
183,85.937500
184,85.937500
185,85.937500
186,89.843750
187,89.843750
188,89.843750
189,89.843750
190,89.843750
191,89.843750
192,89.843750
193,93.750000
194,93.750000
195,93.750000
196,93.750000
197,93.750000
198,93.750000
199,93.750000
200,97.656250
201,97.656250
202,97.656250
203,97.656250
204,97.656250
205,97.656250
206,97.656250
207,101.562500
208,101.562500
209,101.562500
210,101.562500
211,101.562500
212,101.562500
213,101.562500
214,101.562500
215,105.468750
216,105.468750
217,105.468750
218,105.468750
219,105.468750
220,105.468750
221,105.468750
222,105.468750
223,109.375000
224,109.375000
225,109.375000
226,109.375000
227,109.375000
228,109.375000
229,109.375000
230,109.375000
231,109.375000
232,113.281250
233,109.375000
234,113.281250
235,113.281250
236,113.281250
237,113.281250
238,113.281250
239,113.281250
240,113.281250
241,113.281250
242,117.187500
243,113.281250
244,113.281250
245,117.187500
246,117.187500
247,117.187500
248,117.187500
249,117.187500
250,117.187500
251,117.187500
252,117.187500
253,117.187500
254,117.187500
255,121.093750
256,117.187500
257,121.093750
258,121.093750
259,121.093750
260,121.093750
261,121.093750
262,121.093750
263,121.093750
264,121.093750
265,121.093750
266,121.093750
267,121.093750
268,121.093750
269,121.093750
270,121.093750
271,121.093750
272,121.093750
273,125.000000
274,125.000000
275,125.000000
276,125.000000
277,125.000000
278,125.000000
279,125.000000
280,125.000000
281,125.000000
282,125.000000
283,125.000000
284,125.000000
285,125.000000
286,125.000000
287,125.000000
288,125.000000
289,125.000000
290,125.000000
291,125.000000
292,128.906250
293,128.906250
294,128.906250
295,128.906250
296,128.906250
297,125.000000
298,128.906250
299,125.000000
300,128.906250
301,128.906250
302,128.906250
303,128.906250
304,128.906250
305,128.906250
306,128.906250
307,128.906250
308,128.906250
309,128.906250
310,128.906250
311,128.906250
312,128.906250
313,128.906250
314,128.906250
315,128.906250
316,128.906250
317,128.906250
318,128.906250
319,128.906250
320,128.906250
321,128.906250
322,128.906250
323,128.906250
324,128.906250
325,128.906250
326,128.906250
327,128.906250
328,128.906250
329,128.906250
330,128.906250
331,128.906250
332,128.906250
333,128.906250
334,128.906250
335,128.906250
336,128.906250
337,128.906250
338,128.906250
339,128.906250
340,128.906250
341,125.000000
342,128.906250
343,128.906250
344,128.906250
345,125.000000
346,125.000000
347,125.000000
348,125.000000
349,125.000000
350,125.000000
351,125.000000
352,125.000000
353,125.000000
354,125.000000
355,125.000000
356,125.000000
357,125.000000
358,125.000000
359,125.000000
360,125.000000
361,125.000000
362,125.000000
363,125.000000
364,121.093750
365,125.000000
366,125.000000
367,125.000000
368,125.000000
369,121.093750
370,121.093750
371,121.093750
372,121.093750
373,121.093750
374,121.093750
375,121.093750
376,121.093750
377,121.093750
378,121.093750
379,121.093750
380,121.093750
381,121.093750
382,121.093750
383,117.187500
384,117.187500
385,117.187500
386,117.187500
387,117.187500
388,117.187500
389,117.187500
390,117.187500
391,117.187500
392,117.187500
393,113.281250
394,113.281250
395,113.281250
396,113.281250
397,113.281250
398,113.281250
399,113.281250
400,113.281250
401,113.281250
402,113.281250
403,113.281250
404,113.281250
405,109.375000
406,109.375000
407,109.375000
408,109.375000
409,109.375000
410,109.375000
411,109.375000
412,109.375000
413,105.468750
414,105.468750
415,105.468750
416,105.468750
417,105.468750
418,105.468750
419,105.468750
420,105.468750
421,105.468750
422,101.562500
423,101.562500
424,101.562500
425,101.562500
426,101.562500
427,101.562500
428,101.562500
429,101.562500
430,101.562500
431,97.656250
432,97.656250
433,97.656250
434,97.656250
435,97.656250
436,97.656250
437,97.656250
438,93.750000
439,93.750000
440,93.750000
441,93.750000
442,93.750000
443,93.750000
444,89.843750
445,89.843750
446,89.843750
447,89.843750
448,89.843750
449,89.843750
450,89.843750
451,85.937500
452,85.937500
453,85.937500
454,85.937500
455,85.937500
456,85.937500
457,82.031250
458,82.031250
459,82.031250
460,82.031250
461,82.031250
462,82.031250
463,82.031250
464,78.125000
465,78.125000
466,78.125000
467,78.125000
468,78.125000
469,74.218750
470,74.218750
471,74.218750
472,74.218750
473,74.218750
474,70.312500
475,70.312500
476,70.312500
477,70.312500
478,70.312500
479,66.406250
480,66.406250
481,66.406250
482,66.406250
483,66.406250
484,66.406250
485,62.500000
486,62.500000
487,62.500000
488,62.500000
489,62.500000
490,58.593750
491,58.593750
492,58.593750
493,58.593750
494,54.687500
495,54.687500
496,54.687500
497,54.687500
498,54.687500
499,54.687500
500,50.781250
501,50.781250
502,50.781250
503,50.781250
504,50.781250
505,46.875000
506,46.875000
507,46.875000
508,46.875000
509,42.968750
510,42.968750
511,42.968750
512,42.968750
513,42.968750
514,39.062500
515,39.062500
516,39.062500
517,35.156250
518,35.156250
519,35.156250
520,35.156250
521,35.156250
522,35.156250
523,31.250000
524,31.250000
525,31.250000
526,31.250000
527,27.343750
528,27.343750
529,27.343750
530,27.343750
531,23.437500
532,23.437500
533,23.437500
534,23.437500
535,23.437500
536,19.531250
537,19.531250
538,19.531250
539,15.625000
540,15.625000
541,15.625000
542,15.625000
543,15.625000
544,11.718750
545,11.718750
546,11.718750
547,11.718750
548,7.812500
549,7.812500
550,7.812500
551,7.812500
552,7.812500
553,3.906250
554,3.906250
555,3.906250
556,0.000000
557,0.000000
558,0.000000
559,0.000000
560,-3.906250
561,-3.906250
562,-3.906250
563,-3.906250
564,-7.812500
565,-7.812500
566,-7.812500
567,-7.812500
568,-11.718750
569,-11.718750
570,-11.718750
571,-11.718750
572,-15.625000
573,-15.625000
574,-15.625000
575,-15.625000
576,-15.625000
577,-19.531250
578,-19.531250
579,-19.531250
580,-23.437500
581,-23.437500
582,-23.437500
583,-23.437500
584,-23.437500
585,-27.343750
586,-27.343750
587,-27.343750
588,-31.250000
589,-31.250000
590,-31.250000
591,-31.250000
592,-35.156250
593,-35.156250
594,-35.156250
595,-35.156250
596,-39.062500
597,-39.062500
598,-39.062500
599,-39.062500
600,-42.968750
601,-42.968750
602,-42.968750
603,-42.968750
604,-46.875000
605,-46.875000
606,-46.875000
607,-50.781250
608,-50.781250
609,-50.781250
610,-50.781250
611,-50.781250
612,-54.687500
613,-54.687500
614,-54.687500
615,-54.687500
616,-58.593750
617,-58.593750
618,-58.593750
619,-58.593750
620,-62.500000
621,-62.500000
622,-62.500000
623,-66.406250
624,-66.406250
625,-66.406250
626,-66.406250
627,-66.406250
628,-70.312500
629,-70.312500
630,-70.312500
631,-70.312500
632,-74.218750
633,-74.218750
634,-74.218750
635,-74.218750
636,-78.125000
637,-78.125000
638,-78.125000
639,-78.125000
640,-82.031250
641,-82.031250
642,-82.031250
643,-82.031250
644,-85.937500
645,-85.937500
646,-85.937500
647,-85.937500
648,-85.937500
649,-89.843750
650,-89.843750
651,-89.843750
652,-89.843750
653,-93.750000
654,-93.750000
655,-93.750000
656,-93.750000
657,-97.656250
658,-97.656250
659,-97.656250
660,-97.656250
661,-97.656250
662,-101.562500
663,-101.562500
664,-101.562500
665,-101.562500
666,-105.468750
667,-105.468750
668,-105.468750
669,-105.468750
670,-105.468750
671,-109.375000
672,-109.375000
673,-109.375000
674,-109.375000
675,-109.375000
676,-113.281250
677,-113.281250
678,-113.281250
679,-113.281250
680,-113.281250
681,-117.187500
682,-117.187500
683,-117.187500
684,-117.187500
685,-121.093750
686,-121.093750
687,-121.093750
688,-121.093750
689,-121.093750
690,-121.093750
691,-125.000000
692,-125.000000
693,-125.000000
694,-125.000000
695,-125.000000
696,-128.906250
697,-128.906250
698,-128.906250
699,-128.906250
700,-128.906250
701,-132.812500
702,-132.812500
703,-132.812500
704,-132.812500
705,-132.812500
706,-132.812500
707,-132.812500
708,-136.718750
709,-136.718750
710,-136.718750
711,-136.718750
712,-136.718750
713,-140.625000
714,-140.625000
715,-140.625000
716,-140.625000
717,-140.625000
718,-140.625000
719,-144.531250
720,-144.531250
721,-144.531250
722,-144.531250
723,-144.531250
724,-144.531250
725,-144.531250
726,-148.437500
727,-148.437500
728,-148.437500
729,-148.437500
730,-148.437500
731,-148.437500
732,-148.437500
733,-148.437500
734,-152.343750
735,-152.343750
736,-152.343750
737,-152.343750
738,-152.343750
739,-152.343750
740,-152.343750
741,-156.250000
742,-156.250000
743,-156.250000
744,-156.250000
745,-156.250000
746,-156.250000
747,-156.250000
748,-156.250000
749,-160.156250
750,-156.250000
751,-160.156250
752,-160.156250
753,-160.156250
754,-160.156250
755,-160.156250
756,-160.156250
757,-160.156250
758,-160.156250
759,-164.062500
760,-164.062500
761,-164.062500
762,-164.062500
763,-164.062500
764,-164.062500
765,-164.062500
766,-164.062500
767,-164.062500
768,-164.062500
769,-164.062500
770,-164.062500
771,-167.968750
772,-167.968750
773,-167.968750
774,-167.968750
775,-167.968750
776,-167.968750
777,-167.968750
778,-167.968750
779,-167.968750
780,-167.968750
781,-167.968750
782,-167.968750
783,-167.968750
784,-167.968750
785,-167.968750
786,-167.968750
787,-171.875000
788,-167.968750
789,-167.968750
790,-167.968750
791,-167.968750
792,-167.968750
793,-171.875000
794,-171.875000
795,-167.968750
796,-171.875000
797,-171.875000
798,-171.875000
799,-171.875000
800,-171.875000
801,-171.875000
802,-171.875000
803,-171.875000
804,-171.875000
805,-171.875000
806,-171.875000
807,-171.875000
808,-171.875000
809,-171.875000
810,-171.875000
811,-171.875000
812,-171.875000
813,-171.875000
814,-171.875000
815,-171.875000
816,-171.875000
817,-171.875000
818,-171.875000
819,-171.875000
820,-171.875000
821,-171.875000
822,-171.875000
823,-171.875000
824,-171.875000
825,-171.875000
826,-171.875000
827,-171.875000
828,-171.875000
829,-171.875000
830,-171.875000
831,-171.875000
832,-167.968750
833,-167.968750
834,-167.968750
835,-167.968750
836,-167.968750
837,-167.968750
838,-167.968750
839,-167.968750
840,-167.968750
841,-167.968750
842,-167.968750
843,-167.968750
844,-167.968750
845,-167.968750
846,-167.968750
847,-167.968750
848,-167.968750
849,-167.968750
850,-164.062500
851,-167.968750
852,-164.062500
853,-164.062500
854,-164.062500
855,-164.062500
856,-164.062500
857,-164.062500
858,-164.062500
859,-164.062500
860,-164.062500
861,-164.062500
862,-160.156250
863,-164.062500
864,-160.156250
865,-160.156250
866,-160.156250
867,-160.156250
868,-160.156250
869,-160.156250
870,-160.156250
871,-160.156250
872,-160.156250
873,-156.250000
874,-156.250000
875,-156.250000
876,-156.250000
877,-156.250000
878,-156.250000
879,-156.250000
880,-152.343750
881,-156.250000
882,-152.343750
883,-152.343750
884,-152.343750
885,-152.343750
886,-152.343750
887,-152.343750
888,-152.343750
889,-152.343750
890,-152.343750
891,-148.437500
892,-148.437500
893,-148.437500
894,-148.437500
895,-148.437500
896,-148.437500
897,-144.531250
898,-144.531250
899,-144.531250
900,-144.531250
901,-144.531250
902,-144.531250
903,-144.531250
904,-140.625000
905,-140.625000
906,-140.625000
907,-140.625000
908,-140.625000
909,-140.625000
910,-136.718750
911,-136.718750
912,-136.718750
913,-136.718750
914,-136.718750
915,-136.718750
916,-136.718750
917,-132.812500
918,-132.812500
919,-132.812500
920,-132.812500
921,-132.812500
922,-128.906250
923,-128.906250
924,-128.906250
925,-128.906250
926,-128.906250
927,-125.000000
928,-125.000000
929,-125.000000
930,-125.000000
931,-125.000000
932,-121.093750
933,-121.093750
934,-121.093750
935,-121.093750
936,-121.093750
937,-117.187500
938,-117.187500
939,-117.187500
940,-117.187500
941,-117.187500
942,-117.187500
943,-113.281250
944,-113.281250
945,-113.281250
946,-113.281250
947,-109.375000
948,-109.375000
949,-109.375000
950,-109.375000
951,-109.375000
952,-105.468750
953,-105.468750
954,-105.468750
955,-105.468750
956,-105.468750
957,-101.562500
958,-101.562500
959,-101.562500
960,-101.562500
961,-97.656250
962,-97.656250
963,-97.656250
964,-97.656250
965,-93.750000
966,-93.750000
967,-93.750000
968,-93.750000
969,-93.750000
970,-89.843750
971,-89.843750
972,-89.843750
973,-89.843750
974,-85.937500
975,-85.937500
976,-85.937500
977,-85.937500
978,-82.031250
979,-82.031250
980,-82.031250
981,-82.031250
982,-82.031250
983,-78.125000
984,-78.125000
985,-78.125000
986,-78.125000
987,-78.125000
988,-74.218750
989,-74.218750
990,-74.218750
991,-74.218750
992,-70.312500
993,-70.312500
994,-70.312500
995,-70.312500
996,-66.406250
997,-66.406250
998,-66.406250
999,-62.500000
1000,-62.500000
1001,-62.500000
1002,-62.500000
1003,-62.500000
1004,-58.593750
1005,-58.593750
1006,-58.593750
1007,-58.593750
1008,-54.687500
1009,-54.687500
1010,-54.687500
1011,-54.687500
1012,-50.781250
1013,-50.781250
1014,-50.781250
1015,-50.781250
1016,-46.875000
1017,-46.875000
1018,-46.875000
1019,-46.875000
1020,-46.875000
1021,-42.968750
1022,-42.968750
1023,-42.968750
1024,-39.062500
1025,-39.062500
1026,-39.062500
1027,-39.062500
1028,-35.156250
1029,-35.156250
1030,-35.156250
1031,-35.156250
1032,-31.250000
1033,-31.250000
1034,-31.250000
1035,-31.250000
1036,-27.343750
1037,-27.343750
1038,-27.343750
1039,-27.343750
1040,-23.437500
1041,-23.437500
1042,-23.437500
1043,-23.437500
1044,-19.531250
1045,-19.531250
1046,-19.531250
1047,-19.531250
1048,-15.625000
1049,-15.625000
1050,-15.625000
1051,-15.625000
1052,-11.718750
1053,-11.718750
1054,-11.718750
1055,-11.718750
1056,-7.812500
1057,-7.812500
1058,-7.812500
1059,-7.812500
1060,-3.906250
1061,-3.906250
1062,-3.906250
1063,-3.906250
1064,0.000000
1065,0.000000
1066,0.000000
1067,0.000000
1068,0.000000
1069,3.906250
1070,3.906250
1071,3.906250
1072,3.906250
1073,7.812500
1074,7.812500
1075,7.812500
1076,7.812500
1077,7.812500
1078,11.718750
1079,11.718750
1080,15.625000
1081,15.625000
1082,15.625000
1083,15.625000
1084,15.625000
1085,19.531250
1086,19.531250
1087,19.531250
1088,19.531250
1089,23.437500
1090,23.437500
1091,23.437500
1092,23.437500
1093,23.437500
1094,27.343750
1095,27.343750
1096,27.343750
1097,27.343750
1098,31.250000
1099,31.250000
1100,31.250000
1101,31.250000
1102,31.250000
1103,35.156250
1104,35.156250
1105,35.156250
1106,35.156250
1107,39.062500
1108,39.062500
1109,39.062500
1110,39.062500
1111,42.968750
1112,42.968750
1113,42.968750
1114,42.968750
1115,42.968750
1116,42.968750
1117,46.875000
1118,46.875000
1119,46.875000
1120,46.875000
1121,50.781250
1122,50.781250
1123,50.781250
1124,50.781250
1125,50.781250
1126,54.687500
1127,54.687500
1128,54.687500
1129,54.687500
1130,54.687500
1131,58.593750
1132,58.593750
1133,58.593750
1134,58.593750
1135,58.593750
1136,62.500000
1137,62.500000
1138,62.500000
1139,62.500000
1140,62.500000
1141,62.500000
1142,66.406250
1143,66.406250
1144,66.406250
1145,66.406250
1146,70.312500
1147,70.312500
1148,70.312500
1149,70.312500
1150,70.312500
1151,70.312500
1152,74.218750
1153,74.218750
1154,74.218750
1155,74.218750
1156,74.218750
1157,74.218750
1158,74.218750
1159,78.125000
1160,78.125000
1161,78.125000
1162,78.125000
1163,82.031250
1164,82.031250
1165,82.031250
1166,82.031250
1167,82.031250
1168,82.031250
1169,85.937500
1170,85.937500
1171,85.937500
1172,85.937500
1173,85.937500
1174,85.937500
1175,85.937500
1176,89.843750
1177,89.843750
1178,89.843750
1179,89.843750
1180,89.843750
1181,89.843750
1182,89.843750
1183,89.843750
1184,93.750000
1185,93.750000
1186,93.750000
1187,93.750000
1188,93.750000
1189,97.656250
1190,97.656250
1191,97.656250
1192,97.656250
1193,97.656250
1194,97.656250
1195,97.656250
1196,97.656250
1197,101.562500
1198,101.562500
1199,101.562500
1200,101.562500
1201,101.562500
1202,101.562500
1203,101.562500
1204,101.562500
1205,101.562500
1206,105.468750
1207,105.468750
1208,105.468750
1209,105.468750
1210,105.468750
1211,105.468750
1212,105.468750
1213,105.468750
1214,109.375000
1215,109.375000
1216,109.375000
1217,109.375000
1218,109.375000
1219,109.375000
1220,109.375000
1221,109.375000
1222,109.375000
1223,109.375000
1224,113.281250
1225,113.281250
1226,113.281250
1227,113.281250
1228,113.281250
1229,113.281250
1230,113.281250
1231,113.281250
1232,113.281250
1233,117.187500
1234,113.281250
1235,117.187500
1236,117.187500
1237,117.187500
1238,117.187500
1239,117.187500
1240,117.187500
1241,117.187500
1242,117.187500
1243,117.187500
1244,117.187500
1245,117.187500
1246,117.187500
1247,117.187500
1248,121.093750
1249,121.093750
1250,121.093750
1251,121.093750
1252,121.093750
1253,121.093750
1254,121.093750
1255,121.093750
1256,121.093750
1257,121.093750
1258,121.093750
1259,121.093750
1260,125.000000
1261,121.093750
1262,125.000000
1263,121.093750
1264,121.093750
1265,125.000000
1266,125.000000
1267,125.000000
1268,125.000000
1269,125.000000
1270,125.000000
1271,125.000000
1272,125.000000
1273,125.000000
1274,125.000000
1275,125.000000
1276,125.000000
1277,125.000000
1278,125.000000
1279,125.000000
1280,125.000000
1281,125.000000
1282,125.000000
1283,125.000000
1284,125.000000
1285,125.000000
1286,125.000000
1287,125.000000
1288,128.906250
1289,128.906250
1290,128.906250
1291,128.906250
1292,128.906250
1293,128.906250
1294,128.906250
1295,125.000000
1296,128.906250
1297,128.906250
1298,128.906250
1299,128.906250
1300,128.906250
1301,128.906250
1302,128.906250
1303,128.906250
1304,128.906250
1305,128.906250
1306,128.906250
1307,128.906250
1308,128.906250
1309,128.906250
1310,128.906250
1311,128.906250
1312,128.906250
1313,128.906250
1314,128.906250
1315,128.906250
1316,128.906250
1317,128.906250
1318,128.906250
1319,128.906250
1320,128.906250
1321,128.906250
1322,128.906250
1323,128.906250
1324,128.906250
1325,128.906250
1326,128.906250
1327,128.906250
1328,128.906250
1329,128.906250
1330,128.906250
1331,128.906250
1332,125.000000
1333,125.000000
1334,128.906250
1335,125.000000
1336,125.000000
1337,125.000000
1338,125.000000
1339,125.000000
1340,125.000000
1341,125.000000
1342,125.000000
1343,125.000000
1344,125.000000
1345,125.000000
1346,125.000000
1347,125.000000
1348,125.000000
1349,125.000000
1350,125.000000
1351,125.000000
1352,125.000000
1353,121.093750
1354,121.093750
1355,125.000000
1356,125.000000
1357,121.093750
1358,121.093750
1359,121.093750
1360,121.093750
1361,121.093750
1362,121.093750
1363,121.093750
1364,121.093750
1365,121.093750
1366,121.093750
1367,121.093750
1368,121.093750
1369,121.093750
1370,121.093750
1371,121.093750
1372,117.187500
1373,117.187500
1374,117.187500
1375,117.187500
1376,117.187500
1377,117.187500
1378,117.187500
1379,117.187500
1380,117.187500
1381,117.187500
1382,117.187500
1383,117.187500
1384,113.281250
1385,113.281250
1386,113.281250
1387,113.281250
1388,113.281250
1389,113.281250
1390,113.281250
1391,113.281250
1392,113.281250
1393,109.375000
1394,109.375000
1395,109.375000
1396,109.375000
1397,109.375000
1398,109.375000
1399,109.375000
1400,109.375000
1401,109.375000
1402,109.375000
1403,109.375000
1404,105.468750
1405,105.468750
1406,105.468750
1407,105.468750
1408,105.468750
1409,105.468750
1410,105.468750
1411,101.562500
1412,101.562500
1413,101.562500
1414,101.562500
1415,101.562500
1416,101.562500
1417,101.562500
1418,101.562500
1419,97.656250
1420,97.656250
1421,97.656250
1422,97.656250
1423,97.656250
1424,97.656250
1425,97.656250
1426,97.656250
1427,93.750000
1428,93.750000
1429,93.750000
1430,93.750000
1431,93.750000
1432,93.750000
1433,89.843750
1434,89.843750
1435,89.843750
1436,89.843750
1437,89.843750
1438,89.843750
1439,89.843750
1440,85.937500
1441,85.937500
1442,85.937500
1443,85.937500
1444,85.937500
1445,85.937500
1446,85.937500
1447,82.031250
1448,82.031250
1449,82.031250
1450,82.031250
1451,82.031250
1452,78.125000
1453,78.125000
1454,78.125000
1455,78.125000
1456,78.125000
1457,78.125000
1458,78.125000
1459,74.218750
1460,74.218750
1461,74.218750
1462,74.218750
1463,70.312500
1464,70.312500
1465,70.312500
1466,70.312500
1467,70.312500
1468,70.312500
1469,70.312500
1470,66.406250
1471,66.406250
1472,66.406250
1473,66.406250
1474,66.406250
1475,62.500000
1476,62.500000
1477,62.500000
1478,62.500000
1479,58.593750
1480,58.593750
1481,58.593750
1482,58.593750
1483,58.593750
1484,58.593750
1485,54.687500
1486,54.687500
1487,54.687500
1488,54.687500
1489,54.687500
1490,50.781250
1491,50.781250
1492,50.781250
1493,50.781250
1494,46.875000
1495,46.875000
1496,46.875000
1497,46.875000
1498,46.875000
1499,46.875000
1500,42.968750
1501,42.968750
1502,42.968750
1503,39.062500
1504,39.062500
1505,39.062500
1506,39.062500
1507,39.062500
1508,35.156250
1509,35.156250
1510,35.156250
1511,35.156250
1512,35.156250
1513,31.250000
1514,31.250000
1515,31.250000
1516,31.250000
1517,27.343750
1518,27.343750
1519,27.343750
1520,27.343750
1521,23.437500
1522,23.437500
1523,23.437500
1524,23.437500
1525,19.531250
1526,19.531250
1527,19.531250
1528,19.531250
1529,15.625000
1530,15.625000
1531,15.625000
1532,15.625000
1533,11.718750
1534,11.718750
1535,11.718750
1536,11.718750
1537,11.718750
1538,7.812500
1539,7.812500
1540,7.812500
1541,7.812500
1542,3.906250
1543,3.906250
1544,3.906250
1545,0.000000
1546,0.000000
1547,0.000000
1548,0.000000
1549,0.000000
1550,-3.906250
1551,-3.906250
1552,-3.906250
1553,-7.812500
1554,-7.812500
1555,-7.812500
1556,-7.812500
1557,-7.812500
1558,-11.718750
1559,-11.718750
1560,-11.718750
1561,-11.718750
1562,-15.625000
1563,-15.625000
1564,-15.625000
1565,-15.625000
1566,-19.531250
1567,-19.531250
1568,-19.531250
1569,-23.437500
1570,-23.437500
1571,-23.437500
1572,-23.437500
1573,-23.437500
1574,-27.343750
1575,-27.343750
1576,-27.343750
1577,-31.250000
1578,-27.343750
1579,-31.250000
1580,-31.250000
1581,-35.156250
1582,-35.156250
1583,-35.156250
1584,-35.156250
1585,-35.156250
1586,-39.062500
1587,-39.062500
1588,-39.062500
1589,-39.062500
1590,-42.968750
1591,-42.968750
1592,-42.968750
1593,-46.875000
1594,-46.875000
1595,-46.875000
1596,-46.875000
1597,-50.781250
1598,-50.781250
1599,-50.781250
1600,-50.781250
1601,-54.687500
1602,-54.687500
1603,-54.687500
1604,-54.687500
1605,-58.593750
1606,-58.593750
1607,-58.593750
1608,-58.593750
1609,-62.500000
1610,-62.500000
1611,-62.500000
1612,-62.500000
1613,-62.500000
1614,-66.406250
1615,-66.406250
1616,-66.406250
1617,-66.406250
1618,-70.312500
1619,-70.312500
1620,-70.312500
1621,-70.312500
1622,-74.218750
1623,-74.218750
1624,-74.218750
1625,-78.125000
1626,-78.125000
1627,-78.125000
1628,-78.125000
1629,-78.125000
1630,-82.031250
1631,-82.031250
1632,-82.031250
1633,-82.031250
1634,-82.031250
1635,-85.937500
1636,-85.937500
1637,-85.937500
1638,-85.937500
1639,-89.843750
1640,-89.843750
1641,-89.843750
1642,-89.843750
1643,-93.750000
1644,-93.750000
1645,-93.750000
1646,-93.750000
1647,-97.656250
1648,-97.656250
1649,-97.656250
1650,-97.656250
1651,-97.656250
1652,-101.562500
1653,-101.562500
1654,-101.562500
1655,-101.562500
1656,-101.562500
1657,-105.468750
1658,-105.468750
1659,-105.468750
1660,-105.468750
1661,-109.375000
1662,-109.375000
1663,-109.375000
1664,-109.375000
1665,-109.375000
1666,-113.281250
1667,-113.281250
1668,-113.281250
1669,-113.281250
1670,-117.187500
1671,-117.187500
1672,-117.187500
1673,-117.187500
1674,-117.187500
1675,-117.187500
1676,-121.093750
1677,-121.093750
1678,-121.093750
1679,-121.093750
1680,-121.093750
1681,-125.000000
1682,-125.000000
1683,-125.000000
1684,-125.000000
1685,-125.000000
1686,-128.906250
1687,-128.906250
1688,-128.906250
1689,-128.906250
1690,-128.906250
1691,-132.812500
1692,-132.812500
1693,-132.812500
1694,-132.812500
1695,-132.812500
1696,-136.718750
1697,-136.718750
1698,-136.718750
1699,-136.718750
1700,-136.718750
1701,-136.718750
1702,-140.625000
1703,-140.625000
1704,-140.625000
1705,-140.625000
1706,-140.625000
1707,-140.625000
1708,-140.625000
1709,-144.531250
1710,-144.531250
1711,-144.531250
1712,-144.531250
1713,-144.531250
1714,-144.531250
1715,-148.437500
1716,-148.437500
1717,-148.437500
1718,-148.437500
1719,-148.437500
1720,-148.437500
1721,-148.437500
1722,-148.437500
1723,-148.437500
1724,-152.343750
1725,-152.343750
1726,-152.343750
1727,-152.343750
1728,-152.343750
1729,-152.343750
1730,-152.343750
1731,-152.343750
1732,-156.250000
1733,-156.250000
1734,-156.250000
1735,-156.250000
1736,-156.250000
1737,-156.250000
1738,-156.250000
1739,-160.156250
1740,-160.156250
1741,-160.156250
1742,-160.156250
1743,-160.156250
1744,-160.156250
1745,-160.156250
1746,-160.156250
1747,-160.156250
1748,-160.156250
1749,-160.156250
1750,-160.156250
1751,-164.062500
1752,-164.062500
1753,-164.062500
1754,-164.062500
1755,-164.062500
1756,-164.062500
1757,-164.062500
1758,-164.062500
1759,-164.062500
1760,-164.062500
1761,-164.062500
1762,-167.968750
1763,-167.968750
1764,-167.968750
1765,-167.968750
1766,-167.968750
1767,-167.968750
1768,-167.968750
1769,-167.968750
1770,-167.968750
1771,-167.968750
1772,-167.968750
1773,-167.968750
1774,-167.968750
1775,-167.968750
1776,-167.968750
1777,-167.968750
1778,-167.968750
1779,-167.968750
1780,-167.968750
1781,-167.968750
1782,-171.875000
1783,-171.875000
1784,-171.875000
1785,-171.875000
1786,-171.875000
1787,-171.875000
1788,-171.875000
1789,-171.875000
1790,-171.875000
1791,-171.875000
1792,-171.875000
1793,-171.875000
1794,-171.875000
1795,-171.875000
1796,-171.875000
1797,-171.875000
1798,-171.875000
1799,-171.875000
1800,-171.875000
1801,-171.875000
1802,-171.875000
1803,-171.875000
1804,-171.875000
1805,-171.875000
1806,-171.875000
1807,-171.875000
1808,-171.875000
1809,-171.875000
1810,-171.875000
1811,-171.875000
1812,-171.875000
1813,-171.875000
1814,-171.875000
1815,-171.875000
1816,-171.875000
1817,-171.875000
1818,-171.875000
1819,-171.875000
1820,-171.875000
1821,-167.968750
1822,-167.968750
1823,-167.968750
1824,-167.968750
1825,-167.968750
1826,-167.968750
1827,-167.968750
1828,-167.968750
1829,-167.968750
1830,-167.968750
1831,-167.968750
1832,-167.968750
1833,-167.968750
1834,-167.968750
1835,-167.968750
1836,-167.968750
1837,-167.968750
1838,-167.968750
1839,-167.968750
1840,-164.062500
1841,-164.062500
1842,-164.062500
1843,-164.062500
1844,-164.062500
1845,-164.062500
1846,-164.062500
1847,-164.062500
1848,-164.062500
1849,-164.062500
1850,-164.062500
1851,-164.062500
1852,-164.062500
1853,-164.062500
1854,-164.062500
1855,-164.062500
1856,-160.156250
1857,-160.156250
1858,-160.156250
1859,-160.156250
1860,-160.156250
1861,-160.156250
1862,-160.156250
1863,-160.156250
1864,-156.250000
1865,-156.250000
1866,-156.250000
1867,-156.250000
1868,-156.250000
1869,-156.250000
1870,-156.250000
1871,-152.343750
1872,-152.343750
1873,-152.343750
1874,-152.343750
1875,-152.343750
1876,-152.343750
1877,-152.343750
1878,-152.343750
1879,-152.343750
1880,-152.343750
1881,-148.437500
1882,-148.437500
1883,-148.437500
1884,-148.437500
1885,-148.437500
1886,-148.437500
1887,-148.437500
1888,-144.531250
1889,-144.531250
1890,-144.531250
1891,-144.531250
1892,-144.531250
1893,-140.625000
1894,-140.625000
1895,-140.625000
1896,-140.625000
1897,-140.625000
1898,-140.625000
1899,-140.625000
1900,-140.625000
1901,-136.718750
1902,-136.718750
1903,-136.718750
1904,-136.718750
1905,-136.718750
1906,-132.812500
1907,-132.812500
1908,-132.812500
1909,-132.812500
1910,-132.812500
1911,-132.812500
1912,-128.906250
1913,-128.906250
1914,-128.906250
1915,-128.906250
1916,-128.906250
1917,-125.000000
1918,-125.000000
1919,-125.000000
1920,-125.000000
1921,-125.000000
1922,-125.000000
1923,-121.093750
1924,-121.093750
1925,-121.093750
1926,-121.093750
1927,-121.093750
1928,-117.187500
1929,-117.187500
1930,-117.187500
1931,-117.187500
1932,-117.187500
1933,-113.281250
1934,-113.281250
1935,-113.281250
1936,-113.281250
1937,-113.281250
1938,-109.375000
1939,-109.375000
1940,-109.375000
1941,-109.375000
1942,-109.375000
1943,-105.468750
1944,-105.468750
1945,-105.468750
1946,-105.468750
1947,-105.468750
1948,-101.562500
1949,-101.562500
1950,-101.562500
1951,-101.562500
1952,-97.656250
1953,-97.656250
1954,-97.656250
1955,-97.656250
1956,-93.750000
1957,-93.750000
1958,-93.750000
1959,-89.843750
1960,-93.750000
1961,-89.843750
1962,-89.843750
1963,-89.843750
1964,-89.843750
1965,-85.937500
1966,-85.937500
1967,-85.937500
1968,-85.937500
1969,-82.031250
1970,-82.031250
1971,-82.031250
1972,-82.031250
1973,-78.125000
1974,-78.125000
1975,-78.125000
1976,-78.125000
1977,-78.125000
1978,-74.218750
1979,-74.218750
1980,-74.218750
1981,-74.218750
1982,-70.312500
1983,-70.312500
1984,-70.312500
1985,-70.312500
1986,-66.406250
1987,-66.406250
1988,-66.406250
1989,-66.406250
1990,-62.500000
1991,-62.500000
1992,-62.500000
1993,-62.500000
1994,-58.593750
1995,-58.593750
1996,-58.593750
1997,-58.593750
1998,-54.687500
1999,-54.687500
2000,-54.687500
2001,-54.687500
2002,-50.781250
2003,-50.781250
2004,-50.781250
2005,-50.781250
2006,-50.781250
2007,-46.875000
2008,-46.875000
2009,-46.875000
2010,-46.875000
2011,-42.968750
2012,-42.968750
2013,-42.968750
2014,-42.968750
2015,-39.062500
2016,-39.062500
2017,-39.062500
2018,-35.156250
2019,-35.156250
2020,-35.156250
2021,-35.156250
2022,-31.250000
2023,-31.250000
2024,-31.250000
2025,-31.250000
2026,-27.343750
2027,-27.343750
2028,-27.343750
2029,-27.343750
2030,-23.437500
2031,-23.437500
2032,-23.437500
2033,-23.437500
2034,-19.531250
2035,-19.531250
2036,-19.531250
2037,-19.531250
2038,-15.625000
2039,-15.625000
2040,-15.625000
2041,-15.625000
2042,-15.625000
2043,-11.718750
2044,-11.718750
2045,-11.718750
2046,-7.812500
2047,-7.812500
2048,-7.812500
2049,-7.812500
2050,-3.906250
2051,-3.906250
2052,-3.906250
2053,-3.906250
2054,-3.906250
2055,0.000000
2056,0.000000
2057,0.000000
2058,0.000000
2059,3.906250
2060,3.906250
2061,3.906250
2062,3.906250
2063,7.812500
2064,7.812500
2065,7.812500
2066,7.812500
2067,11.718750
2068,11.718750
2069,11.718750
2070,11.718750
2071,11.718750
2072,15.625000
2073,15.625000
2074,15.625000
2075,19.531250
2076,19.531250
2077,19.531250
2078,19.531250
2079,19.531250
2080,23.437500
2081,23.437500
2082,23.437500
2083,23.437500
2084,27.343750
2085,27.343750
2086,27.343750
2087,27.343750
2088,31.250000
2089,31.250000
2090,31.250000
2091,31.250000
2092,31.250000
2093,35.156250
2094,35.156250
2095,35.156250
2096,35.156250
2097,35.156250
2098,39.062500
2099,39.062500
2100,39.062500
2101,39.062500
2102,42.968750
2103,42.968750
2104,42.968750
2105,42.968750
2106,42.968750
2107,46.875000
2108,46.875000
2109,46.875000
2110,46.875000
2111,46.875000
2112,50.781250
2113,50.781250
2114,50.781250
2115,50.781250
2116,54.687500
2117,54.687500
2118,54.687500
2119,54.687500
2120,54.687500
2121,58.593750
2122,58.593750
2123,58.593750
2124,58.593750
2125,62.500000
2126,62.500000
2127,62.500000
2128,62.500000
2129,62.500000
2130,62.500000
2131,66.406250
2132,66.406250
2133,66.406250
2134,66.406250
2135,66.406250
2136,66.406250
2137,70.312500
2138,70.312500
2139,70.312500
2140,70.312500
2141,70.312500
2142,74.218750
2143,74.218750
2144,74.218750
2145,74.218750
2146,74.218750
2147,74.218750
2148,78.125000
2149,78.125000
2150,78.125000
2151,78.125000
2152,78.125000
2153,78.125000
2154,82.031250
2155,82.031250
2156,82.031250
2157,82.031250
2158,82.031250
2159,85.937500
2160,85.937500
2161,85.937500
2162,85.937500
2163,85.937500
2164,89.843750
2165,85.937500
2166,85.937500
2167,89.843750
2168,89.843750
2169,89.843750
2170,89.843750
2171,89.843750
2172,89.843750
2173,93.750000
2174,93.750000
2175,93.750000
2176,93.750000
2177,93.750000
2178,93.750000
2179,93.750000
2180,97.656250
2181,97.656250
2182,97.656250
2183,97.656250
2184,97.656250
2185,97.656250
2186,101.562500
2187,101.562500
2188,101.562500
2189,101.562500
2190,101.562500
2191,101.562500
2192,101.562500
2193,101.562500
2194,101.562500
2195,105.468750
2196,105.468750
2197,105.468750
2198,105.468750
2199,105.468750
2200,105.468750
2201,105.468750
2202,105.468750
2203,109.375000
2204,105.468750
2205,109.375000
2206,109.375000
2207,109.375000
2208,109.375000
2209,109.375000
2210,109.375000
2211,109.375000
2212,109.375000
2213,113.281250
2214,113.281250
2215,113.281250
2216,113.281250
2217,113.281250
2218,113.281250
2219,113.281250
2220,113.281250
2221,113.281250
2222,117.187500
2223,113.281250
2224,117.187500
2225,117.187500
2226,117.187500
2227,117.187500
2228,117.187500
2229,117.187500
2230,117.187500
2231,117.187500
2232,117.187500
2233,117.187500
2234,117.187500
2235,121.093750
2236,121.093750
2237,121.093750
2238,121.093750
2239,121.093750
2240,121.093750
2241,121.093750
2242,121.093750
2243,121.093750
2244,121.093750
2245,121.093750
2246,121.093750
2247,121.093750
2248,121.093750
2249,121.093750
2250,125.000000
2251,125.000000
2252,125.000000
2253,125.000000
2254,125.000000
2255,125.000000
2256,125.000000
2257,125.000000
2258,125.000000
2259,125.000000
2260,125.000000
2261,125.000000
2262,125.000000
2263,125.000000
2264,125.000000
2265,125.000000
2266,125.000000
2267,125.000000
2268,125.000000
2269,125.000000
2270,125.000000
2271,125.000000
2272,125.000000
2273,125.000000
2274,128.906250
2275,125.000000
2276,128.906250
2277,128.906250
2278,128.906250
2279,128.906250
2280,128.906250
2281,128.906250
2282,128.906250
2283,128.906250
2284,128.906250
2285,128.906250
2286,128.906250
2287,128.906250
2288,128.906250
2289,128.906250
2290,128.906250
2291,128.906250
2292,128.906250
2293,128.906250
2294,128.906250
2295,128.906250
2296,128.906250
2297,128.906250
2298,128.906250
2299,128.906250
2300,128.906250
2301,128.906250
2302,128.906250
2303,128.906250
2304,128.906250
2305,128.906250
2306,128.906250
2307,128.906250
2308,128.906250
2309,128.906250
2310,128.906250
2311,128.906250
2312,128.906250
2313,128.906250
2314,128.906250
2315,125.000000
2316,128.906250
2317,128.906250
2318,125.000000
2319,128.906250
2320,128.906250
2321,128.906250
2322,128.906250
2323,125.000000
2324,125.000000
2325,128.906250
2326,125.000000
2327,125.000000
2328,125.000000
2329,125.000000
2330,125.000000
2331,125.000000
2332,125.000000
2333,125.000000
2334,125.000000
2335,125.000000
2336,125.000000
2337,125.000000
2338,125.000000
2339,125.000000
2340,125.000000
2341,125.000000
2342,125.000000
2343,125.000000
2344,125.000000
2345,125.000000
2346,125.000000
2347,121.093750
2348,121.093750
2349,121.093750
2350,121.093750
2351,121.093750
2352,121.093750
2353,121.093750
2354,121.093750
2355,121.093750
2356,121.093750
2357,121.093750
2358,121.093750
2359,121.093750
2360,121.093750
2361,121.093750
2362,117.187500
2363,117.187500
2364,117.187500
2365,117.187500
2366,117.187500
2367,117.187500
2368,117.187500
2369,117.187500
2370,117.187500
2371,117.187500
2372,117.187500
2373,113.281250
2374,113.281250
2375,113.281250
2376,113.281250
2377,113.281250
2378,113.281250
2379,113.281250
2380,113.281250
2381,113.281250
2382,113.281250
2383,109.375000
2384,109.375000
2385,109.375000
2386,109.375000
2387,109.375000
2388,109.375000
2389,109.375000
2390,109.375000
2391,109.375000
2392,109.375000
2393,109.375000
2394,105.468750
2395,105.468750
2396,105.468750
2397,105.468750
2398,105.468750
2399,105.468750
2400,105.468750
2401,105.468750
2402,101.562500
2403,101.562500
2404,101.562500
2405,101.562500
2406,101.562500
2407,101.562500
2408,101.562500
2409,97.656250
2410,101.562500
2411,97.656250
2412,97.656250
2413,97.656250
2414,97.656250
2415,97.656250
2416,97.656250
2417,97.656250
2418,93.750000
2419,93.750000
2420,93.750000
2421,93.750000
2422,93.750000
2423,93.750000
2424,89.843750
2425,89.843750
2426,89.843750
2427,89.843750
2428,89.843750
2429,85.937500
2430,85.937500
2431,85.937500
2432,85.937500
2433,85.937500
2434,85.937500
2435,85.937500
2436,82.031250
2437,82.031250
2438,82.031250
2439,82.031250
2440,82.031250
2441,82.031250
2442,78.125000
2443,78.125000
2444,78.125000
2445,78.125000
2446,78.125000
2447,78.125000
2448,74.218750
2449,74.218750
2450,74.218750
2451,74.218750
2452,74.218750
2453,70.312500
2454,70.312500
2455,70.312500
2456,70.312500
2457,70.312500
2458,66.406250
2459,66.406250
2460,66.406250
2461,66.406250
2462,66.406250
2463,66.406250
2464,66.406250
2465,62.500000
2466,62.500000
2467,62.500000
2468,62.500000
2469,58.593750
2470,58.593750
2471,58.593750
2472,58.593750
2473,58.593750
2474,54.687500
2475,54.687500
2476,54.687500
2477,54.687500
2478,54.687500
2479,50.781250
2480,50.781250
2481,50.781250
2482,50.781250
2483,46.875000
2484,46.875000
2485,46.875000
2486,46.875000
2487,46.875000
2488,42.968750
2489,42.968750
2490,42.968750
2491,42.968750
2492,42.968750
2493,39.062500
2494,39.062500
2495,39.062500
2496,39.062500
2497,35.156250
2498,35.156250
2499,35.156250
2500,35.156250
2501,35.156250
2502,31.250000
2503,31.250000
2504,31.250000
2505,31.250000
2506,31.250000
2507,27.343750
2508,27.343750
2509,27.343750
2510,23.437500
2511,23.437500
2512,23.437500
2513,23.437500
2514,23.437500
2515,23.437500
2516,19.531250
2517,19.531250
2518,19.531250
2519,15.625000
2520,15.625000
2521,15.625000
2522,15.625000
2523,15.625000
2524,11.718750
2525,11.718750
2526,11.718750
2527,7.812500
2528,7.812500
2529,7.812500
2530,7.812500
2531,7.812500
2532,3.906250
2533,3.906250
2534,3.906250
2535,3.906250
2536,0.000000
2537,0.000000
2538,0.000000
2539,0.000000
2540,-3.906250
2541,-3.906250
2542,-3.906250
2543,-7.812500
2544,-7.812500
2545,-7.812500
2546,-7.812500
2547,-11.718750
2548,-11.718750
2549,-11.718750
2550,-11.718750
2551,-11.718750
2552,-15.625000
2553,-15.625000
2554,-15.625000
2555,-19.531250
2556,-19.531250
2557,-19.531250
2558,-19.531250
2559,-23.437500
2560,-23.437500
2561,-23.437500
2562,-23.437500
2563,-27.343750
2564,-27.343750
2565,-27.343750
2566,-27.343750
2567,-31.250000
2568,-31.250000
2569,-31.250000
2570,-31.250000
2571,-35.156250
2572,-35.156250
2573,-35.156250
2574,-35.156250
2575,-35.156250
2576,-39.062500
2577,-39.062500
2578,-42.968750
2579,-42.968750
2580,-42.968750
2581,-42.968750
2582,-42.968750
2583,-46.875000
2584,-46.875000
2585,-46.875000
2586,-46.875000
2587,-50.781250
2588,-50.781250
2589,-50.781250
2590,-50.781250
2591,-54.687500
2592,-54.687500
2593,-54.687500
2594,-54.687500
2595,-58.593750
2596,-58.593750
2597,-58.593750
2598,-58.593750
2599,-62.500000
2600,-62.500000
2601,-62.500000
2602,-62.500000
2603,-66.406250
2604,-66.406250
2605,-66.406250
2606,-66.406250
2607,-70.312500
2608,-70.312500
2609,-70.312500
2610,-74.218750
2611,-70.312500
2612,-74.218750
2613,-70.312500
2614,-70.312500
2615,-74.218750
2616,-78.125000
2617,-78.125000
2618,-78.125000
2619,-82.031250
2620,-82.031250
2621,-82.031250
2622,-82.031250
2623,-82.031250
2624,-85.937500
2625,-85.937500
2626,-85.937500
2627,-85.937500
2628,-89.843750
2629,-89.843750
2630,-89.843750
2631,-89.843750
2632,-89.843750
2633,-93.750000
2634,-93.750000
2635,-93.750000
2636,-93.750000
2637,-97.656250
2638,-97.656250
2639,-97.656250
2640,-97.656250
2641,-101.562500
2642,-101.562500
2643,-101.562500
2644,-101.562500
2645,-101.562500
2646,-105.468750
2647,-105.468750
2648,-105.468750
2649,-105.468750
2650,-105.468750
2651,-109.375000
2652,-109.375000
2653,-109.375000
2654,-109.375000
2655,-113.281250
2656,-113.281250
2657,-113.281250
2658,-113.281250
2659,-113.281250
2660,-117.187500
2661,-117.187500
2662,-117.187500
2663,-117.187500
2664,-121.093750
2665,-117.187500
2666,-121.093750
2667,-121.093750
2668,-121.093750
2669,-121.093750
2670,-121.093750
2671,-125.000000
2672,-125.000000
2673,-125.000000
2674,-125.000000
2675,-125.000000
2676,-128.906250
2677,-128.906250
2678,-128.906250
2679,-128.906250
2680,-132.812500
2681,-132.812500
2682,-132.812500
2683,-132.812500
2684,-132.812500
2685,-132.812500
2686,-132.812500
2687,-136.718750
2688,-136.718750
2689,-136.718750
2690,-136.718750
2691,-136.718750
2692,-136.718750
2693,-140.625000
2694,-140.625000
2695,-140.625000
2696,-140.625000
2697,-140.625000
2698,-140.625000
2699,-144.531250
2700,-144.531250
2701,-144.531250
2702,-144.531250
2703,-144.531250
2704,-144.531250
2705,-148.437500
2706,-148.437500
2707,-148.437500
2708,-148.437500
2709,-148.437500
2710,-148.437500
2711,-148.437500
2712,-148.437500
2713,-152.343750
2714,-152.343750
2715,-152.343750
2716,-152.343750
2717,-152.343750
2718,-152.343750
2719,-152.343750
2720,-156.250000
2721,-156.250000
2722,-156.250000
2723,-156.250000
2724,-156.250000
2725,-156.250000
2726,-156.250000
2727,-156.250000
2728,-156.250000
2729,-156.250000
2730,-160.156250
2731,-160.156250
2732,-160.156250
2733,-160.156250
2734,-160.156250
2735,-160.156250
2736,-160.156250
2737,-160.156250
2738,-160.156250
2739,-160.156250
2740,-164.062500
2741,-164.062500
2742,-164.062500
2743,-164.062500
2744,-164.062500
2745,-164.062500
2746,-164.062500
2747,-164.062500
2748,-164.062500
2749,-164.062500
2750,-167.968750
2751,-167.968750
2752,-164.062500
2753,-167.968750
2754,-167.968750
2755,-167.968750
2756,-167.968750
2757,-167.968750
2758,-167.968750
2759,-167.968750
2760,-167.968750
2761,-167.968750
2762,-167.968750
2763,-167.968750
2764,-167.968750
2765,-167.968750
2766,-167.968750
2767,-167.968750
2768,-167.968750
2769,-167.968750
2770,-167.968750
2771,-167.968750
2772,-167.968750
2773,-167.968750
2774,-171.875000
2775,-167.968750
2776,-171.875000
2777,-171.875000
2778,-171.875000
2779,-171.875000
2780,-171.875000
2781,-171.875000
2782,-171.875000
2783,-171.875000
2784,-171.875000
2785,-171.875000
2786,-171.875000
2787,-171.875000
2788,-171.875000
2789,-171.875000
2790,-171.875000
2791,-171.875000
2792,-171.875000
2793,-171.875000
2794,-171.875000
2795,-171.875000
2796,-171.875000
2797,-171.875000
2798,-171.875000
2799,-171.875000
2800,-171.875000
2801,-171.875000
2802,-171.875000
2803,-167.968750
2804,-171.875000
2805,-171.875000
2806,-171.875000
2807,-171.875000
2808,-171.875000
2809,-167.968750
2810,-167.968750
2811,-167.968750
2812,-167.968750
2813,-167.968750
2814,-167.968750
2815,-167.968750
2816,-167.968750
2817,-167.968750
2818,-167.968750
2819,-167.968750
2820,-167.968750
2821,-167.968750
2822,-167.968750
2823,-167.968750
2824,-167.968750
2825,-167.968750
2826,-167.968750
2827,-167.968750
2828,-164.062500
2829,-167.968750
2830,-167.968750
2831,-164.062500
2832,-164.062500
2833,-164.062500
2834,-164.062500
2835,-164.062500
2836,-164.062500
2837,-164.062500
2838,-164.062500
2839,-164.062500
2840,-164.062500
2841,-164.062500
2842,-160.156250
2843,-160.156250
2844,-160.156250
2845,-160.156250
2846,-160.156250
2847,-160.156250
2848,-160.156250
2849,-160.156250
2850,-160.156250
2851,-160.156250
2852,-160.156250
2853,-156.250000
2854,-156.250000
2855,-156.250000
2856,-156.250000
2857,-156.250000
2858,-156.250000
2859,-156.250000
2860,-156.250000
2861,-156.250000
2862,-152.343750
2863,-152.343750
2864,-152.343750
2865,-152.343750
2866,-152.343750
2867,-152.343750
2868,-152.343750
2869,-148.437500
2870,-148.437500
2871,-148.437500
2872,-148.437500
2873,-148.437500
2874,-148.437500
2875,-148.437500
2876,-144.531250
2877,-144.531250
2878,-144.531250
2879,-144.531250
2880,-144.531250
2881,-144.531250
2882,-144.531250
2883,-140.625000
2884,-140.625000
2885,-140.625000
2886,-140.625000
2887,-140.625000
2888,-136.718750
2889,-136.718750
2890,-136.718750
2891,-136.718750
2892,-136.718750
2893,-136.718750
2894,-136.718750
2895,-132.812500
2896,-132.812500
2897,-132.812500
2898,-132.812500
2899,-132.812500
2900,-132.812500
2901,-128.906250
2902,-128.906250
2903,-128.906250
2904,-128.906250
2905,-128.906250
2906,-125.000000
2907,-125.000000
2908,-125.000000
2909,-125.000000
2910,-125.000000
2911,-125.000000
2912,-121.093750
2913,-121.093750
2914,-121.093750
2915,-121.093750
2916,-121.093750
2917,-117.187500
2918,-117.187500
2919,-117.187500
2920,-117.187500
2921,-113.281250
2922,-113.281250
2923,-113.281250
2924,-113.281250
2925,-113.281250
2926,-109.375000
2927,-109.375000
2928,-109.375000
2929,-109.375000
2930,-109.375000
2931,-109.375000
2932,-105.468750
2933,-105.468750
2934,-105.468750
2935,-101.562500
2936,-101.562500
2937,-101.562500
2938,-101.562500
2939,-101.562500
2940,-97.656250
2941,-97.656250
2942,-97.656250
2943,-97.656250
2944,-97.656250
2945,-97.656250
2946,-93.750000
2947,-93.750000
2948,-89.843750
2949,-93.750000
2950,-89.843750
2951,-89.843750
2952,-89.843750
2953,-89.843750
2954,-85.937500
2955,-85.937500
2956,-85.937500
2957,-85.937500
2958,-82.031250
2959,-85.937500
2960,-82.031250
2961,-82.031250
2962,-78.125000
2963,-78.125000
2964,-78.125000
2965,-78.125000
2966,-78.125000
2967,-74.218750
2968,-74.218750
2969,-74.218750
2970,-74.218750
2971,-74.218750
2972,-70.312500
2973,-70.312500
2974,-70.312500
2975,-66.406250
2976,-66.406250
2977,-66.406250
2978,-66.406250
2979,-62.500000
2980,-62.500000
2981,-62.500000
2982,-62.500000
2983,-62.500000
2984,-62.500000
2985,-58.593750
2986,-58.593750
2987,-58.593750
2988,-54.687500
2989,-54.687500
2990,-54.687500
2991,-54.687500
2992,-50.781250
2993,-50.781250
2994,-50.781250
2995,-50.781250
2996,-46.875000
2997,-46.875000
2998,-46.875000
2999,-46.875000
3000,-42.968750
3001,-42.968750
3002,-42.968750
3003,-42.968750
3004,-39.062500
3005,-39.062500
3006,-39.062500
3007,-39.062500
3008,-35.156250
3009,-35.156250
3010,-35.156250
3011,-31.250000
3012,-31.250000
3013,-31.250000
3014,-31.250000
3015,-31.250000
3016,-27.343750
3017,-27.343750
3018,-23.437500
3019,-27.343750
3020,-23.437500
3021,-23.437500
3022,-23.437500
3023,-23.437500
3024,-19.531250
3025,-19.531250
3026,-19.531250
3027,-19.531250
3028,-15.625000
3029,-15.625000
3030,-15.625000
3031,-15.625000
3032,-11.718750
3033,-11.718750
3034,-11.718750
3035,-11.718750
3036,-7.812500
3037,-7.812500
3038,-7.812500
3039,-3.906250
3040,-3.906250
3041,-3.906250
3042,-3.906250
3043,-3.906250
3044,0.000000
3045,0.000000
3046,0.000000
3047,0.000000
3048,3.906250
3049,3.906250
3050,3.906250
3051,3.906250
3052,7.812500
3053,7.812500
3054,7.812500
3055,7.812500
3056,7.812500
3057,11.718750
3058,11.718750
3059,11.718750
3060,15.625000
3061,15.625000
3062,15.625000
3063,15.625000
3064,15.625000
3065,19.531250
3066,19.531250
3067,19.531250
3068,19.531250
3069,19.531250
3070,23.437500
3071,23.437500
3072,23.437500
3073,23.437500
3074,27.343750
3075,27.343750
3076,27.343750
3077,27.343750
3078,31.250000
3079,31.250000
3080,31.250000
3081,31.250000
3082,31.250000
3083,35.156250
3084,35.156250
3085,35.156250
3086,35.156250
3087,35.156250
3088,39.062500
3089,39.062500
3090,39.062500
3091,42.968750
3092,42.968750
3093,42.968750
3094,42.968750
3095,42.968750
3096,42.968750
3097,46.875000
3098,46.875000
3099,46.875000
3100,46.875000
3101,50.781250
3102,50.781250
3103,50.781250
3104,50.781250
3105,50.781250
3106,54.687500
3107,54.687500
3108,54.687500
3109,54.687500
3110,54.687500
3111,54.687500
3112,58.593750
3113,58.593750
3114,58.593750
3115,58.593750
3116,62.500000
3117,62.500000
3118,62.500000
3119,62.500000
3120,62.500000
3121,66.406250
3122,66.406250
3123,66.406250
3124,66.406250
3125,66.406250
3126,66.406250
3127,70.312500
3128,70.312500
3129,70.312500
3130,70.312500
3131,70.312500
3132,74.218750
3133,74.218750
3134,74.218750
3135,74.218750
3136,74.218750
3137,74.218750
3138,74.218750
3139,78.125000
3140,78.125000
3141,78.125000
3142,78.125000
3143,82.031250
3144,82.031250
3145,82.031250
3146,82.031250
3147,82.031250
3148,82.031250
3149,85.937500
3150,85.937500
3151,85.937500
3152,85.937500
3153,85.937500
3154,85.937500
3155,89.843750
3156,89.843750
3157,89.843750
3158,89.843750
3159,89.843750
3160,89.843750
3161,89.843750
3162,89.843750
3163,93.750000
3164,93.750000
3165,93.750000
3166,93.750000
3167,93.750000
3168,93.750000
3169,97.656250
3170,97.656250
3171,97.656250
3172,97.656250
3173,97.656250
3174,97.656250
3175,97.656250
3176,97.656250
3177,101.562500
3178,101.562500
3179,101.562500
3180,101.562500
3181,101.562500
3182,101.562500
3183,101.562500
3184,105.468750
3185,105.468750
3186,105.468750
3187,105.468750
3188,105.468750
3189,105.468750
3190,105.468750
3191,105.468750
3192,105.468750
3193,105.468750
3194,109.375000
3195,109.375000
3196,109.375000
3197,109.375000
3198,109.375000
3199,109.375000
3200,109.375000
3201,109.375000
3202,109.375000
3203,113.281250
3204,113.281250
3205,113.281250
3206,113.281250
3207,113.281250
3208,113.281250
3209,113.281250
3210,113.281250
3211,113.281250
3212,117.187500
3213,113.281250
3214,117.187500
3215,117.187500
3216,117.187500
3217,117.187500
3218,117.187500
3219,117.187500
3220,117.187500
3221,117.187500
3222,117.187500
3223,117.187500
3224,117.187500
3225,117.187500
3226,117.187500
3227,117.187500
3228,121.093750
3229,121.093750
3230,121.093750
3231,121.093750
3232,121.093750
3233,121.093750
3234,121.093750
3235,121.093750
3236,121.093750
3237,121.093750
3238,121.093750
3239,121.093750
3240,125.000000
3241,121.093750
3242,125.000000
3243,125.000000
3244,125.000000
3245,125.000000
3246,125.000000
3247,125.000000
3248,125.000000
3249,125.000000
3250,125.000000
3251,125.000000
3252,125.000000
3253,125.000000
3254,125.000000
3255,125.000000
3256,125.000000
3257,125.000000
3258,125.000000
3259,125.000000
3260,125.000000
3261,125.000000
3262,128.906250
3263,125.000000
3264,128.906250
3265,128.906250
3266,128.906250
3267,128.906250
3268,128.906250
3269,128.906250
3270,128.906250
3271,128.906250
3272,128.906250
3273,128.906250
3274,128.906250
3275,128.906250
3276,128.906250
3277,128.906250
3278,128.906250
3279,128.906250
3280,128.906250
3281,128.906250
3282,128.906250
3283,128.906250
3284,128.906250
3285,128.906250
3286,128.906250
3287,128.906250
3288,128.906250
3289,128.906250
3290,128.906250
3291,128.906250
3292,128.906250
3293,128.906250
3294,128.906250
3295,128.906250
3296,128.906250
3297,128.906250
3298,128.906250
3299,128.906250
3300,128.906250
3301,128.906250
3302,128.906250
3303,128.906250
3304,128.906250
3305,128.906250
3306,128.906250
3307,128.906250
3308,128.906250
3309,128.906250
3310,128.906250
3311,125.000000
3312,128.906250
3313,125.000000
3314,125.000000
3315,125.000000
3316,125.000000
3317,125.000000
3318,125.000000
3319,125.000000
3320,125.000000
3321,125.000000
3322,125.000000
3323,125.000000
3324,125.000000
3325,125.000000
3326,125.000000
3327,125.000000
3328,125.000000
3329,125.000000
3330,125.000000
3331,125.000000
3332,125.000000
3333,125.000000
3334,121.093750
3335,125.000000
3336,125.000000
3337,125.000000
3338,121.093750
3339,121.093750
3340,121.093750
3341,121.093750
3342,121.093750
3343,121.093750
3344,121.093750
3345,121.093750
3346,121.093750
3347,121.093750
3348,121.093750
3349,121.093750
3350,117.187500
3351,117.187500
3352,117.187500
3353,117.187500
3354,117.187500
3355,117.187500
3356,117.187500
3357,117.187500
3358,117.187500
3359,117.187500
3360,117.187500
3361,117.187500
3362,117.187500
3363,117.187500
3364,113.281250
3365,113.281250
3366,113.281250
3367,113.281250
3368,113.281250
3369,113.281250
3370,113.281250
3371,113.281250
3372,113.281250
3373,109.375000
3374,109.375000
3375,109.375000
3376,109.375000
3377,109.375000
3378,109.375000
3379,109.375000
3380,109.375000
3381,109.375000
3382,109.375000
3383,105.468750
3384,109.375000
3385,105.468750
3386,105.468750
3387,105.468750
3388,105.468750
3389,105.468750
3390,105.468750
3391,105.468750
3392,101.562500
3393,101.562500
3394,101.562500
3395,101.562500
3396,101.562500
3397,101.562500
3398,101.562500
3399,101.562500
3400,97.656250
3401,97.656250
3402,97.656250
3403,97.656250
3404,97.656250
3405,97.656250
3406,97.656250
3407,97.656250
3408,97.656250
3409,93.750000
3410,93.750000
3411,93.750000
3412,93.750000
3413,89.843750
3414,89.843750
3415,89.843750
3416,89.843750
3417,89.843750
3418,89.843750
3419,89.843750
3420,89.843750
3421,85.937500
3422,85.937500
3423,85.937500
3424,85.937500
3425,85.937500
3426,85.937500
3427,82.031250
3428,82.031250
3429,82.031250
3430,82.031250
3431,82.031250
3432,82.031250
3433,78.125000
3434,78.125000
3435,78.125000
3436,78.125000
3437,78.125000
3438,78.125000
3439,74.218750
3440,74.218750
3441,74.218750
3442,74.218750
3443,74.218750
3444,74.218750
3445,70.312500
3446,70.312500
3447,70.312500
3448,70.312500
3449,66.406250
3450,66.406250
3451,66.406250
3452,66.406250
3453,66.406250
3454,62.500000
3455,62.500000
3456,62.500000
3457,62.500000
3458,62.500000
3459,62.500000
3460,58.593750
3461,58.593750
3462,58.593750
3463,54.687500
3464,54.687500
3465,54.687500
3466,54.687500
3467,54.687500
3468,54.687500
3469,50.781250
3470,50.781250
3471,50.781250
3472,50.781250
3473,46.875000
3474,46.875000
3475,46.875000
3476,46.875000
3477,46.875000
3478,46.875000
3479,42.968750
3480,42.968750
3481,42.968750
3482,42.968750
3483,39.062500
3484,39.062500
3485,39.062500
3486,39.062500
3487,35.156250
3488,35.156250
3489,35.156250
3490,35.156250
3491,35.156250
3492,31.250000
3493,31.250000
3494,31.250000
3495,31.250000
3496,27.343750
3497,27.343750
3498,27.343750
3499,27.343750
3500,27.343750
3501,23.437500
3502,23.437500
3503,23.437500
3504,23.437500
3505,19.531250
3506,19.531250
3507,19.531250
3508,19.531250
3509,15.625000
3510,15.625000
3511,15.625000
3512,15.625000
3513,11.718750
3514,11.718750
3515,11.718750
3516,11.718750
3517,11.718750
3518,7.812500
3519,7.812500
3520,7.812500
3521,3.906250
3522,3.906250
3523,3.906250
3524,3.906250
3525,0.000000
3526,0.000000
3527,0.000000
3528,0.000000
3529,-3.906250
3530,-3.906250
3531,-3.906250
3532,-3.906250
3533,-3.906250
3534,-7.812500
3535,-7.812500
3536,-7.812500
3537,-7.812500
3538,-11.718750
3539,-11.718750
3540,-11.718750
3541,-15.625000
3542,-15.625000
3543,-15.625000
3544,-15.625000
3545,-15.625000
3546,-19.531250
3547,-19.531250
3548,-19.531250
3549,-19.531250
3550,-23.437500
3551,-23.437500
3552,-23.437500
3553,-23.437500
3554,-27.343750
3555,-27.343750
3556,-27.343750
3557,-31.250000
3558,-31.250000
3559,-31.250000
3560,-31.250000
3561,-35.156250
3562,-35.156250
3563,-35.156250
3564,-35.156250
3565,-35.156250
3566,-39.062500
3567,-39.062500
3568,-39.062500
3569,-42.968750
3570,-42.968750
3571,-42.968750
3572,-42.968750
3573,-46.875000
3574,-46.875000
3575,-46.875000
3576,-46.875000
3577,-50.781250
3578,-50.781250
3579,-50.781250
3580,-50.781250
3581,-54.687500
3582,-54.687500
3583,-54.687500
3584,-54.687500
3585,-58.593750
3586,-58.593750
3587,-58.593750
3588,-58.593750
3589,-62.500000
3590,-62.500000
3591,-62.500000
3592,-62.500000
3593,-66.406250
3594,-66.406250
3595,-66.406250
3596,-66.406250
3597,-66.406250
3598,-70.312500
3599,-70.312500
3600,-70.312500
3601,-70.312500
3602,-74.218750
3603,-74.218750
3604,-74.218750
3605,-78.125000
3606,-78.125000
3607,-78.125000
3608,-78.125000
3609,-78.125000
3610,-82.031250
3611,-82.031250
3612,-82.031250
3613,-82.031250
3614,-85.937500
3615,-85.937500
3616,-85.937500
3617,-89.843750
3618,-89.843750
3619,-89.843750
3620,-89.843750
3621,-89.843750
3622,-89.843750
3623,-93.750000
3624,-93.750000
3625,-93.750000
3626,-97.656250
3627,-97.656250
3628,-97.656250
3629,-97.656250
3630,-97.656250
3631,-101.562500
3632,-101.562500
3633,-101.562500
3634,-101.562500
3635,-101.562500
3636,-105.468750
3637,-105.468750
3638,-105.468750
3639,-105.468750
3640,-105.468750
3641,-109.375000
3642,-109.375000
3643,-109.375000
3644,-109.375000
3645,-113.281250
3646,-113.281250
3647,-113.281250
3648,-113.281250
3649,-113.281250
3650,-117.187500
3651,-117.187500
3652,-117.187500
3653,-117.187500
3654,-117.187500
3655,-121.093750
3656,-121.093750
3657,-121.093750
3658,-121.093750
3659,-121.093750
3660,-125.000000
3661,-125.000000
3662,-125.000000
3663,-125.000000
3664,-125.000000
3665,-125.000000
3666,-128.906250
3667,-128.906250
3668,-128.906250
3669,-128.906250
3670,-128.906250
3671,-128.906250
3672,-132.812500
3673,-132.812500
3674,-132.812500
3675,-132.812500
3676,-136.718750
3677,-136.718750
3678,-136.718750
3679,-136.718750
3680,-136.718750
3681,-136.718750
3682,-136.718750
3683,-140.625000
3684,-140.625000
3685,-140.625000
3686,-140.625000
3687,-140.625000
3688,-144.531250
3689,-144.531250
3690,-144.531250
3691,-144.531250
3692,-144.531250
3693,-144.531250
3694,-144.531250
3695,-144.531250
3696,-148.437500
3697,-148.437500
3698,-148.437500
3699,-148.437500
3700,-148.437500
3701,-148.437500
3702,-148.437500
3703,-148.437500
3704,-148.437500
3705,-152.343750
3706,-152.343750
3707,-152.343750
3708,-152.343750
3709,-152.343750
3710,-152.343750
3711,-156.250000
3712,-156.250000
3713,-156.250000
3714,-156.250000
3715,-156.250000
3716,-156.250000
3717,-156.250000
3718,-156.250000
3719,-160.156250
3720,-160.156250
3721,-160.156250
3722,-160.156250
3723,-160.156250
3724,-160.156250
3725,-160.156250
3726,-160.156250
3727,-164.062500
3728,-164.062500
3729,-160.156250
3730,-164.062500
3731,-164.062500
3732,-164.062500
3733,-164.062500
3734,-164.062500
3735,-164.062500
3736,-164.062500
3737,-164.062500
3738,-164.062500
3739,-164.062500
3740,-164.062500
3741,-164.062500
3742,-167.968750
3743,-167.968750
3744,-167.968750
3745,-167.968750
3746,-167.968750
3747,-167.968750
3748,-167.968750
3749,-167.968750
3750,-167.968750
3751,-167.968750
3752,-167.968750
3753,-167.968750
3754,-167.968750
3755,-167.968750
3756,-167.968750
3757,-167.968750
3758,-167.968750
3759,-167.968750
3760,-171.875000
3761,-171.875000
3762,-171.875000
3763,-171.875000
3764,-171.875000
3765,-171.875000
3766,-171.875000
3767,-171.875000
3768,-171.875000
3769,-171.875000
3770,-171.875000
3771,-171.875000
3772,-171.875000
3773,-167.968750
3774,-171.875000
3775,-171.875000
3776,-171.875000
3777,-171.875000
3778,-171.875000
3779,-171.875000
3780,-171.875000
3781,-171.875000
3782,-171.875000
3783,-171.875000
3784,-171.875000
3785,-171.875000
3786,-171.875000
3787,-171.875000
3788,-171.875000
3789,-171.875000
3790,-171.875000
3791,-171.875000
3792,-171.875000
3793,-171.875000
3794,-171.875000
3795,-167.968750
3796,-171.875000
3797,-167.968750
3798,-167.968750
3799,-167.968750
3800,-171.875000
3801,-171.875000
3802,-167.968750
3803,-167.968750
3804,-167.968750
3805,-167.968750
3806,-167.968750
3807,-167.968750
3808,-167.968750
3809,-167.968750
3810,-167.968750
3811,-167.968750
3812,-167.968750
3813,-167.968750
3814,-167.968750
3815,-167.968750
3816,-167.968750
3817,-167.968750
3818,-167.968750
3819,-167.968750
3820,-164.062500
3821,-164.062500
3822,-164.062500
3823,-164.062500
3824,-164.062500
3825,-164.062500
3826,-164.062500
3827,-164.062500
3828,-164.062500
3829,-164.062500
3830,-160.156250
3831,-164.062500
3832,-160.156250
3833,-160.156250
3834,-160.156250
3835,-160.156250
3836,-160.156250
3837,-160.156250
3838,-160.156250
3839,-160.156250
3840,-160.156250
3841,-160.156250
3842,-156.250000
3843,-156.250000
3844,-156.250000
3845,-156.250000
3846,-156.250000
3847,-156.250000
3848,-156.250000
3849,-156.250000
3850,-152.343750
3851,-152.343750
3852,-152.343750
3853,-152.343750
3854,-152.343750
3855,-152.343750
3856,-152.343750
3857,-152.343750
3858,-152.343750
3859,-148.437500
3860,-148.437500
3861,-148.437500
3862,-148.437500
3863,-148.437500
3864,-148.437500
3865,-148.437500
3866,-144.531250
3867,-144.531250
3868,-144.531250
3869,-144.531250
3870,-144.531250
3871,-144.531250
3872,-144.531250
3873,-140.625000
3874,-144.531250
3875,-140.625000
3876,-140.625000
3877,-140.625000
3878,-140.625000
3879,-140.625000
3880,-136.718750
3881,-136.718750
3882,-136.718750
3883,-136.718750
3884,-136.718750
3885,-132.812500
3886,-132.812500
3887,-132.812500
3888,-132.812500
3889,-132.812500
3890,-128.906250
3891,-128.906250
3892,-128.906250
3893,-128.906250
3894,-128.906250
3895,-128.906250
3896,-128.906250
3897,-125.000000
3898,-125.000000
3899,-125.000000
3900,-125.000000
3901,-121.093750
3902,-121.093750
3903,-121.093750
3904,-121.093750
3905,-121.093750
3906,-117.187500
3907,-117.187500
3908,-117.187500
3909,-117.187500
3910,-117.187500
3911,-113.281250
3912,-113.281250
3913,-113.281250
3914,-113.281250
3915,-113.281250
3916,-113.281250
3917,-109.375000
3918,-109.375000
3919,-109.375000
3920,-105.468750
3921,-105.468750
3922,-105.468750
3923,-105.468750
3924,-105.468750
3925,-105.468750
3926,-101.562500
3927,-101.562500
3928,-101.562500
3929,-101.562500
3930,-97.656250
3931,-97.656250
3932,-97.656250
3933,-97.656250
3934,-93.750000
3935,-93.750000
3936,-93.750000
3937,-93.750000
3938,-93.750000
3939,-93.750000
3940,-89.843750
3941,-89.843750
3942,-89.843750
3943,-85.937500
3944,-85.937500
3945,-85.937500
3946,-85.937500
3947,-85.937500
3948,-82.031250
3949,-82.031250
3950,-82.031250
3951,-82.031250
3952,-78.125000
3953,-78.125000
3954,-78.125000
3955,-78.125000
3956,-74.218750
3957,-74.218750
3958,-74.218750
3959,-74.218750
3960,-70.312500
3961,-70.312500
3962,-70.312500
3963,-70.312500
3964,-70.312500
3965,-66.406250
3966,-66.406250
3967,-66.406250
3968,-66.406250
3969,-62.500000
3970,-62.500000
3971,-62.500000
3972,-62.500000
3973,-62.500000
3974,-58.593750
3975,-58.593750
3976,-58.593750
3977,-54.687500
3978,-54.687500
3979,-54.687500
3980,-54.687500
3981,-50.781250
3982,-50.781250
3983,-50.781250
3984,-50.781250
3985,-50.781250
3986,-46.875000
3987,-46.875000
3988,-46.875000
3989,-42.968750
3990,-42.968750
3991,-42.968750
3992,-42.968750
3993,-42.968750
3994,-39.062500
3995,-39.062500
3996,-39.062500
3997,-39.062500
3998,-35.156250
3999,-35.156250
4000,-35.156250
4001,-35.156250
4002,-31.250000
4003,-31.250000
4004,-31.250000
4005,-31.250000
4006,-27.343750
4007,-27.343750
4008,-23.437500
4009,-23.437500
4010,-23.437500
4011,-23.437500
4012,-23.437500
4013,-19.531250
4014,-19.531250
4015,-19.531250
4016,-19.531250
4017,-19.531250
4018,-15.625000
4019,-15.625000
4020,-15.625000
4021,-15.625000
4022,-11.718750
4023,-11.718750
4024,-11.718750
4025,-11.718750
4026,-7.812500
4027,-7.812500
4028,-7.812500
4029,-7.812500
4030,-3.906250
4031,-3.906250
4032,-3.906250
4033,-3.906250
4034,0.000000
4035,0.000000
4036,0.000000
4037,0.000000
4038,3.906250
4039,3.906250
4040,3.906250
4041,3.906250
4042,7.812500
4043,7.812500
4044,7.812500
4045,7.812500
4046,11.718750
4047,11.718750
4048,11.718750
4049,11.718750
4050,15.625000
4051,15.625000
4052,15.625000
4053,15.625000
4054,19.531250
4055,19.531250
4056,19.531250
4057,19.531250
4058,19.531250
4059,23.437500
4060,23.437500
4061,23.437500
4062,23.437500
4063,23.437500
4064,27.343750
4065,27.343750
4066,27.343750
4067,31.250000
4068,31.250000
4069,31.250000
4070,31.250000
4071,35.156250
4072,35.156250
4073,35.156250
4074,35.156250
4075,35.156250
4076,39.062500
4077,39.062500
4078,39.062500
4079,39.062500
4080,39.062500
4081,42.968750
4082,42.968750
4083,42.968750
4084,42.968750
4085,46.875000
4086,46.875000
4087,46.875000
4088,46.875000
4089,50.781250
4090,50.781250
4091,50.781250
4092,50.781250
4093,50.781250
4094,50.781250
4095,54.687500
4096,54.687500
4097,54.687500
4098,54.687500
4099,54.687500
4100,54.687500
4101,58.593750
4102,58.593750
4103,58.593750
4104,58.593750
4105,62.500000
4106,62.500000
4107,62.500000
4108,62.500000
4109,62.500000
4110,62.500000
4111,62.500000
4112,66.406250
4113,66.406250
4114,66.406250
4115,70.312500
4116,70.312500
4117,70.312500
4118,70.312500
4119,70.312500
4120,70.312500
4121,70.312500
4122,74.218750
4123,74.218750
4124,74.218750
4125,74.218750
4126,74.218750
4127,78.125000
4128,78.125000
4129,78.125000
4130,78.125000
4131,78.125000
4132,78.125000
4133,78.125000
4134,82.031250
4135,82.031250
4136,82.031250
4137,82.031250
4138,82.031250
4139,85.937500
4140,85.937500
4141,85.937500
4142,85.937500
4143,85.937500
4144,85.937500
4145,85.937500
4146,89.843750
4147,89.843750
4148,89.843750
4149,89.843750
4150,89.843750
4151,89.843750
4152,89.843750
4153,93.750000
4154,93.750000
4155,93.750000
4156,93.750000
4157,93.750000
4158,97.656250
4159,97.656250
4160,97.656250
4161,97.656250
4162,97.656250
4163,97.656250
4164,97.656250
4165,97.656250
4166,101.562500
4167,101.562500
4168,101.562500
4169,101.562500
4170,101.562500
4171,101.562500
4172,101.562500
4173,101.562500
4174,105.468750
4175,105.468750
4176,105.468750
4177,105.468750
4178,105.468750
4179,105.468750
4180,105.468750
4181,105.468750
4182,105.468750
4183,109.375000
4184,109.375000
4185,109.375000
4186,109.375000
4187,109.375000
4188,109.375000
4189,109.375000
4190,109.375000
4191,109.375000
4192,113.281250
4193,113.281250
4194,113.281250
4195,113.281250
4196,113.281250
4197,113.281250
4198,113.281250
4199,113.281250
4200,113.281250
4201,113.281250
4202,117.187500
4203,117.187500
4204,117.187500
4205,117.187500
4206,117.187500
4207,117.187500
4208,117.187500
4209,117.187500
4210,117.187500
4211,117.187500
4212,117.187500
4213,117.187500
4214,117.187500
4215,117.187500
4216,121.093750
4217,121.093750
4218,121.093750
4219,121.093750
4220,121.093750
4221,121.093750
4222,121.093750
4223,121.093750
4224,121.093750
4225,121.093750
4226,121.093750
4227,121.093750
4228,121.093750
4229,121.093750
4230,121.093750
4231,121.093750
4232,121.093750
4233,125.000000
4234,125.000000
4235,125.000000
4236,125.000000
4237,125.000000
4238,121.093750
4239,125.000000
4240,125.000000
4241,125.000000
4242,121.093750
4243,125.000000
4244,125.000000
4245,125.000000
4246,125.000000
4247,125.000000
4248,125.000000
4249,125.000000
4250,125.000000
4251,125.000000
4252,125.000000
4253,125.000000
4254,128.906250
4255,125.000000
4256,128.906250
4257,125.000000
4258,128.906250
4259,128.906250
4260,128.906250
4261,128.906250
4262,128.906250
4263,128.906250
4264,128.906250
4265,128.906250
4266,128.906250
4267,128.906250
4268,128.906250
4269,128.906250
4270,128.906250
4271,128.906250
4272,128.906250
4273,128.906250
4274,128.906250
4275,128.906250
4276,128.906250
4277,128.906250
4278,128.906250
4279,128.906250
4280,128.906250
4281,128.906250
4282,128.906250
4283,125.000000
4284,128.906250
4285,128.906250
4286,128.906250
4287,128.906250
4288,128.906250
4289,128.906250
4290,128.906250
4291,128.906250
4292,128.906250
4293,128.906250
4294,128.906250
4295,128.906250
4296,128.906250
4297,128.906250
4298,128.906250
4299,125.000000
4300,125.000000
4301,125.000000
4302,125.000000
4303,125.000000
4304,128.906250
4305,125.000000
4306,125.000000
4307,125.000000
4308,125.000000
4309,125.000000
4310,125.000000
4311,125.000000
4312,125.000000
4313,125.000000
4314,125.000000
4315,125.000000
4316,125.000000
4317,125.000000
4318,125.000000
4319,125.000000
4320,125.000000
4321,125.000000
4322,125.000000
4323,125.000000
4324,121.093750
4325,121.093750
4326,121.093750
4327,121.093750
4328,121.093750
4329,121.093750
4330,121.093750
4331,121.093750
4332,121.093750
4333,121.093750
4334,121.093750
4335,121.093750
4336,121.093750
4337,121.093750
4338,121.093750
4339,121.093750
4340,117.187500
4341,117.187500
4342,117.187500
4343,117.187500
4344,117.187500
4345,117.187500
4346,117.187500
4347,117.187500
4348,117.187500
4349,117.187500
4350,117.187500
4351,117.187500
4352,117.187500
4353,113.281250
4354,113.281250
4355,113.281250
4356,113.281250
4357,113.281250
4358,113.281250
4359,113.281250
4360,113.281250
4361,113.281250
4362,113.281250
4363,113.281250
4364,109.375000
4365,109.375000
4366,109.375000
4367,109.375000
4368,109.375000
4369,109.375000
4370,109.375000
4371,109.375000
4372,109.375000
4373,105.468750
4374,105.468750
4375,105.468750
4376,105.468750
4377,105.468750
4378,105.468750
4379,105.468750
4380,105.468750
4381,101.562500
4382,101.562500
4383,101.562500
4384,101.562500
4385,101.562500
4386,101.562500
4387,101.562500
4388,97.656250
4389,97.656250
4390,97.656250
4391,97.656250
4392,97.656250
4393,97.656250
4394,97.656250
4395,97.656250
4396,93.750000
4397,93.750000
4398,93.750000
4399,93.750000
4400,93.750000
4401,93.750000
4402,89.843750
4403,89.843750
4404,89.843750
4405,89.843750
4406,89.843750
4407,89.843750
4408,89.843750
4409,85.937500
4410,85.937500
4411,85.937500
4412,85.937500
4413,85.937500
4414,85.937500
4415,85.937500
4416,82.031250
4417,82.031250
4418,82.031250
4419,82.031250
4420,82.031250
4421,82.031250
4422,78.125000
4423,78.125000
4424,78.125000
4425,78.125000
4426,78.125000
4427,74.218750
4428,74.218750
4429,74.218750
4430,74.218750
4431,74.218750
4432,74.218750
4433,70.312500
4434,70.312500
4435,70.312500
4436,70.312500
4437,70.312500
4438,70.312500
4439,66.406250
4440,66.406250
4441,66.406250
4442,66.406250
4443,62.500000
4444,62.500000
4445,62.500000
4446,62.500000
4447,62.500000
4448,62.500000
4449,58.593750
4450,58.593750
4451,58.593750
4452,58.593750
4453,58.593750
4454,54.687500
4455,54.687500
4456,54.687500
4457,54.687500
4458,50.781250
4459,50.781250
4460,50.781250
4461,50.781250
4462,50.781250
4463,46.875000
4464,46.875000
4465,46.875000
4466,46.875000
4467,46.875000
4468,42.968750
4469,42.968750
4470,42.968750
4471,42.968750
4472,42.968750
4473,39.062500
4474,39.062500
4475,39.062500
4476,39.062500
4477,39.062500
4478,35.156250
4479,35.156250
4480,35.156250
4481,35.156250
4482,31.250000
4483,31.250000
4484,31.250000
4485,31.250000
4486,27.343750
4487,27.343750
4488,27.343750
4489,27.343750
4490,23.437500
4491,23.437500
4492,23.437500
4493,23.437500
4494,23.437500
4495,23.437500
4496,19.531250
4497,19.531250
4498,15.625000
4499,15.625000
4500,15.625000
4501,15.625000
4502,15.625000
4503,11.718750
4504,11.718750
4505,11.718750
4506,11.718750
4507,7.812500
4508,7.812500
4509,7.812500
4510,7.812500
4511,7.812500
4512,3.906250
4513,3.906250
4514,3.906250
4515,0.000000
4516,0.000000
4517,0.000000
4518,0.000000
4519,-3.906250
4520,-3.906250
4521,-3.906250
4522,-3.906250
4523,-3.906250
4524,-7.812500
4525,-7.812500
4526,-7.812500
4527,-11.718750
4528,-11.718750
4529,-11.718750
4530,-11.718750
4531,-15.625000
4532,-15.625000
4533,-15.625000
4534,-15.625000
4535,-19.531250
4536,-19.531250
4537,-19.531250
4538,-19.531250
4539,-19.531250
4540,-23.437500
4541,-23.437500
4542,-23.437500
4543,-27.343750
4544,-27.343750
4545,-27.343750
4546,-27.343750
4547,-27.343750
4548,-31.250000
4549,-31.250000
4550,-31.250000
4551,-35.156250
4552,-35.156250
4553,-35.156250
4554,-35.156250
4555,-35.156250
4556,-39.062500
4557,-39.062500
4558,-39.062500
4559,-42.968750
4560,-42.968750
4561,-42.968750
4562,-42.968750
4563,-46.875000
4564,-46.875000
4565,-46.875000
4566,-46.875000
4567,-50.781250
4568,-50.781250
4569,-50.781250
4570,-50.781250
4571,-54.687500
4572,-54.687500
4573,-54.687500
4574,-54.687500
4575,-54.687500
4576,-58.593750
4577,-58.593750
4578,-58.593750
4579,-62.500000
4580,-62.500000
4581,-62.500000
4582,-62.500000
4583,-66.406250
4584,-66.406250
4585,-66.406250
4586,-66.406250
4587,-70.312500
4588,-70.312500
4589,-70.312500
4590,-70.312500
4591,-70.312500
4592,-74.218750
4593,-74.218750
4594,-74.218750
4595,-74.218750
4596,-78.125000
4597,-78.125000
4598,-78.125000
4599,-78.125000
4600,-82.031250
4601,-82.031250
4602,-82.031250
4603,-82.031250
4604,-82.031250
4605,-85.937500
4606,-85.937500
4607,-85.937500
4608,-85.937500
4609,-89.843750
4610,-89.843750
4611,-89.843750
4612,-93.750000
4613,-93.750000
4614,-93.750000
4615,-93.750000
4616,-93.750000
4617,-97.656250
4618,-97.656250
4619,-97.656250
4620,-97.656250
4621,-101.562500
4622,-101.562500
4623,-101.562500
4624,-101.562500
4625,-101.562500
4626,-105.468750
4627,-109.375000
4628,-105.468750
4629,-105.468750
4630,-105.468750
4631,-109.375000
4632,-109.375000
4633,-109.375000
4634,-109.375000
4635,-113.281250
4636,-113.281250
4637,-117.187500
4638,-113.281250
4639,-113.281250
4640,-117.187500
4641,-117.187500
4642,-117.187500
4643,-117.187500
4644,-117.187500
4645,-121.093750
4646,-121.093750
4647,-121.093750
4648,-121.093750
4649,-121.093750
4650,-125.000000
4651,-125.000000
4652,-125.000000
4653,-125.000000
4654,-125.000000
4655,-125.000000
4656,-128.906250
4657,-128.906250
4658,-128.906250
4659,-128.906250
4660,-132.812500
4661,-132.812500
4662,-132.812500
4663,-132.812500
4664,-132.812500
4665,-132.812500
4666,-132.812500
4667,-136.718750
4668,-136.718750
4669,-136.718750
4670,-136.718750
4671,-136.718750
4672,-140.625000
4673,-140.625000
4674,-140.625000
4675,-140.625000
4676,-140.625000
4677,-140.625000
4678,-140.625000
4679,-144.531250
4680,-144.531250
4681,-144.531250
4682,-144.531250
4683,-144.531250
4684,-144.531250
4685,-144.531250
4686,-148.437500
4687,-148.437500
4688,-148.437500
4689,-148.437500
4690,-148.437500
4691,-148.437500
4692,-148.437500
4693,-152.343750
4694,-152.343750
4695,-152.343750
4696,-152.343750
4697,-152.343750
4698,-152.343750
4699,-152.343750
4700,-152.343750
4701,-152.343750
4702,-156.250000
4703,-156.250000
4704,-156.250000
4705,-156.250000
4706,-156.250000
4707,-156.250000
4708,-156.250000
4709,-156.250000
4710,-156.250000
4711,-160.156250
4712,-160.156250
4713,-160.156250
4714,-160.156250
4715,-160.156250
4716,-160.156250
4717,-160.156250
4718,-160.156250
4719,-160.156250
4720,-160.156250
4721,-164.062500
4722,-164.062500
4723,-164.062500
4724,-164.062500
4725,-164.062500
4726,-164.062500
4727,-164.062500
4728,-164.062500
4729,-164.062500
4730,-164.062500
4731,-164.062500
4732,-164.062500
4733,-167.968750
4734,-167.968750
4735,-167.968750
4736,-167.968750
4737,-167.968750
4738,-167.968750
4739,-167.968750
4740,-167.968750
4741,-167.968750
4742,-167.968750
4743,-167.968750
4744,-167.968750
4745,-167.968750
4746,-167.968750
4747,-167.968750
4748,-167.968750
4749,-167.968750
4750,-167.968750
4751,-171.875000
4752,-167.968750
4753,-167.968750
4754,-167.968750
4755,-167.968750
4756,-171.875000
4757,-171.875000
4758,-171.875000
4759,-171.875000
4760,-171.875000
4761,-171.875000
4762,-171.875000
4763,-167.968750
4764,-171.875000
4765,-171.875000
4766,-171.875000
4767,-171.875000
4768,-171.875000
4769,-171.875000
4770,-171.875000
4771,-171.875000
4772,-171.875000
4773,-171.875000
4774,-171.875000
4775,-171.875000
4776,-171.875000
4777,-171.875000
4778,-171.875000
4779,-171.875000
4780,-171.875000
4781,-171.875000
4782,-171.875000
4783,-171.875000
4784,-171.875000
4785,-171.875000
4786,-171.875000
4787,-167.968750
4788,-167.968750
4789,-167.968750
4790,-167.968750
4791,-167.968750
4792,-167.968750
4793,-167.968750
4794,-167.968750
4795,-167.968750
4796,-167.968750
4797,-167.968750
4798,-167.968750
4799,-167.968750
4800,-167.968750
4801,-167.968750
4802,-167.968750
4803,-167.968750
4804,-167.968750
4805,-167.968750
4806,-167.968750
4807,-167.968750
4808,-164.062500
4809,-164.062500
4810,-164.062500
4811,-164.062500
4812,-164.062500
4813,-164.062500
4814,-164.062500
4815,-164.062500
4816,-164.062500
4817,-164.062500
4818,-164.062500
4819,-164.062500
4820,-164.062500
4821,-160.156250
4822,-160.156250
4823,-160.156250
4824,-160.156250
4825,-160.156250
4826,-160.156250
4827,-160.156250
4828,-160.156250
4829,-160.156250
4830,-156.250000
4831,-156.250000
4832,-156.250000
4833,-156.250000
4834,-156.250000
4835,-156.250000
4836,-156.250000
4837,-156.250000
4838,-156.250000
4839,-156.250000
4840,-152.343750
4841,-152.343750
4842,-152.343750
4843,-152.343750
4844,-152.343750
4845,-152.343750
4846,-152.343750
4847,-152.343750
4848,-152.343750
4849,-148.437500
4850,-148.437500
4851,-148.437500
4852,-148.437500
4853,-148.437500
4854,-148.437500
4855,-144.531250
4856,-144.531250
4857,-144.531250
4858,-144.531250
4859,-144.531250
4860,-144.531250
4861,-144.531250
4862,-140.625000
4863,-140.625000
4864,-140.625000
4865,-140.625000
4866,-140.625000
4867,-136.718750
4868,-140.625000
4869,-136.718750
4870,-136.718750
4871,-136.718750
4872,-136.718750
4873,-132.812500
4874,-132.812500
4875,-132.812500
4876,-132.812500
4877,-132.812500
4878,-132.812500
4879,-132.812500
4880,-128.906250
4881,-128.906250
4882,-128.906250
4883,-128.906250
4884,-128.906250
4885,-128.906250
4886,-125.000000
4887,-125.000000
4888,-125.000000
4889,-125.000000
4890,-125.000000
4891,-121.093750
4892,-121.093750
4893,-121.093750
4894,-121.093750
4895,-121.093750
4896,-121.093750
4897,-117.187500
4898,-117.187500
4899,-117.187500
4900,-117.187500
4901,-117.187500
4902,-113.281250
4903,-113.281250
4904,-113.281250
4905,-113.281250
4906,-109.375000
4907,-109.375000
4908,-109.375000
4909,-109.375000
4910,-109.375000
4911,-105.468750
4912,-105.468750
4913,-105.468750
4914,-105.468750
4915,-105.468750
4916,-105.468750
4917,-101.562500
4918,-101.562500
4919,-101.562500
4920,-97.656250
4921,-97.656250
4922,-97.656250
4923,-97.656250
4924,-97.656250
4925,-93.750000
4926,-93.750000
4927,-93.750000
4928,-93.750000
4929,-89.843750
4930,-89.843750
4931,-89.843750
4932,-89.843750
4933,-89.843750
4934,-85.937500
4935,-85.937500
4936,-85.937500
4937,-85.937500
4938,-82.031250
4939,-82.031250
4940,-82.031250
4941,-82.031250
4942,-78.125000
4943,-78.125000
4944,-78.125000
4945,-78.125000
4946,-78.125000
4947,-74.218750
4948,-74.218750
4949,-74.218750
4950,-74.218750
4951,-70.312500
4952,-70.312500
4953,-70.312500
4954,-70.312500
4955,-66.406250
4956,-66.406250
4957,-66.406250
4958,-66.406250
4959,-66.406250
4960,-62.500000
4961,-62.500000
4962,-58.593750
4963,-58.593750
4964,-58.593750
4965,-58.593750
4966,-58.593750
4967,-58.593750
4968,-54.687500
4969,-54.687500
4970,-54.687500
4971,-50.781250
4972,-50.781250
4973,-50.781250
4974,-50.781250
4975,-46.875000
4976,-46.875000
4977,-46.875000
4978,-46.875000
4979,-42.968750
4980,-42.968750
4981,-42.968750
4982,-42.968750
4983,-39.062500
4984,-39.062500
4985,-39.062500
4986,-39.062500
4987,-39.062500
4988,-35.156250
4989,-35.156250
4990,-35.156250
4991,-31.250000
4992,-31.250000
4993,-31.250000
4994,-31.250000
4995,-31.250000
4996,-27.343750
4997,-27.343750
4998,-27.343750
4999,-23.437500
5000,-23.437500
5001,-23.437500
5002,-23.437500
5003,-19.531250
5004,-19.531250
5005,-19.531250
5006,-19.531250
5007,-15.625000
5008,-15.625000
5009,-15.625000
5010,-15.625000
5011,-15.625000
5012,-11.718750
5013,-11.718750
5014,-11.718750
5015,-11.718750
5016,-7.812500
5017,-7.812500
5018,-7.812500
5019,-7.812500
5020,-3.906250
5021,-3.906250
5022,-3.906250
5023,-3.906250
5024,0.000000
5025,0.000000
5026,0.000000
5027,0.000000
5028,3.906250
5029,3.906250
5030,3.906250
5031,3.906250
5032,7.812500
5033,7.812500
5034,7.812500
5035,7.812500
5036,11.718750
5037,11.718750
5038,11.718750
5039,11.718750
5040,11.718750
5041,15.625000
5042,15.625000
5043,15.625000
5044,15.625000
5045,15.625000
5046,19.531250
5047,19.531250
5048,19.531250
5049,23.437500
5050,23.437500
5051,23.437500
5052,23.437500
5053,23.437500
5054,27.343750
5055,27.343750
5056,27.343750
5057,27.343750
5058,31.250000
5059,31.250000
5060,31.250000
5061,31.250000
5062,31.250000
5063,35.156250
5064,35.156250
5065,35.156250
5066,35.156250
5067,39.062500
5068,39.062500
5069,39.062500
5070,39.062500
5071,39.062500
5072,42.968750
5073,42.968750
5074,42.968750
5075,42.968750
5076,46.875000
5077,46.875000
5078,46.875000
5079,46.875000
5080,46.875000
5081,50.781250
5082,50.781250
5083,50.781250
5084,50.781250
5085,50.781250
5086,54.687500
5087,54.687500
5088,54.687500
5089,54.687500
5090,58.593750
5091,58.593750
5092,58.593750
5093,58.593750
5094,58.593750
5095,58.593750
5096,62.500000
5097,62.500000
5098,62.500000
5099,62.500000
5100,62.500000
5101,66.406250
5102,66.406250
5103,66.406250
5104,66.406250
5105,66.406250
5106,70.312500
5107,70.312500
5108,70.312500
5109,70.312500
5110,70.312500
5111,74.218750
5112,74.218750
5113,74.218750
5114,74.218750
5115,74.218750
5116,74.218750
5117,74.218750
5118,78.125000
5119,78.125000
5120,78.125000
5121,78.125000
5122,78.125000
5123,82.031250
5124,82.031250
5125,82.031250
5126,82.031250
5127,82.031250
5128,82.031250
5129,85.937500
5130,85.937500
5131,85.937500
5132,85.937500
5133,85.937500
5134,85.937500
5135,85.937500
5136,89.843750
5137,89.843750
5138,89.843750
5139,89.843750
5140,89.843750
5141,93.750000
5142,93.750000
5143,93.750000
5144,93.750000
5145,93.750000
5146,93.750000
5147,93.750000
5148,93.750000
5149,97.656250
5150,97.656250
5151,97.656250
5152,97.656250
5153,97.656250
5154,97.656250
5155,97.656250
5156,97.656250
5157,97.656250
5158,101.562500
5159,101.562500
5160,101.562500
5161,101.562500
5162,101.562500
5163,101.562500
5164,105.468750
5165,105.468750
5166,105.468750
5167,105.468750
5168,105.468750
5169,105.468750
5170,105.468750
5171,105.468750
5172,105.468750
5173,105.468750
5174,109.375000
5175,109.375000
5176,109.375000
5177,109.375000
5178,109.375000
5179,109.375000
5180,109.375000
5181,109.375000
5182,113.281250
5183,109.375000
5184,113.281250
5185,113.281250
5186,113.281250
5187,113.281250
5188,113.281250
5189,113.281250
5190,113.281250
5191,113.281250
5192,113.281250
5193,117.187500
5194,117.187500
5195,117.187500
5196,117.187500
5197,117.187500
5198,117.187500
5199,117.187500
5200,117.187500
5201,117.187500
5202,117.187500
5203,117.187500
5204,117.187500
5205,117.187500
5206,117.187500
5207,121.093750
5208,121.093750
5209,121.093750
5210,121.093750
5211,121.093750
5212,121.093750
5213,121.093750
5214,121.093750
5215,121.093750
5216,121.093750
5217,121.093750
5218,121.093750
5219,121.093750
5220,121.093750
5221,125.000000
5222,125.000000
5223,125.000000
5224,125.000000
5225,125.000000
5226,125.000000
5227,125.000000
5228,125.000000
5229,125.000000
5230,125.000000
5231,125.000000
5232,125.000000
5233,125.000000
5234,125.000000
5235,125.000000
5236,125.000000
5237,125.000000
5238,125.000000
5239,125.000000
5240,125.000000
5241,125.000000
5242,125.000000
5243,128.906250
5244,128.906250
5245,128.906250
5246,128.906250
5247,128.906250
5248,128.906250
5249,128.906250
5250,128.906250
5251,128.906250
5252,128.906250
5253,128.906250
5254,128.906250
5255,128.906250
5256,128.906250
5257,128.906250
5258,128.906250
5259,128.906250
5260,128.906250
5261,128.906250
5262,128.906250
5263,128.906250
5264,128.906250
5265,128.906250
5266,128.906250
5267,128.906250
5268,128.906250
5269,128.906250
5270,128.906250
5271,128.906250
5272,128.906250
5273,128.906250
5274,128.906250
5275,128.906250
5276,128.906250
5277,128.906250
5278,128.906250
5279,128.906250
5280,128.906250
5281,128.906250
5282,128.906250
5283,128.906250
5284,128.906250
5285,128.906250
5286,128.906250
5287,128.906250
5288,128.906250
5289,125.000000
5290,125.000000
5291,125.000000
5292,128.906250
5293,125.000000
5294,128.906250
5295,125.000000
5296,128.906250
5297,125.000000
5298,128.906250
5299,125.000000
5300,125.000000
5301,125.000000
5302,125.000000
5303,125.000000
5304,125.000000
5305,125.000000
5306,125.000000
5307,125.000000
5308,125.000000
5309,125.000000
5310,125.000000
5311,125.000000
5312,125.000000
5313,125.000000
5314,125.000000
5315,125.000000
5316,121.093750
5317,121.093750
5318,121.093750
5319,121.093750
5320,121.093750
5321,121.093750
5322,125.000000
5323,121.093750
5324,121.093750
5325,121.093750
5326,121.093750
5327,121.093750
5328,121.093750
5329,121.093750
5330,121.093750
5331,117.187500
5332,117.187500
5333,117.187500
5334,117.187500
5335,117.187500
5336,117.187500
5337,117.187500
5338,117.187500
5339,117.187500
5340,117.187500
5341,113.281250
5342,117.187500
5343,117.187500
5344,113.281250
5345,113.281250
5346,113.281250
5347,113.281250
5348,113.281250
5349,113.281250
5350,113.281250
5351,113.281250
5352,113.281250
5353,109.375000
5354,109.375000
5355,109.375000
5356,109.375000
5357,109.375000
5358,109.375000
5359,109.375000
5360,109.375000
5361,109.375000
5362,109.375000
5363,105.468750
5364,105.468750
5365,109.375000
5366,105.468750
5367,105.468750
5368,105.468750
5369,105.468750
5370,105.468750
5371,101.562500
5372,101.562500
5373,101.562500
5374,101.562500
5375,101.562500
5376,101.562500
5377,101.562500
5378,101.562500
5379,97.656250
5380,97.656250
5381,97.656250
5382,97.656250
5383,97.656250
5384,97.656250
5385,97.656250
5386,93.750000
5387,93.750000
5388,93.750000
5389,93.750000
5390,93.750000
5391,93.750000
5392,93.750000
5393,89.843750
5394,89.843750
5395,89.843750
5396,89.843750
5397,89.843750
5398,89.843750
5399,89.843750
5400,85.937500
5401,85.937500
5402,85.937500
5403,85.937500
5404,85.937500
5405,82.031250
5406,82.031250
5407,82.031250
5408,82.031250
5409,82.031250
5410,82.031250
5411,78.125000
5412,78.125000
5413,78.125000
5414,78.125000
5415,78.125000
5416,78.125000
5417,78.125000
5418,74.218750
5419,70.312500
5420,74.218750
5421,74.218750
5422,74.218750
5423,70.312500
5424,70.312500
5425,70.312500
5426,70.312500
5427,70.312500
5428,66.406250
5429,66.406250
5430,66.406250
5431,66.406250
5432,66.406250
5433,66.406250
5434,62.500000
5435,62.500000
5436,62.500000
5437,62.500000
5438,62.500000
5439,58.593750
5440,58.593750
5441,58.593750
5442,58.593750
5443,54.687500
5444,54.687500
5445,54.687500
5446,54.687500
5447,54.687500
5448,54.687500
5449,50.781250
5450,50.781250
5451,50.781250
5452,50.781250
5453,46.875000
5454,50.781250
5455,46.875000
5456,46.875000
5457,46.875000
5458,42.968750
5459,42.968750
5460,42.968750
5461,42.968750
5462,39.062500
5463,39.062500
5464,39.062500
5465,39.062500
5466,35.156250
5467,35.156250
5468,35.156250
5469,35.156250
5470,35.156250
5471,35.156250
5472,31.250000
5473,31.250000
5474,31.250000
5475,31.250000
5476,27.343750
5477,27.343750
5478,27.343750
5479,27.343750
5480,27.343750
5481,23.437500
5482,23.437500
5483,23.437500
5484,23.437500
5485,23.437500
5486,19.531250
5487,19.531250
5488,15.625000
5489,15.625000
5490,15.625000
5491,15.625000
5492,15.625000
5493,11.718750
5494,11.718750
5495,11.718750
5496,11.718750
5497,7.812500
5498,7.812500
5499,7.812500
5500,7.812500
5501,3.906250
5502,3.906250
5503,3.906250
5504,3.906250
5505,0.000000
5506,0.000000
5507,0.000000
5508,0.000000
5509,0.000000
5510,-3.906250
5511,-3.906250
5512,-3.906250
5513,-7.812500
5514,-7.812500
5515,-7.812500
5516,-7.812500
5517,-7.812500
5518,-11.718750
5519,-11.718750
5520,-11.718750
5521,-15.625000
5522,-15.625000
5523,-15.625000
5524,-15.625000
5525,-19.531250
5526,-19.531250
5527,-19.531250
5528,-19.531250
5529,-23.437500
5530,-23.437500
5531,-23.437500
5532,-23.437500
5533,-27.343750
5534,-27.343750
5535,-27.343750
5536,-27.343750
5537,-31.250000
5538,-31.250000
5539,-31.250000
5540,-31.250000
5541,-35.156250
5542,-35.156250
5543,-35.156250
5544,-35.156250
5545,-39.062500
5546,-39.062500
5547,-39.062500
5548,-42.968750
5549,-42.968750
5550,-42.968750
5551,-42.968750
5552,-42.968750
5553,-46.875000
5554,-46.875000
5555,-46.875000
5556,-46.875000
5557,-50.781250
5558,-50.781250
5559,-50.781250
5560,-50.781250
5561,-54.687500
5562,-54.687500
5563,-54.687500
5564,-54.687500
5565,-58.593750
5566,-58.593750
5567,-58.593750
5568,-62.500000
5569,-62.500000
5570,-62.500000
5571,-62.500000
5572,-62.500000
5573,-66.406250
5574,-66.406250
5575,-66.406250
5576,-70.312500
5577,-70.312500
5578,-70.312500
5579,-70.312500
5580,-70.312500
5581,-74.218750
5582,-74.218750
5583,-74.218750
5584,-74.218750
5585,-78.125000
5586,-78.125000
5587,-78.125000
5588,-78.125000
5589,-78.125000
5590,-82.031250
5591,-82.031250
5592,-82.031250
5593,-85.937500
5594,-85.937500
5595,-85.937500
5596,-85.937500
5597,-89.843750
5598,-89.843750
5599,-89.843750
5600,-89.843750
5601,-93.750000
5602,-89.843750
5603,-93.750000
5604,-93.750000
5605,-93.750000
5606,-97.656250
5607,-97.656250
5608,-97.656250
5609,-97.656250
5610,-97.656250
5611,-101.562500
5612,-101.562500
5613,-101.562500
5614,-101.562500
5615,-105.468750
5616,-105.468750
5617,-105.468750
5618,-105.468750
5619,-105.468750
5620,-109.375000
5621,-109.375000
5622,-109.375000
5623,-109.375000
5624,-109.375000
5625,-113.281250
5626,-113.281250
5627,-113.281250
5628,-113.281250
5629,-113.281250
5630,-117.187500
5631,-117.187500
5632,-117.187500
5633,-117.187500
5634,-117.187500
5635,-117.187500
5636,-121.093750
5637,-121.093750
5638,-121.093750
5639,-121.093750
5640,-121.093750
5641,-125.000000
5642,-125.000000
5643,-125.000000
5644,-125.000000
5645,-128.906250
5646,-128.906250
5647,-128.906250
5648,-128.906250
5649,-128.906250
5650,-128.906250
5651,-132.812500
5652,-132.812500
5653,-132.812500
5654,-132.812500
5655,-132.812500
5656,-136.718750
5657,-136.718750
5658,-136.718750
5659,-136.718750
5660,-136.718750
5661,-136.718750
5662,-140.625000
5663,-140.625000
5664,-140.625000
5665,-140.625000
5666,-140.625000
5667,-140.625000
5668,-140.625000
5669,-144.531250
5670,-144.531250
5671,-144.531250
5672,-144.531250
5673,-144.531250
5674,-144.531250
5675,-148.437500
5676,-144.531250
5677,-148.437500
5678,-148.437500
5679,-148.437500
5680,-148.437500
5681,-148.437500
5682,-148.437500
5683,-148.437500
5684,-152.343750
5685,-152.343750
5686,-152.343750
5687,-152.343750
5688,-152.343750
5689,-152.343750
5690,-156.250000
5691,-156.250000
5692,-156.250000
5693,-156.250000
5694,-156.250000
5695,-156.250000
5696,-156.250000
5697,-156.250000
5698,-156.250000
5699,-156.250000
5700,-156.250000
5701,-160.156250
5702,-160.156250
5703,-160.156250
5704,-160.156250
5705,-160.156250
5706,-160.156250
5707,-160.156250
5708,-160.156250
5709,-160.156250
5710,-160.156250
5711,-164.062500
5712,-164.062500
5713,-164.062500
5714,-164.062500
5715,-164.062500
5716,-164.062500
5717,-164.062500
5718,-164.062500
5719,-164.062500
5720,-164.062500
5721,-164.062500
5722,-164.062500
5723,-164.062500
5724,-164.062500
5725,-167.968750
5726,-164.062500
5727,-167.968750
5728,-167.968750
5729,-167.968750
5730,-167.968750
5731,-167.968750
5732,-167.968750
5733,-167.968750
5734,-167.968750
5735,-167.968750
5736,-167.968750
5737,-167.968750
5738,-167.968750
5739,-167.968750
5740,-167.968750
5741,-167.968750
5742,-167.968750
5743,-167.968750
5744,-167.968750
5745,-171.875000
5746,-171.875000
5747,-167.968750
5748,-167.968750
5749,-171.875000
5750,-171.875000
5751,-171.875000
5752,-171.875000
5753,-171.875000
5754,-171.875000
5755,-171.875000
5756,-171.875000
5757,-167.968750
5758,-167.968750
5759,-171.875000
5760,-171.875000
5761,-171.875000
5762,-167.968750
5763,-167.968750
5764,-167.968750
5765,-171.875000
5766,-167.968750
5767,-171.875000
5768,-171.875000
5769,-167.968750
5770,-167.968750
5771,-167.968750
5772,-167.968750
5773,-171.875000
5774,-167.968750
5775,-167.968750
5776,-167.968750
5777,-167.968750
5778,-167.968750
5779,-167.968750
5780,-167.968750
5781,-167.968750
5782,-167.968750
5783,-167.968750
5784,-167.968750
5785,-167.968750
5786,-167.968750
5787,-167.968750
5788,-167.968750
5789,-167.968750
5790,-167.968750
5791,-167.968750
5792,-167.968750
5793,-167.968750
5794,-167.968750
5795,-164.062500
5796,-164.062500
5797,-164.062500
5798,-164.062500
5799,-164.062500
5800,-164.062500
5801,-164.062500
5802,-164.062500
5803,-164.062500
5804,-164.062500
5805,-164.062500
5806,-164.062500
5807,-164.062500
5808,-164.062500
5809,-160.156250
5810,-164.062500
5811,-160.156250
5812,-160.156250
5813,-160.156250
5814,-160.156250
5815,-160.156250
5816,-160.156250
5817,-160.156250
5818,-160.156250
5819,-160.156250
5820,-156.250000
5821,-156.250000
5822,-156.250000
5823,-156.250000
5824,-156.250000
5825,-156.250000
5826,-156.250000
5827,-156.250000
5828,-156.250000
5829,-156.250000
5830,-152.343750
5831,-152.343750
5832,-152.343750
5833,-152.343750
5834,-152.343750
5835,-152.343750
5836,-152.343750
5837,-152.343750
5838,-148.437500
5839,-148.437500
5840,-148.437500
5841,-148.437500
5842,-148.437500
5843,-148.437500
5844,-148.437500
5845,-144.531250
5846,-144.531250
5847,-144.531250
5848,-144.531250
5849,-144.531250
5850,-144.531250
5851,-144.531250
5852,-140.625000
5853,-140.625000
5854,-140.625000
5855,-140.625000
5856,-140.625000
5857,-140.625000
5858,-140.625000
5859,-136.718750
5860,-136.718750
5861,-136.718750
5862,-136.718750
5863,-136.718750
5864,-132.812500
5865,-132.812500
5866,-132.812500
5867,-132.812500
5868,-132.812500
5869,-132.812500
5870,-128.906250
5871,-128.906250
5872,-128.906250
5873,-128.906250
5874,-128.906250
5875,-128.906250
5876,-125.000000
5877,-125.000000
5878,-125.000000
5879,-125.000000
5880,-125.000000
5881,-121.093750
5882,-121.093750
5883,-121.093750
5884,-121.093750
5885,-121.093750
5886,-117.187500
5887,-117.187500
5888,-117.187500
5889,-117.187500
5890,-117.187500
5891,-113.281250
5892,-113.281250
5893,-113.281250
5894,-113.281250
5895,-113.281250
5896,-113.281250
5897,-109.375000
5898,-109.375000
5899,-109.375000
5900,-109.375000
5901,-105.468750
5902,-105.468750
5903,-105.468750
5904,-105.468750
5905,-105.468750
5906,-101.562500
5907,-101.562500
5908,-101.562500
5909,-101.562500
5910,-97.656250
5911,-97.656250
5912,-97.656250
5913,-97.656250
5914,-97.656250
5915,-93.750000
5916,-93.750000
5917,-93.750000
5918,-89.843750
5919,-93.750000
5920,-89.843750
5921,-89.843750
5922,-89.843750
5923,-89.843750
5924,-85.937500
5925,-85.937500
5926,-85.937500
5927,-85.937500
5928,-82.031250
5929,-82.031250
5930,-82.031250
5931,-82.031250
5932,-78.125000
5933,-78.125000
5934,-78.125000
5935,-78.125000
5936,-78.125000
5937,-74.218750
5938,-74.218750
5939,-74.218750
5940,-74.218750
5941,-70.312500
5942,-70.312500
5943,-70.312500
5944,-70.312500
5945,-66.406250
5946,-66.406250
5947,-66.406250
5948,-66.406250
5949,-62.500000
5950,-62.500000
5951,-62.500000
5952,-62.500000
5953,-58.593750
5954,-58.593750
5955,-58.593750
5956,-58.593750
5957,-58.593750
5958,-54.687500
5959,-54.687500
5960,-54.687500
5961,-50.781250
5962,-50.781250
5963,-50.781250
5964,-50.781250
5965,-50.781250
5966,-46.875000
5967,-46.875000
5968,-46.875000
5969,-42.968750
5970,-42.968750
5971,-42.968750
5972,-42.968750
5973,-39.062500
5974,-39.062500
5975,-39.062500
5976,-35.156250
5977,-35.156250
5978,-35.156250
5979,-35.156250
5980,-31.250000
5981,-31.250000
5982,-31.250000
5983,-31.250000
5984,-31.250000
5985,-27.343750
5986,-27.343750
5987,-27.343750
5988,-27.343750
5989,-23.437500
5990,-23.437500
5991,-23.437500
5992,-23.437500
5993,-19.531250
5994,-19.531250
5995,-19.531250
5996,-19.531250
5997,-15.625000
5998,-15.625000
5999,-15.625000
6000,-15.625000
6001,-15.625000
6002,-11.718750
6003,-11.718750
6004,-7.812500
6005,-7.812500
6006,-7.812500
6007,-7.812500
6008,-7.812500
6009,-3.906250
6010,-3.906250
6011,-3.906250
6012,-3.906250
6013,0.000000
6014,0.000000
6015,0.000000
6016,0.000000
6017,3.906250
6018,3.906250
6019,3.906250
6020,3.906250
6021,3.906250
6022,7.812500
6023,7.812500
6024,7.812500
6025,7.812500
6026,11.718750
6027,11.718750
6028,11.718750
6029,11.718750
6030,15.625000
6031,15.625000
6032,15.625000
6033,15.625000
6034,19.531250
6035,19.531250
6036,19.531250
6037,19.531250
6038,19.531250
6039,19.531250
6040,23.437500
6041,23.437500
6042,27.343750
6043,27.343750
6044,27.343750
6045,27.343750
6046,27.343750
6047,27.343750
6048,31.250000
6049,31.250000
6050,31.250000
6051,31.250000
6052,35.156250
6053,35.156250
6054,35.156250
6055,35.156250
6056,35.156250
6057,39.062500
6058,39.062500
6059,39.062500
6060,39.062500
6061,42.968750
6062,42.968750
6063,42.968750
6064,42.968750
6065,46.875000
6066,46.875000
6067,46.875000
6068,46.875000
6069,46.875000
6070,50.781250
6071,50.781250
6072,50.781250
6073,50.781250
6074,50.781250
6075,54.687500
6076,54.687500
6077,54.687500
6078,54.687500
6079,54.687500
6080,54.687500
6081,58.593750
6082,58.593750
6083,58.593750
6084,58.593750
6085,58.593750
6086,62.500000
6087,62.500000
6088,62.500000
6089,66.406250
6090,62.500000
6091,66.406250
6092,66.406250
6093,66.406250
6094,66.406250
6095,66.406250
6096,70.312500
6097,70.312500
6098,70.312500
6099,70.312500
6100,70.312500
6101,74.218750
6102,74.218750
6103,74.218750
6104,74.218750
6105,74.218750
6106,74.218750
6107,78.125000
6108,78.125000
6109,82.031250
6110,78.125000
6111,78.125000
6112,82.031250
6113,82.031250
6114,82.031250
6115,82.031250
6116,82.031250
6117,82.031250
6118,82.031250
6119,85.937500
6120,85.937500
6121,85.937500
6122,85.937500
6123,85.937500
6124,85.937500
6125,89.843750
6126,89.843750
6127,89.843750
6128,89.843750
6129,89.843750
6130,89.843750
6131,93.750000
6132,93.750000
6133,93.750000
6134,93.750000
6135,93.750000
6136,93.750000
6137,93.750000
6138,97.656250
6139,97.656250
6140,97.656250
6141,97.656250
6142,97.656250
6143,97.656250
6144,97.656250
6145,97.656250
6146,97.656250
6147,101.562500
6148,101.562500
6149,101.562500
6150,101.562500
6151,101.562500
6152,101.562500
6153,101.562500
6154,105.468750
6155,105.468750
6156,105.468750
6157,105.468750
6158,105.468750
6159,105.468750
6160,105.468750
6161,105.468750
6162,105.468750
6163,105.468750
6164,109.375000
6165,109.375000
6166,109.375000
6167,109.375000
6168,109.375000
6169,109.375000
6170,109.375000
6171,109.375000
6172,109.375000
6173,113.281250
6174,113.281250
6175,113.281250
6176,117.187500
6177,113.281250
6178,113.281250
6179,113.281250
6180,113.281250
6181,113.281250
6182,113.281250
6183,113.281250
6184,117.187500
6185,117.187500
6186,113.281250
6187,117.187500
6188,121.093750
6189,117.187500
6190,117.187500
6191,117.187500
6192,117.187500
6193,117.187500
6194,117.187500
6195,117.187500
6196,121.093750
6197,117.187500
6198,121.093750
6199,121.093750
6200,121.093750
6201,121.093750
6202,121.093750
6203,121.093750
6204,121.093750
6205,121.093750
6206,121.093750
6207,121.093750
6208,121.093750
6209,121.093750
6210,121.093750
6211,121.093750
6212,121.093750
6213,121.093750
6214,125.000000
6215,125.000000
6216,125.000000
6217,125.000000
6218,125.000000
6219,125.000000
6220,125.000000
6221,125.000000
6222,125.000000
6223,125.000000
6224,125.000000
6225,125.000000
6226,125.000000
6227,125.000000
6228,125.000000
6229,125.000000
6230,125.000000
6231,125.000000
6232,128.906250
6233,125.000000
6234,125.000000
6235,125.000000
6236,125.000000
6237,125.000000
6238,128.906250
6239,125.000000
6240,128.906250
6241,128.906250
6242,128.906250
6243,128.906250
6244,128.906250
6245,128.906250
6246,128.906250
6247,128.906250
6248,128.906250
6249,128.906250
6250,128.906250
6251,128.906250
6252,128.906250
6253,128.906250
6254,128.906250
6255,128.906250
6256,128.906250
6257,128.906250
6258,128.906250
6259,128.906250
6260,128.906250
6261,128.906250
6262,128.906250
6263,128.906250
6264,128.906250
6265,128.906250
6266,128.906250
6267,128.906250
6268,128.906250
6269,128.906250
6270,128.906250
6271,128.906250
6272,128.906250
6273,128.906250
6274,128.906250
6275,128.906250
6276,128.906250
6277,125.000000
6278,128.906250
6279,128.906250
6280,128.906250
6281,128.906250
6282,125.000000
6283,125.000000
6284,128.906250
6285,125.000000
6286,125.000000
6287,125.000000
6288,125.000000
6289,125.000000
6290,125.000000
6291,125.000000
6292,125.000000
6293,125.000000
6294,125.000000
6295,125.000000
6296,125.000000
6297,125.000000
6298,125.000000
6299,125.000000
6300,125.000000
6301,125.000000
6302,125.000000
6303,125.000000
6304,125.000000
6305,125.000000
6306,121.093750
6307,121.093750
6308,121.093750
6309,121.093750
6310,121.093750
6311,121.093750
6312,121.093750
6313,121.093750
6314,121.093750
6315,121.093750
6316,121.093750
6317,121.093750
6318,121.093750
6319,121.093750
6320,117.187500
6321,117.187500
6322,117.187500
6323,117.187500
6324,117.187500
6325,117.187500
6326,117.187500
6327,117.187500
6328,117.187500
6329,117.187500
6330,117.187500
6331,113.281250
6332,113.281250
6333,113.281250
6334,113.281250
6335,113.281250
6336,113.281250
6337,113.281250
6338,113.281250
6339,113.281250
6340,113.281250
6341,113.281250
6342,109.375000
6343,109.375000
6344,109.375000
6345,109.375000
6346,109.375000
6347,109.375000
6348,109.375000
6349,109.375000
6350,109.375000
6351,109.375000
6352,105.468750
6353,105.468750
6354,105.468750
6355,105.468750
6356,105.468750
6357,105.468750
6358,105.468750
6359,105.468750
6360,105.468750
6361,101.562500
6362,101.562500
6363,101.562500
6364,101.562500
6365,101.562500
6366,101.562500
6367,101.562500
6368,101.562500
6369,97.656250
6370,97.656250
6371,97.656250
6372,97.656250
6373,97.656250
6374,97.656250
6375,93.750000
6376,93.750000
6377,93.750000
6378,93.750000
6379,93.750000
6380,93.750000
6381,93.750000
6382,93.750000
6383,89.843750
6384,89.843750
6385,89.843750
6386,89.843750
6387,89.843750
6388,89.843750
6389,85.937500
6390,85.937500
6391,85.937500
6392,85.937500
6393,85.937500
6394,85.937500
6395,85.937500
6396,82.031250
6397,82.031250
6398,82.031250
6399,82.031250
6400,82.031250
6401,78.125000
6402,82.031250
6403,78.125000
6404,78.125000
6405,78.125000
6406,78.125000
6407,74.218750
6408,74.218750
6409,74.218750
6410,74.218750
6411,74.218750
6412,74.218750
6413,70.312500
6414,70.312500
6415,70.312500
6416,70.312500
6417,70.312500
6418,70.312500
6419,66.406250
6420,66.406250
6421,66.406250
6422,66.406250
6423,66.406250
6424,62.500000
6425,62.500000
6426,62.500000
6427,62.500000
6428,62.500000
6429,58.593750
6430,58.593750
6431,58.593750
6432,58.593750
6433,58.593750
6434,54.687500
6435,54.687500
6436,54.687500
6437,54.687500
6438,54.687500
6439,50.781250
6440,50.781250
6441,50.781250
6442,50.781250
6443,46.875000
6444,46.875000
6445,46.875000
6446,46.875000
6447,46.875000
6448,42.968750
6449,42.968750
6450,42.968750
6451,42.968750
6452,39.062500
6453,39.062500
6454,39.062500
6455,39.062500
6456,39.062500
6457,35.156250
6458,35.156250
6459,35.156250
6460,35.156250
6461,31.250000
6462,31.250000
6463,31.250000
6464,31.250000
6465,31.250000
6466,27.343750
6467,27.343750
6468,27.343750
6469,27.343750
6470,23.437500
6471,23.437500
6472,23.437500
6473,23.437500
6474,19.531250
6475,19.531250
6476,19.531250
6477,19.531250
6478,19.531250
6479,15.625000
6480,15.625000
6481,15.625000
6482,11.718750
6483,11.718750
6484,11.718750
6485,11.718750
6486,11.718750
6487,7.812500
6488,7.812500
6489,7.812500
6490,7.812500
6491,3.906250
6492,3.906250
6493,3.906250
6494,3.906250
6495,0.000000
6496,3.906250
6497,0.000000
6498,-3.906250
6499,-3.906250
6500,-3.906250
6501,-3.906250
6502,-3.906250
6503,-7.812500
6504,-7.812500
6505,-7.812500
6506,-7.812500
6507,-7.812500
6508,-11.718750
6509,-11.718750
6510,-11.718750
6511,-11.718750
6512,-15.625000
6513,-15.625000
6514,-15.625000
6515,-19.531250
6516,-19.531250
6517,-19.531250
6518,-19.531250
6519,-23.437500
6520,-23.437500
6521,-23.437500
6522,-27.343750
6523,-23.437500
6524,-27.343750
6525,-27.343750
6526,-27.343750
6527,-31.250000
6528,-31.250000
6529,-31.250000
6530,-31.250000
6531,-35.156250
6532,-35.156250
6533,-35.156250
6534,-35.156250
6535,-39.062500
6536,-39.062500
6537,-39.062500
6538,-39.062500
6539,-39.062500
6540,-42.968750
6541,-42.968750
6542,-42.968750
6543,-46.875000
6544,-46.875000
6545,-46.875000
6546,-46.875000
6547,-46.875000
6548,-50.781250
6549,-50.781250
6550,-54.687500
6551,-54.687500
6552,-54.687500
6553,-54.687500
6554,-54.687500
6555,-58.593750
6556,-58.593750
6557,-58.593750
6558,-58.593750
6559,-62.500000
6560,-62.500000
6561,-62.500000
6562,-62.500000
6563,-66.406250
6564,-66.406250
6565,-66.406250
6566,-66.406250
6567,-70.312500
6568,-70.312500
6569,-70.312500
6570,-74.218750
6571,-74.218750
6572,-74.218750
6573,-74.218750
6574,-74.218750
6575,-78.125000
6576,-78.125000
6577,-78.125000
6578,-78.125000
6579,-82.031250
6580,-82.031250
6581,-82.031250
6582,-82.031250
6583,-85.937500
6584,-85.937500
6585,-85.937500
6586,-85.937500
6587,-85.937500
6588,-89.843750
6589,-89.843750
6590,-89.843750
6591,-89.843750
6592,-93.750000
6593,-93.750000
6594,-93.750000
6595,-93.750000
6596,-93.750000
6597,-97.656250
6598,-97.656250
6599,-97.656250
6600,-101.562500
6601,-101.562500
6602,-101.562500
6603,-101.562500
6604,-101.562500
6605,-101.562500
6606,-105.468750
6607,-105.468750
6608,-105.468750
6609,-105.468750
6610,-109.375000
6611,-109.375000
6612,-109.375000
6613,-109.375000
6614,-109.375000
6615,-113.281250
6616,-113.281250
6617,-113.281250
6618,-113.281250
6619,-113.281250
6620,-117.187500
6621,-117.187500
6622,-117.187500
6623,-117.187500
6624,-117.187500
6625,-121.093750
6626,-121.093750
6627,-121.093750
6628,-121.093750
6629,-121.093750
6630,-125.000000
6631,-125.000000
6632,-125.000000
6633,-125.000000
6634,-125.000000
6635,-125.000000
6636,-128.906250
6637,-128.906250
6638,-128.906250
6639,-128.906250
6640,-128.906250
6641,-132.812500
6642,-132.812500
6643,-132.812500
6644,-132.812500
6645,-132.812500
6646,-136.718750
6647,-132.812500
6648,-136.718750
6649,-136.718750
6650,-136.718750
6651,-136.718750
6652,-136.718750
6653,-136.718750
6654,-140.625000
6655,-140.625000
6656,-140.625000
6657,-140.625000
6658,-140.625000
6659,-144.531250
6660,-144.531250
6661,-144.531250
6662,-144.531250
6663,-144.531250
6664,-144.531250
6665,-144.531250
6666,-144.531250
6667,-148.437500
6668,-148.437500
6669,-148.437500
6670,-148.437500
6671,-148.437500
6672,-148.437500
6673,-148.437500
6674,-152.343750
6675,-152.343750
6676,-152.343750
6677,-152.343750
6678,-152.343750
6679,-152.343750
6680,-152.343750
6681,-152.343750
6682,-156.250000
6683,-156.250000
6684,-156.250000
6685,-156.250000
6686,-156.250000
6687,-156.250000
6688,-156.250000
6689,-160.156250
6690,-156.250000
6691,-160.156250
6692,-160.156250
6693,-160.156250
6694,-160.156250
6695,-160.156250
6696,-160.156250
6697,-160.156250
6698,-160.156250
6699,-160.156250
6700,-164.062500
6701,-164.062500
6702,-164.062500
6703,-164.062500
6704,-164.062500
6705,-164.062500
6706,-164.062500
6707,-164.062500
6708,-164.062500
6709,-164.062500
6710,-164.062500
6711,-167.968750
6712,-164.062500
6713,-167.968750
6714,-167.968750
6715,-167.968750
6716,-167.968750
6717,-167.968750
6718,-167.968750
6719,-167.968750
6720,-167.968750
6721,-167.968750
6722,-167.968750
6723,-167.968750
6724,-167.968750
6725,-167.968750
6726,-167.968750
6727,-167.968750
6728,-167.968750
6729,-167.968750
6730,-167.968750
6731,-167.968750
6732,-171.875000
6733,-167.968750
6734,-167.968750
6735,-171.875000
6736,-171.875000
6737,-167.968750
6738,-167.968750
6739,-171.875000
6740,-171.875000
6741,-171.875000
6742,-171.875000
6743,-171.875000
6744,-171.875000
6745,-171.875000
6746,-171.875000
6747,-171.875000
6748,-171.875000
6749,-171.875000
6750,-171.875000
6751,-171.875000
6752,-171.875000
6753,-171.875000
6754,-171.875000
6755,-171.875000
6756,-171.875000
6757,-171.875000
6758,-171.875000
6759,-171.875000
6760,-171.875000
6761,-171.875000
6762,-171.875000
6763,-171.875000
6764,-171.875000
6765,-171.875000
6766,-167.968750
6767,-167.968750
6768,-167.968750
6769,-167.968750
6770,-167.968750
6771,-167.968750
6772,-167.968750
6773,-167.968750
6774,-167.968750
6775,-167.968750
6776,-167.968750
6777,-167.968750
6778,-167.968750
6779,-167.968750
6780,-167.968750
6781,-167.968750
6782,-167.968750
6783,-167.968750
6784,-167.968750
6785,-167.968750
6786,-167.968750
6787,-164.062500
6788,-164.062500
6789,-164.062500
6790,-164.062500
6791,-164.062500
6792,-164.062500
6793,-164.062500
6794,-164.062500
6795,-164.062500
6796,-164.062500
6797,-164.062500
6798,-164.062500
6799,-164.062500
6800,-160.156250
6801,-160.156250
6802,-160.156250
6803,-160.156250
6804,-160.156250
6805,-160.156250
6806,-160.156250
6807,-160.156250
6808,-160.156250
6809,-160.156250
6810,-156.250000
6811,-156.250000
6812,-156.250000
6813,-156.250000
6814,-156.250000
6815,-156.250000
6816,-156.250000
6817,-156.250000
6818,-156.250000
6819,-152.343750
6820,-152.343750
6821,-152.343750
6822,-152.343750
6823,-152.343750
6824,-152.343750
6825,-152.343750
6826,-152.343750
6827,-148.437500
6828,-148.437500
6829,-148.437500
6830,-148.437500
6831,-148.437500
6832,-148.437500
6833,-148.437500
6834,-144.531250
6835,-148.437500
6836,-144.531250
6837,-144.531250
6838,-144.531250
6839,-144.531250
6840,-144.531250
6841,-144.531250
6842,-140.625000
6843,-140.625000
6844,-140.625000
6845,-140.625000
6846,-140.625000
6847,-136.718750
6848,-140.625000
6849,-140.625000
6850,-136.718750
6851,-136.718750
6852,-136.718750
6853,-136.718750
6854,-132.812500
6855,-132.812500
6856,-132.812500
6857,-132.812500
6858,-132.812500
6859,-128.906250
6860,-128.906250
6861,-128.906250
6862,-128.906250
6863,-128.906250
6864,-128.906250
6865,-125.000000
6866,-125.000000
6867,-125.000000
6868,-125.000000
6869,-125.000000
6870,-121.093750
6871,-121.093750
6872,-121.093750
6873,-121.093750
6874,-121.093750
6875,-121.093750
6876,-117.187500
6877,-117.187500
6878,-117.187500
6879,-117.187500
6880,-117.187500
6881,-113.281250
6882,-113.281250
6883,-113.281250
6884,-109.375000
6885,-109.375000
6886,-109.375000
6887,-109.375000
6888,-109.375000
6889,-109.375000
6890,-105.468750
6891,-105.468750
6892,-105.468750
6893,-105.468750
6894,-105.468750
6895,-101.562500
6896,-101.562500
6897,-101.562500
6898,-101.562500
6899,-101.562500
6900,-97.656250
6901,-97.656250
6902,-97.656250
6903,-97.656250
6904,-93.750000
6905,-93.750000
6906,-93.750000
6907,-93.750000
6908,-89.843750
6909,-89.843750
6910,-89.843750
6911,-89.843750
6912,-89.843750
6913,-85.937500
6914,-85.937500
6915,-85.937500
6916,-85.937500
6917,-85.937500
6918,-82.031250
6919,-82.031250
6920,-82.031250
6921,-78.125000
6922,-78.125000
6923,-78.125000
6924,-78.125000
6925,-74.218750
6926,-74.218750
6927,-74.218750
6928,-74.218750
6929,-74.218750
6930,-70.312500
6931,-70.312500
6932,-70.312500
6933,-70.312500
6934,-66.406250
6935,-66.406250
6936,-66.406250
6937,-66.406250
6938,-62.500000
6939,-62.500000
6940,-62.500000
6941,-62.500000
6942,-62.500000
6943,-58.593750
6944,-58.593750
6945,-58.593750
6946,-54.687500
6947,-54.687500
6948,-54.687500
6949,-54.687500
6950,-54.687500
6951,-50.781250
6952,-50.781250
6953,-50.781250
6954,-50.781250
6955,-46.875000
6956,-46.875000
6957,-46.875000
6958,-42.968750
6959,-42.968750
6960,-42.968750
6961,-42.968750
6962,-39.062500
6963,-39.062500
6964,-39.062500
6965,-39.062500
6966,-35.156250
6967,-35.156250
6968,-35.156250
6969,-35.156250
6970,-35.156250
6971,-31.250000
6972,-31.250000
6973,-31.250000
6974,-31.250000
6975,-27.343750
6976,-27.343750
6977,-27.343750
6978,-23.437500
6979,-23.437500
6980,-23.437500
6981,-23.437500
6982,-23.437500
6983,-19.531250
6984,-19.531250
6985,-19.531250
6986,-19.531250
6987,-15.625000
6988,-15.625000
6989,-15.625000
6990,-15.625000
6991,-11.718750
6992,-11.718750
6993,-11.718750
6994,-11.718750
6995,-7.812500
6996,-7.812500
6997,-7.812500
6998,-3.906250
6999,-3.906250
7000,-3.906250
7001,-3.906250
7002,-3.906250
7003,0.000000
7004,0.000000
7005,0.000000
7006,0.000000
7007,3.906250
7008,3.906250
7009,3.906250
7010,3.906250
7011,7.812500
7012,7.812500
7013,7.812500
7014,7.812500
7015,7.812500
7016,11.718750
7017,11.718750
7018,11.718750
7019,11.718750
7020,15.625000
7021,15.625000
7022,15.625000
7023,15.625000
7024,19.531250
7025,19.531250
7026,19.531250
7027,19.531250
7028,23.437500
7029,23.437500
7030,23.437500
7031,23.437500
7032,23.437500
7033,27.343750
7034,27.343750
7035,27.343750
7036,27.343750
7037,31.250000
7038,31.250000
7039,31.250000
7040,31.250000
7041,31.250000
7042,35.156250
7043,35.156250
7044,35.156250
7045,35.156250
7046,39.062500
7047,39.062500
7048,39.062500
7049,39.062500
7050,39.062500
7051,42.968750
7052,42.968750
7053,42.968750
7054,42.968750
7055,46.875000
7056,46.875000
7057,46.875000
7058,46.875000
7059,46.875000
7060,50.781250
7061,50.781250
7062,50.781250
7063,50.781250
7064,54.687500
7065,54.687500
7066,54.687500
7067,54.687500
7068,54.687500
7069,54.687500
7070,58.593750
7071,58.593750
7072,58.593750
7073,58.593750
7074,62.500000
7075,62.500000
7076,62.500000
7077,62.500000
7078,62.500000
7079,62.500000
7080,62.500000
7081,66.406250
7082,66.406250
7083,66.406250
7084,66.406250
7085,66.406250
7086,66.406250
7087,70.312500
7088,70.312500
7089,70.312500
7090,74.218750
7091,74.218750
7092,74.218750
7093,74.218750
7094,74.218750
7095,74.218750
7096,74.218750
7097,74.218750
7098,78.125000
7099,78.125000
7100,78.125000
7101,78.125000
7102,78.125000
7103,82.031250
7104,82.031250
7105,82.031250
7106,82.031250
7107,82.031250
7108,85.937500
7109,85.937500
7110,85.937500
7111,85.937500
7112,85.937500
7113,85.937500
7114,85.937500
7115,85.937500
7116,89.843750
7117,89.843750
7118,89.843750
7119,89.843750
7120,89.843750
7121,93.750000
7122,89.843750
7123,93.750000
7124,93.750000
7125,93.750000
7126,93.750000
7127,93.750000
7128,93.750000
7129,97.656250
7130,97.656250
7131,97.656250
7132,97.656250
7133,97.656250
7134,97.656250
7135,97.656250
7136,97.656250
7137,97.656250
7138,101.562500
7139,101.562500
7140,101.562500
7141,101.562500
7142,101.562500
7143,101.562500
7144,105.468750
7145,105.468750
7146,105.468750
7147,105.468750
7148,105.468750
7149,105.468750
7150,105.468750
7151,105.468750
7152,105.468750
7153,105.468750
7154,109.375000
7155,109.375000
7156,109.375000
7157,109.375000
7158,109.375000
7159,109.375000
7160,109.375000
7161,109.375000
7162,109.375000
7163,113.281250
7164,113.281250
7165,113.281250
7166,113.281250
7167,113.281250
7168,113.281250
7169,113.281250
7170,113.281250
7171,113.281250
7172,113.281250
7173,117.187500
7174,117.187500
7175,117.187500
7176,117.187500
7177,117.187500
7178,117.187500
7179,117.187500
7180,117.187500
7181,117.187500
7182,117.187500
7183,117.187500
7184,117.187500
7185,121.093750
7186,121.093750
7187,121.093750
7188,121.093750
7189,121.093750
7190,121.093750
7191,121.093750
7192,121.093750
7193,121.093750
7194,121.093750
7195,121.093750
7196,121.093750
7197,121.093750
7198,121.093750
7199,121.093750
7200,125.000000
7201,125.000000
7202,125.000000
7203,125.000000
7204,125.000000
7205,121.093750
7206,125.000000
7207,125.000000
7208,125.000000
7209,125.000000
7210,125.000000
7211,125.000000
7212,125.000000
7213,125.000000
7214,125.000000
7215,125.000000
7216,125.000000
7217,125.000000
7218,128.906250
7219,125.000000
7220,125.000000
7221,125.000000
7222,125.000000
7223,125.000000
7224,125.000000
7225,125.000000
7226,128.906250
7227,125.000000
7228,125.000000
7229,125.000000
7230,128.906250
7231,125.000000
7232,128.906250
7233,128.906250
7234,128.906250
7235,128.906250
7236,128.906250
7237,128.906250
7238,128.906250
7239,128.906250
7240,128.906250
7241,128.906250
7242,128.906250
7243,128.906250
7244,128.906250
7245,128.906250
7246,128.906250
7247,128.906250
7248,128.906250
7249,128.906250
7250,128.906250
7251,128.906250
7252,128.906250
7253,128.906250
7254,128.906250
7255,128.906250
7256,128.906250
7257,128.906250
7258,128.906250
7259,125.000000
7260,128.906250
7261,128.906250
7262,128.906250
7263,125.000000
7264,128.906250
7265,128.906250
7266,128.906250
7267,125.000000
7268,128.906250
7269,128.906250
7270,125.000000
7271,125.000000
7272,125.000000
7273,125.000000
7274,125.000000
7275,125.000000
7276,125.000000
7277,125.000000
7278,125.000000
7279,125.000000
7280,125.000000
7281,125.000000
7282,125.000000
7283,125.000000
7284,125.000000
7285,125.000000
7286,125.000000
7287,125.000000
7288,125.000000
7289,125.000000
7290,125.000000
7291,125.000000
7292,125.000000
7293,125.000000
7294,125.000000
7295,125.000000
7296,121.093750
7297,121.093750
7298,121.093750
7299,121.093750
7300,121.093750
7301,121.093750
7302,121.093750
7303,121.093750
7304,121.093750
7305,121.093750
7306,121.093750
7307,121.093750
7308,121.093750
7309,121.093750
7310,117.187500
7311,117.187500
7312,117.187500
7313,117.187500
7314,117.187500
7315,117.187500
7316,117.187500
7317,117.187500
7318,117.187500
7319,117.187500
7320,117.187500
7321,117.187500
7322,117.187500
7323,113.281250
7324,113.281250
7325,113.281250
7326,113.281250
7327,113.281250
7328,113.281250
7329,113.281250
7330,113.281250
7331,113.281250
7332,113.281250
7333,109.375000
7334,109.375000
7335,109.375000
7336,109.375000
7337,109.375000
7338,109.375000
7339,109.375000
7340,109.375000
7341,109.375000
7342,105.468750
7343,105.468750
7344,105.468750
7345,105.468750
7346,105.468750
7347,105.468750
7348,105.468750
7349,105.468750
7350,105.468750
7351,101.562500
7352,101.562500
7353,101.562500
7354,101.562500
7355,101.562500
7356,101.562500
7357,97.656250
7358,97.656250
7359,97.656250
7360,97.656250
7361,97.656250
7362,97.656250
7363,97.656250
7364,97.656250
7365,97.656250
7366,93.750000
7367,93.750000
7368,93.750000
7369,93.750000
7370,93.750000
7371,93.750000
7372,93.750000
7373,89.843750
7374,89.843750
7375,89.843750
7376,89.843750
7377,89.843750
7378,89.843750
7379,85.937500
7380,85.937500
7381,85.937500
7382,85.937500
7383,85.937500
7384,85.937500
7385,82.031250
7386,82.031250
7387,82.031250
7388,82.031250
7389,82.031250
7390,82.031250
7391,78.125000
7392,78.125000
7393,78.125000
7394,78.125000
7395,78.125000
7396,74.218750
7397,74.218750
7398,74.218750
7399,74.218750
7400,74.218750
7401,74.218750
7402,74.218750
7403,70.312500
7404,70.312500
7405,70.312500
7406,70.312500
7407,66.406250
7408,66.406250
7409,66.406250
7410,66.406250
7411,66.406250
7412,66.406250
7413,66.406250
7414,62.500000
7415,62.500000
7416,62.500000
7417,62.500000
7418,58.593750
7419,58.593750
7420,58.593750
7421,58.593750
7422,58.593750
7423,54.687500
7424,54.687500
7425,54.687500
7426,54.687500
7427,54.687500
7428,54.687500
7429,50.781250
7430,50.781250
7431,50.781250
7432,50.781250
7433,50.781250
7434,46.875000
7435,46.875000
7436,46.875000
7437,46.875000
7438,46.875000
7439,42.968750
7440,42.968750
7441,42.968750
7442,39.062500
7443,39.062500
7444,39.062500
7445,39.062500
7446,39.062500
7447,35.156250
7448,35.156250
7449,35.156250
7450,35.156250
7451,35.156250
7452,35.156250
7453,31.250000
7454,31.250000
7455,31.250000
7456,27.343750
7457,27.343750
7458,27.343750
7459,27.343750
7460,23.437500
7461,23.437500
7462,23.437500
7463,23.437500
7464,19.531250
7465,19.531250
7466,19.531250
7467,19.531250
7468,15.625000
7469,15.625000
7470,15.625000
7471,15.625000
7472,11.718750
7473,11.718750
7474,11.718750
7475,11.718750
7476,11.718750
7477,7.812500
7478,7.812500
7479,7.812500
7480,7.812500
7481,3.906250
7482,3.906250
7483,3.906250
7484,3.906250
7485,0.000000
7486,0.000000
7487,0.000000
7488,0.000000
7489,-3.906250
7490,-3.906250
7491,-3.906250
7492,-3.906250
7493,-7.812500
7494,-7.812500
7495,-7.812500
7496,-7.812500
7497,-11.718750
7498,-11.718750
7499,-11.718750
7500,-11.718750
7501,-15.625000
7502,-15.625000
7503,-15.625000
7504,-15.625000
7505,-19.531250
7506,-19.531250
7507,-19.531250
7508,-19.531250
7509,-23.437500
7510,-23.437500
7511,-23.437500
7512,-23.437500
7513,-27.343750
7514,-27.343750
7515,-27.343750
7516,-27.343750
7517,-31.250000
7518,-31.250000
7519,-31.250000
7520,-31.250000
7521,-35.156250
7522,-35.156250
7523,-35.156250
7524,-39.062500
7525,-35.156250
7526,-39.062500
7527,-39.062500
7528,-39.062500
7529,-42.968750
7530,-42.968750
7531,-42.968750
7532,-46.875000
7533,-46.875000
7534,-46.875000
7535,-46.875000
7536,-46.875000
7537,-50.781250
7538,-50.781250
7539,-50.781250
7540,-50.781250
7541,-54.687500
7542,-54.687500
7543,-54.687500
7544,-54.687500
7545,-58.593750
7546,-58.593750
7547,-58.593750
7548,-58.593750
7549,-62.500000
7550,-62.500000
7551,-62.500000
7552,-62.500000
7553,-66.406250
7554,-66.406250
7555,-66.406250
7556,-66.406250
7557,-70.312500
7558,-70.312500
7559,-70.312500
7560,-70.312500
7561,-70.312500
7562,-74.218750
7563,-74.218750
7564,-74.218750
7565,-78.125000
7566,-78.125000
7567,-78.125000
7568,-78.125000
7569,-78.125000
7570,-82.031250
7571,-82.031250
7572,-82.031250
7573,-82.031250
7574,-85.937500
7575,-85.937500
7576,-85.937500
7577,-85.937500
7578,-85.937500
7579,-89.843750
7580,-89.843750
7581,-89.843750
7582,-93.750000
7583,-93.750000
7584,-93.750000
7585,-93.750000
7586,-93.750000
7587,-93.750000
7588,-97.656250
7589,-97.656250
7590,-97.656250
7591,-101.562500
7592,-101.562500
7593,-101.562500
7594,-101.562500
7595,-105.468750
7596,-105.468750
7597,-105.468750
7598,-105.468750
7599,-105.468750
7600,-105.468750
7601,-105.468750
7602,-109.375000
7603,-109.375000
7604,-109.375000
7605,-113.281250
7606,-113.281250
7607,-113.281250
7608,-113.281250
7609,-113.281250
7610,-117.187500
7611,-117.187500
7612,-117.187500
7613,-117.187500
7614,-117.187500
7615,-121.093750
7616,-121.093750
7617,-121.093750
7618,-121.093750
7619,-121.093750
7620,-121.093750
7621,-125.000000
7622,-125.000000
7623,-125.000000
7624,-125.000000
7625,-125.000000
7626,-128.906250
7627,-128.906250
7628,-128.906250
7629,-128.906250
7630,-132.812500
7631,-128.906250
7632,-132.812500
7633,-132.812500
7634,-132.812500
7635,-132.812500
7636,-132.812500
7637,-136.718750
7638,-132.812500
7639,-136.718750
7640,-136.718750
7641,-136.718750
7642,-140.625000
7643,-140.625000
7644,-140.625000
7645,-140.625000
7646,-140.625000
7647,-140.625000
7648,-140.625000
7649,-144.531250
7650,-144.531250
7651,-144.531250
7652,-144.531250
7653,-144.531250
7654,-144.531250
7655,-144.531250
7656,-144.531250
7657,-148.437500
7658,-148.437500
7659,-148.437500
7660,-148.437500
7661,-148.437500
7662,-148.437500
7663,-148.437500
7664,-152.343750
7665,-152.343750
7666,-152.343750
7667,-152.343750
7668,-152.343750
7669,-152.343750
7670,-156.250000
7671,-152.343750
7672,-156.250000
7673,-156.250000
7674,-156.250000
7675,-156.250000
7676,-156.250000
7677,-156.250000
7678,-156.250000
7679,-160.156250
7680,-160.156250
7681,-160.156250
7682,-160.156250
7683,-160.156250
7684,-160.156250
7685,-160.156250
7686,-160.156250
7687,-160.156250
7688,-164.062500
7689,-160.156250
7690,-160.156250
7691,-160.156250
7692,-164.062500
7693,-164.062500
7694,-164.062500
7695,-164.062500
7696,-164.062500
7697,-164.062500
7698,-164.062500
7699,-164.062500
7700,-164.062500
7701,-164.062500
7702,-164.062500
7703,-164.062500
7704,-164.062500
7705,-167.968750
7706,-167.968750
7707,-167.968750
7708,-167.968750
7709,-167.968750
7710,-167.968750
7711,-167.968750
7712,-167.968750
7713,-167.968750
7714,-167.968750
7715,-167.968750
7716,-167.968750
7717,-167.968750
7718,-167.968750
7719,-167.968750
7720,-167.968750
7721,-167.968750
7722,-171.875000
7723,-171.875000
7724,-171.875000
7725,-167.968750
7726,-167.968750
7727,-171.875000
7728,-171.875000
7729,-171.875000
7730,-171.875000
7731,-171.875000
7732,-171.875000
7733,-171.875000
7734,-171.875000
7735,-171.875000
7736,-171.875000
7737,-171.875000
7738,-171.875000
7739,-171.875000
7740,-171.875000
7741,-171.875000
7742,-171.875000
7743,-171.875000
7744,-171.875000
7745,-171.875000
7746,-171.875000
7747,-171.875000
7748,-171.875000
7749,-171.875000
7750,-171.875000
7751,-171.875000
7752,-171.875000
7753,-171.875000
7754,-171.875000
7755,-171.875000
7756,-171.875000
7757,-167.968750
7758,-171.875000
7759,-167.968750
7760,-167.968750
7761,-171.875000
7762,-167.968750
7763,-167.968750
7764,-171.875000
7765,-167.968750
7766,-167.968750
7767,-167.968750
7768,-167.968750
7769,-167.968750
7770,-167.968750
7771,-167.968750
7772,-167.968750
7773,-167.968750
7774,-167.968750
7775,-167.968750
7776,-167.968750
7777,-167.968750
7778,-164.062500
7779,-164.062500
7780,-164.062500
7781,-164.062500
7782,-164.062500
7783,-164.062500
7784,-164.062500
7785,-164.062500
7786,-164.062500
7787,-164.062500
7788,-164.062500
7789,-164.062500
7790,-164.062500
7791,-160.156250
7792,-160.156250
7793,-160.156250
7794,-160.156250
7795,-160.156250
7796,-160.156250
7797,-160.156250
7798,-160.156250
7799,-160.156250
7800,-160.156250
7801,-160.156250
7802,-156.250000
7803,-156.250000
7804,-156.250000
7805,-156.250000
7806,-156.250000
7807,-156.250000
7808,-156.250000
7809,-152.343750
7810,-156.250000
7811,-156.250000
7812,-152.343750
7813,-152.343750
7814,-152.343750
7815,-152.343750
7816,-152.343750
7817,-152.343750
7818,-148.437500
7819,-148.437500
7820,-148.437500
7821,-148.437500
7822,-148.437500
7823,-148.437500
7824,-148.437500
7825,-144.531250
7826,-144.531250
7827,-144.531250
7828,-144.531250
7829,-144.531250
7830,-144.531250
7831,-140.625000
7832,-140.625000
7833,-140.625000
7834,-140.625000
7835,-140.625000
7836,-140.625000
7837,-140.625000
7838,-136.718750
7839,-136.718750
7840,-136.718750
7841,-136.718750
7842,-136.718750
7843,-136.718750
7844,-132.812500
7845,-132.812500
7846,-132.812500
7847,-132.812500
7848,-132.812500
7849,-132.812500
7850,-128.906250
7851,-128.906250
7852,-128.906250
7853,-128.906250
7854,-128.906250
7855,-125.000000
7856,-125.000000
7857,-125.000000
7858,-125.000000
7859,-125.000000
7860,-125.000000
7861,-125.000000
7862,-121.093750
7863,-121.093750
7864,-121.093750
7865,-121.093750
7866,-117.187500
7867,-117.187500
7868,-117.187500
7869,-117.187500
7870,-113.281250
7871,-113.281250
7872,-113.281250
7873,-113.281250
7874,-113.281250
7875,-113.281250
7876,-109.375000
7877,-109.375000
7878,-109.375000
7879,-109.375000
7880,-109.375000
7881,-105.468750
7882,-105.468750
7883,-105.468750
7884,-105.468750
7885,-105.468750
7886,-101.562500
7887,-101.562500
7888,-101.562500
7889,-101.562500
7890,-97.656250
7891,-97.656250
7892,-97.656250
7893,-97.656250
7894,-97.656250
7895,-93.750000
7896,-93.750000
7897,-93.750000
7898,-93.750000
7899,-93.750000
7900,-89.843750
7901,-89.843750
7902,-89.843750
7903,-89.843750
7904,-85.937500
7905,-85.937500
7906,-85.937500
7907,-82.031250
7908,-82.031250
7909,-82.031250
7910,-82.031250
7911,-82.031250
7912,-78.125000
7913,-78.125000
7914,-78.125000
7915,-78.125000
7916,-74.218750
7917,-74.218750
7918,-74.218750
7919,-74.218750
7920,-70.312500
7921,-70.312500
7922,-70.312500
7923,-70.312500
7924,-66.406250
7925,-66.406250
7926,-66.406250
7927,-66.406250
7928,-66.406250
7929,-62.500000
7930,-62.500000
7931,-62.500000
7932,-58.593750
7933,-58.593750
7934,-58.593750
7935,-58.593750
7936,-54.687500
7937,-54.687500
7938,-54.687500
7939,-54.687500
7940,-54.687500
7941,-50.781250
7942,-50.781250
7943,-50.781250
7944,-46.875000
7945,-46.875000
7946,-46.875000
7947,-46.875000
7948,-42.968750
7949,-42.968750
7950,-42.968750
7951,-42.968750
7952,-42.968750
7953,-39.062500
7954,-39.062500
7955,-39.062500
7956,-35.156250
7957,-35.156250
7958,-35.156250
7959,-35.156250
7960,-35.156250
7961,-31.250000
7962,-31.250000
7963,-31.250000
7964,-27.343750
7965,-31.250000
7966,-27.343750
7967,-23.437500
7968,-23.437500
7969,-23.437500
7970,-23.437500
7971,-23.437500
7972,-23.437500
7973,-19.531250
7974,-19.531250
7975,-19.531250
7976,-19.531250
7977,-15.625000
7978,-15.625000
7979,-15.625000
7980,-15.625000
7981,-15.625000
7982,-11.718750
7983,-11.718750
7984,-11.718750
7985,-7.812500
7986,-7.812500
7987,-7.812500
7988,-7.812500
7989,-3.906250
7990,-3.906250
7991,-3.906250
7992,-3.906250
7993,0.000000
7994,0.000000
7995,0.000000
7996,0.000000
7997,0.000000
7998,3.906250
7999,3.906250
8000,3.906250
8001,7.812500
8002,7.812500
8003,7.812500
8004,7.812500
8005,7.812500
8006,11.718750
8007,11.718750
8008,11.718750
8009,11.718750
8010,15.625000
8011,15.625000
8012,15.625000
8013,15.625000
8014,19.531250
8015,19.531250
8016,19.531250
8017,19.531250
8018,19.531250
8019,23.437500
8020,23.437500
8021,23.437500
8022,23.437500
8023,27.343750
8024,27.343750
8025,27.343750
8026,27.343750
8027,31.250000
8028,31.250000
8029,31.250000
8030,31.250000
8031,31.250000
8032,35.156250
8033,35.156250
8034,35.156250
8035,35.156250
8036,39.062500
8037,39.062500
8038,39.062500
8039,39.062500
8040,39.062500
8041,42.968750
8042,42.968750
8043,42.968750
8044,42.968750
8045,42.968750
8046,46.875000
8047,46.875000
8048,46.875000
8049,46.875000
8050,50.781250
8051,50.781250
8052,50.781250
8053,50.781250
8054,54.687500
8055,54.687500
8056,54.687500
8057,54.687500
8058,54.687500
8059,54.687500
8060,54.687500
8061,58.593750
8062,58.593750
8063,58.593750
8064,62.500000
8065,58.593750
8066,62.500000
8067,62.500000
8068,62.500000
8069,62.500000
8070,66.406250
8071,66.406250
8072,66.406250
8073,66.406250
8074,66.406250
8075,66.406250
8076,70.312500
8077,70.312500
8078,70.312500
8079,70.312500
8080,70.312500
8081,70.312500
8082,74.218750
8083,74.218750
8084,74.218750
8085,74.218750
8086,74.218750
8087,78.125000
8088,78.125000
8089,78.125000
8090,78.125000
8091,78.125000
8092,82.031250
8093,82.031250
8094,82.031250
8095,82.031250
8096,82.031250
8097,82.031250
8098,85.937500
8099,85.937500
8100,85.937500
8101,85.937500
8102,85.937500
8103,85.937500
8104,85.937500
8105,89.843750
8106,89.843750
8107,89.843750
8108,89.843750
8109,89.843750
8110,89.843750
8111,89.843750
8112,93.750000
8113,93.750000
8114,93.750000
8115,93.750000
8116,93.750000
8117,93.750000
8118,93.750000
8119,97.656250
8120,97.656250
8121,97.656250
8122,97.656250
8123,97.656250
8124,97.656250
8125,97.656250
8126,97.656250
8127,97.656250
8128,101.562500
8129,101.562500
8130,101.562500
8131,101.562500
8132,101.562500
8133,101.562500
8134,101.562500
8135,105.468750
8136,105.468750
8137,105.468750
8138,105.468750
8139,105.468750
8140,105.468750
8141,105.468750
8142,105.468750
8143,105.468750
8144,105.468750
8145,105.468750
8146,109.375000
8147,109.375000
8148,109.375000
8149,109.375000
8150,109.375000
8151,109.375000
8152,109.375000
8153,109.375000
8154,109.375000
8155,109.375000
8156,113.281250
8157,113.281250
8158,113.281250
8159,113.281250
8160,113.281250
8161,113.281250
8162,117.187500
8163,113.281250
8164,113.281250
8165,117.187500
8166,117.187500
8167,117.187500
8168,117.187500
8169,117.187500
8170,117.187500
8171,117.187500
8172,117.187500
8173,117.187500
8174,117.187500
8175,117.187500
8176,117.187500
8177,117.187500
8178,121.093750
8179,121.093750
8180,121.093750
8181,121.093750
8182,121.093750
8183,121.093750
8184,121.093750
8185,121.093750
8186,121.093750
8187,121.093750
8188,121.093750
8189,121.093750
8190,121.093750
8191,125.000000
8192,125.000000
8193,125.000000
8194,125.000000
8195,125.000000
8196,125.000000
8197,125.000000
8198,125.000000
8199,125.000000
8200,125.000000
8201,125.000000
8202,125.000000
8203,125.000000
8204,125.000000
8205,125.000000
8206,125.000000
8207,125.000000
8208,125.000000
8209,125.000000
8210,128.906250
8211,128.906250
8212,128.906250
8213,125.000000
8214,125.000000
8215,125.000000
8216,128.906250
8217,125.000000
8218,128.906250
8219,128.906250
8220,128.906250
8221,128.906250
8222,128.906250
8223,128.906250
8224,128.906250
8225,125.000000
8226,128.906250
8227,125.000000
8228,128.906250
8229,128.906250
8230,128.906250
8231,128.906250
8232,128.906250
8233,128.906250
8234,128.906250
8235,128.906250
8236,128.906250
8237,128.906250
8238,128.906250
8239,128.906250
8240,128.906250
8241,128.906250
8242,128.906250
8243,128.906250
8244,128.906250
8245,128.906250
8246,128.906250
8247,128.906250
8248,128.906250
8249,125.000000
8250,128.906250
8251,128.906250
8252,128.906250
8253,128.906250
8254,128.906250
8255,128.906250
8256,128.906250
8257,128.906250
8258,125.000000
8259,125.000000
8260,125.000000
8261,125.000000
8262,125.000000
8263,125.000000
8264,125.000000
8265,125.000000
8266,125.000000
8267,125.000000
8268,125.000000
8269,125.000000
8270,125.000000
8271,125.000000
8272,125.000000
8273,125.000000
8274,125.000000
8275,125.000000
8276,125.000000
8277,125.000000
8278,125.000000
8279,121.093750
8280,121.093750
8281,121.093750
8282,125.000000
8283,121.093750
8284,121.093750
8285,121.093750
8286,121.093750
8287,121.093750
8288,121.093750
8289,121.093750
8290,121.093750
8291,121.093750
8292,121.093750
8293,121.093750
8294,121.093750
8295,121.093750
8296,121.093750
8297,121.093750
8298,117.187500
8299,121.093750
8300,121.093750
8301,117.187500
8302,117.187500
8303,117.187500
8304,117.187500
8305,117.187500
8306,117.187500
8307,117.187500
8308,117.187500
8309,117.187500
8310,117.187500
8311,117.187500
8312,117.187500
8313,113.281250
8314,113.281250
8315,113.281250
8316,113.281250
8317,113.281250
8318,113.281250
8319,113.281250
8320,113.281250
8321,113.281250
8322,113.281250
8323,109.375000
8324,109.375000
8325,109.375000
8326,109.375000
8327,109.375000
8328,109.375000
8329,109.375000
8330,109.375000
8331,109.375000
8332,109.375000
8333,105.468750
8334,105.468750
8335,105.468750
8336,105.468750
8337,105.468750
8338,105.468750
8339,105.468750
8340,101.562500
8341,101.562500
8342,101.562500
8343,101.562500
8344,101.562500
8345,101.562500
8346,101.562500
8347,101.562500
8348,97.656250
8349,97.656250
8350,97.656250
8351,97.656250
8352,97.656250
8353,97.656250
8354,97.656250
8355,97.656250
8356,93.750000
8357,93.750000
8358,93.750000
8359,93.750000
8360,93.750000
8361,93.750000
8362,93.750000
8363,89.843750
8364,89.843750
8365,89.843750
8366,89.843750
8367,89.843750
8368,89.843750
8369,85.937500
8370,85.937500
8371,85.937500
8372,85.937500
8373,82.031250
8374,85.937500
8375,82.031250
8376,82.031250
8377,82.031250
8378,82.031250
8379,82.031250
8380,82.031250
8381,78.125000
8382,78.125000
8383,78.125000
8384,78.125000
8385,78.125000
8386,78.125000
8387,74.218750
8388,74.218750
8389,74.218750
8390,74.218750
8391,74.218750
8392,70.312500
8393,70.312500
8394,70.312500
8395,70.312500
8396,70.312500
8397,66.406250
8398,66.406250
8399,66.406250
8400,66.406250
8401,66.406250
8402,62.500000
8403,62.500000
8404,62.500000
8405,62.500000
8406,62.500000
8407,62.500000
8408,62.500000
8409,58.593750
8410,58.593750
8411,58.593750
8412,58.593750
8413,54.687500
8414,54.687500
8415,54.687500
8416,54.687500
8417,54.687500
8418,50.781250
8419,50.781250
8420,50.781250
8421,50.781250
8422,46.875000
8423,46.875000
8424,46.875000
8425,46.875000
8426,46.875000
8427,42.968750
8428,42.968750
8429,42.968750
8430,42.968750
8431,42.968750
8432,39.062500
8433,39.062500
8434,39.062500
8435,39.062500
8436,35.156250
8437,35.156250
8438,35.156250
8439,35.156250
8440,35.156250
8441,31.250000
8442,31.250000
8443,31.250000
8444,31.250000
8445,27.343750
8446,27.343750
8447,27.343750
8448,27.343750
8449,27.343750
8450,23.437500
8451,23.437500
8452,23.437500
8453,19.531250
8454,19.531250
8455,19.531250
8456,19.531250
8457,19.531250
8458,15.625000
8459,15.625000
8460,15.625000
8461,15.625000
8462,11.718750
8463,11.718750
8464,11.718750
8465,11.718750
8466,7.812500
8467,7.812500
8468,7.812500
8469,7.812500
8470,7.812500
8471,3.906250
8472,3.906250
8473,3.906250
8474,3.906250
8475,0.000000
8476,0.000000
8477,0.000000
8478,0.000000
8479,-3.906250
8480,-3.906250
8481,-3.906250
8482,-7.812500
8483,-7.812500
8484,-7.812500
8485,-7.812500
8486,-11.718750
8487,-11.718750
8488,-11.718750
8489,-11.718750
8490,-11.718750
8491,-15.625000
8492,-15.625000
8493,-15.625000
8494,-15.625000
8495,-19.531250
8496,-19.531250
8497,-19.531250
8498,-19.531250
8499,-23.437500
8500,-23.437500
8501,-23.437500
8502,-27.343750
8503,-27.343750
8504,-27.343750
8505,-27.343750
8506,-31.250000
8507,-31.250000
8508,-31.250000
8509,-31.250000
8510,-35.156250
8511,-35.156250
8512,-35.156250
8513,-35.156250
8514,-39.062500
8515,-39.062500
8516,-39.062500
8517,-39.062500
8518,-42.968750
8519,-42.968750
8520,-42.968750
8521,-42.968750
8522,-46.875000
8523,-46.875000
8524,-46.875000
8525,-46.875000
8526,-50.781250
8527,-50.781250
8528,-50.781250
8529,-50.781250
8530,-54.687500
8531,-54.687500
8532,-54.687500
8533,-54.687500
8534,-58.593750
8535,-58.593750
8536,-58.593750
8537,-58.593750
8538,-62.500000
8539,-62.500000
8540,-62.500000
8541,-62.500000
8542,-66.406250
8543,-66.406250
8544,-66.406250
8545,-66.406250
8546,-66.406250
8547,-70.312500
8548,-70.312500
8549,-70.312500
8550,-70.312500
8551,-74.218750
8552,-74.218750
8553,-74.218750
8554,-74.218750
8555,-78.125000
8556,-78.125000
8557,-78.125000
8558,-78.125000
8559,-82.031250
8560,-82.031250
8561,-82.031250
8562,-82.031250
8563,-85.937500
8564,-85.937500
8565,-85.937500
8566,-85.937500
8567,-89.843750
8568,-89.843750
8569,-89.843750
8570,-89.843750
8571,-89.843750
8572,-93.750000
8573,-93.750000
8574,-93.750000
8575,-93.750000
8576,-97.656250
8577,-97.656250
8578,-97.656250
8579,-97.656250
8580,-101.562500
8581,-101.562500
8582,-101.562500
8583,-101.562500
8584,-101.562500
8585,-105.468750
8586,-105.468750
8587,-105.468750
8588,-105.468750
8589,-109.375000
8590,-109.375000
8591,-109.375000
8592,-109.375000
8593,-109.375000
8594,-109.375000
8595,-113.281250
8596,-113.281250
8597,-113.281250
8598,-113.281250
8599,-113.281250
8600,-117.187500
8601,-117.187500
8602,-117.187500
8603,-117.187500
8604,-117.187500
8605,-121.093750
8606,-121.093750
8607,-121.093750
8608,-121.093750
8609,-121.093750
8610,-125.000000
8611,-125.000000
8612,-125.000000
8613,-125.000000
8614,-125.000000
8615,-128.906250
8616,-128.906250
8617,-128.906250
8618,-128.906250
8619,-128.906250
8620,-132.812500
8621,-132.812500
8622,-132.812500
8623,-132.812500
8624,-132.812500
8625,-132.812500
8626,-136.718750
8627,-136.718750
8628,-136.718750
8629,-136.718750
8630,-136.718750
8631,-136.718750
8632,-140.625000
8633,-140.625000
8634,-140.625000
8635,-140.625000
8636,-140.625000
8637,-144.531250
8638,-140.625000
8639,-144.531250
8640,-144.531250
8641,-144.531250
8642,-144.531250
8643,-144.531250
8644,-144.531250
8645,-148.437500
8646,-148.437500
8647,-148.437500
8648,-148.437500
8649,-148.437500
8650,-148.437500
8651,-152.343750
8652,-148.437500
8653,-152.343750
8654,-152.343750
8655,-152.343750
8656,-152.343750
8657,-152.343750
8658,-152.343750
8659,-152.343750
8660,-156.250000
8661,-156.250000
8662,-156.250000
8663,-156.250000
8664,-156.250000
8665,-156.250000
8666,-156.250000
8667,-156.250000
8668,-156.250000
8669,-156.250000
8670,-160.156250
8671,-160.156250
8672,-160.156250
8673,-160.156250
8674,-160.156250
8675,-160.156250
8676,-160.156250
8677,-160.156250
8678,-160.156250
8679,-164.062500
8680,-164.062500
8681,-164.062500
8682,-164.062500
8683,-164.062500
8684,-164.062500
8685,-164.062500
8686,-164.062500
8687,-164.062500
8688,-164.062500
8689,-164.062500
8690,-164.062500
8691,-164.062500
8692,-164.062500
8693,-164.062500
8694,-167.968750
8695,-167.968750
8696,-167.968750
8697,-167.968750
8698,-167.968750
8699,-167.968750
8700,-167.968750
8701,-167.968750
8702,-167.968750
8703,-167.968750
8704,-167.968750
8705,-167.968750
8706,-167.968750
8707,-167.968750
8708,-167.968750
8709,-167.968750
8710,-167.968750
8711,-167.968750
8712,-167.968750
8713,-167.968750
8714,-167.968750
8715,-167.968750
8716,-167.968750
8717,-167.968750
8718,-167.968750
8719,-171.875000
8720,-171.875000
8721,-167.968750
8722,-167.968750
8723,-167.968750
8724,-167.968750
8725,-171.875000
8726,-171.875000
8727,-171.875000
8728,-171.875000
8729,-167.968750
8730,-171.875000
8731,-167.968750
8732,-171.875000
8733,-167.968750
8734,-171.875000
8735,-167.968750
8736,-167.968750
8737,-171.875000
8738,-171.875000
8739,-171.875000
8740,-171.875000
8741,-167.968750
8742,-167.968750
8743,-167.968750
8744,-167.968750
8745,-167.968750
8746,-167.968750
8747,-167.968750
8748,-167.968750
8749,-167.968750
8750,-167.968750
8751,-167.968750
8752,-167.968750
8753,-167.968750
8754,-167.968750
8755,-167.968750
8756,-167.968750
8757,-167.968750
8758,-167.968750
8759,-167.968750
8760,-167.968750
8761,-167.968750
8762,-167.968750
8763,-167.968750
8764,-167.968750
8765,-167.968750
8766,-164.062500
8767,-164.062500
8768,-164.062500
8769,-164.062500
8770,-164.062500
8771,-164.062500
8772,-164.062500
8773,-164.062500
8774,-164.062500
8775,-164.062500
8776,-164.062500
8777,-164.062500
8778,-164.062500
8779,-164.062500
8780,-160.156250
8781,-160.156250
8782,-160.156250
8783,-160.156250
8784,-160.156250
8785,-160.156250
8786,-160.156250
8787,-160.156250
8788,-160.156250
8789,-156.250000
8790,-156.250000
8791,-160.156250
8792,-156.250000
8793,-156.250000
8794,-156.250000
8795,-156.250000
8796,-156.250000
8797,-156.250000
8798,-152.343750
8799,-152.343750
8800,-152.343750
8801,-152.343750
8802,-152.343750
8803,-152.343750
8804,-152.343750
8805,-152.343750
8806,-152.343750
8807,-152.343750
8808,-148.437500
8809,-148.437500
8810,-148.437500
8811,-148.437500
8812,-148.437500
8813,-148.437500
8814,-144.531250
8815,-144.531250
8816,-144.531250
8817,-144.531250
8818,-144.531250
8819,-144.531250
8820,-144.531250
8821,-140.625000
8822,-140.625000
8823,-140.625000
8824,-140.625000
8825,-140.625000
8826,-140.625000
8827,-136.718750
8828,-136.718750
8829,-136.718750
8830,-136.718750
8831,-136.718750
8832,-136.718750
8833,-132.812500
8834,-132.812500
8835,-132.812500
8836,-132.812500
8837,-132.812500
8838,-132.812500
8839,-128.906250
8840,-128.906250
8841,-128.906250
8842,-128.906250
8843,-128.906250
8844,-128.906250
8845,-125.000000
8846,-125.000000
8847,-125.000000
8848,-125.000000
8849,-121.093750
8850,-121.093750
8851,-121.093750
8852,-121.093750
8853,-121.093750
8854,-121.093750
8855,-117.187500
8856,-117.187500
8857,-117.187500
8858,-117.187500
8859,-117.187500
8860,-113.281250
8861,-113.281250
8862,-113.281250
8863,-113.281250
8864,-113.281250
8865,-109.375000
8866,-109.375000
8867,-109.375000
8868,-109.375000
8869,-109.375000
8870,-105.468750
8871,-105.468750
8872,-105.468750
8873,-105.468750
8874,-101.562500
8875,-101.562500
8876,-101.562500
8877,-101.562500
8878,-101.562500
8879,-101.562500
8880,-97.656250
8881,-97.656250
8882,-97.656250
8883,-93.750000
8884,-93.750000
8885,-93.750000
8886,-93.750000
8887,-93.750000
8888,-89.843750
8889,-89.843750
8890,-89.843750
8891,-89.843750
8892,-89.843750
8893,-85.937500
8894,-85.937500
8895,-85.937500
8896,-85.937500
8897,-82.031250
8898,-82.031250
8899,-82.031250
8900,-82.031250
8901,-82.031250
8902,-78.125000
8903,-78.125000
8904,-78.125000
8905,-78.125000
8906,-74.218750
8907,-74.218750
8908,-74.218750
8909,-74.218750
8910,-70.312500
8911,-70.312500
8912,-70.312500
8913,-70.312500
8914,-70.312500
8915,-66.406250
8916,-66.406250
8917,-66.406250
8918,-62.500000
8919,-62.500000
8920,-62.500000
8921,-62.500000
8922,-62.500000
8923,-58.593750
8924,-58.593750
8925,-58.593750
8926,-58.593750
8927,-54.687500
8928,-54.687500
8929,-54.687500
8930,-54.687500
8931,-50.781250
8932,-50.781250
8933,-50.781250
8934,-50.781250
8935,-46.875000
8936,-46.875000
8937,-46.875000
8938,-46.875000
8939,-42.968750
8940,-42.968750
8941,-42.968750
8942,-42.968750
8943,-39.062500
8944,-39.062500
8945,-39.062500
8946,-39.062500
8947,-35.156250
8948,-35.156250
8949,-35.156250
8950,-35.156250
8951,-35.156250
8952,-31.250000
8953,-31.250000
8954,-31.250000
8955,-27.343750
8956,-27.343750
8957,-27.343750
8958,-27.343750
8959,-23.437500
8960,-23.437500
8961,-23.437500
8962,-23.437500
8963,-19.531250
8964,-19.531250
8965,-19.531250
8966,-19.531250
8967,-15.625000
8968,-15.625000
8969,-15.625000
8970,-15.625000
8971,-11.718750
8972,-11.718750
8973,-11.718750
8974,-11.718750
8975,-7.812500
8976,-7.812500
8977,-7.812500
8978,-7.812500
8979,-3.906250
8980,-3.906250
8981,-3.906250
8982,-3.906250
8983,0.000000
8984,0.000000
8985,0.000000
8986,0.000000
8987,3.906250
8988,3.906250
8989,3.906250
8990,3.906250
8991,7.812500
8992,7.812500
8993,7.812500
8994,7.812500
8995,11.718750
8996,11.718750
8997,11.718750
8998,11.718750
8999,11.718750
9000,15.625000
9001,15.625000
9002,15.625000
9003,15.625000
9004,19.531250
9005,19.531250
9006,19.531250
9007,19.531250
9008,23.437500
9009,23.437500
9010,23.437500
9011,23.437500
9012,23.437500
9013,27.343750
9014,27.343750
9015,27.343750
9016,27.343750
9017,31.250000
9018,31.250000
9019,31.250000
9020,31.250000
9021,31.250000
9022,35.156250
9023,35.156250
9024,35.156250
9025,35.156250
9026,39.062500
9027,39.062500
9028,39.062500
9029,39.062500
9030,39.062500
9031,39.062500
9032,42.968750
9033,42.968750
9034,42.968750
9035,42.968750
9036,46.875000
9037,46.875000
9038,46.875000
9039,46.875000
9040,46.875000
9041,50.781250
9042,50.781250
9043,50.781250
9044,50.781250
9045,50.781250
9046,54.687500
9047,54.687500
9048,54.687500
9049,54.687500
9050,54.687500
9051,54.687500
9052,58.593750
9053,58.593750
9054,58.593750
9055,58.593750
9056,62.500000
9057,62.500000
9058,62.500000
9059,62.500000
9060,62.500000
9061,66.406250
9062,66.406250
9063,66.406250
9064,66.406250
9065,66.406250
9066,70.312500
9067,70.312500
9068,70.312500
9069,70.312500
9070,70.312500
9071,70.312500
9072,70.312500
9073,74.218750
9074,74.218750
9075,74.218750
9076,74.218750
9077,74.218750
9078,78.125000
9079,78.125000
9080,78.125000
9081,78.125000
9082,78.125000
9083,82.031250
9084,82.031250
9085,82.031250
9086,82.031250
9087,82.031250
9088,85.937500
9089,85.937500
9090,85.937500
9091,85.937500
9092,85.937500
9093,85.937500
9094,85.937500
9095,85.937500
9096,89.843750
9097,89.843750
9098,89.843750
9099,89.843750
9100,89.843750
9101,89.843750
9102,89.843750
9103,93.750000
9104,93.750000
9105,93.750000
9106,93.750000
9107,93.750000
9108,93.750000
9109,93.750000
9110,97.656250
9111,97.656250
9112,97.656250
9113,97.656250
9114,97.656250
9115,97.656250
9116,97.656250
9117,101.562500
9118,101.562500
9119,101.562500
9120,101.562500
9121,101.562500
9122,101.562500
9123,101.562500
9124,101.562500
9125,105.468750
9126,105.468750
9127,105.468750
9128,105.468750
9129,105.468750
9130,105.468750
9131,105.468750
9132,109.375000
9133,109.375000
9134,109.375000
9135,109.375000
9136,109.375000
9137,109.375000
9138,109.375000
9139,109.375000
9140,109.375000
9141,109.375000
9142,113.281250
9143,113.281250
9144,113.281250
9145,113.281250
9146,113.281250
9147,113.281250
9148,113.281250
9149,113.281250
9150,113.281250
9151,113.281250
9152,113.281250
9153,117.187500
9154,117.187500
9155,117.187500
9156,117.187500
9157,117.187500
9158,117.187500
9159,117.187500
9160,117.187500
9161,117.187500
9162,117.187500
9163,117.187500
9164,117.187500
9165,121.093750
9166,117.187500
9167,117.187500
9168,121.093750
9169,121.093750
9170,121.093750
9171,121.093750
9172,121.093750
9173,121.093750
9174,121.093750
9175,121.093750
9176,121.093750
9177,121.093750
9178,121.093750
9179,121.093750
9180,121.093750
9181,121.093750
9182,121.093750
9183,121.093750
9184,121.093750
9185,125.000000
9186,125.000000
9187,125.000000
9188,125.000000
9189,125.000000
9190,125.000000
9191,125.000000
9192,125.000000
9193,125.000000
9194,125.000000
9195,125.000000
9196,125.000000
9197,125.000000
9198,125.000000
9199,125.000000
9200,125.000000
9201,125.000000
9202,125.000000
9203,128.906250
9204,125.000000
9205,125.000000
9206,128.906250
9207,125.000000
9208,128.906250
9209,128.906250
9210,128.906250
9211,125.000000
9212,128.906250
9213,128.906250
9214,128.906250
9215,125.000000
9216,128.906250
9217,125.000000
9218,128.906250
9219,128.906250
9220,128.906250
9221,128.906250
9222,128.906250
9223,128.906250
9224,128.906250
9225,128.906250
9226,128.906250
9227,128.906250
9228,128.906250
9229,128.906250
9230,128.906250
9231,128.906250
9232,128.906250
9233,128.906250
9234,128.906250
9235,128.906250
9236,128.906250
9237,128.906250
9238,128.906250
9239,128.906250
9240,128.906250
9241,128.906250
9242,128.906250
9243,128.906250
9244,128.906250
9245,125.000000
9246,125.000000
9247,125.000000
9248,128.906250
9249,125.000000
9250,125.000000
9251,125.000000
9252,125.000000
9253,125.000000
9254,125.000000
9255,125.000000
9256,125.000000
9257,125.000000
9258,125.000000
9259,125.000000
9260,125.000000
9261,125.000000
9262,125.000000
9263,125.000000
9264,125.000000
9265,125.000000
9266,125.000000
9267,125.000000
9268,125.000000
9269,125.000000
9270,125.000000
9271,125.000000
9272,125.000000
9273,121.093750
9274,121.093750
9275,121.093750
9276,121.093750
9277,121.093750
9278,121.093750
9279,121.093750
9280,121.093750
9281,121.093750
9282,121.093750
9283,121.093750
9284,121.093750
9285,121.093750
9286,121.093750
9287,121.093750
9288,121.093750
9289,117.187500
9290,117.187500
9291,117.187500
9292,117.187500
9293,117.187500
9294,117.187500
9295,117.187500
9296,117.187500
9297,117.187500
9298,117.187500
9299,117.187500
9300,117.187500
9301,113.281250
9302,113.281250
9303,117.187500
9304,113.281250
9305,113.281250
9306,109.375000
9307,113.281250
9308,113.281250
9309,113.281250
9310,113.281250
9311,109.375000
9312,109.375000
9313,109.375000
9314,109.375000
9315,109.375000
9316,109.375000
9317,109.375000
9318,109.375000
9319,109.375000
9320,109.375000
9321,105.468750
9322,105.468750
9323,105.468750
9324,105.468750
9325,105.468750
9326,105.468750
9327,105.468750
9328,105.468750
9329,105.468750
9330,101.562500
9331,101.562500
9332,101.562500
9333,101.562500
9334,101.562500
9335,101.562500
9336,101.562500
9337,97.656250
9338,97.656250
9339,97.656250
9340,97.656250
9341,97.656250
9342,97.656250
9343,97.656250
9344,97.656250
9345,93.750000
9346,93.750000
9347,93.750000
9348,93.750000
9349,93.750000
9350,93.750000
9351,93.750000
9352,89.843750
9353,89.843750
9354,89.843750
9355,89.843750
9356,89.843750
9357,89.843750
9358,85.937500
9359,85.937500
9360,85.937500
9361,85.937500
9362,85.937500
9363,85.937500
9364,85.937500
9365,85.937500
9366,82.031250
9367,82.031250
9368,82.031250
9369,82.031250
9370,82.031250
9371,82.031250
9372,78.125000
9373,78.125000
9374,78.125000
9375,78.125000
9376,74.218750
9377,74.218750
9378,74.218750
9379,74.218750
9380,74.218750
9381,74.218750
9382,70.312500
9383,70.312500
9384,70.312500
9385,70.312500
9386,70.312500
9387,70.312500
9388,66.406250
9389,66.406250
9390,66.406250
9391,66.406250
9392,66.406250
9393,62.500000
9394,62.500000
9395,62.500000
9396,62.500000
9397,58.593750
9398,58.593750
9399,58.593750
9400,58.593750
9401,58.593750
9402,54.687500
9403,54.687500
9404,54.687500
9405,54.687500
9406,54.687500
9407,54.687500
9408,50.781250
9409,50.781250
9410,50.781250
9411,50.781250
9412,46.875000
9413,46.875000
9414,46.875000
9415,46.875000
9416,46.875000
9417,42.968750
9418,42.968750
9419,42.968750
9420,42.968750
9421,42.968750
9422,39.062500
9423,39.062500
9424,39.062500
9425,39.062500
9426,35.156250
9427,35.156250
9428,35.156250
9429,35.156250
9430,35.156250
9431,31.250000
9432,31.250000
9433,31.250000
9434,31.250000
9435,27.343750
9436,27.343750
9437,27.343750
9438,23.437500
9439,23.437500
9440,23.437500
9441,23.437500
9442,23.437500
9443,19.531250
9444,19.531250
9445,19.531250
9446,19.531250
9447,19.531250
9448,15.625000
9449,15.625000
9450,15.625000
9451,11.718750
9452,11.718750
9453,11.718750
9454,11.718750
9455,11.718750
9456,11.718750
9457,7.812500
9458,7.812500
9459,7.812500
9460,3.906250
9461,3.906250
9462,3.906250
9463,3.906250
9464,0.000000
9465,0.000000
9466,0.000000
9467,0.000000
9468,0.000000
9469,-3.906250
9470,-3.906250
9471,-3.906250
9472,-3.906250
9473,-7.812500
9474,-7.812500
9475,-7.812500
9476,-7.812500
9477,-11.718750
9478,-11.718750
9479,-11.718750
9480,-15.625000
9481,-11.718750
9482,-15.625000
9483,-15.625000
9484,-15.625000
9485,-19.531250
9486,-19.531250
9487,-19.531250
9488,-19.531250
9489,-23.437500
9490,-23.437500
9491,-23.437500
9492,-23.437500
9493,-27.343750
9494,-27.343750
9495,-27.343750
9496,-27.343750
9497,-31.250000
9498,-31.250000
9499,-31.250000
9500,-35.156250
9501,-35.156250
9502,-35.156250
9503,-35.156250
9504,-39.062500
9505,-39.062500
9506,-39.062500
9507,-39.062500
9508,-39.062500
9509,-42.968750
9510,-42.968750
9511,-42.968750
9512,-46.875000
9513,-46.875000
9514,-46.875000
9515,-46.875000
9516,-50.781250
9517,-50.781250
9518,-50.781250
9519,-50.781250
9520,-50.781250
9521,-54.687500
9522,-54.687500
9523,-54.687500
9524,-54.687500
9525,-54.687500
9526,-58.593750
9527,-58.593750
9528,-58.593750
9529,-62.500000
9530,-62.500000
9531,-62.500000
9532,-66.406250
9533,-66.406250
9534,-66.406250
9535,-66.406250
9536,-70.312500
9537,-70.312500
9538,-70.312500
9539,-70.312500
9540,-70.312500
9541,-74.218750
9542,-74.218750
9543,-74.218750
9544,-74.218750
9545,-74.218750
9546,-78.125000
9547,-78.125000
9548,-78.125000
9549,-82.031250
9550,-82.031250
9551,-82.031250
9552,-82.031250
9553,-82.031250
9554,-85.937500
9555,-85.937500
9556,-85.937500
9557,-89.843750
9558,-89.843750
9559,-89.843750
9560,-89.843750
9561,-89.843750
9562,-93.750000
9563,-93.750000
9564,-93.750000
9565,-93.750000
9566,-93.750000
9567,-97.656250
9568,-97.656250
9569,-97.656250
9570,-97.656250
9571,-101.562500
9572,-101.562500
9573,-101.562500
9574,-101.562500
9575,-101.562500
9576,-105.468750
9577,-105.468750
9578,-105.468750
9579,-109.375000
9580,-109.375000
9581,-109.375000
9582,-109.375000
9583,-109.375000
9584,-109.375000
9585,-113.281250
9586,-113.281250
9587,-113.281250
9588,-113.281250
9589,-117.187500
9590,-117.187500
9591,-117.187500
9592,-117.187500
9593,-117.187500
9594,-117.187500
9595,-121.093750
9596,-121.093750
9597,-121.093750
9598,-121.093750
9599,-121.093750
9600,-125.000000
9601,-125.000000
9602,-125.000000
9603,-128.906250
9604,-125.000000
9605,-128.906250
9606,-128.906250
9607,-128.906250
9608,-128.906250
9609,-128.906250
9610,-128.906250
9611,-132.812500
9612,-132.812500
9613,-132.812500
9614,-132.812500
9615,-132.812500
9616,-132.812500
9617,-136.718750
9618,-136.718750
9619,-136.718750
9620,-136.718750
9621,-136.718750
9622,-140.625000
9623,-140.625000
9624,-140.625000
9625,-140.625000
9626,-140.625000
9627,-140.625000
9628,-140.625000
9629,-144.531250
9630,-144.531250
9631,-144.531250
9632,-144.531250
9633,-144.531250
9634,-144.531250
9635,-144.531250
9636,-148.437500
9637,-148.437500
9638,-148.437500
9639,-148.437500
9640,-148.437500
9641,-148.437500
9642,-148.437500
9643,-152.343750
9644,-152.343750
9645,-152.343750
9646,-152.343750
9647,-152.343750
9648,-152.343750
9649,-152.343750
9650,-152.343750
9651,-152.343750
9652,-156.250000
9653,-156.250000
9654,-156.250000
9655,-156.250000
9656,-156.250000
9657,-156.250000
9658,-160.156250
9659,-160.156250
9660,-160.156250
9661,-160.156250
9662,-160.156250
9663,-160.156250
9664,-160.156250
9665,-160.156250
9666,-160.156250
9667,-160.156250
9668,-160.156250
9669,-164.062500
9670,-160.156250
9671,-164.062500
9672,-164.062500
9673,-164.062500
9674,-164.062500
9675,-164.062500
9676,-164.062500
9677,-164.062500
9678,-164.062500
9679,-164.062500
9680,-167.968750
9681,-164.062500
9682,-164.062500
9683,-167.968750
9684,-164.062500
9685,-167.968750
9686,-167.968750
9687,-167.968750
9688,-167.968750
9689,-167.968750
9690,-167.968750
9691,-167.968750
9692,-167.968750
9693,-167.968750
9694,-167.968750
9695,-167.968750
9696,-167.968750
9697,-167.968750
9698,-167.968750
9699,-167.968750
9700,-167.968750
9701,-171.875000
9702,-167.968750
9703,-171.875000
9704,-171.875000
9705,-171.875000
9706,-171.875000
9707,-171.875000
9708,-171.875000
9709,-171.875000
9710,-171.875000
9711,-171.875000
9712,-171.875000
9713,-171.875000
9714,-171.875000
9715,-171.875000
9716,-171.875000
9717,-171.875000
9718,-171.875000
9719,-171.875000
9720,-171.875000
9721,-171.875000
9722,-171.875000
9723,-171.875000
9724,-171.875000
9725,-171.875000
9726,-171.875000
9727,-171.875000
9728,-171.875000
9729,-171.875000
9730,-171.875000
9731,-171.875000
9732,-171.875000
9733,-171.875000
9734,-171.875000
9735,-167.968750
9736,-171.875000
9737,-171.875000
9738,-167.968750
9739,-167.968750
9740,-167.968750
9741,-167.968750
9742,-167.968750
9743,-167.968750
9744,-167.968750
9745,-167.968750
9746,-167.968750
9747,-167.968750
9748,-167.968750
9749,-167.968750
9750,-167.968750
9751,-167.968750
9752,-167.968750
9753,-167.968750
9754,-167.968750
9755,-164.062500
9756,-164.062500
9757,-164.062500
9758,-164.062500
9759,-164.062500
9760,-164.062500
9761,-164.062500
9762,-164.062500
9763,-164.062500
9764,-164.062500
9765,-164.062500
9766,-164.062500
9767,-164.062500
9768,-164.062500
9769,-164.062500
9770,-160.156250
9771,-160.156250
9772,-160.156250
9773,-160.156250
9774,-160.156250
9775,-160.156250
9776,-160.156250
9777,-160.156250
9778,-160.156250
9779,-160.156250
9780,-160.156250
9781,-160.156250
9782,-156.250000
9783,-156.250000
9784,-156.250000
9785,-156.250000
9786,-156.250000
9787,-156.250000
9788,-156.250000
9789,-152.343750
9790,-152.343750
9791,-152.343750
9792,-152.343750
9793,-152.343750
9794,-152.343750
9795,-152.343750
9796,-148.437500
9797,-148.437500
9798,-148.437500
9799,-148.437500
9800,-148.437500
9801,-148.437500
9802,-148.437500
9803,-148.437500
9804,-144.531250
9805,-144.531250
9806,-144.531250
9807,-144.531250
9808,-144.531250
9809,-144.531250
9810,-144.531250
9811,-144.531250
9812,-140.625000
9813,-140.625000
9814,-140.625000
9815,-140.625000
9816,-140.625000
9817,-140.625000
9818,-140.625000
9819,-136.718750
9820,-136.718750
9821,-136.718750
9822,-136.718750
9823,-136.718750
9824,-132.812500
9825,-132.812500
9826,-132.812500
9827,-132.812500
9828,-132.812500
9829,-132.812500
9830,-128.906250
9831,-128.906250
9832,-128.906250
9833,-128.906250
9834,-128.906250
9835,-125.000000
9836,-125.000000
9837,-125.000000
9838,-125.000000
9839,-125.000000
9840,-125.000000
9841,-121.093750
9842,-121.093750
9843,-121.093750
9844,-121.093750
9845,-121.093750
9846,-117.187500
9847,-117.187500
9848,-117.187500
9849,-117.187500
9850,-117.187500
9851,-113.281250
9852,-113.281250
9853,-113.281250
9854,-113.281250
9855,-109.375000
9856,-109.375000
9857,-109.375000
9858,-109.375000
9859,-109.375000
9860,-105.468750
9861,-105.468750
9862,-105.468750
9863,-105.468750
9864,-101.562500
9865,-101.562500
9866,-101.562500
9867,-101.562500
9868,-101.562500
9869,-101.562500
9870,-97.656250
9871,-97.656250
9872,-97.656250
9873,-97.656250
9874,-93.750000
9875,-93.750000
9876,-93.750000
9877,-93.750000
9878,-89.843750
9879,-89.843750
9880,-89.843750
9881,-89.843750
9882,-89.843750
9883,-85.937500
9884,-85.937500
9885,-85.937500
9886,-85.937500
9887,-82.031250
9888,-82.031250
9889,-82.031250
9890,-82.031250
9891,-78.125000
9892,-78.125000
9893,-78.125000
9894,-78.125000
9895,-78.125000
9896,-74.218750
9897,-74.218750
9898,-74.218750
9899,-74.218750
9900,-70.312500
9901,-70.312500
9902,-70.312500
9903,-70.312500
9904,-66.406250
9905,-66.406250
9906,-66.406250
9907,-66.406250
9908,-62.500000
9909,-62.500000
9910,-62.500000
9911,-62.500000
9912,-58.593750
9913,-58.593750
9914,-58.593750
9915,-58.593750
9916,-54.687500
9917,-54.687500
9918,-54.687500
9919,-54.687500
9920,-54.687500
9921,-50.781250
9922,-50.781250
9923,-50.781250
9924,-50.781250
9925,-46.875000
9926,-46.875000
9927,-46.875000
9928,-46.875000
9929,-42.968750
9930,-42.968750
9931,-42.968750
9932,-39.062500
9933,-39.062500
9934,-39.062500
9935,-39.062500
9936,-39.062500
9937,-35.156250
9938,-35.156250
9939,-35.156250
9940,-31.250000
9941,-31.250000
9942,-31.250000
9943,-31.250000
9944,-31.250000
9945,-27.343750
9946,-27.343750
9947,-27.343750
9948,-23.437500
9949,-23.437500
9950,-23.437500
9951,-23.437500
9952,-19.531250
9953,-19.531250
9954,-19.531250
9955,-19.531250
9956,-15.625000
9957,-15.625000
9958,-15.625000
9959,-15.625000
9960,-11.718750
9961,-11.718750
9962,-11.718750
9963,-11.718750
9964,-7.812500
9965,-7.812500
9966,-7.812500
9967,-7.812500
9968,-7.812500
9969,-3.906250
9970,-3.906250
9971,-3.906250
9972,-3.906250
9973,0.000000
9974,0.000000
9975,0.000000
9976,0.000000
9977,3.906250
9978,3.906250
9979,3.906250
9980,3.906250
9981,7.812500
9982,7.812500
9983,7.812500
9984,7.812500
9985,11.718750
9986,11.718750
9987,11.718750
9988,11.718750
9989,15.625000
9990,15.625000
9991,15.625000
9992,15.625000
9993,15.625000
9994,19.531250
9995,19.531250
9996,19.531250
9997,19.531250
9998,23.437500
9999,23.437500
10000,23.437500
