Channel              :,CH1
Frequency            :,1.012kHz
Period               :,0.989ms
PK-PK                :,50.78mV
Probe attenuation    :,1X
Voltage per ADC value:,0.244141mV
Time interval        :,1.00000us

index,CH1_Voltage(mV)
1,-27.343750
2,-27.343750
3,-27.343750
4,-27.343750
5,-27.343750
6,-27.343750
7,-27.343750
8,-27.343750
9,-27.343750
10,-23.437500
11,-23.437500
12,-23.437500
13,-23.437500
14,-23.437500
15,-23.437500
16,-23.437500
17,-23.437500
18,-23.437500
19,-23.437500
20,-23.437500
21,-23.437500
22,-23.437500
23,-23.437500
24,-23.437500
25,-23.437500
26,-23.437500
27,-23.437500
28,-23.437500
29,-23.437500
30,-23.437500
31,-23.437500
32,-19.531250
33,-23.437500
34,-23.437500
35,-23.437500
36,-23.437500
37,-23.437500
38,-19.531250
39,-23.437500
40,-23.437500
41,-19.531250
42,-19.531250
43,-19.531250
44,-19.531250
45,-19.531250
46,-19.531250
47,-19.531250
48,-19.531250
49,-19.531250
50,-19.531250
51,-19.531250
52,-19.531250
53,-19.531250
54,-19.531250
55,-19.531250
56,-19.531250
57,-19.531250
58,-19.531250
59,-19.531250
60,-19.531250
61,-19.531250
62,-15.625000
63,-15.625000
64,-15.625000
65,-15.625000
66,-15.625000
67,-15.625000
68,-15.625000
69,-15.625000
70,-15.625000
71,-15.625000
72,-15.625000
73,-15.625000
74,-15.625000
75,-15.625000
76,-15.625000
77,-15.625000
78,-15.625000
79,-15.625000
80,-15.625000
81,-15.625000
82,-15.625000
83,-15.625000
84,-15.625000
85,-15.625000
86,-11.718750
87,-11.718750
88,-11.718750
89,-11.718750
90,-11.718750
91,-11.718750
92,-11.718750
93,-11.718750
94,-11.718750
95,-11.718750
96,-11.718750
97,-11.718750
98,-11.718750
99,-11.718750
100,-11.718750
101,-11.718750
102,-11.718750
103,-11.718750
104,-11.718750
105,-11.718750
106,-7.812500
107,-7.812500
108,-7.812500
109,-7.812500
110,-7.812500
111,-11.718750
112,-7.812500
113,-7.812500
114,-7.812500
115,-7.812500
116,-7.812500
117,-7.812500
118,-7.812500
119,-7.812500
120,-7.812500
121,-7.812500
122,-7.812500
123,-7.812500
124,-7.812500
125,-7.812500
126,-7.812500
127,-7.812500
128,-7.812500
129,-7.812500
130,-7.812500
131,-7.812500
132,-3.906250
133,-3.906250
134,-3.906250
135,-3.906250
136,-3.906250
137,-3.906250
138,-3.906250
139,-3.906250
140,-3.906250
141,-3.906250
142,-3.906250
143,-3.906250
144,-3.906250
145,-3.906250
146,-3.906250
147,-3.906250
148,-3.906250
149,-3.906250
150,-3.906250
151,-3.906250
152,-3.906250
153,-3.906250
154,-3.906250
155,0.000000
156,-3.906250
157,0.000000
158,0.000000
159,-3.906250
160,0.000000
161,-3.906250
162,0.000000
163,0.000000
164,0.000000
165,0.000000
166,0.000000
167,0.000000
168,0.000000
169,0.000000
170,0.000000
171,0.000000
172,0.000000
173,0.000000
174,0.000000
175,0.000000
176,0.000000
177,0.000000
178,0.000000
179,0.000000
180,0.000000
181,0.000000
182,0.000000
183,0.000000
184,0.000000
185,0.000000
186,3.906250
187,3.906250
188,3.906250
189,3.906250
190,3.906250
191,3.906250
192,3.906250
193,3.906250
194,3.906250
195,3.906250
196,3.906250
197,3.906250
198,3.906250
199,3.906250
200,3.906250
201,3.906250
202,3.906250
203,3.906250
204,3.906250
205,3.906250
206,3.906250
207,3.906250
208,3.906250
209,3.906250
210,3.906250
211,3.906250
212,3.906250
213,3.906250
214,3.906250
215,3.906250
216,3.906250
217,3.906250
218,7.812500
219,7.812500
220,7.812500
221,7.812500
222,7.812500
223,7.812500
224,7.812500
225,7.812500
226,7.812500
227,7.812500
228,7.812500
229,7.812500
230,7.812500
231,7.812500
232,7.812500
233,7.812500
234,7.812500
235,7.812500
236,7.812500
237,7.812500
238,7.812500
239,7.812500
240,7.812500
241,7.812500
242,7.812500
243,7.812500
244,7.812500
245,7.812500
246,7.812500
247,7.812500
248,7.812500
249,7.812500
250,7.812500
251,7.812500
252,7.812500
253,7.812500
254,7.812500
255,7.812500
256,7.812500
257,7.812500
258,7.812500
259,11.718750
260,11.718750
261,11.718750
262,7.812500
263,7.812500
264,11.718750
265,11.718750
266,7.812500
267,11.718750
268,11.718750
269,11.718750
270,11.718750
271,11.718750
272,7.812500
273,11.718750
274,11.718750
275,11.718750
276,11.718750
277,11.718750
278,11.718750
279,11.718750
280,11.718750
281,11.718750
282,11.718750
283,11.718750
284,11.718750
285,11.718750
286,11.718750
287,11.718750
288,11.718750
289,11.718750
290,11.718750
291,11.718750
292,11.718750
293,11.718750
294,11.718750
295,11.718750
296,11.718750
297,11.718750
298,11.718750
299,11.718750
300,11.718750
301,11.718750
302,11.718750
303,11.718750
304,11.718750
305,11.718750
306,11.718750
307,11.718750
308,11.718750
309,11.718750
310,11.718750
311,11.718750
312,11.718750
313,11.718750
314,11.718750
315,11.718750
316,11.718750
317,11.718750
318,11.718750
319,11.718750
320,11.718750
321,11.718750
322,11.718750
323,11.718750
324,11.718750
325,11.718750
326,11.718750
327,11.718750
328,11.718750
329,11.718750
330,11.718750
331,11.718750
332,11.718750
333,11.718750
334,11.718750
335,11.718750
336,11.718750
337,11.718750
338,11.718750
339,11.718750
340,11.718750
341,11.718750
342,11.718750
343,11.718750
344,11.718750
345,11.718750
346,11.718750
347,11.718750
348,11.718750
349,11.718750
350,15.625000
351,15.625000
352,11.718750
353,11.718750
354,11.718750
355,11.718750
356,11.718750
357,11.718750
358,11.718750
359,11.718750
360,11.718750
361,11.718750
362,11.718750
363,11.718750
364,11.718750
365,11.718750
366,11.718750
367,11.718750
368,11.718750
369,11.718750
370,11.718750
371,11.718750
372,11.718750
373,11.718750
374,11.718750
375,11.718750
376,11.718750
377,11.718750
378,11.718750
379,11.718750
380,11.718750
381,11.718750
382,11.718750
383,11.718750
384,11.718750
385,11.718750
386,11.718750
387,11.718750
388,7.812500
389,7.812500
390,11.718750
391,7.812500
392,7.812500
393,7.812500
394,11.718750
395,7.812500
396,11.718750
397,7.812500
398,7.812500
399,7.812500
400,7.812500
401,7.812500
402,7.812500
403,7.812500
404,7.812500
405,7.812500
406,7.812500
407,7.812500
408,7.812500
409,7.812500
410,7.812500
411,7.812500
412,7.812500
413,7.812500
414,7.812500
415,7.812500
416,7.812500
417,7.812500
418,7.812500
419,7.812500
420,7.812500
421,7.812500
422,7.812500
423,7.812500
424,7.812500
425,7.812500
426,7.812500
427,7.812500
428,7.812500
429,7.812500
430,7.812500
431,7.812500
432,7.812500
433,7.812500
434,7.812500
435,3.906250
436,3.906250
437,3.906250
438,3.906250
439,3.906250
440,3.906250
441,3.906250
442,7.812500
443,3.906250
444,3.906250
445,3.906250
446,3.906250
447,3.906250
448,3.906250
449,3.906250
450,3.906250
451,3.906250
452,3.906250
453,3.906250
454,3.906250
455,3.906250
456,3.906250
457,3.906250
458,3.906250
459,3.906250
460,3.906250
461,3.906250
462,3.906250
463,3.906250
464,3.906250
465,3.906250
466,3.906250
467,3.906250
468,3.906250
469,3.906250
470,3.906250
471,3.906250
472,3.906250
473,3.906250
474,3.906250
475,3.906250
476,3.906250
477,0.000000
478,0.000000
479,3.906250
480,0.000000
481,0.000000
482,3.906250
483,0.000000
484,0.000000
485,0.000000
486,0.000000
487,0.000000
488,0.000000
489,0.000000
490,0.000000
491,0.000000
492,0.000000
493,0.000000
494,0.000000
495,0.000000
496,0.000000
497,0.000000
498,0.000000
499,0.000000
500,0.000000
501,0.000000
502,0.000000
503,0.000000
504,0.000000
505,0.000000
506,0.000000
507,-3.906250
508,-3.906250
509,-3.906250
510,-3.906250
511,-3.906250
512,-3.906250
513,-3.906250
514,0.000000
515,-3.906250
516,-3.906250
517,-3.906250
518,-3.906250
519,-3.906250
520,-3.906250
521,-3.906250
522,-3.906250
523,-3.906250
524,-3.906250
525,-3.906250
526,-3.906250
527,-3.906250
528,-3.906250
529,-3.906250
530,-3.906250
531,-3.906250
532,-3.906250
533,-3.906250
534,-3.906250
535,-7.812500
536,-3.906250
537,-7.812500
538,-7.812500
539,-7.812500
540,-7.812500
541,-7.812500
542,-7.812500
543,-7.812500
544,-7.812500
545,-7.812500
546,-7.812500
547,-7.812500
548,-7.812500
549,-7.812500
550,-7.812500
551,-7.812500
552,-7.812500
553,-7.812500
554,-7.812500
555,-7.812500
556,-7.812500
557,-7.812500
558,-7.812500
559,-11.718750
560,-11.718750
561,-7.812500
562,-7.812500
563,-11.718750
564,-11.718750
565,-11.718750
566,-11.718750
567,-11.718750
568,-11.718750
569,-11.718750
570,-11.718750
571,-11.718750
572,-11.718750
573,-11.718750
574,-11.718750
575,-11.718750
576,-11.718750
577,-11.718750
578,-11.718750
579,-11.718750
580,-11.718750
581,-11.718750
582,-11.718750
583,-11.718750
584,-11.718750
585,-11.718750
586,-11.718750
587,-11.718750
588,-11.718750
589,-15.625000
590,-15.625000
591,-15.625000
592,-15.625000
593,-15.625000
594,-15.625000
595,-15.625000
596,-15.625000
597,-15.625000
598,-15.625000
599,-15.625000
600,-15.625000
601,-15.625000
602,-15.625000
603,-15.625000
604,-15.625000
605,-15.625000
606,-15.625000
607,-15.625000
608,-15.625000
609,-15.625000
610,-15.625000
611,-15.625000
612,-15.625000
613,-15.625000
614,-19.531250
615,-15.625000
616,-15.625000
617,-15.625000
618,-19.531250
619,-19.531250
620,-19.531250
621,-19.531250
622,-19.531250
623,-19.531250
624,-19.531250
625,-19.531250
626,-19.531250
627,-19.531250
628,-19.531250
629,-19.531250
630,-19.531250
631,-19.531250
632,-19.531250
633,-19.531250
634,-19.531250
635,-19.531250
636,-19.531250
637,-19.531250
638,-19.531250
639,-19.531250
640,-19.531250
641,-19.531250
642,-19.531250
643,-23.437500
644,-23.437500
645,-23.437500
646,-23.437500
647,-23.437500
648,-23.437500
649,-23.437500
650,-23.437500
651,-23.437500
652,-23.437500
653,-23.437500
654,-23.437500
655,-23.437500
656,-23.437500
657,-23.437500
658,-23.437500
659,-23.437500
660,-23.437500
661,-23.437500
662,-23.437500
663,-23.437500
664,-23.437500
665,-23.437500
666,-23.437500
667,-23.437500
668,-23.437500
669,-23.437500
670,-23.437500
671,-23.437500
672,-23.437500
673,-23.437500
674,-27.343750
675,-27.343750
676,-27.343750
677,-27.343750
678,-27.343750
679,-27.343750
680,-27.343750
681,-27.343750
682,-27.343750
683,-27.343750
684,-27.343750
685,-27.343750
686,-27.343750
687,-27.343750
688,-27.343750
689,-27.343750
690,-27.343750
691,-27.343750
692,-27.343750
693,-27.343750
694,-27.343750
695,-27.343750
696,-27.343750
697,-27.343750
698,-27.343750
699,-31.250000
700,-31.250000
701,-27.343750
702,-27.343750
703,-27.343750
704,-31.250000
705,-31.250000
706,-31.250000
707,-31.250000
708,-31.250000
709,-31.250000
710,-31.250000
711,-31.250000
712,-31.250000
713,-31.250000
714,-31.250000
715,-31.250000
716,-31.250000
717,-31.250000
718,-31.250000
719,-31.250000
720,-31.250000
721,-31.250000
722,-31.250000
723,-31.250000
724,-31.250000
725,-31.250000
726,-31.250000
727,-31.250000
728,-31.250000
729,-31.250000
730,-31.250000
731,-31.250000
732,-31.250000
733,-31.250000
734,-31.250000
735,-31.250000
736,-31.250000
737,-31.250000
738,-31.250000
739,-31.250000
740,-31.250000
741,-31.250000
742,-35.156250
743,-35.156250
744,-31.250000
745,-35.156250
746,-35.156250
747,-35.156250
748,-35.156250
749,-35.156250
750,-35.156250
751,-35.156250
752,-35.156250
753,-35.156250
754,-35.156250
755,-35.156250
756,-35.156250
757,-35.156250
758,-35.156250
759,-35.156250
760,-35.156250
761,-35.156250
762,-35.156250
763,-35.156250
764,-35.156250
765,-35.156250
766,-35.156250
767,-35.156250
768,-35.156250
769,-35.156250
770,-35.156250
771,-35.156250
772,-35.156250
773,-35.156250
774,-35.156250
775,-35.156250
776,-35.156250
777,-35.156250
778,-35.156250
779,-35.156250
780,-35.156250
781,-35.156250
782,-35.156250
783,-35.156250
784,-35.156250
785,-35.156250
786,-35.156250
787,-35.156250
788,-35.156250
789,-35.156250
790,-35.156250
791,-35.156250
792,-35.156250
793,-35.156250
794,-35.156250
795,-35.156250
796,-35.156250
797,-39.062500
798,-35.156250
799,-35.156250
800,-35.156250
801,-39.062500
802,-39.062500
803,-39.062500
804,-39.062500
805,-39.062500
806,-39.062500
807,-39.062500
808,-39.062500
809,-39.062500
810,-35.156250
811,-39.062500
812,-39.062500
813,-39.062500
814,-39.062500
815,-39.062500
816,-39.062500
817,-39.062500
818,-39.062500
819,-39.062500
820,-39.062500
821,-39.062500
822,-39.062500
823,-39.062500
824,-39.062500
825,-39.062500
826,-39.062500
827,-39.062500
828,-39.062500
829,-39.062500
830,-39.062500
831,-39.062500
832,-39.062500
833,-39.062500
834,-39.062500
835,-39.062500
836,-39.062500
837,-39.062500
838,-39.062500
839,-39.062500
840,-39.062500
841,-39.062500
842,-39.062500
843,-39.062500
844,-39.062500
845,-39.062500
846,-39.062500
847,-39.062500
848,-39.062500
849,-39.062500
850,-39.062500
851,-39.062500
852,-39.062500
853,-39.062500
854,-39.062500
855,-39.062500
856,-39.062500
857,-39.062500
858,-39.062500
859,-39.062500
860,-39.062500
861,-39.062500
862,-39.062500
863,-39.062500
864,-35.156250
865,-39.062500
866,-35.156250
867,-39.062500
868,-39.062500
869,-39.062500
870,-39.062500
871,-39.062500
872,-35.156250
873,-35.156250
874,-39.062500
875,-35.156250
876,-35.156250
877,-35.156250
878,-35.156250
879,-39.062500
880,-39.062500
881,-39.062500
882,-39.062500
883,-39.062500
884,-35.156250
885,-35.156250
886,-35.156250
887,-35.156250
888,-35.156250
889,-35.156250
890,-35.156250
891,-35.156250
892,-35.156250
893,-35.156250
894,-35.156250
895,-35.156250
896,-35.156250
897,-35.156250
898,-35.156250
899,-35.156250
900,-35.156250
901,-35.156250
902,-35.156250
903,-35.156250
904,-35.156250
905,-35.156250
906,-35.156250
907,-35.156250
908,-35.156250
909,-35.156250
910,-35.156250
911,-35.156250
912,-35.156250
913,-35.156250
914,-35.156250
915,-35.156250
916,-35.156250
917,-35.156250
918,-35.156250
919,-35.156250
920,-35.156250
921,-35.156250
922,-35.156250
923,-35.156250
924,-35.156250
925,-35.156250
926,-35.156250
927,-35.156250
928,-35.156250
929,-31.250000
930,-35.156250
931,-31.250000
932,-31.250000
933,-35.156250
934,-31.250000
935,-35.156250
936,-31.250000
937,-31.250000
938,-31.250000
939,-31.250000
940,-31.250000
941,-31.250000
942,-31.250000
943,-31.250000
944,-31.250000
945,-31.250000
946,-31.250000
947,-31.250000
948,-31.250000
949,-31.250000
950,-31.250000
951,-31.250000
952,-31.250000
953,-31.250000
954,-31.250000
955,-31.250000
956,-31.250000
957,-31.250000
958,-31.250000
959,-31.250000
960,-31.250000
961,-31.250000
962,-31.250000
963,-31.250000
964,-31.250000
965,-31.250000
966,-31.250000
967,-31.250000
968,-31.250000
969,-31.250000
970,-31.250000
971,-31.250000
972,-27.343750
973,-27.343750
974,-27.343750
975,-27.343750
976,-27.343750
977,-31.250000
978,-27.343750
979,-27.343750
980,-27.343750
981,-27.343750
982,-27.343750
983,-27.343750
984,-27.343750
985,-27.343750
986,-27.343750
987,-27.343750
988,-27.343750
989,-27.343750
990,-27.343750
991,-27.343750
992,-27.343750
993,-27.343750
994,-27.343750
995,-27.343750
996,-27.343750
997,-27.343750
998,-27.343750
999,-27.343750
1000,-23.437500
1001,-23.437500
1002,-23.437500
1003,-23.437500
1004,-23.437500
1005,-23.437500
1006,-23.437500
1007,-23.437500
1008,-23.437500
1009,-23.437500
1010,-23.437500
1011,-23.437500
1012,-23.437500
1013,-23.437500
1014,-23.437500
1015,-23.437500
1016,-23.437500
1017,-23.437500
1018,-23.437500
1019,-23.437500
1020,-23.437500
1021,-23.437500
1022,-23.437500
1023,-23.437500
1024,-19.531250
1025,-19.531250
1026,-19.531250
1027,-19.531250
1028,-19.531250
1029,-19.531250
1030,-19.531250
1031,-19.531250
1032,-19.531250
1033,-19.531250
1034,-19.531250
1035,-19.531250
1036,-19.531250
1037,-19.531250
1038,-19.531250
1039,-19.531250
1040,-19.531250
1041,-19.531250
1042,-19.531250
1043,-19.531250
1044,-19.531250
1045,-19.531250
1046,-15.625000
1047,-15.625000
1048,-15.625000
1049,-15.625000
1050,-15.625000
1051,-15.625000
1052,-15.625000
1053,-15.625000
1054,-15.625000
1055,-15.625000
1056,-15.625000
1057,-15.625000
1058,-15.625000
1059,-15.625000
1060,-15.625000
1061,-15.625000
1062,-15.625000
1063,-15.625000
1064,-15.625000
1065,-15.625000
1066,-15.625000
1067,-15.625000
1068,-15.625000
1069,-15.625000
1070,-15.625000
1071,-15.625000
1072,-11.718750
1073,-15.625000
1074,-11.718750
1075,-11.718750
1076,-11.718750
1077,-11.718750
1078,-11.718750
1079,-11.718750
1080,-11.718750
1081,-11.718750
1082,-11.718750
1083,-11.718750
1084,-11.718750
1085,-11.718750
1086,-11.718750
1087,-11.718750
1088,-11.718750
1089,-11.718750
1090,-11.718750
1091,-11.718750
1092,-11.718750
1093,-7.812500
1094,-11.718750
1095,-11.718750
1096,-11.718750
1097,-11.718750
1098,-11.718750
1099,-7.812500
1100,-7.812500
1101,-7.812500
1102,-7.812500
1103,-7.812500
1104,-7.812500
1105,-7.812500
1106,-7.812500
1107,-7.812500
1108,-7.812500
1109,-7.812500
1110,-7.812500
1111,-7.812500
1112,-7.812500
1113,-7.812500
1114,-7.812500
1115,-7.812500
1116,-7.812500
1117,-7.812500
1118,-7.812500
1119,-3.906250
1120,-7.812500
1121,-7.812500
1122,-3.906250
1123,-3.906250
1124,-3.906250
1125,-3.906250
1126,-3.906250
1127,-3.906250
1128,-3.906250
1129,-3.906250
1130,-3.906250
1131,-3.906250
1132,-3.906250
1133,-3.906250
1134,-3.906250
1135,-3.906250
1136,-3.906250
1137,-3.906250
1138,-3.906250
1139,-3.906250
1140,-3.906250
1141,-3.906250
1142,-3.906250
1143,0.000000
1144,0.000000
1145,0.000000
1146,0.000000
1147,0.000000
1148,0.000000
1149,0.000000
1150,0.000000
1151,0.000000
1152,0.000000
1153,0.000000
1154,0.000000
1155,0.000000
1156,0.000000
1157,0.000000
1158,0.000000
1159,0.000000
1160,0.000000
1161,0.000000
1162,0.000000
1163,0.000000
1164,0.000000
1165,0.000000
1166,0.000000
1167,0.000000
1168,3.906250
1169,3.906250
1170,0.000000
1171,0.000000
1172,0.000000
1173,0.000000
1174,0.000000
1175,0.000000
1176,3.906250
1177,3.906250
1178,3.906250
1179,3.906250
1180,3.906250
1181,3.906250
1182,3.906250
1183,3.906250
1184,3.906250
1185,3.906250
1186,3.906250
1187,3.906250
1188,3.906250
1189,3.906250
1190,3.906250
1191,3.906250
1192,3.906250
1193,3.906250
1194,3.906250
1195,3.906250
1196,3.906250
1197,3.906250
1198,3.906250
1199,3.906250
1200,3.906250
1201,3.906250
1202,3.906250
1203,3.906250
1204,3.906250
1205,3.906250
1206,3.906250
1207,3.906250
1208,7.812500
1209,7.812500
1210,7.812500
1211,7.812500
1212,7.812500
1213,7.812500
1214,7.812500
1215,7.812500
1216,7.812500
1217,7.812500
1218,7.812500
1219,7.812500
1220,7.812500
1221,7.812500
1222,7.812500
1223,7.812500
1224,7.812500
1225,7.812500
1226,7.812500
1227,7.812500
1228,7.812500
1229,7.812500
1230,7.812500
1231,7.812500
1232,7.812500
1233,7.812500
1234,7.812500
1235,7.812500
1236,7.812500
1237,7.812500
1238,7.812500
1239,7.812500
1240,7.812500
1241,7.812500
1242,7.812500
1243,7.812500
1244,7.812500
1245,7.812500
1246,7.812500
1247,7.812500
1248,7.812500
1249,7.812500
1250,7.812500
1251,7.812500
1252,11.718750
1253,7.812500
1254,11.718750
1255,7.812500
1256,7.812500
1257,7.812500
1258,7.812500
1259,11.718750
1260,11.718750
1261,11.718750
1262,11.718750
1263,11.718750
1264,11.718750
1265,11.718750
1266,11.718750
1267,11.718750
1268,11.718750
1269,11.718750
1270,11.718750
1271,11.718750
1272,11.718750
1273,11.718750
1274,11.718750
1275,11.718750
1276,11.718750
1277,11.718750
1278,11.718750
1279,11.718750
1280,11.718750
1281,11.718750
1282,11.718750
1283,11.718750
1284,11.718750
1285,11.718750
1286,11.718750
1287,11.718750
1288,11.718750
1289,11.718750
1290,11.718750
1291,11.718750
1292,11.718750
1293,11.718750
1294,11.718750
1295,11.718750
1296,11.718750
1297,11.718750
1298,11.718750
1299,11.718750
1300,11.718750
1301,11.718750
1302,11.718750
1303,11.718750
1304,11.718750
1305,11.718750
1306,11.718750
1307,11.718750
1308,11.718750
1309,11.718750
1310,11.718750
1311,11.718750
1312,11.718750
1313,11.718750
1314,11.718750
1315,11.718750
1316,11.718750
1317,11.718750
1318,11.718750
1319,11.718750
1320,11.718750
1321,11.718750
1322,11.718750
1323,11.718750
1324,11.718750
1325,11.718750
1326,11.718750
1327,11.718750
1328,11.718750
1329,11.718750
1330,11.718750
1331,11.718750
1332,11.718750
1333,11.718750
1334,11.718750
1335,11.718750
1336,11.718750
1337,11.718750
1338,11.718750
1339,11.718750
1340,11.718750
1341,11.718750
1342,11.718750
1343,11.718750
1344,11.718750
1345,11.718750
1346,11.718750
1347,11.718750
1348,11.718750
1349,11.718750
1350,11.718750
1351,11.718750
1352,11.718750
1353,11.718750
1354,11.718750
1355,11.718750
1356,11.718750
1357,11.718750
1358,11.718750
1359,11.718750
1360,11.718750
1361,11.718750
1362,11.718750
1363,11.718750
1364,7.812500
1365,11.718750
1366,11.718750
1367,7.812500
1368,11.718750
1369,11.718750
1370,11.718750
1371,7.812500
1372,11.718750
1373,7.812500
1374,11.718750
1375,7.812500
1376,7.812500
1377,7.812500
1378,11.718750
1379,11.718750
1380,11.718750
1381,11.718750
1382,11.718750
1383,11.718750
1384,7.812500
1385,7.812500
1386,7.812500
1387,7.812500
1388,7.812500
1389,7.812500
1390,7.812500
1391,7.812500
1392,7.812500
1393,7.812500
1394,7.812500
1395,7.812500
1396,7.812500
1397,7.812500
1398,7.812500
1399,7.812500
1400,7.812500
1401,7.812500
1402,7.812500
1403,7.812500
1404,7.812500
1405,7.812500
1406,7.812500
1407,7.812500
1408,7.812500
1409,7.812500
1410,7.812500
1411,7.812500
1412,7.812500
1413,7.812500
1414,7.812500
1415,7.812500
1416,7.812500
1417,7.812500
1418,7.812500
1419,7.812500
1420,7.812500
1421,7.812500
1422,7.812500
1423,7.812500
1424,7.812500
1425,7.812500
1426,7.812500
1427,7.812500
1428,7.812500
1429,3.906250
1430,7.812500
1431,3.906250
1432,7.812500
1433,7.812500
1434,7.812500
1435,3.906250
1436,3.906250
1437,3.906250
1438,3.906250
1439,3.906250
1440,3.906250
1441,3.906250
1442,3.906250
1443,3.906250
1444,3.906250
1445,3.906250
1446,3.906250
1447,3.906250
1448,3.906250
1449,3.906250
1450,3.906250
1451,3.906250
1452,3.906250
1453,3.906250
1454,3.906250
1455,3.906250
1456,3.906250
1457,3.906250
1458,3.906250
1459,3.906250
1460,0.000000
1461,3.906250
1462,3.906250
1463,3.906250
1464,3.906250
1465,3.906250
1466,3.906250
1467,0.000000
1468,0.000000
1469,0.000000
1470,0.000000
1471,0.000000
1472,0.000000
1473,0.000000
1474,0.000000
1475,0.000000
1476,0.000000
1477,0.000000
1478,0.000000
1479,0.000000
1480,0.000000
1481,0.000000
1482,0.000000
1483,0.000000
1484,0.000000
1485,0.000000
1486,0.000000
1487,0.000000
1488,0.000000
1489,0.000000
1490,0.000000
1491,0.000000
1492,0.000000
1493,0.000000
1494,0.000000
1495,0.000000
1496,0.000000
1497,0.000000
1498,0.000000
1499,0.000000
1500,0.000000
1501,-3.906250
1502,-3.906250
1503,-3.906250
1504,-3.906250
1505,-3.906250
1506,-3.906250
1507,-3.906250
1508,-3.906250
1509,-3.906250
1510,-3.906250
1511,-3.906250
1512,-3.906250
1513,-3.906250
1514,-3.906250
1515,-3.906250
1516,-3.906250
1517,-3.906250
1518,-3.906250
1519,-3.906250
1520,-3.906250
1521,-3.906250
1522,-3.906250
1523,-3.906250
1524,-3.906250
1525,-3.906250
1526,-3.906250
1527,-7.812500
1528,-3.906250
1529,-7.812500
1530,-7.812500
1531,-7.812500
1532,-7.812500
1533,-7.812500
1534,-7.812500
1535,-7.812500
1536,-7.812500
1537,-7.812500
1538,-7.812500
1539,-7.812500
1540,-7.812500
1541,-7.812500
1542,-7.812500
1543,-7.812500
1544,-7.812500
1545,-7.812500
1546,-7.812500
1547,-7.812500
1548,-7.812500
1549,-7.812500
1550,-7.812500
1551,-7.812500
1552,-7.812500
1553,-7.812500
1554,-11.718750
1555,-11.718750
1556,-7.812500
1557,-11.718750
1558,-11.718750
1559,-11.718750
1560,-11.718750
1561,-11.718750
1562,-11.718750
1563,-11.718750
1564,-11.718750
1565,-11.718750
1566,-11.718750
1567,-11.718750
1568,-11.718750
1569,-11.718750
1570,-11.718750
1571,-11.718750
1572,-11.718750
1573,-11.718750
1574,-15.625000
1575,-11.718750
1576,-11.718750
1577,-11.718750
1578,-11.718750
1579,-15.625000
1580,-15.625000
1581,-15.625000
1582,-15.625000
1583,-15.625000
1584,-15.625000
1585,-15.625000
1586,-15.625000
1587,-15.625000
1588,-15.625000
1589,-15.625000
1590,-15.625000
1591,-15.625000
1592,-15.625000
1593,-15.625000
1594,-15.625000
1595,-15.625000
1596,-15.625000
1597,-15.625000
1598,-15.625000
1599,-15.625000
1600,-15.625000
1601,-15.625000
1602,-15.625000
1603,-15.625000
1604,-15.625000
1605,-19.531250
1606,-15.625000
1607,-19.531250
1608,-15.625000
1609,-19.531250
1610,-19.531250
1611,-19.531250
1612,-19.531250
1613,-19.531250
1614,-19.531250
1615,-19.531250
1616,-19.531250
1617,-19.531250
1618,-19.531250
1619,-19.531250
1620,-19.531250
1621,-19.531250
1622,-19.531250
1623,-19.531250
1624,-19.531250
1625,-19.531250
1626,-19.531250
1627,-19.531250
1628,-19.531250
1629,-19.531250
1630,-19.531250
1631,-19.531250
1632,-19.531250
1633,-23.437500
1634,-19.531250
1635,-23.437500
1636,-23.437500
1637,-23.437500
1638,-23.437500
1639,-23.437500
1640,-23.437500
1641,-23.437500
1642,-23.437500
1643,-23.437500
1644,-23.437500
1645,-23.437500
1646,-23.437500
1647,-23.437500
1648,-23.437500
1649,-23.437500
1650,-23.437500
1651,-23.437500
1652,-23.437500
1653,-23.437500
1654,-23.437500
1655,-23.437500
1656,-23.437500
1657,-23.437500
1658,-23.437500
1659,-27.343750
1660,-23.437500
1661,-23.437500
1662,-23.437500
1663,-23.437500
1664,-27.343750
1665,-27.343750
1666,-23.437500
1667,-23.437500
1668,-27.343750
1669,-27.343750
1670,-27.343750
1671,-27.343750
1672,-27.343750
1673,-27.343750
1674,-27.343750
1675,-27.343750
1676,-27.343750
1677,-27.343750
1678,-27.343750
1679,-27.343750
1680,-27.343750
1681,-27.343750
1682,-27.343750
1683,-27.343750
1684,-27.343750
1685,-27.343750
1686,-27.343750
1687,-27.343750
1688,-27.343750
1689,-27.343750
1690,-27.343750
1691,-27.343750
1692,-27.343750
1693,-27.343750
1694,-27.343750
1695,-31.250000
1696,-31.250000
1697,-31.250000
1698,-31.250000
1699,-31.250000
1700,-31.250000
1701,-31.250000
1702,-31.250000
1703,-31.250000
1704,-31.250000
1705,-31.250000
1706,-31.250000
1707,-31.250000
1708,-31.250000
1709,-31.250000
1710,-31.250000
1711,-31.250000
1712,-31.250000
1713,-31.250000
1714,-31.250000
1715,-31.250000
1716,-31.250000
1717,-31.250000
1718,-31.250000
1719,-31.250000
1720,-31.250000
1721,-31.250000
1722,-31.250000
1723,-31.250000
1724,-31.250000
1725,-31.250000
1726,-31.250000
1727,-31.250000
1728,-31.250000
1729,-31.250000
1730,-35.156250
1731,-35.156250
1732,-35.156250
1733,-31.250000
1734,-35.156250
1735,-35.156250
1736,-35.156250
1737,-35.156250
1738,-35.156250
1739,-35.156250
1740,-35.156250
1741,-35.156250
1742,-35.156250
1743,-35.156250
1744,-35.156250
1745,-35.156250
1746,-35.156250
1747,-35.156250
1748,-35.156250
1749,-35.156250
1750,-35.156250
1751,-35.156250
1752,-35.156250
1753,-35.156250
1754,-35.156250
1755,-35.156250
1756,-35.156250
1757,-35.156250
1758,-35.156250
1759,-35.156250
1760,-35.156250
1761,-35.156250
1762,-35.156250
1763,-35.156250
1764,-35.156250
1765,-35.156250
1766,-35.156250
1767,-35.156250
1768,-35.156250
1769,-35.156250
1770,-35.156250
1771,-35.156250
1772,-35.156250
1773,-35.156250
1774,-35.156250
1775,-35.156250
1776,-35.156250
1777,-35.156250
1778,-35.156250
1779,-35.156250
1780,-35.156250
1781,-35.156250
1782,-35.156250
1783,-39.062500
1784,-35.156250
1785,-35.156250
1786,-35.156250
1787,-35.156250
1788,-35.156250
1789,-35.156250
1790,-35.156250
1791,-35.156250
1792,-39.062500
1793,-39.062500
1794,-39.062500
1795,-39.062500
1796,-35.156250
1797,-35.156250
1798,-35.156250
1799,-39.062500
1800,-39.062500
1801,-39.062500
1802,-39.062500
1803,-39.062500
1804,-39.062500
1805,-35.156250
1806,-39.062500
1807,-39.062500
1808,-39.062500
1809,-39.062500
1810,-39.062500
1811,-39.062500
1812,-39.062500
1813,-39.062500
1814,-39.062500
1815,-39.062500
1816,-39.062500
1817,-39.062500
1818,-35.156250
1819,-39.062500
1820,-39.062500
1821,-39.062500
1822,-39.062500
1823,-39.062500
1824,-39.062500
1825,-39.062500
1826,-39.062500
1827,-39.062500
1828,-39.062500
1829,-39.062500
1830,-39.062500
1831,-39.062500
1832,-39.062500
1833,-39.062500
1834,-39.062500
1835,-39.062500
1836,-39.062500
1837,-39.062500
1838,-39.062500
1839,-39.062500
1840,-39.062500
1841,-39.062500
1842,-39.062500
1843,-39.062500
1844,-39.062500
1845,-39.062500
1846,-39.062500
1847,-39.062500
1848,-39.062500
1849,-35.156250
1850,-39.062500
1851,-39.062500
1852,-39.062500
1853,-39.062500
1854,-39.062500
1855,-39.062500
1856,-39.062500
1857,-39.062500
1858,-35.156250
1859,-39.062500
1860,-39.062500
1861,-39.062500
1862,-39.062500
1863,-39.062500
1864,-39.062500
1865,-39.062500
1866,-35.156250
1867,-39.062500
1868,-39.062500
1869,-35.156250
1870,-35.156250
1871,-35.156250
1872,-35.156250
1873,-39.062500
1874,-39.062500
1875,-39.062500
1876,-35.156250
1877,-35.156250
1878,-35.156250
1879,-35.156250
1880,-35.156250
1881,-35.156250
1882,-35.156250
1883,-35.156250
1884,-35.156250
1885,-35.156250
1886,-35.156250
1887,-35.156250
1888,-35.156250
1889,-35.156250
1890,-35.156250
1891,-35.156250
1892,-35.156250
1893,-35.156250
1894,-35.156250
1895,-35.156250
1896,-35.156250
1897,-35.156250
1898,-35.156250
1899,-35.156250
1900,-35.156250
1901,-35.156250
1902,-35.156250
1903,-35.156250
1904,-35.156250
1905,-35.156250
1906,-35.156250
1907,-35.156250
1908,-35.156250
1909,-35.156250
1910,-35.156250
1911,-35.156250
1912,-35.156250
1913,-35.156250
1914,-35.156250
1915,-35.156250
1916,-35.156250
1917,-35.156250
1918,-35.156250
1919,-35.156250
1920,-35.156250
1921,-35.156250
1922,-35.156250
1923,-35.156250
1924,-35.156250
1925,-35.156250
1926,-35.156250
1927,-31.250000
1928,-31.250000
1929,-31.250000
1930,-31.250000
1931,-31.250000
1932,-31.250000
1933,-31.250000
1934,-31.250000
1935,-31.250000
1936,-31.250000
1937,-31.250000
1938,-31.250000
1939,-31.250000
1940,-31.250000
1941,-31.250000
1942,-31.250000
1943,-31.250000
1944,-31.250000
1945,-31.250000
1946,-31.250000
1947,-31.250000
1948,-31.250000
1949,-31.250000
1950,-31.250000
1951,-31.250000
1952,-31.250000
1953,-31.250000
1954,-31.250000
1955,-31.250000
1956,-31.250000
1957,-31.250000
1958,-31.250000
1959,-31.250000
1960,-27.343750
1961,-27.343750
1962,-27.343750
1963,-27.343750
1964,-27.343750
1965,-27.343750
1966,-27.343750
1967,-27.343750
1968,-27.343750
1969,-27.343750
1970,-27.343750
1971,-27.343750
1972,-27.343750
1973,-27.343750
1974,-27.343750
1975,-27.343750
1976,-27.343750
1977,-27.343750
1978,-27.343750
1979,-27.343750
1980,-27.343750
1981,-27.343750
1982,-27.343750
1983,-27.343750
1984,-27.343750
1985,-27.343750
1986,-27.343750
1987,-27.343750
1988,-27.343750
1989,-27.343750
1990,-27.343750
1991,-23.437500
1992,-23.437500
1993,-23.437500
1994,-23.437500
1995,-23.437500
1996,-23.437500
1997,-23.437500
1998,-23.437500
1999,-23.437500
2000,-23.437500
2001,-23.437500
2002,-23.437500
2003,-23.437500
2004,-23.437500
2005,-23.437500
2006,-23.437500
2007,-23.437500
2008,-23.437500
2009,-23.437500
2010,-23.437500
2011,-23.437500
2012,-23.437500
2013,-23.437500
2014,-23.437500
2015,-19.531250
2016,-19.531250
2017,-23.437500
2018,-23.437500
2019,-19.531250
2020,-19.531250
2021,-19.531250
2022,-19.531250
2023,-19.531250
2024,-19.531250
2025,-19.531250
2026,-19.531250
2027,-19.531250
2028,-19.531250
2029,-19.531250
2030,-19.531250
2031,-19.531250
2032,-19.531250
2033,-19.531250
2034,-19.531250
2035,-19.531250
2036,-19.531250
2037,-19.531250
2038,-19.531250
2039,-19.531250
2040,-15.625000
2041,-15.625000
2042,-15.625000
2043,-15.625000
2044,-15.625000
2045,-15.625000
2046,-15.625000
2047,-15.625000
2048,-15.625000
2049,-15.625000
2050,-15.625000
2051,-15.625000
2052,-15.625000
2053,-15.625000
2054,-15.625000
2055,-15.625000
2056,-15.625000
2057,-15.625000
2058,-15.625000
2059,-15.625000
2060,-15.625000
2061,-15.625000
2062,-15.625000
2063,-11.718750
2064,-11.718750
2065,-11.718750
2066,-11.718750
2067,-11.718750
2068,-11.718750
2069,-11.718750
2070,-11.718750
2071,-11.718750
2072,-11.718750
2073,-11.718750
2074,-11.718750
2075,-11.718750
2076,-11.718750
2077,-11.718750
2078,-11.718750
2079,-11.718750
2080,-11.718750
2081,-11.718750
2082,-11.718750
2083,-11.718750
2084,-11.718750
2085,-11.718750
2086,-11.718750
2087,-7.812500
2088,-7.812500
2089,-11.718750
2090,-11.718750
2091,-7.812500
2092,-7.812500
2093,-7.812500
2094,-7.812500
2095,-7.812500
2096,-7.812500
2097,-7.812500
2098,-7.812500
2099,-7.812500
2100,-7.812500
2101,-7.812500
2102,-7.812500
2103,-7.812500
2104,-7.812500
2105,-7.812500
2106,-7.812500
2107,-7.812500
2108,-7.812500
2109,-7.812500
2110,-7.812500
2111,-7.812500
2112,-3.906250
2113,-3.906250
2114,-3.906250
2115,-3.906250
2116,-3.906250
2117,-7.812500
2118,-3.906250
2119,-3.906250
2120,-3.906250
2121,-3.906250
2122,-3.906250
2123,-3.906250
2124,-3.906250
2125,-3.906250
2126,-3.906250
2127,-3.906250
2128,-3.906250
2129,-3.906250
2130,-3.906250
2131,-3.906250
2132,0.000000
2133,-3.906250
2134,-3.906250
2135,-3.906250
2136,0.000000
2137,-3.906250
2138,0.000000
2139,-3.906250
2140,0.000000
2141,0.000000
2142,0.000000
2143,0.000000
2144,0.000000
2145,0.000000
2146,0.000000
2147,0.000000
2148,0.000000
2149,0.000000
2150,0.000000
2151,0.000000
2152,0.000000
2153,0.000000
2154,0.000000
2155,0.000000
2156,0.000000
2157,0.000000
2158,0.000000
2159,0.000000
2160,0.000000
2161,0.000000
2162,0.000000
2163,3.906250
2164,3.906250
2165,3.906250
2166,0.000000
2167,3.906250
2168,3.906250
2169,3.906250
2170,3.906250
2171,3.906250
2172,3.906250
2173,3.906250
2174,3.906250
2175,3.906250
2176,3.906250
2177,3.906250
2178,3.906250
2179,3.906250
2180,3.906250
2181,3.906250
2182,3.906250
2183,3.906250
2184,3.906250
2185,3.906250
2186,3.906250
2187,3.906250
2188,3.906250
2189,3.906250
2190,3.906250
2191,3.906250
2192,3.906250
2193,3.906250
2194,7.812500
2195,3.906250
2196,3.906250
2197,7.812500
2198,3.906250
2199,3.906250
2200,7.812500
2201,3.906250
2202,7.812500
2203,7.812500
2204,7.812500
2205,7.812500
2206,7.812500
2207,7.812500
2208,7.812500
2209,7.812500
2210,7.812500
2211,7.812500
2212,7.812500
2213,7.812500
2214,7.812500
2215,7.812500
2216,7.812500
2217,7.812500
2218,7.812500
2219,7.812500
2220,7.812500
2221,7.812500
2222,7.812500
2223,7.812500
2224,7.812500
2225,7.812500
2226,7.812500
2227,7.812500
2228,7.812500
2229,7.812500
2230,7.812500
2231,7.812500
2232,7.812500
2233,7.812500
2234,7.812500
2235,7.812500
2236,7.812500
2237,7.812500
2238,7.812500
2239,7.812500
2240,7.812500
2241,7.812500
2242,7.812500
2243,7.812500
2244,7.812500
2245,7.812500
2246,7.812500
2247,7.812500
2248,11.718750
2249,11.718750
2250,7.812500
2251,7.812500
2252,7.812500
2253,7.812500
2254,11.718750
2255,7.812500
2256,11.718750
2257,11.718750
2258,11.718750
2259,11.718750
2260,11.718750
2261,11.718750
2262,11.718750
2263,11.718750
2264,11.718750
2265,11.718750
2266,11.718750
2267,11.718750
2268,11.718750
2269,11.718750
2270,11.718750
2271,11.718750
2272,11.718750
2273,11.718750
2274,11.718750
2275,11.718750
2276,11.718750
2277,11.718750
2278,11.718750
2279,11.718750
2280,11.718750
2281,11.718750
2282,11.718750
2283,11.718750
2284,11.718750
2285,11.718750
2286,11.718750
2287,11.718750
2288,11.718750
2289,11.718750
2290,11.718750
2291,11.718750
2292,11.718750
2293,11.718750
2294,11.718750
2295,11.718750
2296,11.718750
2297,11.718750
2298,11.718750
2299,11.718750
2300,11.718750
2301,11.718750
2302,11.718750
2303,11.718750
2304,11.718750
2305,11.718750
2306,11.718750
2307,11.718750
2308,11.718750
2309,11.718750
2310,11.718750
2311,11.718750
2312,11.718750
2313,11.718750
2314,11.718750
2315,11.718750
2316,11.718750
2317,11.718750
2318,11.718750
2319,11.718750
2320,11.718750
2321,11.718750
2322,11.718750
2323,11.718750
2324,11.718750
2325,11.718750
2326,11.718750
2327,11.718750
2328,11.718750
2329,11.718750
2330,11.718750
2331,11.718750
2332,11.718750
2333,11.718750
2334,11.718750
2335,11.718750
2336,11.718750
2337,11.718750
2338,11.718750
2339,11.718750
2340,11.718750
2341,11.718750
2342,11.718750
2343,11.718750
2344,11.718750
2345,11.718750
2346,11.718750
2347,11.718750
2348,11.718750
2349,11.718750
2350,11.718750
2351,11.718750
2352,11.718750
2353,11.718750
2354,11.718750
2355,7.812500
2356,7.812500
2357,7.812500
2358,11.718750
2359,11.718750
2360,11.718750
2361,11.718750
2362,11.718750
2363,11.718750
2364,7.812500
2365,7.812500
2366,7.812500
2367,7.812500
2368,11.718750
2369,7.812500
2370,7.812500
2371,7.812500
2372,7.812500
2373,7.812500
2374,7.812500
2375,7.812500
2376,7.812500
2377,7.812500
2378,7.812500
2379,7.812500
2380,7.812500
2381,7.812500
2382,7.812500
2383,7.812500
2384,7.812500
2385,7.812500
2386,7.812500
2387,7.812500
2388,7.812500
2389,7.812500
2390,7.812500
2391,7.812500
2392,7.812500
2393,7.812500
2394,7.812500
2395,7.812500
2396,7.812500
2397,7.812500
2398,7.812500
2399,7.812500
2400,7.812500
2401,7.812500
2402,7.812500
2403,7.812500
2404,7.812500
2405,7.812500
2406,7.812500
2407,7.812500
2408,3.906250
2409,3.906250
2410,7.812500
2411,3.906250
2412,7.812500
2413,7.812500
2414,7.812500
2415,3.906250
2416,7.812500
2417,3.906250
2418,3.906250
2419,3.906250
2420,3.906250
2421,3.906250
2422,3.906250
2423,3.906250
2424,3.906250
2425,3.906250
2426,3.906250
2427,3.906250
2428,3.906250
2429,3.906250
2430,3.906250
2431,3.906250
2432,3.906250
2433,3.906250
2434,3.906250
2435,3.906250
2436,3.906250
2437,3.906250
2438,3.906250
2439,3.906250
2440,3.906250
2441,3.906250
2442,3.906250
2443,3.906250
2444,3.906250
2445,3.906250
2446,3.906250
2447,3.906250
2448,3.906250
2449,3.906250
2450,3.906250
2451,3.906250
2452,3.906250
2453,0.000000
2454,0.000000
2455,0.000000
2456,3.906250
2457,0.000000
2458,3.906250
2459,0.000000
2460,0.000000
2461,0.000000
2462,0.000000
2463,0.000000
2464,0.000000
2465,0.000000
2466,0.000000
2467,0.000000
2468,0.000000
2469,0.000000
2470,0.000000
2471,0.000000
2472,0.000000
2473,0.000000
2474,0.000000
2475,0.000000
2476,0.000000
2477,0.000000
2478,0.000000
2479,0.000000
2480,0.000000
2481,0.000000
2482,0.000000
2483,0.000000
2484,-3.906250
2485,-3.906250
2486,0.000000
2487,-3.906250
2488,0.000000
2489,-3.906250
2490,-3.906250
2491,-3.906250
2492,-3.906250
2493,-3.906250
2494,-3.906250
2495,-3.906250
2496,-3.906250
2497,-3.906250
2498,-3.906250
2499,-3.906250
2500,-3.906250
2501,-3.906250
2502,-3.906250
2503,-3.906250
2504,-3.906250
2505,-3.906250
2506,-3.906250
2507,-3.906250
2508,-3.906250
2509,-3.906250
2510,-3.906250
2511,-7.812500
2512,-3.906250
2513,-7.812500
2514,-3.906250
2515,-7.812500
2516,-3.906250
2517,-7.812500
2518,-7.812500
2519,-7.812500
2520,-7.812500
2521,-7.812500
2522,-7.812500
2523,-7.812500
2524,-7.812500
2525,-7.812500
2526,-7.812500
2527,-7.812500
2528,-7.812500
2529,-7.812500
2530,-7.812500
2531,-7.812500
2532,-7.812500
2533,-7.812500
2534,-7.812500
2535,-7.812500
2536,-7.812500
2537,-7.812500
2538,-7.812500
2539,-7.812500
2540,-7.812500
2541,-11.718750
2542,-11.718750
2543,-11.718750
2544,-11.718750
2545,-11.718750
2546,-11.718750
2547,-11.718750
2548,-11.718750
2549,-11.718750
2550,-11.718750
2551,-11.718750
2552,-11.718750
2553,-11.718750
2554,-11.718750
2555,-11.718750
2556,-11.718750
2557,-11.718750
2558,-11.718750
2559,-11.718750
2560,-11.718750
2561,-11.718750
2562,-11.718750
2563,-11.718750
2564,-11.718750
2565,-15.625000
2566,-11.718750
2567,-11.718750
2568,-11.718750
2569,-11.718750
2570,-11.718750
2571,-15.625000
2572,-15.625000
2573,-15.625000
2574,-15.625000
2575,-11.718750
2576,-15.625000
2577,-15.625000
2578,-15.625000
2579,-15.625000
2580,-15.625000
2581,-15.625000
2582,-15.625000
2583,-15.625000
2584,-15.625000
2585,-15.625000
2586,-15.625000
2587,-15.625000
2588,-15.625000
2589,-15.625000
2590,-15.625000
2591,-15.625000
2592,-15.625000
2593,-19.531250
2594,-15.625000
2595,-19.531250
2596,-19.531250
2597,-19.531250
2598,-19.531250
2599,-19.531250
2600,-15.625000
2601,-19.531250
2602,-19.531250
2603,-19.531250
2604,-19.531250
2605,-19.531250
2606,-19.531250
2607,-19.531250
2608,-23.437500
2609,-19.531250
2610,-19.531250
2611,-19.531250
2612,-19.531250
2613,-19.531250
2614,-19.531250
2615,-19.531250
2616,-19.531250
2617,-23.437500
2618,-19.531250
2619,-19.531250
2620,-19.531250
2621,-19.531250
2622,-19.531250
2623,-23.437500
2624,-23.437500
2625,-23.437500
2626,-23.437500
2627,-23.437500
2628,-23.437500
2629,-23.437500
2630,-23.437500
2631,-23.437500
2632,-23.437500
2633,-23.437500
2634,-23.437500
2635,-23.437500
2636,-23.437500
2637,-23.437500
2638,-23.437500
2639,-23.437500
2640,-23.437500
2641,-23.437500
2642,-23.437500
2643,-23.437500
2644,-23.437500
2645,-23.437500
2646,-23.437500
2647,-23.437500
2648,-23.437500
2649,-27.343750
2650,-23.437500
2651,-23.437500
2652,-23.437500
2653,-27.343750
2654,-27.343750
2655,-27.343750
2656,-27.343750
2657,-27.343750
2658,-27.343750
2659,-27.343750
2660,-27.343750
2661,-27.343750
2662,-27.343750
2663,-27.343750
2664,-27.343750
2665,-27.343750
2666,-27.343750
2667,-27.343750
2668,-27.343750
2669,-27.343750
2670,-27.343750
2671,-27.343750
2672,-27.343750
2673,-27.343750
2674,-27.343750
2675,-27.343750
2676,-27.343750
2677,-27.343750
2678,-27.343750
2679,-31.250000
2680,-27.343750
2681,-27.343750
2682,-27.343750
2683,-27.343750
2684,-31.250000
2685,-31.250000
2686,-31.250000
2687,-31.250000
2688,-27.343750
2689,-31.250000
2690,-31.250000
2691,-31.250000
2692,-31.250000
2693,-31.250000
2694,-31.250000
2695,-31.250000
2696,-31.250000
2697,-31.250000
2698,-31.250000
2699,-31.250000
2700,-31.250000
2701,-31.250000
2702,-31.250000
2703,-31.250000
2704,-31.250000
2705,-31.250000
2706,-31.250000
2707,-31.250000
2708,-31.250000
2709,-31.250000
2710,-31.250000
2711,-31.250000
2712,-31.250000
2713,-31.250000
2714,-31.250000
2715,-31.250000
2716,-31.250000
2717,-31.250000
2718,-31.250000
2719,-35.156250
2720,-31.250000
2721,-35.156250
2722,-35.156250
2723,-31.250000
2724,-31.250000
2725,-35.156250
2726,-35.156250
2727,-35.156250
2728,-35.156250
2729,-35.156250
2730,-35.156250
2731,-35.156250
2732,-35.156250
2733,-35.156250
2734,-35.156250
2735,-35.156250
2736,-35.156250
2737,-35.156250
2738,-35.156250
2739,-35.156250
2740,-35.156250
2741,-35.156250
2742,-35.156250
2743,-35.156250
2744,-35.156250
2745,-35.156250
2746,-35.156250
2747,-35.156250
2748,-35.156250
2749,-35.156250
2750,-35.156250
2751,-35.156250
2752,-35.156250
2753,-35.156250
2754,-35.156250
2755,-35.156250
2756,-35.156250
2757,-35.156250
2758,-35.156250
2759,-35.156250
2760,-35.156250
2761,-39.062500
2762,-35.156250
2763,-35.156250
2764,-35.156250
2765,-35.156250
2766,-35.156250
2767,-35.156250
2768,-35.156250
2769,-39.062500
2770,-35.156250
2771,-39.062500
2772,-39.062500
2773,-39.062500
2774,-35.156250
2775,-39.062500
2776,-35.156250
2777,-35.156250
2778,-39.062500
2779,-39.062500
2780,-39.062500
2781,-39.062500
2782,-39.062500
2783,-39.062500
2784,-39.062500
2785,-35.156250
2786,-39.062500
2787,-39.062500
2788,-39.062500
2789,-39.062500
2790,-39.062500
2791,-39.062500
2792,-39.062500
2793,-39.062500
2794,-39.062500
2795,-39.062500
2796,-39.062500
2797,-39.062500
2798,-39.062500
2799,-39.062500
2800,-39.062500
2801,-39.062500
2802,-39.062500
2803,-39.062500
2804,-39.062500
2805,-39.062500
2806,-39.062500
2807,-39.062500
2808,-39.062500
2809,-39.062500
2810,-39.062500
2811,-39.062500
2812,-39.062500
2813,-39.062500
2814,-39.062500
2815,-39.062500
2816,-39.062500
2817,-39.062500
2818,-39.062500
2819,-39.062500
2820,-39.062500
2821,-39.062500
2822,-39.062500
2823,-39.062500
2824,-39.062500
2825,-39.062500
2826,-39.062500
2827,-39.062500
2828,-39.062500
2829,-39.062500
2830,-39.062500
2831,-39.062500
2832,-39.062500
2833,-39.062500
2834,-39.062500
2835,-39.062500
2836,-39.062500
2837,-39.062500
2838,-39.062500
2839,-39.062500
2840,-39.062500
2841,-39.062500
2842,-39.062500
2843,-39.062500
2844,-39.062500
2845,-39.062500
2846,-39.062500
2847,-39.062500
2848,-39.062500
2849,-39.062500
2850,-35.156250
2851,-39.062500
2852,-39.062500
2853,-39.062500
2854,-39.062500
2855,-39.062500
2856,-39.062500
2857,-39.062500
2858,-39.062500
2859,-35.156250
2860,-39.062500
2861,-35.156250
2862,-35.156250
2863,-35.156250
2864,-39.062500
2865,-39.062500
2866,-39.062500
2867,-35.156250
2868,-35.156250
2869,-35.156250
2870,-35.156250
2871,-35.156250
2872,-35.156250
2873,-35.156250
2874,-35.156250
2875,-39.062500
2876,-39.062500
2877,-35.156250
2878,-35.156250
2879,-35.156250
2880,-35.156250
2881,-35.156250
2882,-35.156250
2883,-35.156250
2884,-35.156250
2885,-35.156250
2886,-35.156250
2887,-35.156250
2888,-35.156250
2889,-35.156250
2890,-35.156250
2891,-35.156250
2892,-35.156250
2893,-35.156250
2894,-35.156250
2895,-35.156250
2896,-35.156250
2897,-35.156250
2898,-35.156250
2899,-35.156250
2900,-35.156250
2901,-35.156250
2902,-35.156250
2903,-35.156250
2904,-35.156250
2905,-35.156250
2906,-35.156250
2907,-35.156250
2908,-35.156250
2909,-35.156250
2910,-35.156250
2911,-35.156250
2912,-35.156250
2913,-35.156250
2914,-35.156250
2915,-35.156250
2916,-35.156250
2917,-35.156250
2918,-35.156250
2919,-35.156250
2920,-31.250000
2921,-31.250000
2922,-31.250000
2923,-31.250000
2924,-31.250000
2925,-31.250000
2926,-31.250000
2927,-31.250000
2928,-31.250000
2929,-31.250000
2930,-31.250000
2931,-31.250000
2932,-31.250000
2933,-31.250000
2934,-31.250000
2935,-31.250000
2936,-31.250000
2937,-31.250000
2938,-31.250000
2939,-31.250000
2940,-31.250000
2941,-31.250000
2942,-31.250000
2943,-31.250000
2944,-31.250000
2945,-31.250000
2946,-31.250000
2947,-31.250000
2948,-31.250000
2949,-31.250000
2950,-31.250000
2951,-27.343750
2952,-27.343750
2953,-27.343750
2954,-27.343750
2955,-27.343750
2956,-27.343750
2957,-27.343750
2958,-27.343750
2959,-27.343750
2960,-27.343750
2961,-27.343750
2962,-27.343750
2963,-27.343750
2964,-27.343750
2965,-27.343750
2966,-27.343750
2967,-27.343750
2968,-27.343750
2969,-27.343750
2970,-27.343750
2971,-27.343750
2972,-27.343750
2973,-27.343750
2974,-27.343750
2975,-27.343750
2976,-27.343750
2977,-23.437500
2978,-27.343750
2979,-27.343750
2980,-27.343750
2981,-27.343750
2982,-23.437500
2983,-23.437500
2984,-23.437500
2985,-23.437500
2986,-23.437500
2987,-23.437500
2988,-23.437500
2989,-23.437500
2990,-23.437500
2991,-23.437500
2992,-23.437500
2993,-23.437500
2994,-23.437500
2995,-23.437500
2996,-23.437500
2997,-23.437500
2998,-23.437500
2999,-23.437500
3000,-23.437500
3001,-23.437500
3002,-23.437500
3003,-19.531250
3004,-19.531250
3005,-23.437500
3006,-23.437500
3007,-23.437500
3008,-23.437500
3009,-23.437500
3010,-19.531250
3011,-19.531250
3012,-19.531250
3013,-19.531250
3014,-19.531250
3015,-19.531250
3016,-19.531250
3017,-19.531250
3018,-19.531250
3019,-19.531250
3020,-19.531250
3021,-19.531250
3022,-19.531250
3023,-19.531250
3024,-19.531250
3025,-19.531250
3026,-19.531250
3027,-19.531250
3028,-19.531250
3029,-19.531250
3030,-19.531250
3031,-19.531250
3032,-15.625000
3033,-15.625000
3034,-15.625000
3035,-15.625000
3036,-15.625000
3037,-15.625000
3038,-15.625000
3039,-15.625000
3040,-15.625000
3041,-15.625000
3042,-15.625000
3043,-15.625000
3044,-15.625000
3045,-15.625000
3046,-15.625000
3047,-15.625000
3048,-15.625000
3049,-15.625000
3050,-15.625000
3051,-15.625000
3052,-15.625000
3053,-15.625000
3054,-11.718750
3055,-11.718750
3056,-11.718750
3057,-15.625000
3058,-11.718750
3059,-11.718750
3060,-11.718750
3061,-11.718750
3062,-11.718750
3063,-11.718750
3064,-11.718750
3065,-11.718750
3066,-11.718750
3067,-11.718750
3068,-11.718750
3069,-11.718750
3070,-11.718750
3071,-11.718750
3072,-11.718750
3073,-11.718750
3074,-11.718750
3075,-11.718750
3076,-11.718750
3077,-11.718750
3078,-7.812500
3079,-11.718750
3080,-11.718750
3081,-7.812500
3082,-7.812500
3083,-7.812500
3084,-7.812500
3085,-7.812500
3086,-7.812500
3087,-7.812500
3088,-7.812500
3089,-7.812500
3090,-7.812500
3091,-7.812500
3092,-7.812500
3093,-7.812500
3094,-7.812500
3095,-7.812500
3096,-7.812500
3097,-7.812500
3098,-7.812500
3099,-7.812500
3100,-7.812500
3101,-7.812500
3102,-3.906250
3103,-3.906250
3104,-3.906250
3105,-7.812500
3106,-3.906250
3107,-3.906250
3108,-3.906250
3109,-3.906250
3110,-3.906250
3111,-3.906250
3112,-3.906250
3113,-3.906250
3114,-3.906250
3115,-3.906250
3116,-3.906250
3117,-3.906250
3118,-3.906250
3119,-3.906250
3120,-3.906250
3121,-3.906250
3122,-3.906250
3123,-3.906250
3124,-3.906250
3125,-3.906250
3126,-3.906250
3127,-3.906250
3128,0.000000
3129,0.000000
3130,0.000000
3131,-3.906250
3132,0.000000
3133,0.000000
3134,0.000000
3135,0.000000
3136,0.000000
3137,0.000000
3138,0.000000
3139,0.000000
3140,0.000000
3141,0.000000
3142,0.000000
3143,0.000000
3144,0.000000
3145,0.000000
3146,0.000000
3147,0.000000
3148,0.000000
3149,0.000000
3150,0.000000
3151,0.000000
3152,0.000000
3153,0.000000
3154,0.000000
3155,0.000000
3156,0.000000
3157,0.000000
3158,3.906250
3159,0.000000
3160,0.000000
3161,0.000000
3162,3.906250
3163,3.906250
3164,3.906250
3165,3.906250
3166,3.906250
3167,3.906250
3168,3.906250
3169,3.906250
3170,3.906250
3171,3.906250
3172,3.906250
3173,3.906250
3174,3.906250
3175,3.906250
3176,3.906250
3177,3.906250
3178,3.906250
3179,3.906250
3180,3.906250
3181,3.906250
3182,3.906250
3183,3.906250
3184,3.906250
3185,3.906250
3186,3.906250
3187,3.906250
3188,3.906250
3189,3.906250
3190,3.906250
3191,3.906250
3192,3.906250
3193,3.906250
3194,7.812500
3195,7.812500
3196,7.812500
3197,7.812500
3198,7.812500
3199,7.812500
3200,7.812500
3201,7.812500
3202,7.812500
3203,7.812500
3204,7.812500
3205,7.812500
3206,7.812500
3207,7.812500
3208,7.812500
3209,7.812500
3210,7.812500
3211,7.812500
3212,7.812500
3213,7.812500
3214,7.812500
3215,7.812500
3216,7.812500
3217,7.812500
3218,7.812500
3219,7.812500
3220,7.812500
3221,7.812500
3222,7.812500
3223,7.812500
3224,7.812500
3225,7.812500
3226,7.812500
3227,11.718750
3228,7.812500
3229,7.812500
3230,7.812500
3231,7.812500
3232,7.812500
3233,7.812500
3234,7.812500
3235,7.812500
3236,7.812500
3237,7.812500
3238,7.812500
3239,7.812500
3240,11.718750
3241,11.718750
3242,11.718750
3243,11.718750
3244,11.718750
3245,11.718750
3246,11.718750
3247,11.718750
3248,11.718750
3249,11.718750
3250,11.718750
3251,11.718750
3252,11.718750
3253,11.718750
3254,11.718750
3255,11.718750
3256,11.718750
3257,11.718750
3258,11.718750
3259,11.718750
3260,11.718750
3261,11.718750
3262,11.718750
3263,11.718750
3264,11.718750
3265,11.718750
3266,11.718750
3267,11.718750
3268,11.718750
3269,11.718750
3270,11.718750
3271,11.718750
3272,11.718750
3273,11.718750
3274,11.718750
3275,11.718750
3276,11.718750
3277,11.718750
3278,11.718750
3279,11.718750
3280,11.718750
3281,11.718750
3282,11.718750
3283,11.718750
3284,11.718750
3285,11.718750
3286,11.718750
3287,11.718750
3288,11.718750
3289,11.718750
3290,11.718750
3291,11.718750
3292,11.718750
3293,11.718750
3294,11.718750
3295,11.718750
3296,11.718750
3297,11.718750
3298,11.718750
3299,11.718750
3300,11.718750
3301,11.718750
3302,11.718750
3303,11.718750
3304,11.718750
3305,11.718750
3306,11.718750
3307,11.718750
3308,11.718750
3309,11.718750
3310,11.718750
3311,11.718750
3312,11.718750
3313,11.718750
3314,11.718750
3315,11.718750
3316,11.718750
3317,11.718750
3318,11.718750
3319,11.718750
3320,11.718750
3321,11.718750
3322,11.718750
3323,11.718750
3324,11.718750
3325,11.718750
3326,11.718750
3327,11.718750
3328,11.718750
3329,11.718750
3330,11.718750
3331,11.718750
3332,11.718750
3333,11.718750
3334,11.718750
3335,11.718750
3336,11.718750
3337,11.718750
3338,11.718750
3339,11.718750
3340,11.718750
3341,11.718750
3342,11.718750
3343,11.718750
3344,11.718750
3345,11.718750
3346,11.718750
3347,11.718750
3348,11.718750
3349,11.718750
3350,11.718750
3351,11.718750
3352,7.812500
3353,7.812500
3354,7.812500
3355,11.718750
3356,7.812500
3357,7.812500
3358,7.812500
3359,11.718750
3360,11.718750
3361,7.812500
3362,7.812500
3363,7.812500
3364,7.812500
3365,7.812500
3366,7.812500
3367,7.812500
3368,7.812500
3369,7.812500
3370,7.812500
3371,7.812500
3372,7.812500
3373,7.812500
3374,7.812500
3375,7.812500
3376,7.812500
3377,7.812500
3378,7.812500
3379,7.812500
3380,7.812500
3381,7.812500
3382,7.812500
3383,7.812500
3384,7.812500
3385,7.812500
3386,7.812500
3387,7.812500
3388,7.812500
3389,7.812500
3390,7.812500
3391,7.812500
3392,7.812500
3393,7.812500
3394,7.812500
3395,7.812500
3396,7.812500
3397,7.812500
3398,7.812500
3399,7.812500
3400,7.812500
3401,7.812500
3402,7.812500
3403,7.812500
3404,7.812500
3405,7.812500
3406,7.812500
3407,7.812500
3408,7.812500
3409,7.812500
3410,3.906250
3411,7.812500
3412,3.906250
3413,3.906250
3414,3.906250
3415,3.906250
3416,3.906250
3417,3.906250
3418,3.906250
3419,3.906250
3420,3.906250
3421,3.906250
3422,3.906250
3423,3.906250
3424,3.906250
3425,3.906250
3426,3.906250
3427,3.906250
3428,3.906250
3429,3.906250
3430,3.906250
3431,3.906250
3432,3.906250
3433,3.906250
3434,3.906250
3435,3.906250
3436,3.906250
3437,3.906250
3438,3.906250
3439,3.906250
3440,3.906250
3441,0.000000
3442,3.906250
3443,0.000000
3444,0.000000
3445,0.000000
3446,3.906250
3447,0.000000
3448,0.000000
3449,0.000000
3450,0.000000
3451,0.000000
3452,0.000000
3453,0.000000
3454,0.000000
3455,0.000000
3456,0.000000
3457,0.000000
3458,0.000000
3459,0.000000
3460,0.000000
3461,0.000000
3462,-3.906250
3463,0.000000
3464,0.000000
3465,0.000000
3466,0.000000
3467,0.000000
3468,0.000000
3469,0.000000
3470,0.000000
3471,0.000000
3472,0.000000
3473,0.000000
3474,0.000000
3475,0.000000
3476,0.000000
3477,0.000000
3478,-3.906250
3479,-3.906250
3480,-3.906250
3481,-3.906250
3482,-3.906250
3483,-3.906250
3484,-3.906250
3485,-3.906250
3486,-3.906250
3487,-3.906250
3488,-3.906250
3489,-3.906250
3490,-3.906250
3491,-3.906250
3492,-3.906250
3493,-3.906250
3494,-3.906250
3495,-3.906250
3496,-3.906250
3497,-3.906250
3498,-3.906250
3499,-3.906250
3500,-3.906250
3501,-3.906250
3502,-3.906250
3503,-3.906250
3504,-3.906250
3505,-3.906250
3506,-3.906250
3507,-7.812500
3508,-7.812500
3509,-7.812500
3510,-7.812500
3511,-7.812500
3512,-7.812500
3513,-7.812500
3514,-7.812500
3515,-7.812500
3516,-7.812500
3517,-7.812500
3518,-7.812500
3519,-7.812500
3520,-7.812500
3521,-7.812500
3522,-7.812500
3523,-7.812500
3524,-7.812500
3525,-7.812500
3526,-7.812500
3527,-11.718750
3528,-7.812500
3529,-11.718750
3530,-7.812500
3531,-11.718750
3532,-7.812500
3533,-7.812500
3534,-11.718750
3535,-11.718750
3536,-11.718750
3537,-11.718750
3538,-11.718750
3539,-11.718750
3540,-11.718750
3541,-11.718750
3542,-11.718750
3543,-11.718750
3544,-11.718750
3545,-11.718750
3546,-11.718750
3547,-11.718750
3548,-11.718750
3549,-11.718750
3550,-11.718750
3551,-11.718750
3552,-11.718750
3553,-11.718750
3554,-11.718750
3555,-11.718750
3556,-11.718750
3557,-15.625000
3558,-15.625000
3559,-15.625000
3560,-15.625000
3561,-15.625000
3562,-15.625000
3563,-15.625000
3564,-15.625000
3565,-15.625000
3566,-15.625000
3567,-15.625000
3568,-15.625000
3569,-15.625000
3570,-15.625000
3571,-15.625000
3572,-15.625000
3573,-15.625000
3574,-15.625000
3575,-15.625000
3576,-15.625000
3577,-15.625000
3578,-15.625000
3579,-15.625000
3580,-15.625000
3581,-15.625000
3582,-15.625000
3583,-19.531250
3584,-19.531250
3585,-19.531250
3586,-19.531250
3587,-19.531250
3588,-15.625000
3589,-19.531250
3590,-19.531250
3591,-19.531250
3592,-19.531250
3593,-19.531250
3594,-19.531250
3595,-19.531250
3596,-19.531250
3597,-19.531250
3598,-19.531250
3599,-19.531250
3600,-19.531250
3601,-19.531250
3602,-19.531250
3603,-19.531250
3604,-19.531250
3605,-19.531250
3606,-19.531250
3607,-19.531250
3608,-19.531250
3609,-19.531250
3610,-19.531250
3611,-23.437500
3612,-23.437500
3613,-23.437500
3614,-23.437500
3615,-23.437500
3616,-23.437500
3617,-23.437500
3618,-23.437500
3619,-23.437500
3620,-23.437500
3621,-23.437500
3622,-23.437500
3623,-23.437500
3624,-23.437500
3625,-23.437500
3626,-23.437500
3627,-23.437500
3628,-23.437500
3629,-23.437500
3630,-23.437500
3631,-23.437500
3632,-23.437500
3633,-23.437500
3634,-23.437500
3635,-23.437500
3636,-23.437500
3637,-23.437500
3638,-23.437500
3639,-27.343750
3640,-27.343750
3641,-27.343750
3642,-27.343750
3643,-27.343750
3644,-27.343750
3645,-27.343750
3646,-27.343750
3647,-27.343750
3648,-27.343750
3649,-27.343750
3650,-27.343750
3651,-27.343750
3652,-27.343750
3653,-27.343750
3654,-27.343750
3655,-27.343750
3656,-27.343750
3657,-27.343750
3658,-27.343750
3659,-27.343750
3660,-27.343750
3661,-27.343750
3662,-27.343750
3663,-27.343750
3664,-27.343750
3665,-27.343750
3666,-27.343750
3667,-27.343750
3668,-27.343750
3669,-27.343750
3670,-27.343750
3671,-31.250000
3672,-31.250000
3673,-31.250000
3674,-31.250000
3675,-31.250000
3676,-31.250000
3677,-31.250000
3678,-31.250000
3679,-31.250000
3680,-31.250000
3681,-31.250000
3682,-31.250000
3683,-31.250000
3684,-31.250000
3685,-31.250000
3686,-31.250000
3687,-31.250000
3688,-31.250000
3689,-31.250000
3690,-31.250000
3691,-31.250000
3692,-31.250000
3693,-31.250000
3694,-31.250000
3695,-31.250000
3696,-31.250000
3697,-31.250000
3698,-31.250000
3699,-31.250000
3700,-31.250000
3701,-31.250000
3702,-31.250000
3703,-31.250000
3704,-31.250000
3705,-31.250000
3706,-31.250000
3707,-35.156250
3708,-35.156250
3709,-35.156250
3710,-31.250000
3711,-31.250000
3712,-31.250000
3713,-35.156250
3714,-35.156250
3715,-31.250000
3716,-35.156250
3717,-35.156250
3718,-35.156250
3719,-35.156250
3720,-35.156250
3721,-35.156250
3722,-35.156250
3723,-35.156250
3724,-35.156250
3725,-35.156250
3726,-35.156250
3727,-35.156250
3728,-35.156250
3729,-35.156250
3730,-35.156250
3731,-35.156250
3732,-35.156250
3733,-35.156250
3734,-35.156250
3735,-35.156250
3736,-35.156250
3737,-35.156250
3738,-35.156250
3739,-35.156250
3740,-35.156250
3741,-35.156250
3742,-35.156250
3743,-35.156250
3744,-35.156250
3745,-35.156250
3746,-35.156250
3747,-35.156250
3748,-35.156250
3749,-35.156250
3750,-35.156250
3751,-35.156250
3752,-35.156250
3753,-35.156250
3754,-35.156250
3755,-35.156250
3756,-35.156250
3757,-35.156250
3758,-35.156250
3759,-35.156250
3760,-39.062500
3761,-35.156250
3762,-35.156250
3763,-35.156250
3764,-39.062500
3765,-35.156250
3766,-39.062500
3767,-39.062500
3768,-39.062500
3769,-35.156250
3770,-39.062500
3771,-39.062500
3772,-39.062500
3773,-39.062500
3774,-39.062500
3775,-39.062500
3776,-39.062500
3777,-35.156250
3778,-39.062500
3779,-39.062500
3780,-39.062500
3781,-39.062500
3782,-39.062500
3783,-39.062500
3784,-39.062500
3785,-39.062500
3786,-39.062500
3787,-39.062500
3788,-39.062500
3789,-39.062500
3790,-39.062500
3791,-39.062500
3792,-39.062500
3793,-39.062500
3794,-39.062500
3795,-39.062500
3796,-39.062500
3797,-39.062500
3798,-39.062500
3799,-39.062500
3800,-39.062500
3801,-39.062500
3802,-39.062500
3803,-39.062500
3804,-39.062500
3805,-39.062500
3806,-39.062500
3807,-39.062500
3808,-39.062500
3809,-39.062500
3810,-39.062500
3811,-39.062500
3812,-39.062500
3813,-39.062500
3814,-39.062500
3815,-39.062500
3816,-39.062500
3817,-39.062500
3818,-39.062500
3819,-39.062500
3820,-39.062500
3821,-39.062500
3822,-39.062500
3823,-39.062500
3824,-39.062500
3825,-39.062500
3826,-39.062500
3827,-39.062500
3828,-39.062500
3829,-39.062500
3830,-39.062500
3831,-39.062500
3832,-39.062500
3833,-39.062500
3834,-39.062500
3835,-39.062500
3836,-39.062500
3837,-39.062500
3838,-39.062500
3839,-39.062500
3840,-39.062500
3841,-39.062500
3842,-39.062500
3843,-39.062500
3844,-39.062500
3845,-39.062500
3846,-35.156250
3847,-35.156250
3848,-35.156250
3849,-35.156250
3850,-39.062500
3851,-39.062500
3852,-39.062500
3853,-35.156250
3854,-39.062500
3855,-35.156250
3856,-35.156250
3857,-39.062500
3858,-39.062500
3859,-35.156250
3860,-39.062500
3861,-35.156250
3862,-35.156250
3863,-39.062500
3864,-35.156250
3865,-35.156250
3866,-35.156250
3867,-35.156250
3868,-35.156250
3869,-35.156250
3870,-35.156250
3871,-35.156250
3872,-35.156250
3873,-35.156250
3874,-35.156250
3875,-35.156250
3876,-35.156250
3877,-35.156250
3878,-35.156250
3879,-35.156250
3880,-35.156250
3881,-35.156250
3882,-35.156250
3883,-35.156250
3884,-35.156250
3885,-35.156250
3886,-35.156250
3887,-35.156250
3888,-35.156250
3889,-35.156250
3890,-35.156250
3891,-35.156250
3892,-35.156250
3893,-35.156250
3894,-35.156250
3895,-35.156250
3896,-35.156250
3897,-35.156250
3898,-35.156250
3899,-35.156250
3900,-35.156250
3901,-35.156250
3902,-35.156250
3903,-35.156250
3904,-31.250000
3905,-31.250000
3906,-31.250000
3907,-31.250000
3908,-35.156250
3909,-35.156250
3910,-35.156250
3911,-31.250000
3912,-31.250000
3913,-31.250000
3914,-31.250000
3915,-31.250000
3916,-31.250000
3917,-31.250000
3918,-31.250000
3919,-31.250000
3920,-31.250000
3921,-31.250000
3922,-31.250000
3923,-31.250000
3924,-31.250000
3925,-31.250000
3926,-31.250000
3927,-31.250000
3928,-31.250000
3929,-31.250000
3930,-31.250000
3931,-31.250000
3932,-31.250000
3933,-31.250000
3934,-31.250000
3935,-31.250000
3936,-31.250000
3937,-31.250000
3938,-31.250000
3939,-31.250000
3940,-31.250000
3941,-27.343750
3942,-31.250000
3943,-27.343750
3944,-31.250000
3945,-27.343750
3946,-27.343750
3947,-27.343750
3948,-27.343750
3949,-27.343750
3950,-27.343750
3951,-27.343750
3952,-27.343750
3953,-27.343750
3954,-27.343750
3955,-27.343750
3956,-27.343750
3957,-27.343750
3958,-27.343750
3959,-27.343750
3960,-27.343750
3961,-27.343750
3962,-27.343750
3963,-27.343750
3964,-27.343750
3965,-27.343750
3966,-27.343750
3967,-27.343750
3968,-27.343750
3969,-23.437500
3970,-23.437500
3971,-23.437500
3972,-23.437500
3973,-23.437500
3974,-23.437500
3975,-23.437500
3976,-23.437500
3977,-23.437500
3978,-23.437500
3979,-23.437500
3980,-23.437500
3981,-23.437500
3982,-23.437500
3983,-23.437500
3984,-23.437500
3985,-23.437500
3986,-23.437500
3987,-23.437500
3988,-23.437500
3989,-23.437500
3990,-23.437500
3991,-19.531250
3992,-23.437500
3993,-23.437500
3994,-23.437500
3995,-23.437500
3996,-23.437500
3997,-23.437500
3998,-19.531250
3999,-19.531250
4000,-19.531250
4001,-19.531250
4002,-19.531250
4003,-19.531250
4004,-19.531250
4005,-19.531250
4006,-19.531250
4007,-19.531250
4008,-19.531250
4009,-19.531250
4010,-19.531250
4011,-19.531250
4012,-19.531250
4013,-19.531250
4014,-19.531250
4015,-19.531250
4016,-19.531250
4017,-19.531250
4018,-15.625000
4019,-19.531250
4020,-19.531250
4021,-15.625000
4022,-15.625000
4023,-15.625000
4024,-15.625000
4025,-15.625000
4026,-15.625000
4027,-15.625000
4028,-15.625000
4029,-15.625000
4030,-15.625000
4031,-15.625000
4032,-15.625000
4033,-15.625000
4034,-15.625000
4035,-15.625000
4036,-15.625000
4037,-15.625000
4038,-15.625000
4039,-15.625000
4040,-15.625000
4041,-15.625000
4042,-15.625000
4043,-15.625000
4044,-15.625000
4045,-15.625000
4046,-11.718750
4047,-11.718750
4048,-11.718750
4049,-11.718750
4050,-11.718750
4051,-11.718750
4052,-11.718750
4053,-11.718750
4054,-11.718750
4055,-11.718750
4056,-11.718750
4057,-11.718750
4058,-11.718750
4059,-11.718750
4060,-11.718750
4061,-11.718750
4062,-11.718750
4063,-11.718750
4064,-11.718750
4065,-11.718750
4066,-7.812500
4067,-11.718750
4068,-11.718750
4069,-7.812500
4070,-7.812500
4071,-7.812500
4072,-7.812500
4073,-7.812500
4074,-7.812500
4075,-7.812500
4076,-7.812500
4077,-7.812500
4078,-7.812500
4079,-7.812500
4080,-7.812500
4081,-7.812500
4082,-7.812500
4083,-7.812500
4084,-7.812500
4085,-7.812500
4086,-7.812500
4087,-7.812500
4088,-3.906250
4089,-3.906250
4090,-3.906250
4091,-3.906250
4092,-7.812500
4093,-7.812500
4094,-3.906250
4095,-3.906250
4096,-3.906250
4097,-3.906250
4098,-3.906250
4099,-3.906250
4100,-3.906250
4101,-3.906250
4102,-3.906250
4103,-3.906250
4104,-3.906250
4105,-3.906250
4106,-3.906250
4107,-3.906250
4108,-3.906250
4109,-3.906250
4110,-3.906250
4111,-3.906250
4112,-3.906250
4113,-3.906250
4114,-3.906250
4115,-3.906250
4116,0.000000
4117,0.000000
4118,0.000000
4119,0.000000
4120,0.000000
4121,0.000000
4122,0.000000
4123,0.000000
4124,0.000000
4125,0.000000
4126,0.000000
4127,0.000000
4128,0.000000
4129,0.000000
4130,0.000000
4131,0.000000
4132,0.000000
4133,0.000000
4134,0.000000
4135,0.000000
4136,0.000000
4137,0.000000
4138,0.000000
4139,0.000000
4140,3.906250
4141,0.000000
4142,0.000000
4143,0.000000
4144,0.000000
4145,3.906250
4146,3.906250
4147,3.906250
4148,3.906250
4149,3.906250
4150,3.906250
4151,3.906250
4152,3.906250
4153,3.906250
4154,3.906250
4155,3.906250
4156,3.906250
4157,3.906250
4158,3.906250
4159,3.906250
4160,3.906250
4161,3.906250
4162,3.906250
4163,3.906250
4164,3.906250
4165,7.812500
4166,3.906250
4167,3.906250
4168,3.906250
4169,3.906250
4170,3.906250
4171,3.906250
4172,3.906250
4173,3.906250
4174,3.906250
4175,3.906250
4176,7.812500
4177,3.906250
4178,3.906250
4179,3.906250
4180,3.906250
4181,3.906250
4182,7.812500
4183,7.812500
4184,3.906250
4185,7.812500
4186,7.812500
4187,7.812500
4188,7.812500
4189,7.812500
4190,7.812500
4191,7.812500
4192,7.812500
4193,7.812500
4194,7.812500
4195,7.812500
4196,7.812500
4197,7.812500
4198,7.812500
4199,7.812500
4200,7.812500
4201,7.812500
4202,7.812500
4203,7.812500
4204,7.812500
4205,7.812500
4206,7.812500
4207,7.812500
4208,7.812500
4209,7.812500
4210,7.812500
4211,7.812500
4212,7.812500
4213,7.812500
4214,7.812500
4215,7.812500
4216,7.812500
4217,7.812500
4218,7.812500
4219,7.812500
4220,7.812500
4221,7.812500
4222,11.718750
4223,7.812500
4224,7.812500
4225,7.812500
4226,11.718750
4227,7.812500
4228,11.718750
4229,7.812500
4230,7.812500
4231,7.812500
4232,11.718750
4233,11.718750
4234,11.718750
4235,7.812500
4236,11.718750
4237,11.718750
4238,11.718750
4239,11.718750
4240,11.718750
4241,7.812500
4242,11.718750
4243,11.718750
4244,11.718750
4245,11.718750
4246,11.718750
4247,11.718750
4248,11.718750
4249,11.718750
4250,11.718750
4251,11.718750
4252,11.718750
4253,11.718750
4254,11.718750
4255,11.718750
4256,11.718750
4257,11.718750
4258,11.718750
4259,11.718750
4260,11.718750
4261,11.718750
4262,11.718750
4263,11.718750
4264,11.718750
4265,11.718750
4266,11.718750
4267,11.718750
4268,11.718750
4269,11.718750
4270,11.718750
4271,11.718750
4272,11.718750
4273,11.718750
4274,11.718750
4275,11.718750
4276,11.718750
4277,11.718750
4278,11.718750
4279,11.718750
4280,11.718750
4281,11.718750
4282,11.718750
4283,11.718750
4284,11.718750
4285,11.718750
4286,11.718750
4287,11.718750
4288,11.718750
4289,11.718750
4290,11.718750
4291,11.718750
4292,11.718750
4293,11.718750
4294,11.718750
4295,11.718750
4296,11.718750
4297,11.718750
4298,11.718750
4299,11.718750
4300,11.718750
4301,11.718750
4302,11.718750
4303,11.718750
4304,11.718750
4305,11.718750
4306,11.718750
4307,11.718750
4308,11.718750
4309,11.718750
4310,11.718750
4311,11.718750
4312,11.718750
4313,11.718750
4314,11.718750
4315,11.718750
4316,11.718750
4317,11.718750
4318,11.718750
4319,11.718750
4320,11.718750
4321,11.718750
4322,11.718750
4323,11.718750
4324,7.812500
4325,11.718750
4326,11.718750
4327,7.812500
4328,11.718750
4329,7.812500
4330,7.812500
4331,11.718750
4332,11.718750
4333,11.718750
4334,11.718750
4335,11.718750
4336,11.718750
4337,7.812500
4338,7.812500
4339,7.812500
4340,11.718750
4341,7.812500
4342,7.812500
4343,7.812500
4344,11.718750
4345,7.812500
4346,11.718750
4347,7.812500
4348,7.812500
4349,7.812500
4350,7.812500
4351,7.812500
4352,7.812500
4353,7.812500
4354,7.812500
4355,7.812500
4356,7.812500
4357,7.812500
4358,7.812500
4359,7.812500
4360,7.812500
4361,7.812500
4362,7.812500
4363,7.812500
4364,7.812500
4365,7.812500
4366,7.812500
4367,7.812500
4368,7.812500
4369,7.812500
4370,7.812500
4371,7.812500
4372,7.812500
4373,7.812500
4374,7.812500
4375,7.812500
4376,7.812500
4377,7.812500
4378,7.812500
4379,7.812500
4380,7.812500
4381,7.812500
4382,7.812500
4383,7.812500
4384,7.812500
4385,7.812500
4386,7.812500
4387,7.812500
4388,7.812500
4389,7.812500
4390,7.812500
4391,7.812500
4392,7.812500
4393,3.906250
4394,7.812500
4395,7.812500
4396,3.906250
4397,7.812500
4398,7.812500
4399,3.906250
4400,3.906250
4401,3.906250
4402,3.906250
4403,3.906250
4404,3.906250
4405,3.906250
4406,3.906250
4407,3.906250
4408,3.906250
4409,3.906250
4410,3.906250
4411,3.906250
4412,3.906250
4413,3.906250
4414,3.906250
4415,3.906250
4416,3.906250
4417,3.906250
4418,3.906250
4419,3.906250
4420,3.906250
4421,3.906250
4422,3.906250
4423,3.906250
4424,3.906250
4425,3.906250
4426,3.906250
4427,3.906250
4428,3.906250
4429,3.906250
4430,3.906250
4431,0.000000
4432,3.906250
4433,3.906250
4434,3.906250
4435,0.000000
4436,3.906250
4437,0.000000
4438,0.000000
4439,0.000000
4440,0.000000
4441,0.000000
4442,0.000000
4443,0.000000
4444,0.000000
4445,0.000000
4446,0.000000
4447,0.000000
4448,0.000000
4449,0.000000
4450,0.000000
4451,0.000000
4452,0.000000
4453,0.000000
4454,0.000000
4455,0.000000
4456,0.000000
4457,0.000000
4458,0.000000
4459,0.000000
4460,0.000000
4461,0.000000
4462,0.000000
4463,-3.906250
4464,0.000000
4465,0.000000
4466,-3.906250
4467,-3.906250
4468,-3.906250
4469,-3.906250
4470,-3.906250
4471,-3.906250
4472,-3.906250
4473,-3.906250
4474,-3.906250
4475,-3.906250
4476,-3.906250
4477,-3.906250
4478,-3.906250
4479,-3.906250
4480,-3.906250
4481,-3.906250
4482,-3.906250
4483,-3.906250
4484,-3.906250
4485,-3.906250
4486,-3.906250
4487,-3.906250
4488,-3.906250
4489,-3.906250
4490,-3.906250
4491,-7.812500
4492,-3.906250
4493,-3.906250
4494,-3.906250
4495,-7.812500
4496,-7.812500
4497,-3.906250
4498,-7.812500
4499,-7.812500
4500,-7.812500
4501,-7.812500
4502,-7.812500
4503,-7.812500
4504,-7.812500
4505,-7.812500
4506,-7.812500
4507,-7.812500
4508,-7.812500
4509,-7.812500
4510,-7.812500
4511,-7.812500
4512,-7.812500
4513,-7.812500
4514,-7.812500
4515,-7.812500
4516,-7.812500
4517,-7.812500
4518,-7.812500
4519,-11.718750
4520,-7.812500
4521,-7.812500
4522,-11.718750
4523,-11.718750
4524,-11.718750
4525,-11.718750
4526,-11.718750
4527,-11.718750
4528,-11.718750
4529,-11.718750
4530,-11.718750
4531,-11.718750
4532,-11.718750
4533,-11.718750
4534,-11.718750
4535,-11.718750
4536,-11.718750
4537,-11.718750
4538,-11.718750
4539,-11.718750
4540,-11.718750
4541,-11.718750
4542,-11.718750
4543,-11.718750
4544,-11.718750
4545,-11.718750
4546,-11.718750
4547,-15.625000
4548,-15.625000
4549,-15.625000
4550,-15.625000
4551,-15.625000
4552,-15.625000
4553,-15.625000
4554,-15.625000
4555,-15.625000
4556,-15.625000
4557,-15.625000
4558,-15.625000
4559,-15.625000
4560,-15.625000
4561,-15.625000
4562,-15.625000
4563,-15.625000
4564,-15.625000
4565,-15.625000
4566,-15.625000
4567,-15.625000
4568,-15.625000
4569,-15.625000
4570,-15.625000
4571,-15.625000
4572,-15.625000
4573,-15.625000
4574,-15.625000
4575,-19.531250
4576,-19.531250
4577,-19.531250
4578,-19.531250
4579,-19.531250
4580,-19.531250
4581,-19.531250
4582,-19.531250
4583,-19.531250
4584,-19.531250
4585,-19.531250
4586,-19.531250
4587,-19.531250
4588,-19.531250
4589,-19.531250
4590,-19.531250
4591,-19.531250
4592,-19.531250
4593,-19.531250
4594,-19.531250
4595,-23.437500
4596,-19.531250
4597,-19.531250
4598,-19.531250
4599,-19.531250
4600,-23.437500
4601,-23.437500
4602,-23.437500
4603,-23.437500
4604,-23.437500
4605,-23.437500
4606,-23.437500
4607,-23.437500
4608,-23.437500
4609,-23.437500
4610,-23.437500
4611,-23.437500
4612,-23.437500
4613,-23.437500
4614,-23.437500
4615,-23.437500
4616,-23.437500
4617,-23.437500
4618,-23.437500
4619,-23.437500
4620,-23.437500
4621,-23.437500
4622,-23.437500
4623,-23.437500
4624,-23.437500
4625,-27.343750
4626,-27.343750
4627,-27.343750
4628,-27.343750
4629,-27.343750
4630,-27.343750
4631,-27.343750
4632,-27.343750
4633,-27.343750
4634,-27.343750
4635,-27.343750
4636,-27.343750
4637,-27.343750
4638,-27.343750
4639,-27.343750
4640,-27.343750
4641,-27.343750
4642,-27.343750
4643,-27.343750
4644,-27.343750
4645,-27.343750
4646,-27.343750
4647,-27.343750
4648,-27.343750
4649,-27.343750
4650,-27.343750
4651,-27.343750
4652,-27.343750
4653,-27.343750
4654,-27.343750
4655,-27.343750
4656,-27.343750
4657,-31.250000
4658,-27.343750
4659,-31.250000
4660,-27.343750
4661,-31.250000
4662,-31.250000
4663,-31.250000
4664,-31.250000
4665,-31.250000
4666,-31.250000
4667,-31.250000
4668,-31.250000
4669,-31.250000
4670,-31.250000
4671,-31.250000
4672,-31.250000
4673,-31.250000
4674,-31.250000
4675,-31.250000
4676,-31.250000
4677,-31.250000
4678,-31.250000
4679,-31.250000
4680,-31.250000
4681,-31.250000
4682,-31.250000
4683,-31.250000
4684,-31.250000
4685,-31.250000
4686,-31.250000
4687,-31.250000
4688,-31.250000
4689,-31.250000
4690,-31.250000
4691,-31.250000
4692,-31.250000
4693,-35.156250
4694,-35.156250
4695,-35.156250
4696,-35.156250
4697,-35.156250
4698,-31.250000
4699,-35.156250
4700,-35.156250
4701,-35.156250
4702,-35.156250
4703,-35.156250
4704,-35.156250
4705,-35.156250
4706,-35.156250
4707,-39.062500
4708,-35.156250
4709,-35.156250
4710,-35.156250
4711,-35.156250
4712,-35.156250
4713,-35.156250
4714,-35.156250
4715,-35.156250
4716,-35.156250
4717,-35.156250
4718,-35.156250
4719,-35.156250
4720,-35.156250
4721,-35.156250
4722,-35.156250
4723,-35.156250
4724,-35.156250
4725,-35.156250
4726,-35.156250
4727,-35.156250
4728,-35.156250
4729,-35.156250
4730,-35.156250
4731,-39.062500
4732,-35.156250
4733,-39.062500
4734,-35.156250
4735,-35.156250
4736,-35.156250
4737,-35.156250
4738,-35.156250
4739,-35.156250
4740,-35.156250
4741,-35.156250
4742,-39.062500
4743,-39.062500
4744,-39.062500
4745,-39.062500
4746,-35.156250
4747,-35.156250
4748,-35.156250
4749,-39.062500
4750,-39.062500
4751,-39.062500
4752,-39.062500
4753,-39.062500
4754,-39.062500
4755,-39.062500
4756,-39.062500
4757,-39.062500
4758,-39.062500
4759,-39.062500
4760,-39.062500
4761,-39.062500
4762,-39.062500
4763,-39.062500
4764,-39.062500
4765,-39.062500
4766,-39.062500
4767,-39.062500
4768,-39.062500
4769,-39.062500
4770,-39.062500
4771,-39.062500
4772,-39.062500
4773,-39.062500
4774,-39.062500
4775,-39.062500
4776,-39.062500
4777,-39.062500
4778,-39.062500
4779,-39.062500
4780,-39.062500
4781,-39.062500
4782,-39.062500
4783,-39.062500
4784,-39.062500
4785,-39.062500
4786,-39.062500
4787,-39.062500
4788,-39.062500
4789,-39.062500
4790,-39.062500
4791,-39.062500
4792,-39.062500
4793,-39.062500
4794,-39.062500
4795,-39.062500
4796,-39.062500
4797,-39.062500
4798,-39.062500
4799,-39.062500
4800,-39.062500
4801,-39.062500
4802,-39.062500
4803,-39.062500
4804,-39.062500
4805,-39.062500
4806,-39.062500
4807,-39.062500
4808,-39.062500
4809,-39.062500
4810,-39.062500
4811,-39.062500
4812,-39.062500
4813,-39.062500
4814,-39.062500
4815,-39.062500
4816,-39.062500
4817,-39.062500
4818,-39.062500
4819,-39.062500
4820,-39.062500
4821,-39.062500
4822,-39.062500
4823,-39.062500
4824,-39.062500
4825,-39.062500
4826,-39.062500
4827,-39.062500
4828,-39.062500
4829,-39.062500
4830,-39.062500
4831,-39.062500
4832,-39.062500
4833,-39.062500
4834,-39.062500
4835,-39.062500
4836,-39.062500
4837,-39.062500
4838,-39.062500
4839,-39.062500
4840,-39.062500
4841,-39.062500
4842,-39.062500
4843,-39.062500
4844,-39.062500
4845,-39.062500
4846,-39.062500
4847,-39.062500
4848,-39.062500
4849,-39.062500
4850,-39.062500
4851,-39.062500
4852,-39.062500
4853,-39.062500
4854,-39.062500
4855,-39.062500
4856,-39.062500
4857,-35.156250
4858,-35.156250
4859,-35.156250
4860,-35.156250
4861,-35.156250
4862,-39.062500
4863,-35.156250
4864,-35.156250
4865,-35.156250
4866,-35.156250
4867,-35.156250
4868,-35.156250
4869,-35.156250
4870,-35.156250
4871,-35.156250
4872,-35.156250
4873,-35.156250
4874,-35.156250
4875,-35.156250
4876,-35.156250
4877,-35.156250
4878,-35.156250
4879,-35.156250
4880,-35.156250
4881,-35.156250
4882,-35.156250
4883,-35.156250
4884,-35.156250
4885,-35.156250
4886,-35.156250
4887,-35.156250
4888,-35.156250
4889,-35.156250
4890,-35.156250
4891,-35.156250
4892,-35.156250
4893,-35.156250
4894,-35.156250
4895,-35.156250
4896,-35.156250
4897,-35.156250
4898,-35.156250
4899,-35.156250
4900,-31.250000
4901,-35.156250
4902,-31.250000
4903,-31.250000
4904,-35.156250
4905,-31.250000
4906,-31.250000
4907,-31.250000
4908,-31.250000
4909,-31.250000
4910,-31.250000
4911,-31.250000
4912,-31.250000
4913,-31.250000
4914,-31.250000
4915,-31.250000
4916,-31.250000
4917,-31.250000
4918,-31.250000
4919,-31.250000
4920,-31.250000
4921,-31.250000
4922,-31.250000
4923,-31.250000
4924,-31.250000
4925,-31.250000
4926,-31.250000
4927,-31.250000
4928,-31.250000
4929,-31.250000
4930,-27.343750
4931,-31.250000
4932,-31.250000
4933,-31.250000
4934,-27.343750
4935,-31.250000
4936,-27.343750
4937,-27.343750
4938,-27.343750
4939,-27.343750
4940,-27.343750
4941,-27.343750
4942,-27.343750
4943,-27.343750
4944,-27.343750
4945,-27.343750
4946,-27.343750
4947,-27.343750
4948,-27.343750
4949,-27.343750
4950,-27.343750
4951,-27.343750
4952,-27.343750
4953,-27.343750
4954,-27.343750
4955,-27.343750
4956,-27.343750
4957,-27.343750
4958,-27.343750
4959,-27.343750
4960,-27.343750
4961,-27.343750
4962,-27.343750
4963,-27.343750
4964,-23.437500
4965,-27.343750
4966,-23.437500
4967,-23.437500
4968,-27.343750
4969,-23.437500
4970,-23.437500
4971,-23.437500
4972,-23.437500
4973,-23.437500
4974,-23.437500
4975,-27.343750
4976,-23.437500
4977,-23.437500
4978,-23.437500
4979,-23.437500
4980,-23.437500
4981,-23.437500
4982,-23.437500
4983,-23.437500
4984,-23.437500
4985,-23.437500
4986,-23.437500
4987,-19.531250
4988,-23.437500
4989,-19.531250
4990,-19.531250
4991,-19.531250
4992,-23.437500
4993,-19.531250
4994,-19.531250
4995,-19.531250
4996,-19.531250
4997,-19.531250
4998,-19.531250
4999,-19.531250
5000,-19.531250
5001,-19.531250
5002,-19.531250
5003,-19.531250
5004,-19.531250
5005,-19.531250
5006,-19.531250
5007,-19.531250
5008,-19.531250
5009,-19.531250
5010,-19.531250
5011,-15.625000
5012,-19.531250
5013,-19.531250
5014,-15.625000
5015,-19.531250
5016,-15.625000
5017,-15.625000
5018,-15.625000
5019,-15.625000
5020,-15.625000
5021,-15.625000
5022,-15.625000
5023,-15.625000
5024,-15.625000
5025,-15.625000
5026,-15.625000
5027,-15.625000
5028,-15.625000
5029,-15.625000
5030,-15.625000
5031,-15.625000
5032,-15.625000
5033,-15.625000
5034,-15.625000
5035,-15.625000
5036,-11.718750
5037,-11.718750
5038,-11.718750
5039,-11.718750
5040,-11.718750
5041,-11.718750
5042,-11.718750
5043,-11.718750
5044,-11.718750
5045,-11.718750
5046,-11.718750
5047,-11.718750
5048,-11.718750
5049,-11.718750
5050,-11.718750
5051,-11.718750
5052,-11.718750
5053,-11.718750
5054,-11.718750
5055,-11.718750
5056,-11.718750
5057,-11.718750
5058,-11.718750
5059,-11.718750
5060,-11.718750
5061,-7.812500
5062,-11.718750
5063,-11.718750
5064,-7.812500
5065,-7.812500
5066,-7.812500
5067,-7.812500
5068,-7.812500
5069,-7.812500
5070,-7.812500
5071,-7.812500
5072,-7.812500
5073,-7.812500
5074,-7.812500
5075,-7.812500
5076,-7.812500
5077,-7.812500
5078,-7.812500
5079,-7.812500
5080,-7.812500
5081,-3.906250
5082,-7.812500
5083,-7.812500
5084,-7.812500
5085,-7.812500
5086,-3.906250
5087,-3.906250
5088,-3.906250
5089,-7.812500
5090,-3.906250
5091,-3.906250
5092,-7.812500
5093,-3.906250
5094,-3.906250
5095,-3.906250
5096,-3.906250
5097,-3.906250
5098,-3.906250
5099,-3.906250
5100,-3.906250
5101,-3.906250
5102,-3.906250
5103,-3.906250
5104,-3.906250
5105,-3.906250
5106,-3.906250
5107,-3.906250
5108,-3.906250
5109,-3.906250
5110,-3.906250
5111,-3.906250
5112,-3.906250
5113,0.000000
5114,0.000000
5115,0.000000
5116,0.000000
5117,0.000000
5118,0.000000
5119,0.000000
5120,0.000000
5121,0.000000
5122,0.000000
5123,0.000000
5124,0.000000
5125,0.000000
5126,0.000000
5127,0.000000
5128,0.000000
5129,0.000000
5130,0.000000
5131,0.000000
5132,0.000000
5133,0.000000
5134,0.000000
5135,0.000000
5136,0.000000
5137,0.000000
5138,3.906250
5139,0.000000
5140,0.000000
5141,0.000000
5142,0.000000
5143,0.000000
5144,3.906250
5145,3.906250
5146,3.906250
5147,3.906250
5148,3.906250
5149,3.906250
5150,3.906250
5151,3.906250
5152,3.906250
5153,3.906250
5154,3.906250
5155,3.906250
5156,3.906250
5157,3.906250
5158,3.906250
5159,3.906250
5160,3.906250
5161,3.906250
5162,3.906250
5163,3.906250
5164,3.906250
5165,3.906250
5166,3.906250
5167,3.906250
5168,3.906250
5169,3.906250
5170,3.906250
5171,3.906250
5172,7.812500
5173,7.812500
5174,7.812500
5175,7.812500
5176,3.906250
5177,3.906250
5178,7.812500
5179,7.812500
5180,7.812500
5181,7.812500
5182,7.812500
5183,7.812500
5184,7.812500
5185,7.812500
5186,7.812500
5187,7.812500
5188,7.812500
5189,7.812500
5190,7.812500
5191,7.812500
5192,7.812500
5193,7.812500
5194,7.812500
5195,7.812500
5196,7.812500
5197,7.812500
5198,7.812500
5199,7.812500
5200,7.812500
5201,7.812500
5202,7.812500
5203,7.812500
5204,7.812500
5205,7.812500
5206,7.812500
5207,7.812500
5208,7.812500
5209,7.812500
5210,7.812500
5211,7.812500
5212,7.812500
5213,7.812500
5214,7.812500
5215,7.812500
5216,7.812500
5217,7.812500
5218,7.812500
5219,7.812500
5220,7.812500
5221,7.812500
5222,7.812500
5223,7.812500
5224,7.812500
5225,7.812500
5226,7.812500
5227,7.812500
5228,7.812500
5229,11.718750
5230,11.718750
5231,11.718750
5232,11.718750
5233,7.812500
5234,7.812500
5235,11.718750
5236,11.718750
5237,11.718750
5238,11.718750
5239,11.718750
5240,11.718750
5241,11.718750
5242,11.718750
5243,11.718750
5244,7.812500
5245,11.718750
5246,11.718750
5247,11.718750
5248,11.718750
5249,11.718750
5250,11.718750
5251,11.718750
5252,11.718750
5253,11.718750
5254,11.718750
5255,11.718750
5256,11.718750
5257,11.718750
5258,11.718750
5259,11.718750
5260,11.718750
5261,11.718750
5262,11.718750
5263,11.718750
5264,11.718750
5265,11.718750
5266,11.718750
5267,11.718750
5268,11.718750
5269,11.718750
5270,11.718750
5271,11.718750
5272,11.718750
5273,11.718750
5274,11.718750
5275,11.718750
5276,11.718750
5277,11.718750
5278,11.718750
5279,11.718750
5280,11.718750
5281,11.718750
5282,11.718750
5283,11.718750
5284,11.718750
5285,11.718750
5286,11.718750
5287,11.718750
5288,11.718750
5289,11.718750
5290,11.718750
5291,11.718750
5292,11.718750
5293,11.718750
5294,11.718750
5295,11.718750
5296,11.718750
5297,11.718750
5298,11.718750
5299,11.718750
5300,11.718750
5301,11.718750
5302,11.718750
5303,11.718750
5304,11.718750
5305,11.718750
5306,11.718750
5307,11.718750
5308,11.718750
5309,11.718750
5310,11.718750
5311,11.718750
5312,11.718750
5313,11.718750
5314,11.718750
5315,11.718750
5316,11.718750
5317,11.718750
5318,11.718750
5319,11.718750
5320,11.718750
5321,11.718750
5322,11.718750
5323,11.718750
5324,11.718750
5325,11.718750
5326,11.718750
5327,7.812500
5328,7.812500
5329,7.812500
5330,7.812500
5331,7.812500
5332,7.812500
5333,7.812500
5334,11.718750
5335,7.812500
5336,7.812500
5337,7.812500
5338,7.812500
5339,7.812500
5340,7.812500
5341,7.812500
5342,7.812500
5343,7.812500
5344,7.812500
5345,7.812500
5346,7.812500
5347,7.812500
5348,7.812500
5349,7.812500
5350,7.812500
5351,7.812500
5352,7.812500
5353,7.812500
5354,7.812500
5355,7.812500
5356,7.812500
5357,7.812500
5358,7.812500
5359,7.812500
5360,7.812500
5361,7.812500
5362,7.812500
5363,7.812500
5364,7.812500
5365,7.812500
5366,7.812500
5367,7.812500
5368,7.812500
5369,7.812500
5370,3.906250
5371,7.812500
5372,7.812500
5373,3.906250
5374,7.812500
5375,7.812500
5376,3.906250
5377,7.812500
5378,3.906250
5379,7.812500
5380,7.812500
5381,7.812500
5382,3.906250
5383,7.812500
5384,3.906250
5385,7.812500
5386,3.906250
5387,3.906250
5388,3.906250
5389,3.906250
5390,3.906250
5391,3.906250
5392,3.906250
5393,7.812500
5394,3.906250
5395,3.906250
5396,3.906250
5397,3.906250
5398,3.906250
5399,3.906250
5400,3.906250
5401,3.906250
5402,3.906250
5403,3.906250
5404,3.906250
5405,3.906250
5406,3.906250
5407,3.906250
5408,3.906250
5409,3.906250
5410,3.906250
5411,3.906250
5412,3.906250
5413,3.906250
5414,3.906250
5415,3.906250
5416,3.906250
5417,3.906250
5418,3.906250
5419,3.906250
5420,3.906250
5421,3.906250
5422,0.000000
5423,0.000000
5424,0.000000
5425,0.000000
5426,0.000000
5427,0.000000
5428,0.000000
5429,0.000000
5430,0.000000
5431,0.000000
5432,0.000000
5433,0.000000
5434,0.000000
5435,0.000000
5436,0.000000
5437,0.000000
5438,0.000000
5439,0.000000
5440,0.000000
5441,0.000000
5442,0.000000
5443,0.000000
5444,0.000000
5445,-3.906250
5446,0.000000
5447,0.000000
5448,0.000000
5449,0.000000
5450,0.000000
5451,0.000000
5452,0.000000
5453,0.000000
5454,-3.906250
5455,-3.906250
5456,-3.906250
5457,-3.906250
5458,-3.906250
5459,-3.906250
5460,-3.906250
5461,-3.906250
5462,-3.906250
5463,-3.906250
5464,-3.906250
5465,-3.906250
5466,-3.906250
5467,-3.906250
5468,-3.906250
5469,-3.906250
5470,-3.906250
5471,-3.906250
5472,-3.906250
5473,-3.906250
5474,-3.906250
5475,-3.906250
5476,-3.906250
5477,-3.906250
5478,-3.906250
5479,-3.906250
5480,-3.906250
5481,-7.812500
5482,-7.812500
5483,-7.812500
5484,-7.812500
5485,-7.812500
5486,-7.812500
5487,-7.812500
5488,-7.812500
5489,-7.812500
5490,-7.812500
5491,-7.812500
5492,-7.812500
5493,-7.812500
5494,-7.812500
5495,-7.812500
5496,-7.812500
5497,-7.812500
5498,-7.812500
5499,-7.812500
5500,-7.812500
5501,-7.812500
5502,-7.812500
5503,-7.812500
5504,-7.812500
5505,-7.812500
5506,-7.812500
5507,-7.812500
5508,-7.812500
5509,-7.812500
5510,-11.718750
5511,-11.718750
5512,-11.718750
5513,-11.718750
5514,-11.718750
5515,-11.718750
5516,-11.718750
5517,-11.718750
5518,-11.718750
5519,-11.718750
5520,-11.718750
5521,-11.718750
5522,-11.718750
5523,-11.718750
5524,-11.718750
5525,-11.718750
5526,-11.718750
5527,-11.718750
5528,-11.718750
5529,-11.718750
5530,-11.718750
5531,-11.718750
5532,-11.718750
5533,-11.718750
5534,-11.718750
5535,-11.718750
5536,-11.718750
5537,-15.625000
5538,-11.718750
5539,-15.625000
5540,-15.625000
5541,-15.625000
5542,-15.625000
5543,-15.625000
5544,-15.625000
5545,-15.625000
5546,-15.625000
5547,-15.625000
5548,-15.625000
5549,-15.625000
5550,-15.625000
5551,-15.625000
5552,-15.625000
5553,-15.625000
5554,-15.625000
5555,-15.625000
5556,-15.625000
5557,-15.625000
5558,-15.625000
5559,-15.625000
5560,-15.625000
5561,-15.625000
5562,-15.625000
5563,-19.531250
5564,-15.625000
5565,-19.531250
5566,-19.531250
5567,-19.531250
5568,-19.531250
5569,-19.531250
5570,-19.531250
5571,-19.531250
5572,-19.531250
5573,-19.531250
5574,-19.531250
5575,-19.531250
5576,-19.531250
5577,-19.531250
5578,-19.531250
5579,-19.531250
5580,-19.531250
5581,-19.531250
5582,-19.531250
5583,-19.531250
5584,-19.531250
5585,-19.531250
5586,-19.531250
5587,-23.437500
5588,-19.531250
5589,-23.437500
5590,-19.531250
5591,-19.531250
5592,-23.437500
5593,-23.437500
5594,-23.437500
5595,-23.437500
5596,-23.437500
5597,-23.437500
5598,-23.437500
5599,-23.437500
5600,-23.437500
5601,-23.437500
5602,-23.437500
5603,-23.437500
5604,-23.437500
5605,-23.437500
5606,-23.437500
5607,-23.437500
5608,-23.437500
5609,-23.437500
5610,-23.437500
5611,-23.437500
5612,-23.437500
5613,-23.437500
5614,-23.437500
5615,-23.437500
5616,-23.437500
5617,-23.437500
5618,-27.343750
5619,-27.343750
5620,-27.343750
5621,-27.343750
5622,-27.343750
5623,-27.343750
5624,-27.343750
5625,-27.343750
5626,-27.343750
5627,-27.343750
5628,-27.343750
5629,-27.343750
5630,-27.343750
5631,-27.343750
5632,-27.343750
5633,-27.343750
5634,-27.343750
5635,-27.343750
5636,-27.343750
5637,-27.343750
5638,-27.343750
5639,-27.343750
5640,-27.343750
5641,-27.343750
5642,-27.343750
5643,-27.343750
5644,-27.343750
5645,-31.250000
5646,-27.343750
5647,-27.343750
5648,-27.343750
5649,-27.343750
5650,-27.343750
5651,-31.250000
5652,-31.250000
5653,-31.250000
5654,-31.250000
5655,-31.250000
5656,-31.250000
5657,-31.250000
5658,-31.250000
5659,-31.250000
5660,-31.250000
5661,-31.250000
5662,-31.250000
5663,-31.250000
5664,-31.250000
5665,-31.250000
5666,-31.250000
5667,-31.250000
5668,-31.250000
5669,-31.250000
5670,-31.250000
5671,-31.250000
5672,-31.250000
5673,-31.250000
5674,-31.250000
5675,-31.250000
5676,-31.250000
5677,-31.250000
5678,-31.250000
5679,-31.250000
5680,-31.250000
5681,-31.250000
5682,-31.250000
5683,-31.250000
5684,-35.156250
5685,-31.250000
5686,-31.250000
5687,-31.250000
5688,-31.250000
5689,-31.250000
5690,-31.250000
5691,-35.156250
5692,-35.156250
5693,-35.156250
5694,-35.156250
5695,-35.156250
5696,-31.250000
5697,-31.250000
5698,-35.156250
5699,-35.156250
5700,-35.156250
5701,-35.156250
5702,-35.156250
5703,-35.156250
5704,-35.156250
5705,-35.156250
5706,-35.156250
5707,-35.156250
5708,-35.156250
5709,-35.156250
5710,-35.156250
5711,-35.156250
5712,-35.156250
5713,-35.156250
5714,-35.156250
5715,-35.156250
5716,-35.156250
5717,-35.156250
5718,-35.156250
5719,-35.156250
5720,-35.156250
5721,-35.156250
5722,-35.156250
5723,-35.156250
5724,-35.156250
5725,-35.156250
5726,-35.156250
5727,-35.156250
5728,-35.156250
5729,-35.156250
5730,-39.062500
5731,-35.156250
5732,-35.156250
5733,-35.156250
5734,-35.156250
5735,-35.156250
5736,-39.062500
5737,-39.062500
5738,-39.062500
5739,-39.062500
5740,-39.062500
5741,-39.062500
5742,-39.062500
5743,-35.156250
5744,-39.062500
5745,-39.062500
5746,-35.156250
5747,-39.062500
5748,-39.062500
5749,-39.062500
5750,-39.062500
5751,-39.062500
5752,-39.062500
5753,-39.062500
5754,-39.062500
5755,-39.062500
5756,-39.062500
5757,-39.062500
5758,-39.062500
5759,-39.062500
5760,-39.062500
5761,-39.062500
5762,-39.062500
5763,-39.062500
5764,-39.062500
5765,-39.062500
5766,-39.062500
5767,-39.062500
5768,-39.062500
5769,-39.062500
5770,-39.062500
5771,-39.062500
5772,-39.062500
5773,-39.062500
5774,-39.062500
5775,-39.062500
5776,-39.062500
5777,-39.062500
5778,-39.062500
5779,-39.062500
5780,-39.062500
5781,-39.062500
5782,-39.062500
5783,-39.062500
5784,-39.062500
5785,-39.062500
5786,-39.062500
5787,-35.156250
5788,-39.062500
5789,-39.062500
5790,-39.062500
5791,-39.062500
5792,-39.062500
5793,-39.062500
5794,-39.062500
5795,-39.062500
5796,-39.062500
5797,-39.062500
5798,-39.062500
5799,-39.062500
5800,-39.062500
5801,-39.062500
5802,-39.062500
5803,-39.062500
5804,-39.062500
5805,-39.062500
5806,-39.062500
5807,-39.062500
5808,-39.062500
5809,-39.062500
5810,-39.062500
5811,-39.062500
5812,-39.062500
5813,-39.062500
5814,-39.062500
5815,-39.062500
5816,-39.062500
5817,-39.062500
5818,-39.062500
5819,-39.062500
5820,-39.062500
5821,-39.062500
5822,-39.062500
5823,-39.062500
5824,-35.156250
5825,-39.062500
5826,-39.062500
5827,-39.062500
5828,-39.062500
5829,-39.062500
5830,-39.062500
5831,-39.062500
5832,-35.156250
5833,-39.062500
5834,-39.062500
5835,-39.062500
5836,-35.156250
5837,-39.062500
5838,-35.156250
5839,-35.156250
5840,-35.156250
5841,-39.062500
5842,-35.156250
5843,-39.062500
5844,-39.062500
5845,-35.156250
5846,-39.062500
5847,-35.156250
5848,-35.156250
5849,-35.156250
5850,-35.156250
5851,-35.156250
5852,-35.156250
5853,-35.156250
5854,-35.156250
5855,-35.156250
5856,-35.156250
5857,-35.156250
5858,-35.156250
5859,-35.156250
5860,-35.156250
5861,-35.156250
5862,-35.156250
5863,-35.156250
5864,-35.156250
5865,-35.156250
5866,-35.156250
5867,-35.156250
5868,-35.156250
5869,-35.156250
5870,-35.156250
5871,-35.156250
5872,-35.156250
5873,-35.156250
5874,-35.156250
5875,-35.156250
5876,-35.156250
5877,-35.156250
5878,-35.156250
5879,-35.156250
5880,-35.156250
5881,-35.156250
5882,-35.156250
5883,-35.156250
5884,-35.156250
5885,-35.156250
5886,-35.156250
5887,-35.156250
5888,-31.250000
5889,-31.250000
5890,-31.250000
5891,-31.250000
5892,-31.250000
5893,-31.250000
5894,-31.250000
5895,-31.250000
5896,-31.250000
5897,-31.250000
5898,-31.250000
5899,-31.250000
5900,-31.250000
5901,-31.250000
5902,-31.250000
5903,-31.250000
5904,-31.250000
5905,-31.250000
5906,-31.250000
5907,-31.250000
5908,-31.250000
5909,-31.250000
5910,-31.250000
5911,-31.250000
5912,-31.250000
5913,-31.250000
5914,-27.343750
5915,-31.250000
5916,-27.343750
5917,-31.250000
5918,-31.250000
5919,-31.250000
5920,-27.343750
5921,-31.250000
5922,-31.250000
5923,-27.343750
5924,-27.343750
5925,-27.343750
5926,-27.343750
5927,-27.343750
5928,-27.343750
5929,-27.343750
5930,-27.343750
5931,-27.343750
5932,-27.343750
5933,-27.343750
5934,-27.343750
5935,-27.343750
5936,-27.343750
5937,-27.343750
5938,-27.343750
5939,-27.343750
5940,-27.343750
5941,-27.343750
5942,-27.343750
5943,-27.343750
5944,-27.343750
5945,-27.343750
5946,-27.343750
5947,-27.343750
5948,-27.343750
5949,-27.343750
5950,-23.437500
5951,-27.343750
5952,-23.437500
5953,-23.437500
5954,-23.437500
5955,-23.437500
5956,-23.437500
5957,-23.437500
5958,-23.437500
5959,-23.437500
5960,-23.437500
5961,-23.437500
5962,-23.437500
5963,-23.437500
5964,-23.437500
5965,-23.437500
5966,-23.437500
5967,-23.437500
5968,-23.437500
5969,-23.437500
5970,-23.437500
5971,-23.437500
5972,-23.437500
5973,-23.437500
5974,-19.531250
5975,-19.531250
5976,-23.437500
5977,-19.531250
5978,-19.531250
5979,-19.531250
5980,-19.531250
5981,-19.531250
5982,-19.531250
5983,-19.531250
5984,-19.531250
5985,-19.531250
5986,-19.531250
5987,-19.531250
5988,-19.531250
5989,-19.531250
5990,-19.531250
5991,-19.531250
5992,-19.531250
5993,-19.531250
5994,-19.531250
5995,-19.531250
5996,-19.531250
5997,-19.531250
5998,-19.531250
5999,-19.531250
6000,-15.625000
6001,-15.625000
6002,-15.625000
6003,-15.625000
6004,-15.625000
6005,-15.625000
6006,-15.625000
6007,-15.625000
6008,-15.625000
6009,-15.625000
6010,-15.625000
6011,-15.625000
6012,-15.625000
6013,-15.625000
6014,-15.625000
6015,-15.625000
6016,-15.625000
6017,-15.625000
6018,-15.625000
6019,-15.625000
6020,-15.625000
6021,-15.625000
6022,-11.718750
6023,-11.718750
6024,-11.718750
6025,-11.718750
6026,-11.718750
6027,-11.718750
6028,-11.718750
6029,-11.718750
6030,-11.718750
6031,-11.718750
6032,-11.718750
6033,-11.718750
6034,-11.718750
6035,-11.718750
6036,-11.718750
6037,-11.718750
6038,-11.718750
6039,-11.718750
6040,-11.718750
6041,-11.718750
6042,-11.718750
6043,-11.718750
6044,-7.812500
6045,-11.718750
6046,-11.718750
6047,-11.718750
6048,-7.812500
6049,-7.812500
6050,-7.812500
6051,-7.812500
6052,-7.812500
6053,-7.812500
6054,-7.812500
6055,-7.812500
6056,-7.812500
6057,-7.812500
6058,-7.812500
6059,-7.812500
6060,-7.812500
6061,-7.812500
6062,-7.812500
6063,-7.812500
6064,-7.812500
6065,-7.812500
6066,-7.812500
6067,-7.812500
6068,-3.906250
6069,-3.906250
6070,-3.906250
6071,-3.906250
6072,-3.906250
6073,-3.906250
6074,-3.906250
6075,-3.906250
6076,-3.906250
6077,-3.906250
6078,-3.906250
6079,-3.906250
6080,-3.906250
6081,-3.906250
6082,-3.906250
6083,-3.906250
6084,-3.906250
6085,-3.906250
6086,-3.906250
6087,-3.906250
6088,-3.906250
6089,-3.906250
6090,-3.906250
6091,-3.906250
6092,-3.906250
6093,-3.906250
6094,-3.906250
6095,-3.906250
6096,-3.906250
6097,0.000000
6098,0.000000
6099,0.000000
6100,0.000000
6101,0.000000
6102,0.000000
6103,0.000000
6104,0.000000
6105,0.000000
6106,0.000000
6107,0.000000
6108,0.000000
6109,0.000000
6110,0.000000
6111,0.000000
6112,0.000000
6113,0.000000
6114,0.000000
6115,0.000000
6116,0.000000
6117,0.000000
6118,0.000000
6119,0.000000
6120,0.000000
6121,0.000000
6122,0.000000
6123,0.000000
6124,0.000000
6125,3.906250
6126,3.906250
6127,3.906250
6128,0.000000
6129,3.906250
6130,3.906250
6131,3.906250
6132,3.906250
6133,3.906250
6134,3.906250
6135,3.906250
6136,3.906250
6137,3.906250
6138,3.906250
6139,3.906250
6140,3.906250
6141,3.906250
6142,3.906250
6143,3.906250
6144,3.906250
6145,3.906250
6146,3.906250
6147,3.906250
6148,3.906250
6149,3.906250
6150,3.906250
6151,3.906250
6152,3.906250
6153,3.906250
6154,3.906250
6155,7.812500
6156,7.812500
6157,7.812500
6158,7.812500
6159,7.812500
6160,7.812500
6161,3.906250
6162,7.812500
6163,7.812500
6164,7.812500
6165,7.812500
6166,7.812500
6167,7.812500
6168,7.812500
6169,7.812500
6170,7.812500
6171,7.812500
6172,7.812500
6173,7.812500
6174,7.812500
6175,7.812500
6176,7.812500
6177,7.812500
6178,7.812500
6179,7.812500
6180,7.812500
6181,7.812500
6182,7.812500
6183,7.812500
6184,7.812500
6185,7.812500
6186,7.812500
6187,7.812500
6188,7.812500
6189,7.812500
6190,7.812500
6191,7.812500
6192,7.812500
6193,7.812500
6194,11.718750
6195,7.812500
6196,7.812500
6197,7.812500
6198,7.812500
6199,7.812500
6200,7.812500
6201,11.718750
6202,11.718750
6203,11.718750
6204,11.718750
6205,11.718750
6206,11.718750
6207,11.718750
6208,11.718750
6209,11.718750
6210,11.718750
6211,7.812500
6212,11.718750
6213,11.718750
6214,11.718750
6215,11.718750
6216,7.812500
6217,11.718750
6218,11.718750
6219,11.718750
6220,11.718750
6221,11.718750
6222,11.718750
6223,11.718750
6224,11.718750
6225,11.718750
6226,11.718750
6227,11.718750
6228,11.718750
6229,11.718750
6230,11.718750
6231,11.718750
6232,11.718750
6233,11.718750
6234,11.718750
6235,11.718750
6236,11.718750
6237,11.718750
6238,11.718750
6239,11.718750
6240,11.718750
6241,11.718750
6242,11.718750
6243,11.718750
6244,11.718750
6245,11.718750
6246,11.718750
6247,11.718750
6248,11.718750
6249,11.718750
6250,11.718750
6251,11.718750
6252,11.718750
6253,11.718750
6254,11.718750
6255,11.718750
6256,11.718750
6257,11.718750
6258,11.718750
6259,11.718750
6260,11.718750
6261,11.718750
6262,11.718750
6263,11.718750
6264,11.718750
6265,11.718750
6266,11.718750
6267,11.718750
6268,11.718750
6269,11.718750
6270,11.718750
6271,11.718750
6272,11.718750
6273,11.718750
6274,11.718750
6275,11.718750
6276,11.718750
6277,11.718750
6278,11.718750
6279,11.718750
6280,11.718750
6281,11.718750
6282,11.718750
6283,11.718750
6284,11.718750
6285,11.718750
6286,11.718750
6287,11.718750
6288,11.718750
6289,11.718750
6290,11.718750
6291,11.718750
6292,11.718750
6293,11.718750
6294,11.718750
6295,11.718750
6296,11.718750
6297,11.718750
6298,11.718750
6299,11.718750
6300,11.718750
6301,11.718750
6302,11.718750
6303,11.718750
6304,11.718750
6305,11.718750
6306,11.718750
6307,11.718750
6308,11.718750
6309,11.718750
6310,11.718750
6311,11.718750
6312,11.718750
6313,11.718750
6314,11.718750
6315,11.718750
6316,11.718750
6317,11.718750
6318,11.718750
6319,11.718750
6320,11.718750
6321,11.718750
6322,7.812500
6323,11.718750
6324,11.718750
6325,11.718750
6326,11.718750
6327,11.718750
6328,11.718750
6329,11.718750
6330,7.812500
6331,11.718750
6332,7.812500
6333,7.812500
6334,7.812500
6335,7.812500
6336,7.812500
6337,7.812500
6338,7.812500
6339,7.812500
6340,7.812500
6341,7.812500
6342,7.812500
6343,7.812500
6344,7.812500
6345,7.812500
6346,7.812500
6347,7.812500
6348,7.812500
6349,7.812500
6350,7.812500
6351,7.812500
6352,7.812500
6353,7.812500
6354,7.812500
6355,7.812500
6356,7.812500
6357,7.812500
6358,7.812500
6359,7.812500
6360,7.812500
6361,7.812500
6362,7.812500
6363,7.812500
6364,7.812500
6365,7.812500
6366,7.812500
6367,7.812500
6368,7.812500
6369,7.812500
6370,7.812500
6371,7.812500
6372,7.812500
6373,7.812500
6374,7.812500
6375,7.812500
6376,7.812500
6377,7.812500
6378,7.812500
6379,7.812500
6380,3.906250
6381,3.906250
6382,3.906250
6383,3.906250
6384,3.906250
6385,3.906250
6386,3.906250
6387,3.906250
6388,3.906250
6389,3.906250
6390,3.906250
6391,3.906250
6392,3.906250
6393,3.906250
6394,3.906250
6395,3.906250
6396,3.906250
6397,3.906250
6398,3.906250
6399,3.906250
6400,3.906250
6401,3.906250
6402,3.906250
6403,3.906250
6404,3.906250
6405,3.906250
6406,3.906250
6407,3.906250
6408,3.906250
6409,3.906250
6410,3.906250
6411,3.906250
6412,3.906250
6413,3.906250
6414,3.906250
6415,3.906250
6416,3.906250
6417,0.000000
6418,0.000000
6419,0.000000
6420,0.000000
6421,0.000000
6422,0.000000
6423,0.000000
6424,0.000000
6425,0.000000
6426,0.000000
6427,0.000000
6428,0.000000
6429,0.000000
6430,0.000000
6431,0.000000
6432,0.000000
6433,0.000000
6434,0.000000
6435,0.000000
6436,0.000000
6437,0.000000
6438,0.000000
6439,0.000000
6440,0.000000
6441,0.000000
6442,0.000000
6443,0.000000
6444,0.000000
6445,0.000000
6446,-3.906250
6447,-3.906250
6448,0.000000
6449,-3.906250
6450,-3.906250
6451,-3.906250
6452,-3.906250
6453,-3.906250
6454,-3.906250
6455,-3.906250
6456,-3.906250
6457,-3.906250
6458,-3.906250
6459,-3.906250
6460,-3.906250
6461,-3.906250
6462,-3.906250
6463,-3.906250
6464,-3.906250
6465,-3.906250
6466,-3.906250
6467,-3.906250
6468,-3.906250
6469,-3.906250
6470,-3.906250
6471,-3.906250
6472,-3.906250
6473,-3.906250
6474,-3.906250
6475,-7.812500
6476,-7.812500
6477,-7.812500
6478,-7.812500
6479,-7.812500
6480,-7.812500
6481,-7.812500
6482,-7.812500
6483,-7.812500
6484,-7.812500
6485,-7.812500
6486,-7.812500
6487,-7.812500
6488,-7.812500
6489,-7.812500
6490,-7.812500
6491,-7.812500
6492,-7.812500
6493,-7.812500
6494,-7.812500
6495,-7.812500
6496,-7.812500
6497,-7.812500
6498,-7.812500
6499,-7.812500
6500,-7.812500
6501,-7.812500
6502,-7.812500
6503,-11.718750
6504,-11.718750
6505,-11.718750
6506,-11.718750
6507,-11.718750
6508,-11.718750
6509,-11.718750
6510,-11.718750
6511,-11.718750
6512,-11.718750
6513,-11.718750
6514,-11.718750
6515,-11.718750
6516,-11.718750
6517,-11.718750
6518,-11.718750
6519,-11.718750
6520,-11.718750
6521,-11.718750
6522,-11.718750
6523,-11.718750
6524,-11.718750
6525,-11.718750
6526,-11.718750
6527,-11.718750
6528,-11.718750
6529,-11.718750
6530,-15.625000
6531,-15.625000
6532,-15.625000
6533,-15.625000
6534,-15.625000
6535,-15.625000
6536,-15.625000
6537,-15.625000
6538,-15.625000
6539,-15.625000
6540,-15.625000
6541,-15.625000
6542,-15.625000
6543,-15.625000
6544,-15.625000
6545,-15.625000
6546,-15.625000
6547,-15.625000
6548,-15.625000
6549,-15.625000
6550,-15.625000
6551,-15.625000
6552,-19.531250
6553,-19.531250
6554,-15.625000
6555,-19.531250
6556,-19.531250
6557,-15.625000
6558,-15.625000
6559,-19.531250
6560,-19.531250
6561,-19.531250
6562,-19.531250
6563,-19.531250
6564,-19.531250
6565,-19.531250
6566,-19.531250
6567,-19.531250
6568,-19.531250
6569,-19.531250
6570,-19.531250
6571,-19.531250
6572,-19.531250
6573,-19.531250
6574,-19.531250
6575,-19.531250
6576,-19.531250
6577,-19.531250
6578,-19.531250
6579,-19.531250
6580,-19.531250
6581,-19.531250
6582,-23.437500
6583,-23.437500
6584,-23.437500
6585,-23.437500
6586,-23.437500
6587,-23.437500
6588,-23.437500
6589,-23.437500
6590,-23.437500
6591,-23.437500
6592,-23.437500
6593,-23.437500
6594,-23.437500
6595,-23.437500
6596,-23.437500
6597,-23.437500
6598,-23.437500
6599,-23.437500
6600,-23.437500
6601,-23.437500
6602,-23.437500
6603,-23.437500
6604,-23.437500
6605,-23.437500
6606,-23.437500
6607,-23.437500
6608,-23.437500
6609,-23.437500
6610,-27.343750
6611,-23.437500
6612,-23.437500
6613,-27.343750
6614,-27.343750
6615,-27.343750
6616,-27.343750
6617,-27.343750
6618,-27.343750
6619,-27.343750
6620,-27.343750
6621,-27.343750
6622,-27.343750
6623,-27.343750
6624,-27.343750
6625,-27.343750
6626,-27.343750
6627,-27.343750
6628,-27.343750
6629,-27.343750
6630,-27.343750
6631,-27.343750
6632,-27.343750
6633,-27.343750
6634,-27.343750
6635,-27.343750
6636,-27.343750
6637,-27.343750
6638,-27.343750
6639,-27.343750
6640,-31.250000
6641,-27.343750
6642,-27.343750
6643,-27.343750
6644,-27.343750
6645,-31.250000
6646,-31.250000
6647,-31.250000
6648,-31.250000
6649,-31.250000
6650,-31.250000
6651,-31.250000
6652,-31.250000
6653,-31.250000
6654,-31.250000
6655,-31.250000
6656,-31.250000
6657,-31.250000
6658,-31.250000
6659,-31.250000
6660,-31.250000
6661,-31.250000
6662,-31.250000
6663,-31.250000
6664,-31.250000
6665,-31.250000
6666,-31.250000
6667,-31.250000
6668,-31.250000
6669,-31.250000
6670,-31.250000
6671,-31.250000
6672,-31.250000
6673,-31.250000
6674,-31.250000
6675,-31.250000
6676,-31.250000
6677,-31.250000
6678,-31.250000
6679,-31.250000
6680,-31.250000
6681,-35.156250
6682,-35.156250
6683,-35.156250
6684,-35.156250
6685,-35.156250
6686,-35.156250
6687,-35.156250
6688,-35.156250
6689,-35.156250
6690,-35.156250
6691,-35.156250
6692,-35.156250
6693,-35.156250
6694,-35.156250
6695,-35.156250
6696,-35.156250
6697,-35.156250
6698,-35.156250
6699,-35.156250
6700,-35.156250
6701,-35.156250
6702,-35.156250
6703,-35.156250
6704,-35.156250
6705,-35.156250
6706,-35.156250
6707,-35.156250
6708,-35.156250
6709,-35.156250
6710,-35.156250
6711,-35.156250
6712,-35.156250
6713,-35.156250
6714,-35.156250
6715,-35.156250
6716,-35.156250
6717,-35.156250
6718,-35.156250
6719,-35.156250
6720,-35.156250
6721,-35.156250
6722,-35.156250
6723,-35.156250
6724,-35.156250
6725,-35.156250
6726,-35.156250
6727,-35.156250
6728,-35.156250
6729,-35.156250
6730,-35.156250
6731,-35.156250
6732,-35.156250
6733,-39.062500
6734,-39.062500
6735,-39.062500
6736,-35.156250
6737,-39.062500
6738,-39.062500
6739,-35.156250
6740,-35.156250
6741,-39.062500
6742,-39.062500
6743,-39.062500
6744,-39.062500
6745,-39.062500
6746,-39.062500
6747,-35.156250
6748,-35.156250
6749,-39.062500
6750,-39.062500
6751,-39.062500
6752,-39.062500
6753,-39.062500
6754,-39.062500
6755,-39.062500
6756,-39.062500
6757,-39.062500
6758,-39.062500
6759,-39.062500
6760,-39.062500
6761,-39.062500
6762,-39.062500
6763,-39.062500
6764,-39.062500
6765,-39.062500
6766,-39.062500
6767,-39.062500
6768,-39.062500
6769,-39.062500
6770,-39.062500
6771,-39.062500
6772,-39.062500
6773,-39.062500
6774,-39.062500
6775,-39.062500
6776,-39.062500
6777,-39.062500
6778,-39.062500
6779,-39.062500
6780,-39.062500
6781,-39.062500
6782,-39.062500
6783,-39.062500
6784,-39.062500
6785,-39.062500
6786,-39.062500
6787,-39.062500
6788,-39.062500
6789,-39.062500
6790,-39.062500
6791,-39.062500
6792,-39.062500
6793,-39.062500
6794,-39.062500
6795,-39.062500
6796,-39.062500
6797,-39.062500
6798,-39.062500
6799,-39.062500
6800,-39.062500
6801,-39.062500
6802,-39.062500
6803,-39.062500
6804,-39.062500
6805,-39.062500
6806,-39.062500
6807,-39.062500
6808,-39.062500
6809,-39.062500
6810,-39.062500
6811,-39.062500
6812,-39.062500
6813,-39.062500
6814,-39.062500
6815,-39.062500
6816,-39.062500
6817,-39.062500
6818,-39.062500
6819,-39.062500
6820,-35.156250
6821,-39.062500
6822,-39.062500
6823,-39.062500
6824,-35.156250
6825,-35.156250
6826,-35.156250
6827,-39.062500
6828,-35.156250
6829,-35.156250
6830,-35.156250
6831,-35.156250
6832,-35.156250
6833,-35.156250
6834,-35.156250
6835,-35.156250
6836,-35.156250
6837,-35.156250
6838,-35.156250
6839,-35.156250
6840,-35.156250
6841,-35.156250
6842,-35.156250
6843,-35.156250
6844,-35.156250
6845,-35.156250
6846,-35.156250
6847,-35.156250
6848,-35.156250
6849,-35.156250
6850,-35.156250
6851,-35.156250
6852,-35.156250
6853,-35.156250
6854,-35.156250
6855,-35.156250
6856,-35.156250
6857,-35.156250
6858,-35.156250
6859,-35.156250
6860,-35.156250
6861,-35.156250
6862,-35.156250
6863,-35.156250
6864,-35.156250
6865,-35.156250
6866,-35.156250
6867,-35.156250
6868,-35.156250
6869,-35.156250
6870,-35.156250
6871,-35.156250
6872,-31.250000
6873,-35.156250
6874,-35.156250
6875,-35.156250
6876,-35.156250
6877,-35.156250
6878,-31.250000
6879,-31.250000
6880,-31.250000
6881,-31.250000
6882,-31.250000
6883,-31.250000
6884,-31.250000
6885,-31.250000
6886,-31.250000
6887,-31.250000
6888,-31.250000
6889,-31.250000
6890,-31.250000
6891,-31.250000
6892,-31.250000
6893,-31.250000
6894,-31.250000
6895,-31.250000
6896,-31.250000
6897,-31.250000
6898,-31.250000
6899,-31.250000
6900,-31.250000
6901,-31.250000
6902,-31.250000
6903,-31.250000
6904,-31.250000
6905,-31.250000
6906,-31.250000
6907,-31.250000
6908,-31.250000
6909,-27.343750
6910,-27.343750
6911,-31.250000
6912,-27.343750
6913,-31.250000
6914,-31.250000
6915,-27.343750
6916,-27.343750
6917,-27.343750
6918,-27.343750
6919,-27.343750
6920,-27.343750
6921,-27.343750
6922,-27.343750
6923,-27.343750
6924,-27.343750
6925,-27.343750
6926,-27.343750
6927,-27.343750
6928,-27.343750
6929,-27.343750
6930,-27.343750
6931,-27.343750
6932,-27.343750
6933,-27.343750
6934,-27.343750
6935,-27.343750
6936,-27.343750
6937,-27.343750
6938,-23.437500
6939,-27.343750
6940,-27.343750
6941,-27.343750
6942,-23.437500
6943,-23.437500
6944,-27.343750
6945,-27.343750
6946,-23.437500
6947,-23.437500
6948,-27.343750
6949,-23.437500
6950,-23.437500
6951,-27.343750
6952,-23.437500
6953,-23.437500
6954,-23.437500
6955,-23.437500
6956,-23.437500
6957,-23.437500
6958,-23.437500
6959,-23.437500
6960,-23.437500
6961,-23.437500
6962,-23.437500
6963,-23.437500
6964,-23.437500
6965,-19.531250
6966,-23.437500
6967,-23.437500
6968,-19.531250
6969,-19.531250
6970,-19.531250
6971,-19.531250
6972,-19.531250
6973,-19.531250
6974,-19.531250
6975,-19.531250
6976,-19.531250
6977,-19.531250
6978,-19.531250
6979,-19.531250
6980,-19.531250
6981,-19.531250
6982,-19.531250
6983,-19.531250
6984,-19.531250
6985,-19.531250
6986,-19.531250
6987,-19.531250
6988,-15.625000
6989,-15.625000
6990,-15.625000
6991,-15.625000
6992,-19.531250
6993,-15.625000
6994,-19.531250
6995,-15.625000
6996,-15.625000
6997,-15.625000
6998,-15.625000
6999,-15.625000
7000,-15.625000
7001,-15.625000
7002,-15.625000
7003,-15.625000
7004,-15.625000
7005,-15.625000
7006,-15.625000
7007,-15.625000
7008,-15.625000
7009,-15.625000
7010,-15.625000
7011,-11.718750
7012,-15.625000
7013,-15.625000
7014,-11.718750
7015,-15.625000
7016,-11.718750
7017,-11.718750
7018,-11.718750
7019,-11.718750
7020,-11.718750
7021,-11.718750
7022,-11.718750
7023,-11.718750
7024,-11.718750
7025,-11.718750
7026,-11.718750
7027,-11.718750
7028,-11.718750
7029,-11.718750
7030,-11.718750
7031,-11.718750
7032,-11.718750
7033,-11.718750
7034,-11.718750
7035,-11.718750
7036,-11.718750
7037,-11.718750
7038,-7.812500
7039,-11.718750
7040,-7.812500
7041,-7.812500
7042,-7.812500
7043,-7.812500
7044,-7.812500
7045,-7.812500
7046,-7.812500
7047,-7.812500
7048,-7.812500
7049,-7.812500
7050,-7.812500
7051,-7.812500
7052,-7.812500
7053,-7.812500
7054,-7.812500
7055,-7.812500
7056,-7.812500
7057,-7.812500
7058,-7.812500
7059,-7.812500
7060,-7.812500
7061,-7.812500
7062,-7.812500
7063,-7.812500
7064,-3.906250
7065,-3.906250
7066,-3.906250
7067,-3.906250
7068,-3.906250
7069,-3.906250
7070,-3.906250
7071,-3.906250
7072,-3.906250
7073,-3.906250
7074,-3.906250
7075,-3.906250
7076,-3.906250
7077,-3.906250
7078,-3.906250
7079,-3.906250
7080,-3.906250
7081,-3.906250
7082,-3.906250
7083,-3.906250
7084,-3.906250
7085,-3.906250
7086,-3.906250
7087,-3.906250
7088,-3.906250
7089,0.000000
7090,-3.906250
7091,0.000000
7092,0.000000
7093,0.000000
7094,0.000000
7095,0.000000
7096,0.000000
7097,0.000000
7098,0.000000
7099,0.000000
7100,0.000000
7101,0.000000
7102,0.000000
7103,0.000000
7104,0.000000
7105,0.000000
7106,0.000000
7107,0.000000
7108,0.000000
7109,0.000000
7110,0.000000
7111,0.000000
7112,0.000000
7113,0.000000
7114,3.906250
7115,3.906250
7116,3.906250
7117,3.906250
7118,3.906250
7119,3.906250
7120,0.000000
7121,0.000000
7122,3.906250
7123,3.906250
7124,3.906250
7125,3.906250
7126,3.906250
7127,3.906250
7128,3.906250
7129,3.906250
7130,3.906250
7131,3.906250
7132,3.906250
7133,3.906250
7134,3.906250
7135,3.906250
7136,3.906250
7137,3.906250
7138,3.906250
7139,3.906250
7140,3.906250
7141,3.906250
7142,3.906250
7143,3.906250
7144,3.906250
7145,3.906250
7146,7.812500
7147,3.906250
7148,7.812500
7149,3.906250
7150,3.906250
7151,3.906250
7152,7.812500
7153,7.812500
7154,7.812500
7155,7.812500
7156,7.812500
7157,3.906250
7158,7.812500
7159,7.812500
7160,7.812500
7161,7.812500
7162,7.812500
7163,7.812500
7164,7.812500
7165,7.812500
7166,7.812500
7167,7.812500
7168,7.812500
7169,7.812500
7170,7.812500
7171,7.812500
7172,7.812500
7173,7.812500
7174,7.812500
7175,7.812500
7176,7.812500
7177,7.812500
7178,7.812500
7179,7.812500
7180,7.812500
7181,7.812500
7182,7.812500
7183,7.812500
7184,7.812500
7185,7.812500
7186,7.812500
7187,7.812500
7188,7.812500
7189,7.812500
7190,7.812500
7191,7.812500
7192,7.812500
7193,7.812500
7194,11.718750
7195,7.812500
7196,11.718750
7197,11.718750
7198,11.718750
7199,7.812500
7200,11.718750
7201,7.812500
7202,11.718750
7203,11.718750
7204,11.718750
7205,11.718750
7206,11.718750
7207,11.718750
7208,11.718750
7209,7.812500
7210,11.718750
7211,11.718750
7212,11.718750
7213,11.718750
7214,11.718750
7215,11.718750
7216,11.718750
7217,11.718750
7218,11.718750
7219,11.718750
7220,11.718750
7221,11.718750
7222,11.718750
7223,11.718750
7224,11.718750
7225,11.718750
7226,11.718750
7227,11.718750
7228,11.718750
7229,11.718750
7230,11.718750
7231,11.718750
7232,11.718750
7233,11.718750
7234,11.718750
7235,11.718750
7236,11.718750
7237,11.718750
7238,11.718750
7239,11.718750
7240,11.718750
7241,11.718750
7242,11.718750
7243,11.718750
7244,11.718750
7245,11.718750
7246,11.718750
7247,11.718750
7248,11.718750
7249,11.718750
7250,11.718750
7251,11.718750
7252,11.718750
7253,11.718750
7254,11.718750
7255,11.718750
7256,11.718750
7257,11.718750
7258,11.718750
7259,11.718750
7260,11.718750
7261,11.718750
7262,11.718750
7263,11.718750
7264,11.718750
7265,11.718750
7266,11.718750
7267,11.718750
7268,11.718750
7269,11.718750
7270,11.718750
7271,11.718750
7272,11.718750
7273,11.718750
7274,11.718750
7275,11.718750
7276,11.718750
7277,11.718750
7278,11.718750
7279,11.718750
7280,11.718750
7281,11.718750
7282,11.718750
7283,11.718750
7284,11.718750
7285,11.718750
7286,11.718750
7287,11.718750
7288,11.718750
7289,11.718750
7290,11.718750
7291,11.718750
7292,11.718750
7293,11.718750
7294,11.718750
7295,11.718750
7296,11.718750
7297,11.718750
7298,11.718750
7299,11.718750
7300,11.718750
7301,11.718750
7302,11.718750
7303,11.718750
7304,11.718750
7305,7.812500
7306,11.718750
7307,7.812500
7308,11.718750
7309,11.718750
7310,11.718750
7311,11.718750
7312,11.718750
7313,7.812500
7314,11.718750
7315,7.812500
7316,7.812500
7317,7.812500
7318,7.812500
7319,11.718750
7320,11.718750
7321,11.718750
7322,7.812500
7323,7.812500
7324,7.812500
7325,7.812500
7326,7.812500
7327,7.812500
7328,7.812500
7329,7.812500
7330,7.812500
7331,7.812500
7332,7.812500
7333,7.812500
7334,7.812500
7335,7.812500
7336,7.812500
7337,7.812500
7338,7.812500
7339,7.812500
7340,7.812500
7341,7.812500
7342,7.812500
7343,7.812500
7344,7.812500
7345,7.812500
7346,7.812500
7347,7.812500
7348,7.812500
7349,7.812500
7350,7.812500
7351,7.812500
7352,7.812500
7353,7.812500
7354,7.812500
7355,7.812500
7356,7.812500
7357,7.812500
7358,7.812500
7359,7.812500
7360,7.812500
7361,7.812500
7362,7.812500
7363,7.812500
7364,3.906250
7365,7.812500
7366,3.906250
7367,7.812500
7368,7.812500
7369,7.812500
7370,7.812500
7371,3.906250
7372,3.906250
7373,3.906250
7374,3.906250
7375,3.906250
7376,3.906250
7377,3.906250
7378,3.906250
7379,3.906250
7380,3.906250
7381,3.906250
7382,3.906250
7383,3.906250
7384,3.906250
7385,3.906250
7386,3.906250
7387,3.906250
7388,3.906250
7389,3.906250
7390,3.906250
7391,3.906250
7392,3.906250
7393,3.906250
7394,3.906250
7395,3.906250
7396,3.906250
7397,3.906250
7398,3.906250
7399,3.906250
7400,3.906250
7401,3.906250
7402,3.906250
7403,0.000000
7404,3.906250
7405,3.906250
7406,0.000000
7407,0.000000
7408,0.000000
7409,0.000000
7410,0.000000
7411,0.000000
7412,0.000000
7413,0.000000
7414,0.000000
7415,0.000000
7416,0.000000
7417,0.000000
7418,0.000000
7419,0.000000
7420,0.000000
7421,0.000000
7422,0.000000
7423,0.000000
7424,0.000000
7425,0.000000
7426,0.000000
7427,0.000000
7428,0.000000
7429,0.000000
7430,0.000000
7431,-3.906250
7432,-3.906250
7433,0.000000
7434,0.000000
7435,0.000000
7436,-3.906250
7437,-3.906250
7438,-3.906250
7439,-3.906250
7440,-3.906250
7441,-3.906250
7442,-3.906250
7443,-3.906250
7444,-3.906250
7445,-3.906250
7446,-3.906250
7447,-3.906250
7448,-3.906250
7449,-3.906250
7450,-3.906250
7451,-3.906250
7452,-3.906250
7453,-3.906250
7454,-3.906250
7455,-3.906250
7456,-3.906250
7457,-3.906250
7458,-3.906250
7459,-3.906250
7460,-3.906250
7461,-3.906250
7462,-7.812500
7463,-7.812500
7464,-7.812500
7465,-3.906250
7466,-7.812500
7467,-7.812500
7468,-7.812500
7469,-7.812500
7470,-7.812500
7471,-7.812500
7472,-7.812500
7473,-7.812500
7474,-7.812500
7475,-7.812500
7476,-7.812500
7477,-7.812500
7478,-7.812500
7479,-7.812500
7480,-7.812500
7481,-7.812500
7482,-7.812500
7483,-7.812500
7484,-7.812500
7485,-7.812500
7486,-7.812500
7487,-7.812500
7488,-7.812500
7489,-7.812500
7490,-7.812500
7491,-11.718750
7492,-7.812500
7493,-11.718750
7494,-11.718750
7495,-11.718750
7496,-11.718750
7497,-11.718750
7498,-11.718750
7499,-11.718750
7500,-11.718750
7501,-11.718750
7502,-11.718750
7503,-11.718750
7504,-11.718750
7505,-11.718750
7506,-11.718750
7507,-11.718750
7508,-11.718750
7509,-11.718750
7510,-11.718750
7511,-15.625000
7512,-11.718750
7513,-11.718750
7514,-11.718750
7515,-11.718750
7516,-11.718750
7517,-11.718750
7518,-11.718750
7519,-15.625000
7520,-15.625000
7521,-15.625000
7522,-15.625000
7523,-15.625000
7524,-15.625000
7525,-15.625000
7526,-15.625000
7527,-15.625000
7528,-15.625000
7529,-15.625000
7530,-15.625000
7531,-15.625000
7532,-15.625000
7533,-15.625000
7534,-15.625000
7535,-15.625000
7536,-15.625000
7537,-15.625000
7538,-15.625000
7539,-15.625000
7540,-15.625000
7541,-15.625000
7542,-15.625000
7543,-15.625000
7544,-19.531250
7545,-19.531250
7546,-19.531250
7547,-19.531250
7548,-19.531250
7549,-19.531250
7550,-19.531250
7551,-19.531250
7552,-19.531250
7553,-19.531250
7554,-19.531250
7555,-19.531250
7556,-19.531250
7557,-19.531250
7558,-19.531250
7559,-19.531250
7560,-19.531250
7561,-19.531250
7562,-19.531250
7563,-19.531250
7564,-19.531250
7565,-19.531250
7566,-19.531250
7567,-19.531250
7568,-19.531250
7569,-23.437500
7570,-23.437500
7571,-23.437500
7572,-23.437500
7573,-23.437500
7574,-23.437500
7575,-23.437500
7576,-23.437500
7577,-23.437500
7578,-23.437500
7579,-23.437500
7580,-23.437500
7581,-23.437500
7582,-23.437500
7583,-23.437500
7584,-23.437500
7585,-23.437500
7586,-23.437500
7587,-23.437500
7588,-23.437500
7589,-23.437500
7590,-23.437500
7591,-23.437500
7592,-23.437500
7593,-23.437500
7594,-27.343750
7595,-23.437500
7596,-23.437500
7597,-23.437500
7598,-23.437500
7599,-27.343750
7600,-27.343750
7601,-27.343750
7602,-27.343750
7603,-27.343750
7604,-27.343750
7605,-27.343750
7606,-27.343750
7607,-27.343750
7608,-27.343750
7609,-27.343750
7610,-27.343750
7611,-27.343750
7612,-27.343750
7613,-27.343750
7614,-27.343750
7615,-27.343750
7616,-27.343750
7617,-27.343750
7618,-27.343750
7619,-27.343750
7620,-27.343750
7621,-27.343750
7622,-31.250000
7623,-27.343750
7624,-27.343750
7625,-27.343750
7626,-27.343750
7627,-27.343750
7628,-27.343750
7629,-27.343750
7630,-31.250000
7631,-31.250000
7632,-31.250000
7633,-31.250000
7634,-31.250000
7635,-27.343750
7636,-31.250000
7637,-31.250000
7638,-31.250000
7639,-31.250000
7640,-31.250000
7641,-31.250000
7642,-31.250000
7643,-31.250000
7644,-31.250000
7645,-31.250000
7646,-31.250000
7647,-31.250000
7648,-31.250000
7649,-31.250000
7650,-31.250000
7651,-31.250000
7652,-35.156250
7653,-31.250000
7654,-31.250000
7655,-31.250000
7656,-31.250000
7657,-31.250000
7658,-31.250000
7659,-31.250000
7660,-31.250000
7661,-35.156250
7662,-31.250000
7663,-35.156250
7664,-31.250000
7665,-35.156250
7666,-35.156250
7667,-35.156250
7668,-35.156250
7669,-35.156250
7670,-35.156250
7671,-35.156250
7672,-35.156250
7673,-35.156250
7674,-35.156250
7675,-35.156250
7676,-35.156250
7677,-35.156250
7678,-35.156250
7679,-35.156250
7680,-35.156250
7681,-35.156250
7682,-35.156250
7683,-35.156250
7684,-35.156250
7685,-35.156250
7686,-35.156250
7687,-35.156250
7688,-35.156250
7689,-35.156250
7690,-35.156250
7691,-35.156250
7692,-35.156250
7693,-35.156250
7694,-35.156250
7695,-35.156250
7696,-39.062500
7697,-35.156250
7698,-35.156250
7699,-35.156250
7700,-35.156250
7701,-39.062500
7702,-35.156250
7703,-35.156250
7704,-35.156250
7705,-35.156250
7706,-35.156250
7707,-35.156250
7708,-35.156250
7709,-35.156250
7710,-35.156250
7711,-39.062500
7712,-39.062500
7713,-39.062500
7714,-35.156250
7715,-35.156250
7716,-39.062500
7717,-35.156250
7718,-35.156250
7719,-39.062500
7720,-39.062500
7721,-39.062500
7722,-39.062500
7723,-39.062500
7724,-39.062500
7725,-39.062500
7726,-39.062500
7727,-39.062500
7728,-39.062500
7729,-39.062500
7730,-39.062500
7731,-39.062500
7732,-39.062500
7733,-39.062500
7734,-39.062500
7735,-39.062500
7736,-39.062500
7737,-39.062500
7738,-39.062500
7739,-39.062500
7740,-39.062500
7741,-39.062500
7742,-39.062500
7743,-39.062500
7744,-39.062500
7745,-39.062500
7746,-39.062500
7747,-39.062500
7748,-39.062500
7749,-39.062500
7750,-39.062500
7751,-39.062500
7752,-39.062500
7753,-39.062500
7754,-39.062500
7755,-39.062500
7756,-39.062500
7757,-39.062500
7758,-39.062500
7759,-39.062500
7760,-39.062500
7761,-39.062500
7762,-39.062500
7763,-39.062500
7764,-39.062500
7765,-39.062500
7766,-39.062500
7767,-39.062500
7768,-39.062500
7769,-39.062500
7770,-39.062500
7771,-39.062500
7772,-39.062500
7773,-39.062500
7774,-39.062500
7775,-39.062500
7776,-39.062500
7777,-39.062500
7778,-39.062500
7779,-39.062500
7780,-39.062500
7781,-39.062500
7782,-39.062500
7783,-39.062500
7784,-39.062500
7785,-39.062500
7786,-39.062500
7787,-39.062500
7788,-39.062500
7789,-39.062500
7790,-39.062500
7791,-35.156250
7792,-39.062500
7793,-39.062500
7794,-39.062500
7795,-39.062500
7796,-39.062500
7797,-39.062500
7798,-39.062500
7799,-39.062500
7800,-39.062500
7801,-39.062500
7802,-39.062500
7803,-39.062500
7804,-39.062500
7805,-39.062500
7806,-39.062500
7807,-39.062500
7808,-39.062500
7809,-39.062500
7810,-39.062500
7811,-39.062500
7812,-35.156250
7813,-39.062500
7814,-39.062500
7815,-39.062500
7816,-35.156250
7817,-39.062500
7818,-35.156250
7819,-35.156250
7820,-35.156250
7821,-39.062500
7822,-39.062500
7823,-39.062500
7824,-35.156250
7825,-39.062500
7826,-35.156250
7827,-35.156250
7828,-35.156250
7829,-35.156250
7830,-35.156250
7831,-35.156250
7832,-35.156250
7833,-35.156250
7834,-35.156250
7835,-35.156250
7836,-35.156250
7837,-35.156250
7838,-35.156250
7839,-35.156250
7840,-35.156250
7841,-35.156250
7842,-35.156250
7843,-35.156250
7844,-35.156250
7845,-35.156250
7846,-35.156250
7847,-35.156250
7848,-35.156250
7849,-35.156250
7850,-35.156250
7851,-35.156250
7852,-35.156250
7853,-35.156250
7854,-35.156250
7855,-35.156250
7856,-35.156250
7857,-35.156250
7858,-35.156250
7859,-35.156250
7860,-35.156250
7861,-35.156250
7862,-35.156250
7863,-35.156250
7864,-35.156250
7865,-35.156250
7866,-31.250000
7867,-31.250000
7868,-31.250000
7869,-31.250000
7870,-31.250000
7871,-31.250000
7872,-31.250000
7873,-31.250000
7874,-31.250000
7875,-31.250000
7876,-31.250000
7877,-31.250000
7878,-31.250000
7879,-31.250000
7880,-31.250000
7881,-31.250000
7882,-31.250000
7883,-31.250000
7884,-31.250000
7885,-31.250000
7886,-31.250000
7887,-31.250000
7888,-31.250000
7889,-31.250000
7890,-31.250000
7891,-31.250000
7892,-31.250000
7893,-31.250000
7894,-31.250000
7895,-31.250000
7896,-27.343750
7897,-31.250000
7898,-27.343750
7899,-31.250000
7900,-27.343750
7901,-31.250000
7902,-27.343750
7903,-27.343750
7904,-27.343750
7905,-27.343750
7906,-27.343750
7907,-27.343750
7908,-27.343750
7909,-27.343750
7910,-27.343750
7911,-27.343750
7912,-27.343750
7913,-27.343750
7914,-27.343750
7915,-27.343750
7916,-27.343750
7917,-27.343750
7918,-27.343750
7919,-27.343750
7920,-27.343750
7921,-27.343750
7922,-27.343750
7923,-27.343750
7924,-27.343750
7925,-27.343750
7926,-27.343750
7927,-23.437500
7928,-23.437500
7929,-23.437500
7930,-23.437500
7931,-23.437500
7932,-23.437500
7933,-23.437500
7934,-23.437500
7935,-23.437500
7936,-23.437500
7937,-23.437500
7938,-23.437500
7939,-23.437500
7940,-23.437500
7941,-23.437500
7942,-23.437500
7943,-23.437500
7944,-23.437500
7945,-23.437500
7946,-23.437500
7947,-23.437500
7948,-23.437500
7949,-23.437500
7950,-23.437500
7951,-19.531250
7952,-19.531250
7953,-23.437500
7954,-19.531250
7955,-19.531250
7956,-19.531250
7957,-19.531250
7958,-19.531250
7959,-19.531250
7960,-19.531250
7961,-19.531250
7962,-19.531250
7963,-19.531250
7964,-19.531250
7965,-19.531250
7966,-19.531250
7967,-19.531250
7968,-19.531250
7969,-19.531250
7970,-19.531250
7971,-19.531250
7972,-19.531250
7973,-19.531250
7974,-19.531250
7975,-19.531250
7976,-19.531250
7977,-15.625000
7978,-15.625000
7979,-15.625000
7980,-15.625000
7981,-15.625000
7982,-15.625000
7983,-15.625000
7984,-15.625000
7985,-15.625000
7986,-15.625000
7987,-15.625000
7988,-15.625000
7989,-15.625000
7990,-15.625000
7991,-15.625000
7992,-15.625000
7993,-15.625000
7994,-15.625000
7995,-15.625000
7996,-15.625000
7997,-15.625000
7998,-15.625000
7999,-11.718750
8000,-15.625000
8001,-11.718750
8002,-11.718750
8003,-11.718750
8004,-11.718750
8005,-11.718750
8006,-11.718750
8007,-11.718750
8008,-11.718750
8009,-11.718750
8010,-11.718750
8011,-11.718750
8012,-11.718750
8013,-11.718750
8014,-11.718750
8015,-11.718750
8016,-11.718750
8017,-11.718750
8018,-11.718750
8019,-11.718750
8020,-11.718750
8021,-11.718750
8022,-7.812500
8023,-11.718750
8024,-7.812500
8025,-11.718750
8026,-7.812500
8027,-7.812500
8028,-7.812500
8029,-7.812500
8030,-7.812500
8031,-7.812500
8032,-7.812500
8033,-7.812500
8034,-7.812500
8035,-7.812500
8036,-7.812500
8037,-7.812500
8038,-7.812500
8039,-7.812500
8040,-7.812500
8041,-7.812500
8042,-7.812500
8043,-7.812500
8044,-7.812500
8045,-7.812500
8046,-7.812500
8047,-7.812500
8048,-3.906250
8049,-3.906250
8050,-3.906250
8051,-3.906250
8052,-7.812500
8053,-3.906250
8054,-3.906250
8055,-3.906250
8056,-3.906250
8057,-3.906250
8058,-3.906250
8059,-3.906250
8060,-3.906250
8061,-3.906250
8062,-3.906250
8063,-3.906250
8064,-3.906250
8065,-3.906250
8066,-3.906250
8067,-3.906250
8068,-3.906250
8069,-3.906250
8070,-3.906250
8071,-3.906250
8072,-3.906250
8073,-3.906250
8074,-3.906250
8075,-3.906250
8076,0.000000
8077,0.000000
8078,0.000000
8079,0.000000
8080,0.000000
8081,0.000000
8082,0.000000
8083,0.000000
8084,0.000000
8085,0.000000
8086,0.000000
8087,0.000000
8088,0.000000
8089,0.000000
8090,0.000000
8091,0.000000
8092,0.000000
8093,0.000000
8094,0.000000
8095,0.000000
8096,3.906250
8097,0.000000
8098,0.000000
8099,0.000000
8100,0.000000
8101,0.000000
8102,3.906250
8103,3.906250
8104,3.906250
8105,3.906250
8106,3.906250
8107,0.000000
8108,3.906250
8109,3.906250
8110,3.906250
8111,3.906250
8112,3.906250
8113,3.906250
8114,3.906250
8115,3.906250
8116,3.906250
8117,3.906250
8118,7.812500
8119,3.906250
8120,3.906250
8121,3.906250
8122,7.812500
8123,3.906250
8124,3.906250
8125,7.812500
8126,3.906250
8127,3.906250
8128,7.812500
8129,3.906250
8130,3.906250
8131,7.812500
8132,3.906250
8133,3.906250
8134,7.812500
8135,3.906250
8136,3.906250
8137,7.812500
8138,7.812500
8139,7.812500
8140,7.812500
8141,7.812500
8142,7.812500
8143,7.812500
8144,7.812500
8145,7.812500
8146,7.812500
8147,7.812500
8148,7.812500
8149,7.812500
8150,7.812500
8151,7.812500
8152,7.812500
8153,7.812500
8154,7.812500
8155,7.812500
8156,7.812500
8157,7.812500
8158,7.812500
8159,7.812500
8160,7.812500
8161,7.812500
8162,7.812500
8163,7.812500
8164,7.812500
8165,7.812500
8166,7.812500
8167,7.812500
8168,7.812500
8169,7.812500
8170,7.812500
8171,7.812500
8172,7.812500
8173,7.812500
8174,7.812500
8175,7.812500
8176,7.812500
8177,7.812500
8178,7.812500
8179,7.812500
8180,7.812500
8181,7.812500
8182,7.812500
8183,7.812500
8184,7.812500
8185,7.812500
8186,11.718750
8187,11.718750
8188,7.812500
8189,11.718750
8190,7.812500
8191,7.812500
8192,11.718750
8193,11.718750
8194,7.812500
8195,11.718750
8196,11.718750
8197,11.718750
8198,11.718750
8199,11.718750
8200,11.718750
8201,11.718750
8202,11.718750
8203,11.718750
8204,11.718750
8205,11.718750
8206,11.718750
8207,11.718750
8208,11.718750
8209,11.718750
8210,11.718750
8211,11.718750
8212,11.718750
8213,11.718750
8214,11.718750
8215,11.718750
8216,11.718750
8217,11.718750
8218,11.718750
8219,11.718750
8220,11.718750
8221,11.718750
8222,11.718750
8223,11.718750
8224,11.718750
8225,11.718750
8226,11.718750
8227,11.718750
8228,11.718750
8229,11.718750
8230,11.718750
8231,11.718750
8232,11.718750
8233,11.718750
8234,11.718750
8235,11.718750
8236,11.718750
8237,11.718750
8238,11.718750
8239,11.718750
8240,11.718750
8241,11.718750
8242,11.718750
8243,11.718750
8244,11.718750
8245,11.718750
8246,11.718750
8247,11.718750
8248,11.718750
8249,11.718750
8250,11.718750
8251,11.718750
8252,11.718750
8253,11.718750
8254,11.718750
8255,11.718750
8256,11.718750
8257,11.718750
8258,11.718750
8259,11.718750
8260,11.718750
8261,11.718750
8262,11.718750
8263,11.718750
8264,11.718750
8265,11.718750
8266,11.718750
8267,11.718750
8268,11.718750
8269,11.718750
8270,11.718750
8271,11.718750
8272,11.718750
8273,11.718750
8274,11.718750
8275,11.718750
8276,11.718750
8277,11.718750
8278,11.718750
8279,11.718750
8280,11.718750
8281,11.718750
8282,11.718750
8283,11.718750
8284,11.718750
8285,11.718750
8286,11.718750
8287,11.718750
8288,11.718750
8289,11.718750
8290,11.718750
8291,11.718750
8292,11.718750
8293,7.812500
8294,11.718750
8295,11.718750
8296,11.718750
8297,11.718750
8298,11.718750
8299,11.718750
8300,11.718750
8301,11.718750
8302,11.718750
8303,7.812500
8304,7.812500
8305,7.812500
8306,7.812500
8307,7.812500
8308,11.718750
8309,7.812500
8310,7.812500
8311,7.812500
8312,7.812500
8313,7.812500
8314,7.812500
8315,7.812500
8316,7.812500
8317,7.812500
8318,7.812500
8319,7.812500
8320,7.812500
8321,7.812500
8322,7.812500
8323,7.812500
8324,7.812500
8325,7.812500
8326,7.812500
8327,7.812500
8328,7.812500
8329,7.812500
8330,7.812500
8331,7.812500
8332,7.812500
8333,7.812500
8334,7.812500
8335,7.812500
8336,7.812500
8337,7.812500
8338,7.812500
8339,7.812500
8340,7.812500
8341,7.812500
8342,7.812500
8343,7.812500
8344,7.812500
8345,7.812500
8346,7.812500
8347,7.812500
8348,7.812500
8349,7.812500
8350,7.812500
8351,7.812500
8352,7.812500
8353,7.812500
8354,3.906250
8355,3.906250
8356,3.906250
8357,3.906250
8358,7.812500
8359,3.906250
8360,7.812500
8361,3.906250
8362,3.906250
8363,3.906250
8364,3.906250
8365,3.906250
8366,3.906250
8367,3.906250
8368,3.906250
8369,3.906250
8370,3.906250
8371,3.906250
8372,3.906250
8373,3.906250
8374,3.906250
8375,3.906250
8376,3.906250
8377,3.906250
8378,3.906250
8379,3.906250
8380,3.906250
8381,3.906250
8382,3.906250
8383,3.906250
8384,3.906250
8385,3.906250
8386,3.906250
8387,3.906250
8388,3.906250
8389,3.906250
8390,3.906250
8391,3.906250
8392,3.906250
8393,3.906250
8394,3.906250
8395,3.906250
8396,3.906250
8397,0.000000
8398,0.000000
8399,0.000000
8400,0.000000
8401,0.000000
8402,3.906250
8403,0.000000
8404,0.000000
8405,0.000000
8406,0.000000
8407,0.000000
8408,0.000000
8409,0.000000
8410,0.000000
8411,0.000000
8412,0.000000
8413,0.000000
8414,0.000000
8415,0.000000
8416,0.000000
8417,0.000000
8418,0.000000
8419,0.000000
8420,0.000000
8421,0.000000
8422,0.000000
8423,0.000000
8424,0.000000
8425,-3.906250
8426,0.000000
8427,-3.906250
8428,-3.906250
8429,-3.906250
8430,-3.906250
8431,-3.906250
8432,-3.906250
8433,-3.906250
8434,0.000000
8435,-3.906250
8436,-3.906250
8437,-3.906250
8438,-3.906250
8439,-3.906250
8440,-3.906250
8441,-3.906250
8442,-3.906250
8443,-3.906250
8444,-3.906250
8445,-3.906250
8446,-3.906250
8447,-3.906250
8448,-3.906250
8449,-3.906250
8450,-3.906250
8451,-7.812500
8452,-3.906250
8453,-7.812500
8454,-7.812500
8455,-7.812500
8456,-7.812500
8457,-7.812500
8458,-7.812500
8459,-7.812500
8460,-7.812500
8461,-7.812500
8462,-7.812500
8463,-7.812500
8464,-7.812500
8465,-7.812500
8466,-7.812500
8467,-7.812500
8468,-7.812500
8469,-7.812500
8470,-7.812500
8471,-7.812500
8472,-7.812500
8473,-7.812500
8474,-7.812500
8475,-7.812500
8476,-7.812500
8477,-7.812500
8478,-7.812500
8479,-7.812500
8480,-7.812500
8481,-11.718750
8482,-11.718750
8483,-11.718750
8484,-11.718750
8485,-11.718750
8486,-11.718750
8487,-11.718750
8488,-11.718750
8489,-11.718750
8490,-11.718750
8491,-11.718750
8492,-11.718750
8493,-11.718750
8494,-11.718750
8495,-11.718750
8496,-11.718750
8497,-11.718750
8498,-11.718750
8499,-11.718750
8500,-11.718750
8501,-11.718750
8502,-11.718750
8503,-11.718750
8504,-11.718750
8505,-11.718750
8506,-11.718750
8507,-11.718750
8508,-11.718750
8509,-11.718750
8510,-11.718750
8511,-15.625000
8512,-15.625000
8513,-15.625000
8514,-15.625000
8515,-15.625000
8516,-15.625000
8517,-15.625000
8518,-15.625000
8519,-15.625000
8520,-15.625000
8521,-15.625000
8522,-15.625000
8523,-15.625000
8524,-15.625000
8525,-15.625000
8526,-15.625000
8527,-15.625000
8528,-15.625000
8529,-15.625000
8530,-15.625000
8531,-15.625000
8532,-15.625000
8533,-15.625000
8534,-15.625000
8535,-15.625000
8536,-15.625000
8537,-15.625000
8538,-15.625000
8539,-19.531250
8540,-19.531250
8541,-19.531250
8542,-19.531250
8543,-19.531250
8544,-19.531250
8545,-19.531250
8546,-19.531250
8547,-19.531250
8548,-19.531250
8549,-19.531250
8550,-19.531250
8551,-19.531250
8552,-19.531250
8553,-19.531250
8554,-19.531250
8555,-19.531250
8556,-19.531250
8557,-19.531250
8558,-19.531250
8559,-19.531250
8560,-19.531250
8561,-19.531250
8562,-19.531250
8563,-23.437500
8564,-23.437500
8565,-23.437500
8566,-23.437500
8567,-23.437500
8568,-23.437500
8569,-23.437500
8570,-19.531250
8571,-23.437500
8572,-23.437500
8573,-23.437500
8574,-23.437500
8575,-23.437500
8576,-23.437500
8577,-23.437500
8578,-23.437500
8579,-23.437500
8580,-23.437500
8581,-23.437500
8582,-23.437500
8583,-23.437500
8584,-23.437500
8585,-23.437500
8586,-23.437500
8587,-23.437500
8588,-23.437500
8589,-27.343750
8590,-23.437500
8591,-23.437500
8592,-27.343750
8593,-27.343750
8594,-27.343750
8595,-27.343750
8596,-27.343750
8597,-27.343750
8598,-27.343750
8599,-27.343750
8600,-27.343750
8601,-27.343750
8602,-27.343750
8603,-27.343750
8604,-27.343750
8605,-27.343750
8606,-27.343750
8607,-27.343750
8608,-27.343750
8609,-27.343750
8610,-27.343750
8611,-27.343750
8612,-27.343750
8613,-27.343750
8614,-27.343750
8615,-27.343750
8616,-27.343750
8617,-27.343750
8618,-31.250000
8619,-27.343750
8620,-27.343750
8621,-27.343750
8622,-27.343750
8623,-27.343750
8624,-27.343750
8625,-27.343750
8626,-31.250000
8627,-31.250000
8628,-31.250000
8629,-31.250000
8630,-31.250000
8631,-31.250000
8632,-31.250000
8633,-31.250000
8634,-31.250000
8635,-31.250000
8636,-31.250000
8637,-31.250000
8638,-31.250000
8639,-31.250000
8640,-31.250000
8641,-31.250000
8642,-31.250000
8643,-31.250000
8644,-31.250000
8645,-31.250000
8646,-31.250000
8647,-31.250000
8648,-31.250000
8649,-31.250000
8650,-31.250000
8651,-31.250000
8652,-31.250000
8653,-31.250000
8654,-31.250000
8655,-31.250000
8656,-35.156250
8657,-31.250000
8658,-31.250000
8659,-35.156250
8660,-31.250000
8661,-31.250000
8662,-35.156250
8663,-31.250000
8664,-31.250000
8665,-35.156250
8666,-35.156250
8667,-35.156250
8668,-35.156250
8669,-35.156250
8670,-35.156250
8671,-35.156250
8672,-35.156250
8673,-35.156250
8674,-35.156250
8675,-35.156250
8676,-35.156250
8677,-35.156250
8678,-35.156250
8679,-35.156250
8680,-35.156250
8681,-35.156250
8682,-35.156250
8683,-35.156250
8684,-35.156250
8685,-35.156250
8686,-35.156250
8687,-35.156250
8688,-35.156250
8689,-35.156250
8690,-35.156250
8691,-35.156250
8692,-35.156250
8693,-35.156250
8694,-35.156250
8695,-35.156250
8696,-35.156250
8697,-35.156250
8698,-35.156250
8699,-35.156250
8700,-35.156250
8701,-35.156250
8702,-35.156250
8703,-35.156250
8704,-35.156250
8705,-35.156250
8706,-35.156250
8707,-35.156250
8708,-39.062500
8709,-39.062500
8710,-35.156250
8711,-39.062500
8712,-35.156250
8713,-39.062500
8714,-39.062500
8715,-35.156250
8716,-39.062500
8717,-39.062500
8718,-35.156250
8719,-35.156250
8720,-39.062500
8721,-39.062500
8722,-35.156250
8723,-39.062500
8724,-39.062500
8725,-39.062500
8726,-39.062500
8727,-39.062500
8728,-39.062500
8729,-39.062500
8730,-39.062500
8731,-39.062500
8732,-39.062500
8733,-39.062500
8734,-39.062500
8735,-39.062500
8736,-39.062500
8737,-39.062500
8738,-39.062500
8739,-39.062500
8740,-39.062500
8741,-39.062500
8742,-39.062500
8743,-39.062500
8744,-39.062500
8745,-39.062500
8746,-39.062500
8747,-39.062500
8748,-39.062500
8749,-39.062500
8750,-39.062500
8751,-39.062500
8752,-39.062500
8753,-39.062500
8754,-39.062500
8755,-39.062500
8756,-39.062500
8757,-39.062500
8758,-39.062500
8759,-39.062500
8760,-39.062500
8761,-39.062500
8762,-39.062500
8763,-39.062500
8764,-39.062500
8765,-39.062500
8766,-39.062500
8767,-39.062500
8768,-39.062500
8769,-39.062500
8770,-39.062500
8771,-39.062500
8772,-39.062500
8773,-39.062500
8774,-39.062500
8775,-39.062500
8776,-39.062500
8777,-39.062500
8778,-39.062500
8779,-39.062500
8780,-39.062500
8781,-39.062500
8782,-39.062500
8783,-39.062500
8784,-39.062500
8785,-39.062500
8786,-39.062500
8787,-39.062500
8788,-39.062500
8789,-39.062500
8790,-39.062500
8791,-39.062500
8792,-39.062500
8793,-39.062500
8794,-39.062500
8795,-35.156250
8796,-35.156250
8797,-39.062500
8798,-35.156250
8799,-39.062500
8800,-35.156250
8801,-35.156250
8802,-39.062500
8803,-39.062500
8804,-35.156250
8805,-39.062500
8806,-35.156250
8807,-35.156250
8808,-35.156250
8809,-35.156250
8810,-39.062500
8811,-35.156250
8812,-35.156250
8813,-39.062500
8814,-35.156250
8815,-35.156250
8816,-35.156250
8817,-35.156250
8818,-35.156250
8819,-35.156250
8820,-35.156250
8821,-35.156250
8822,-35.156250
8823,-35.156250
8824,-35.156250
8825,-35.156250
8826,-35.156250
8827,-35.156250
8828,-35.156250
8829,-35.156250
8830,-35.156250
8831,-35.156250
8832,-35.156250
8833,-35.156250
8834,-35.156250
8835,-35.156250
8836,-35.156250
8837,-35.156250
8838,-35.156250
8839,-35.156250
8840,-35.156250
8841,-35.156250
8842,-35.156250
8843,-35.156250
8844,-35.156250
8845,-35.156250
8846,-35.156250
8847,-35.156250
8848,-35.156250
8849,-35.156250
8850,-35.156250
8851,-35.156250
8852,-35.156250
8853,-35.156250
8854,-35.156250
8855,-35.156250
8856,-35.156250
8857,-35.156250
8858,-31.250000
8859,-31.250000
8860,-31.250000
8861,-31.250000
8862,-31.250000
8863,-31.250000
8864,-31.250000
8865,-31.250000
8866,-31.250000
8867,-31.250000
8868,-31.250000
8869,-31.250000
8870,-31.250000
8871,-31.250000
8872,-31.250000
8873,-31.250000
8874,-31.250000
8875,-31.250000
8876,-31.250000
8877,-31.250000
8878,-31.250000
8879,-31.250000
8880,-31.250000
8881,-31.250000
8882,-31.250000
8883,-31.250000
8884,-31.250000
8885,-31.250000
8886,-31.250000
8887,-31.250000
8888,-31.250000
8889,-27.343750
8890,-27.343750
8891,-31.250000
8892,-31.250000
8893,-27.343750
8894,-27.343750
8895,-31.250000
8896,-27.343750
8897,-27.343750
8898,-27.343750
8899,-27.343750
8900,-27.343750
8901,-27.343750
8902,-27.343750
8903,-27.343750
8904,-27.343750
8905,-27.343750
8906,-27.343750
8907,-27.343750
8908,-27.343750
8909,-27.343750
8910,-27.343750
8911,-27.343750
8912,-27.343750
8913,-27.343750
8914,-27.343750
8915,-27.343750
8916,-27.343750
8917,-27.343750
8918,-27.343750
8919,-27.343750
8920,-23.437500
8921,-27.343750
8922,-23.437500
8923,-23.437500
8924,-23.437500
8925,-23.437500
8926,-23.437500
8927,-23.437500
8928,-23.437500
8929,-23.437500
8930,-23.437500
8931,-23.437500
8932,-23.437500
8933,-23.437500
8934,-23.437500
8935,-23.437500
8936,-23.437500
8937,-23.437500
8938,-23.437500
8939,-23.437500
8940,-23.437500
8941,-23.437500
8942,-23.437500
8943,-19.531250
8944,-19.531250
8945,-23.437500
8946,-23.437500
8947,-23.437500
8948,-19.531250
8949,-19.531250
8950,-19.531250
8951,-19.531250
8952,-19.531250
8953,-19.531250
8954,-19.531250
8955,-19.531250
8956,-19.531250
8957,-19.531250
8958,-19.531250
8959,-19.531250
8960,-19.531250
8961,-19.531250
8962,-19.531250
8963,-19.531250
8964,-19.531250
8965,-19.531250
8966,-19.531250
8967,-19.531250
8968,-19.531250
8969,-19.531250
8970,-19.531250
8971,-19.531250
8972,-15.625000
8973,-15.625000
8974,-15.625000
8975,-15.625000
8976,-15.625000
8977,-15.625000
8978,-15.625000
8979,-15.625000
8980,-15.625000
8981,-15.625000
8982,-15.625000
8983,-15.625000
8984,-15.625000
8985,-15.625000
8986,-15.625000
8987,-15.625000
8988,-15.625000
8989,-15.625000
8990,-15.625000
8991,-15.625000
8992,-15.625000
8993,-15.625000
8994,-11.718750
8995,-11.718750
8996,-11.718750
8997,-11.718750
8998,-11.718750
8999,-11.718750
9000,-11.718750
9001,-11.718750
9002,-11.718750
9003,-11.718750
9004,-11.718750
9005,-11.718750
9006,-11.718750
9007,-11.718750
9008,-11.718750
9009,-11.718750
9010,-11.718750
9011,-11.718750
9012,-11.718750
9013,-11.718750
9014,-11.718750
9015,-11.718750
9016,-11.718750
9017,-7.812500
9018,-7.812500
9019,-11.718750
9020,-11.718750
9021,-7.812500
9022,-7.812500
9023,-7.812500
9024,-7.812500
9025,-7.812500
9026,-7.812500
9027,-7.812500
9028,-7.812500
9029,-7.812500
9030,-7.812500
9031,-7.812500
9032,-7.812500
9033,-7.812500
9034,-7.812500
9035,-7.812500
9036,-7.812500
9037,-7.812500
9038,-7.812500
9039,-7.812500
9040,-7.812500
9041,-3.906250
9042,-3.906250
9043,-7.812500
9044,-3.906250
9045,-3.906250
9046,-3.906250
9047,-3.906250
9048,-3.906250
9049,-3.906250
9050,-3.906250
9051,-3.906250
9052,-3.906250
9053,-3.906250
9054,-3.906250
9055,-3.906250
9056,-3.906250
9057,-3.906250
9058,-3.906250
9059,-3.906250
9060,-3.906250
9061,-3.906250
9062,-3.906250
9063,-3.906250
9064,-3.906250
9065,-3.906250
9066,0.000000
9067,0.000000
9068,0.000000
9069,0.000000
9070,0.000000
9071,0.000000
9072,0.000000
9073,0.000000
9074,0.000000
9075,0.000000
9076,0.000000
9077,0.000000
9078,0.000000
9079,0.000000
9080,0.000000
9081,0.000000
9082,0.000000
9083,0.000000
9084,0.000000
9085,0.000000
9086,0.000000
9087,0.000000
9088,0.000000
9089,0.000000
9090,0.000000
9091,0.000000
9092,3.906250
9093,0.000000
9094,3.906250
9095,3.906250
9096,3.906250
9097,3.906250
9098,3.906250
9099,3.906250
9100,3.906250
9101,3.906250
9102,3.906250
9103,3.906250
9104,3.906250
9105,3.906250
9106,3.906250
9107,3.906250
9108,3.906250
9109,3.906250
9110,3.906250
9111,3.906250
9112,3.906250
9113,3.906250
9114,3.906250
9115,3.906250
9116,3.906250
9117,3.906250
9118,3.906250
9119,3.906250
9120,3.906250
9121,3.906250
9122,3.906250
9123,3.906250
9124,7.812500
9125,3.906250
9126,3.906250
9127,3.906250
9128,3.906250
9129,3.906250
9130,7.812500
9131,7.812500
9132,7.812500
9133,7.812500
9134,7.812500
9135,7.812500
9136,7.812500
9137,7.812500
9138,7.812500
9139,7.812500
9140,7.812500
9141,7.812500
9142,7.812500
9143,7.812500
9144,7.812500
9145,7.812500
9146,7.812500
9147,7.812500
9148,7.812500
9149,7.812500
9150,7.812500
9151,7.812500
9152,7.812500
9153,7.812500
9154,7.812500
9155,7.812500
9156,7.812500
9157,7.812500
9158,7.812500
9159,7.812500
9160,7.812500
9161,7.812500
9162,7.812500
9163,7.812500
9164,7.812500
9165,11.718750
9166,7.812500
9167,11.718750
9168,7.812500
9169,7.812500
9170,7.812500
9171,11.718750
9172,11.718750
9173,11.718750
9174,11.718750
9175,11.718750
9176,11.718750
9177,11.718750
9178,11.718750
9179,11.718750
9180,11.718750
9181,11.718750
9182,11.718750
9183,11.718750
9184,11.718750
9185,11.718750
9186,11.718750
9187,11.718750
9188,11.718750
9189,11.718750
9190,11.718750
9191,11.718750
9192,11.718750
9193,11.718750
9194,11.718750
9195,11.718750
9196,11.718750
9197,11.718750
9198,11.718750
9199,11.718750
9200,11.718750
9201,11.718750
9202,11.718750
9203,11.718750
9204,11.718750
9205,11.718750
9206,11.718750
9207,11.718750
9208,11.718750
9209,11.718750
9210,11.718750
9211,11.718750
9212,11.718750
9213,11.718750
9214,11.718750
9215,11.718750
9216,11.718750
9217,11.718750
9218,11.718750
9219,11.718750
9220,11.718750
9221,11.718750
9222,11.718750
9223,11.718750
9224,11.718750
9225,11.718750
9226,11.718750
9227,11.718750
9228,11.718750
9229,11.718750
9230,11.718750
9231,11.718750
9232,11.718750
9233,11.718750
9234,11.718750
9235,11.718750
9236,11.718750
9237,11.718750
9238,11.718750
9239,11.718750
9240,11.718750
9241,11.718750
9242,11.718750
9243,11.718750
9244,11.718750
9245,11.718750
9246,11.718750
9247,11.718750
9248,11.718750
9249,11.718750
9250,11.718750
9251,11.718750
9252,11.718750
9253,11.718750
9254,11.718750
9255,11.718750
9256,11.718750
9257,11.718750
9258,11.718750
9259,11.718750
9260,11.718750
9261,11.718750
9262,11.718750
9263,11.718750
9264,11.718750
9265,11.718750
9266,11.718750
9267,11.718750
9268,11.718750
9269,11.718750
9270,11.718750
9271,11.718750
9272,11.718750
9273,11.718750
9274,7.812500
9275,11.718750
9276,11.718750
9277,11.718750
9278,11.718750
9279,11.718750
9280,11.718750
9281,11.718750
9282,11.718750
9283,11.718750
9284,11.718750
9285,11.718750
9286,11.718750
9287,11.718750
9288,11.718750
9289,11.718750
9290,11.718750
9291,11.718750
9292,11.718750
9293,11.718750
9294,11.718750
9295,11.718750
9296,7.812500
9297,7.812500
9298,7.812500
9299,7.812500
9300,7.812500
9301,7.812500
9302,7.812500
9303,7.812500
9304,7.812500
9305,7.812500
9306,7.812500
9307,7.812500
9308,7.812500
9309,7.812500
9310,7.812500
9311,7.812500
9312,7.812500
9313,7.812500
9314,7.812500
9315,7.812500
9316,7.812500
9317,7.812500
9318,7.812500
9319,7.812500
9320,7.812500
9321,7.812500
9322,7.812500
9323,7.812500
9324,7.812500
9325,7.812500
9326,7.812500
9327,7.812500
9328,7.812500
9329,7.812500
9330,7.812500
9331,7.812500
9332,7.812500
9333,7.812500
9334,7.812500
9335,7.812500
9336,7.812500
9337,7.812500
9338,7.812500
9339,7.812500
9340,7.812500
9341,7.812500
9342,7.812500
9343,7.812500
9344,7.812500
9345,7.812500
9346,7.812500
9347,7.812500
9348,3.906250
9349,3.906250
9350,3.906250
9351,3.906250
9352,7.812500
9353,3.906250
9354,7.812500
9355,3.906250
9356,3.906250
9357,3.906250
9358,3.906250
9359,3.906250
9360,3.906250
9361,3.906250
9362,3.906250
9363,3.906250
9364,3.906250
9365,3.906250
9366,3.906250
9367,3.906250
9368,3.906250
9369,3.906250
9370,3.906250
9371,3.906250
9372,3.906250
9373,3.906250
9374,3.906250
9375,3.906250
9376,3.906250
9377,3.906250
9378,3.906250
9379,0.000000
9380,0.000000
9381,0.000000
9382,0.000000
9383,3.906250
9384,3.906250
9385,0.000000
9386,0.000000
9387,0.000000
9388,0.000000
9389,0.000000
9390,0.000000
9391,0.000000
9392,0.000000
9393,0.000000
9394,0.000000
9395,0.000000
9396,0.000000
9397,0.000000
9398,0.000000
9399,0.000000
9400,0.000000
9401,0.000000
9402,0.000000
9403,0.000000
9404,0.000000
9405,0.000000
9406,0.000000
9407,0.000000
9408,0.000000
9409,0.000000
9410,0.000000
9411,0.000000
9412,0.000000
9413,0.000000
9414,0.000000
9415,-3.906250
9416,-3.906250
9417,0.000000
9418,-3.906250
9419,-3.906250
9420,-3.906250
9421,-3.906250
9422,-3.906250
9423,-3.906250
9424,-3.906250
9425,-3.906250
9426,-3.906250
9427,-3.906250
9428,-3.906250
9429,-3.906250
9430,-3.906250
9431,-3.906250
9432,-3.906250
9433,-3.906250
9434,-3.906250
9435,-3.906250
9436,-3.906250
9437,-3.906250
9438,-3.906250
9439,-3.906250
9440,-3.906250
9441,-3.906250
9442,-3.906250
9443,-7.812500
9444,-7.812500
9445,-7.812500
9446,-7.812500
9447,-3.906250
9448,-7.812500
9449,-7.812500
9450,-7.812500
9451,-7.812500
9452,-7.812500
9453,-7.812500
9454,-7.812500
9455,-7.812500
9456,-7.812500
9457,-7.812500
9458,-7.812500
9459,-7.812500
9460,-7.812500
9461,-7.812500
9462,-7.812500
9463,-7.812500
9464,-7.812500
9465,-7.812500
9466,-7.812500
9467,-11.718750
9468,-7.812500
9469,-11.718750
9470,-11.718750
9471,-11.718750
9472,-11.718750
9473,-11.718750
9474,-11.718750
9475,-11.718750
9476,-11.718750
9477,-11.718750
9478,-11.718750
9479,-11.718750
9480,-11.718750
9481,-11.718750
9482,-11.718750
9483,-11.718750
9484,-11.718750
9485,-11.718750
9486,-11.718750
9487,-11.718750
9488,-11.718750
9489,-11.718750
9490,-11.718750
9491,-15.625000
9492,-15.625000
9493,-15.625000
9494,-11.718750
9495,-15.625000
9496,-11.718750
9497,-15.625000
9498,-15.625000
9499,-15.625000
9500,-15.625000
9501,-15.625000
9502,-15.625000
9503,-15.625000
9504,-15.625000
9505,-15.625000
9506,-15.625000
9507,-15.625000
9508,-15.625000
9509,-15.625000
9510,-15.625000
9511,-15.625000
9512,-15.625000
9513,-15.625000
9514,-15.625000
9515,-15.625000
9516,-15.625000
9517,-15.625000
9518,-19.531250
9519,-15.625000
9520,-15.625000
9521,-19.531250
9522,-19.531250
9523,-19.531250
9524,-19.531250
9525,-19.531250
9526,-19.531250
9527,-19.531250
9528,-19.531250
9529,-19.531250
9530,-19.531250
9531,-19.531250
9532,-19.531250
9533,-19.531250
9534,-19.531250
9535,-19.531250
9536,-19.531250
9537,-19.531250
9538,-19.531250
9539,-19.531250
9540,-19.531250
9541,-19.531250
9542,-19.531250
9543,-19.531250
9544,-19.531250
9545,-19.531250
9546,-19.531250
9547,-23.437500
9548,-23.437500
9549,-23.437500
9550,-23.437500
9551,-23.437500
9552,-23.437500
9553,-23.437500
9554,-23.437500
9555,-23.437500
9556,-23.437500
9557,-23.437500
9558,-23.437500
9559,-23.437500
9560,-23.437500
9561,-23.437500
9562,-23.437500
9563,-23.437500
9564,-23.437500
9565,-23.437500
9566,-23.437500
9567,-23.437500
9568,-23.437500
9569,-23.437500
9570,-23.437500
9571,-23.437500
9572,-23.437500
9573,-23.437500
9574,-23.437500
9575,-27.343750
9576,-27.343750
9577,-27.343750
9578,-27.343750
9579,-27.343750
9580,-27.343750
9581,-27.343750
9582,-27.343750
9583,-27.343750
9584,-27.343750
9585,-27.343750
9586,-27.343750
9587,-27.343750
9588,-27.343750
9589,-27.343750
9590,-27.343750
9591,-27.343750
9592,-27.343750
9593,-27.343750
9594,-27.343750
9595,-27.343750
9596,-27.343750
9597,-27.343750
9598,-27.343750
9599,-27.343750
9600,-27.343750
9601,-31.250000
9602,-27.343750
9603,-27.343750
9604,-31.250000
9605,-27.343750
9606,-31.250000
9607,-31.250000
9608,-27.343750
9609,-31.250000
9610,-31.250000
9611,-31.250000
9612,-31.250000
9613,-31.250000
9614,-31.250000
9615,-31.250000
9616,-31.250000
9617,-31.250000
9618,-31.250000
9619,-31.250000
9620,-31.250000
9621,-31.250000
9622,-31.250000
9623,-31.250000
9624,-31.250000
9625,-31.250000
9626,-31.250000
9627,-31.250000
9628,-31.250000
9629,-31.250000
9630,-31.250000
9631,-31.250000
9632,-31.250000
9633,-31.250000
9634,-31.250000
9635,-31.250000
9636,-31.250000
9637,-31.250000
9638,-31.250000
9639,-31.250000
9640,-31.250000
9641,-31.250000
9642,-35.156250
9643,-35.156250
9644,-35.156250
9645,-35.156250
9646,-35.156250
9647,-35.156250
9648,-35.156250
9649,-35.156250
9650,-35.156250
9651,-35.156250
9652,-35.156250
9653,-35.156250
9654,-35.156250
9655,-35.156250
9656,-35.156250
9657,-35.156250
9658,-35.156250
9659,-35.156250
9660,-35.156250
9661,-35.156250
9662,-35.156250
9663,-35.156250
9664,-35.156250
9665,-35.156250
9666,-35.156250
9667,-35.156250
9668,-35.156250
9669,-35.156250
9670,-35.156250
9671,-35.156250
9672,-35.156250
9673,-35.156250
9674,-35.156250
9675,-35.156250
9676,-35.156250
9677,-35.156250
9678,-35.156250
9679,-35.156250
9680,-35.156250
9681,-35.156250
9682,-35.156250
9683,-35.156250
9684,-35.156250
9685,-35.156250
9686,-35.156250
9687,-35.156250
9688,-35.156250
9689,-35.156250
9690,-35.156250
9691,-35.156250
9692,-35.156250
9693,-35.156250
9694,-39.062500
9695,-39.062500
9696,-39.062500
9697,-35.156250
9698,-35.156250
9699,-35.156250
9700,-35.156250
9701,-35.156250
9702,-39.062500
9703,-35.156250
9704,-39.062500
9705,-39.062500
9706,-35.156250
9707,-39.062500
9708,-39.062500
9709,-39.062500
9710,-39.062500
9711,-39.062500
9712,-39.062500
9713,-39.062500
9714,-39.062500
9715,-39.062500
9716,-39.062500
9717,-39.062500
9718,-39.062500
9719,-39.062500
9720,-39.062500
9721,-39.062500
9722,-39.062500
9723,-39.062500
9724,-39.062500
9725,-39.062500
9726,-39.062500
9727,-39.062500
9728,-39.062500
9729,-39.062500
9730,-39.062500
9731,-39.062500
9732,-39.062500
9733,-39.062500
9734,-39.062500
9735,-39.062500
9736,-39.062500
9737,-39.062500
9738,-39.062500
9739,-39.062500
9740,-39.062500
9741,-39.062500
9742,-39.062500
9743,-39.062500
9744,-39.062500
9745,-39.062500
9746,-39.062500
9747,-39.062500
9748,-39.062500
9749,-39.062500
9750,-39.062500
9751,-39.062500
9752,-39.062500
9753,-39.062500
9754,-39.062500
9755,-39.062500
9756,-39.062500
9757,-39.062500
9758,-39.062500
9759,-39.062500
9760,-39.062500
9761,-39.062500
9762,-39.062500
9763,-39.062500
9764,-39.062500
9765,-39.062500
9766,-39.062500
9767,-39.062500
9768,-39.062500
9769,-39.062500
9770,-39.062500
9771,-39.062500
9772,-39.062500
9773,-39.062500
9774,-39.062500
9775,-39.062500
9776,-39.062500
9777,-39.062500
9778,-39.062500
9779,-35.156250
9780,-39.062500
9781,-39.062500
9782,-39.062500
9783,-39.062500
9784,-39.062500
9785,-39.062500
9786,-39.062500
9787,-35.156250
9788,-39.062500
9789,-39.062500
9790,-39.062500
9791,-39.062500
9792,-39.062500
9793,-39.062500
9794,-35.156250
9795,-35.156250
9796,-35.156250
9797,-39.062500
9798,-35.156250
9799,-39.062500
9800,-35.156250
9801,-35.156250
9802,-35.156250
9803,-35.156250
9804,-35.156250
9805,-35.156250
9806,-35.156250
9807,-35.156250
9808,-35.156250
9809,-35.156250
9810,-35.156250
9811,-35.156250
9812,-35.156250
9813,-35.156250
9814,-35.156250
9815,-35.156250
9816,-35.156250
9817,-35.156250
9818,-35.156250
9819,-35.156250
9820,-35.156250
9821,-35.156250
9822,-35.156250
9823,-35.156250
9824,-35.156250
9825,-35.156250
9826,-35.156250
9827,-35.156250
9828,-35.156250
9829,-35.156250
9830,-35.156250
9831,-35.156250
9832,-35.156250
9833,-35.156250
9834,-35.156250
9835,-35.156250
9836,-35.156250
9837,-35.156250
9838,-35.156250
9839,-35.156250
9840,-35.156250
9841,-35.156250
9842,-35.156250
9843,-31.250000
9844,-31.250000
9845,-31.250000
9846,-35.156250
9847,-35.156250
9848,-35.156250
9849,-31.250000
9850,-31.250000
9851,-31.250000
9852,-31.250000
9853,-31.250000
9854,-31.250000
9855,-31.250000
9856,-31.250000
9857,-31.250000
9858,-31.250000
9859,-31.250000
9860,-31.250000
9861,-31.250000
9862,-31.250000
9863,-31.250000
9864,-31.250000
9865,-31.250000
9866,-31.250000
9867,-31.250000
9868,-31.250000
9869,-31.250000
9870,-31.250000
9871,-31.250000
9872,-31.250000
9873,-31.250000
9874,-31.250000
9875,-31.250000
9876,-31.250000
9877,-31.250000
9878,-31.250000
9879,-31.250000
9880,-27.343750
9881,-31.250000
9882,-27.343750
9883,-27.343750
9884,-27.343750
9885,-27.343750
9886,-27.343750
9887,-27.343750
9888,-27.343750
9889,-27.343750
9890,-27.343750
9891,-27.343750
9892,-27.343750
9893,-27.343750
9894,-27.343750
9895,-27.343750
9896,-27.343750
9897,-27.343750
9898,-27.343750
9899,-27.343750
9900,-27.343750
9901,-27.343750
9902,-27.343750
9903,-27.343750
9904,-27.343750
9905,-27.343750
9906,-27.343750
9907,-27.343750
9908,-27.343750
9909,-27.343750
9910,-27.343750
9911,-23.437500
9912,-23.437500
9913,-23.437500
9914,-23.437500
9915,-23.437500
9916,-23.437500
9917,-23.437500
9918,-23.437500
9919,-23.437500
9920,-23.437500
9921,-23.437500
9922,-23.437500
9923,-23.437500
9924,-23.437500
9925,-23.437500
9926,-23.437500
9927,-23.437500
9928,-23.437500
9929,-23.437500
9930,-23.437500
9931,-23.437500
9932,-23.437500
9933,-23.437500
9934,-23.437500
9935,-19.531250
9936,-19.531250
9937,-19.531250
9938,-19.531250
9939,-19.531250
9940,-19.531250
9941,-19.531250
9942,-19.531250
9943,-19.531250
9944,-19.531250
9945,-19.531250
9946,-19.531250
9947,-19.531250
9948,-19.531250
9949,-19.531250
9950,-19.531250
9951,-19.531250
9952,-19.531250
9953,-19.531250
9954,-19.531250
9955,-19.531250
9956,-19.531250
9957,-19.531250
9958,-15.625000
9959,-19.531250
9960,-15.625000
9961,-19.531250
9962,-19.531250
9963,-15.625000
9964,-15.625000
9965,-15.625000
9966,-15.625000
9967,-15.625000
9968,-15.625000
9969,-15.625000
9970,-15.625000
9971,-15.625000
9972,-15.625000
9973,-15.625000
9974,-15.625000
9975,-15.625000
9976,-15.625000
9977,-15.625000
9978,-15.625000
9979,-15.625000
9980,-15.625000
9981,-15.625000
9982,-11.718750
9983,-11.718750
9984,-11.718750
9985,-11.718750
9986,-11.718750
9987,-11.718750
9988,-11.718750
9989,-11.718750
9990,-11.718750
9991,-11.718750
9992,-11.718750
9993,-11.718750
9994,-11.718750
9995,-11.718750
9996,-11.718750
9997,-11.718750
9998,-11.718750
9999,-11.718750
10000,-11.718750
