Channel              :,CH1
Frequency            :,1.010kHz
Period               :,0.990ms
PK-PK                :,253.9mV
Probe attenuation    :,1X
Voltage per ADC value:,0.244141mV
Time interval        :,1.00000us

index,CH1_Voltage(mV)
1,-62.500000
2,-62.500000
3,-62.500000
4,-62.500000
5,-62.500000
6,-62.500000
7,-58.593750
8,-58.593750
9,-58.593750
10,-58.593750
11,-58.593750
12,-54.687500
13,-54.687500
14,-54.687500
15,-54.687500
16,-54.687500
17,-50.781250
18,-50.781250
19,-50.781250
20,-50.781250
21,-50.781250
22,-46.875000
23,-46.875000
24,-46.875000
25,-46.875000
26,-46.875000
27,-42.968750
28,-42.968750
29,-42.968750
30,-42.968750
31,-42.968750
32,-39.062500
33,-39.062500
34,-39.062500
35,-39.062500
36,-39.062500
37,-35.156250
38,-35.156250
39,-35.156250
40,-35.156250
41,-35.156250
42,-31.250000
43,-31.250000
44,-31.250000
45,-31.250000
46,-27.343750
47,-27.343750
48,-27.343750
49,-27.343750
50,-27.343750
51,-27.343750
52,-23.437500
53,-23.437500
54,-23.437500
55,-23.437500
56,-19.531250
57,-19.531250
58,-19.531250
59,-19.531250
60,-19.531250
61,-15.625000
62,-15.625000
63,-15.625000
64,-15.625000
65,-15.625000
66,-11.718750
67,-11.718750
68,-11.718750
69,-11.718750
70,-11.718750
71,-7.812500
72,-7.812500
73,-7.812500
74,-7.812500
75,-7.812500
76,-3.906250
77,-3.906250
78,-3.906250
79,-3.906250
80,0.000000
81,-3.906250
82,0.000000
83,0.000000
84,0.000000
85,0.000000
86,3.906250
87,3.906250
88,3.906250
89,3.906250
90,3.906250
91,7.812500
92,7.812500
93,7.812500
94,7.812500
95,7.812500
96,11.718750
97,11.718750
98,11.718750
99,11.718750
100,11.718750
101,11.718750
102,15.625000
103,15.625000
104,15.625000
105,15.625000
106,15.625000
107,19.531250
108,19.531250
109,19.531250
110,19.531250
111,19.531250
112,23.437500
113,23.437500
114,23.437500
115,23.437500
116,23.437500
117,27.343750
118,27.343750
119,27.343750
120,27.343750
121,27.343750
122,27.343750
123,31.250000
124,31.250000
125,31.250000
126,31.250000
127,31.250000
128,35.156250
129,35.156250
130,35.156250
131,35.156250
132,39.062500
133,35.156250
134,39.062500
135,39.062500
136,39.062500
137,39.062500
138,39.062500
139,39.062500
140,42.968750
141,42.968750
142,42.968750
143,42.968750
144,42.968750
145,42.968750
146,46.875000
147,46.875000
148,46.875000
149,46.875000
150,46.875000
151,46.875000
152,50.781250
153,50.781250
154,50.781250
155,50.781250
156,50.781250
157,50.781250
158,54.687500
159,54.687500
160,54.687500
161,54.687500
162,54.687500
163,54.687500
164,54.687500
165,54.687500
166,58.593750
167,58.593750
168,58.593750
169,58.593750
170,58.593750
171,58.593750
172,58.593750
173,62.500000
174,62.500000
175,62.500000
176,62.500000
177,62.500000
178,62.500000
179,66.406250
180,66.406250
181,66.406250
182,66.406250
183,66.406250
184,66.406250
185,66.406250
186,70.312500
187,70.312500
188,70.312500
189,70.312500
190,70.312500
191,70.312500
192,74.218750
193,70.312500
194,70.312500
195,74.218750
196,74.218750
197,74.218750
198,74.218750
199,74.218750
200,74.218750
201,78.125000
202,78.125000
203,78.125000
204,78.125000
205,78.125000
206,78.125000
207,78.125000
208,78.125000
209,82.031250
210,82.031250
211,82.031250
212,82.031250
213,82.031250
214,82.031250
215,82.031250
216,82.031250
217,82.031250
218,85.937500
219,85.937500
220,85.937500
221,85.937500
222,85.937500
223,85.937500
224,85.937500
225,85.937500
226,85.937500
227,85.937500
228,85.937500
229,89.843750
230,85.937500
231,89.843750
232,89.843750
233,89.843750
234,89.843750
235,89.843750
236,89.843750
237,89.843750
238,89.843750
239,89.843750
240,89.843750
241,93.750000
242,93.750000
243,93.750000
244,93.750000
245,93.750000
246,93.750000
247,93.750000
248,93.750000
249,93.750000
250,93.750000
251,93.750000
252,93.750000
253,93.750000
254,97.656250
255,97.656250
256,97.656250
257,97.656250
258,97.656250
259,97.656250
260,97.656250
261,97.656250
262,97.656250
263,97.656250
264,97.656250
265,97.656250
266,97.656250
267,97.656250
268,97.656250
269,97.656250
270,97.656250
271,97.656250
272,97.656250
273,97.656250
274,101.562500
275,101.562500
276,101.562500
277,101.562500
278,101.562500
279,101.562500
280,101.562500
281,101.562500
282,101.562500
283,101.562500
284,101.562500
285,101.562500
286,101.562500
287,101.562500
288,101.562500
289,101.562500
290,101.562500
291,101.562500
292,101.562500
293,101.562500
294,101.562500
295,101.562500
296,101.562500
297,101.562500
298,101.562500
299,101.562500
300,101.562500
301,101.562500
302,101.562500
303,101.562500
304,101.562500
305,101.562500
306,105.468750
307,105.468750
308,105.468750
309,105.468750
310,105.468750
311,105.468750
312,105.468750
313,101.562500
314,105.468750
315,105.468750
316,105.468750
317,105.468750
318,105.468750
319,105.468750
320,105.468750
321,105.468750
322,105.468750
323,105.468750
324,105.468750
325,105.468750
326,105.468750
327,105.468750
328,105.468750
329,105.468750
330,105.468750
331,105.468750
332,101.562500
333,101.562500
334,105.468750
335,105.468750
336,101.562500
337,105.468750
338,105.468750
339,105.468750
340,105.468750
341,101.562500
342,101.562500
343,101.562500
344,101.562500
345,105.468750
346,101.562500
347,101.562500
348,101.562500
349,101.562500
350,101.562500
351,101.562500
352,101.562500
353,101.562500
354,101.562500
355,101.562500
356,101.562500
357,101.562500
358,101.562500
359,101.562500
360,101.562500
361,101.562500
362,101.562500
363,101.562500
364,101.562500
365,101.562500
366,101.562500
367,101.562500
368,101.562500
369,97.656250
370,97.656250
371,97.656250
372,97.656250
373,97.656250
374,97.656250
375,97.656250
376,97.656250
377,97.656250
378,97.656250
379,97.656250
380,97.656250
381,97.656250
382,97.656250
383,97.656250
384,97.656250
385,97.656250
386,97.656250
387,93.750000
388,93.750000
389,93.750000
390,93.750000
391,93.750000
392,93.750000
393,93.750000
394,93.750000
395,93.750000
396,93.750000
397,93.750000
398,89.843750
399,89.843750
400,89.843750
401,89.843750
402,89.843750
403,89.843750
404,89.843750
405,89.843750
406,89.843750
407,89.843750
408,89.843750
409,85.937500
410,85.937500
411,85.937500
412,85.937500
413,85.937500
414,85.937500
415,85.937500
416,85.937500
417,85.937500
418,85.937500
419,82.031250
420,85.937500
421,82.031250
422,82.031250
423,82.031250
424,82.031250
425,82.031250
426,82.031250
427,82.031250
428,82.031250
429,78.125000
430,78.125000
431,78.125000
432,78.125000
433,78.125000
434,78.125000
435,78.125000
436,78.125000
437,78.125000
438,78.125000
439,74.218750
440,74.218750
441,74.218750
442,74.218750
443,74.218750
444,74.218750
445,74.218750
446,74.218750
447,70.312500
448,70.312500
449,70.312500
450,70.312500
451,70.312500
452,70.312500
453,70.312500
454,70.312500
455,66.406250
456,66.406250
457,66.406250
458,66.406250
459,66.406250
460,66.406250
461,62.500000
462,62.500000
463,62.500000
464,62.500000
465,62.500000
466,62.500000
467,62.500000
468,62.500000
469,58.593750
470,58.593750
471,58.593750
472,58.593750
473,58.593750
474,58.593750
475,58.593750
476,58.593750
477,54.687500
478,54.687500
479,54.687500
480,54.687500
481,50.781250
482,50.781250
483,50.781250
484,50.781250
485,50.781250
486,50.781250
487,50.781250
488,50.781250
489,46.875000
490,46.875000
491,46.875000
492,46.875000
493,46.875000
494,46.875000
495,46.875000
496,42.968750
497,42.968750
498,42.968750
499,42.968750
500,39.062500
501,39.062500
502,39.062500
503,39.062500
504,39.062500
505,39.062500
506,39.062500
507,35.156250
508,35.156250
509,35.156250
510,35.156250
511,35.156250
512,35.156250
513,31.250000
514,31.250000
515,31.250000
516,31.250000
517,31.250000
518,27.343750
519,27.343750
520,27.343750
521,27.343750
522,27.343750
523,23.437500
524,23.437500
525,23.437500
526,23.437500
527,23.437500
528,23.437500
529,19.531250
530,19.531250
531,19.531250
532,19.531250
533,19.531250
534,15.625000
535,15.625000
536,15.625000
537,15.625000
538,15.625000
539,11.718750
540,11.718750
541,11.718750
542,11.718750
543,11.718750
544,7.812500
545,7.812500
546,7.812500
547,7.812500
548,7.812500
549,3.906250
550,3.906250
551,3.906250
552,3.906250
553,0.000000
554,3.906250
555,0.000000
556,0.000000
557,0.000000
558,0.000000
559,0.000000
560,-3.906250
561,-3.906250
562,-3.906250
563,-3.906250
564,-3.906250
565,-7.812500
566,-7.812500
567,-7.812500
568,-7.812500
569,-7.812500
570,-11.718750
571,-11.718750
572,-11.718750
573,-11.718750
574,-11.718750
575,-15.625000
576,-15.625000
577,-15.625000
578,-15.625000
579,-15.625000
580,-19.531250
581,-19.531250
582,-19.531250
583,-23.437500
584,-23.437500
585,-23.437500
586,-23.437500
587,-23.437500
588,-23.437500
589,-27.343750
590,-27.343750
591,-27.343750
592,-27.343750
593,-27.343750
594,-31.250000
595,-31.250000
596,-31.250000
597,-31.250000
598,-31.250000
599,-35.156250
600,-35.156250
601,-35.156250
602,-35.156250
603,-35.156250
604,-35.156250
605,-39.062500
606,-39.062500
607,-39.062500
608,-39.062500
609,-42.968750
610,-42.968750
611,-42.968750
612,-42.968750
613,-42.968750
614,-46.875000
615,-46.875000
616,-46.875000
617,-46.875000
618,-46.875000
619,-50.781250
620,-50.781250
621,-50.781250
622,-50.781250
623,-50.781250
624,-50.781250
625,-54.687500
626,-54.687500
627,-54.687500
628,-54.687500
629,-58.593750
630,-58.593750
631,-58.593750
632,-58.593750
633,-62.500000
634,-62.500000
635,-62.500000
636,-62.500000
637,-62.500000
638,-62.500000
639,-66.406250
640,-66.406250
641,-66.406250
642,-66.406250
643,-66.406250
644,-70.312500
645,-70.312500
646,-70.312500
647,-70.312500
648,-70.312500
649,-74.218750
650,-74.218750
651,-74.218750
652,-74.218750
653,-74.218750
654,-74.218750
655,-78.125000
656,-78.125000
657,-78.125000
658,-78.125000
659,-78.125000
660,-82.031250
661,-82.031250
662,-82.031250
663,-82.031250
664,-82.031250
665,-85.937500
666,-85.937500
667,-85.937500
668,-85.937500
669,-85.937500
670,-85.937500
671,-85.937500
672,-85.937500
673,-89.843750
674,-89.843750
675,-89.843750
676,-89.843750
677,-93.750000
678,-93.750000
679,-93.750000
680,-93.750000
681,-93.750000
682,-93.750000
683,-97.656250
684,-97.656250
685,-97.656250
686,-97.656250
687,-97.656250
688,-97.656250
689,-101.562500
690,-101.562500
691,-101.562500
692,-101.562500
693,-101.562500
694,-101.562500
695,-101.562500
696,-105.468750
697,-105.468750
698,-105.468750
699,-105.468750
700,-105.468750
701,-105.468750
702,-105.468750
703,-109.375000
704,-109.375000
705,-109.375000
706,-109.375000
707,-109.375000
708,-109.375000
709,-109.375000
710,-113.281250
711,-113.281250
712,-113.281250
713,-113.281250
714,-113.281250
715,-113.281250
716,-113.281250
717,-113.281250
718,-117.187500
719,-117.187500
720,-117.187500
721,-117.187500
722,-117.187500
723,-117.187500
724,-117.187500
725,-117.187500
726,-121.093750
727,-121.093750
728,-121.093750
729,-121.093750
730,-121.093750
731,-121.093750
732,-121.093750
733,-121.093750
734,-125.000000
735,-125.000000
736,-125.000000
737,-125.000000
738,-125.000000
739,-125.000000
740,-125.000000
741,-125.000000
742,-125.000000
743,-125.000000
744,-125.000000
745,-128.906250
746,-128.906250
747,-128.906250
748,-128.906250
749,-128.906250
750,-128.906250
751,-128.906250
752,-128.906250
753,-128.906250
754,-128.906250
755,-128.906250
756,-132.812500
757,-132.812500
758,-132.812500
759,-132.812500
760,-132.812500
761,-132.812500
762,-132.812500
763,-132.812500
764,-132.812500
765,-132.812500
766,-132.812500
767,-136.718750
768,-132.812500
769,-136.718750
770,-136.718750
771,-136.718750
772,-136.718750
773,-136.718750
774,-136.718750
775,-136.718750
776,-136.718750
777,-136.718750
778,-136.718750
779,-136.718750
780,-136.718750
781,-136.718750
782,-136.718750
783,-136.718750
784,-136.718750
785,-136.718750
786,-136.718750
787,-140.625000
788,-140.625000
789,-140.625000
790,-140.625000
791,-140.625000
792,-140.625000
793,-140.625000
794,-140.625000
795,-140.625000
796,-140.625000
797,-140.625000
798,-140.625000
799,-140.625000
800,-140.625000
801,-140.625000
802,-140.625000
803,-140.625000
804,-140.625000
805,-140.625000
806,-140.625000
807,-140.625000
808,-140.625000
809,-140.625000
810,-140.625000
811,-140.625000
812,-140.625000
813,-140.625000
814,-140.625000
815,-140.625000
816,-140.625000
817,-140.625000
818,-140.625000
819,-140.625000
820,-140.625000
821,-140.625000
822,-140.625000
823,-140.625000
824,-140.625000
825,-140.625000
826,-140.625000
827,-140.625000
828,-140.625000
829,-140.625000
830,-140.625000
831,-140.625000
832,-140.625000
833,-140.625000
834,-140.625000
835,-140.625000
836,-140.625000
837,-140.625000
838,-140.625000
839,-140.625000
840,-136.718750
841,-140.625000
842,-136.718750
843,-136.718750
844,-136.718750
845,-136.718750
846,-136.718750
847,-136.718750
848,-136.718750
849,-136.718750
850,-136.718750
851,-136.718750
852,-136.718750
853,-136.718750
854,-136.718750
855,-136.718750
856,-136.718750
857,-136.718750
858,-136.718750
859,-136.718750
860,-136.718750
861,-136.718750
862,-132.812500
863,-132.812500
864,-132.812500
865,-132.812500
866,-132.812500
867,-132.812500
868,-132.812500
869,-132.812500
870,-132.812500
871,-132.812500
872,-132.812500
873,-132.812500
874,-128.906250
875,-132.812500
876,-128.906250
877,-128.906250
878,-128.906250
879,-128.906250
880,-128.906250
881,-128.906250
882,-128.906250
883,-128.906250
884,-128.906250
885,-128.906250
886,-125.000000
887,-125.000000
888,-125.000000
889,-125.000000
890,-125.000000
891,-125.000000
892,-125.000000
893,-125.000000
894,-125.000000
895,-121.093750
896,-125.000000
897,-121.093750
898,-121.093750
899,-121.093750
900,-121.093750
901,-121.093750
902,-121.093750
903,-117.187500
904,-117.187500
905,-117.187500
906,-117.187500
907,-117.187500
908,-117.187500
909,-117.187500
910,-117.187500
911,-117.187500
912,-113.281250
913,-113.281250
914,-113.281250
915,-113.281250
916,-113.281250
917,-113.281250
918,-113.281250
919,-113.281250
920,-109.375000
921,-109.375000
922,-109.375000
923,-109.375000
924,-109.375000
925,-109.375000
926,-105.468750
927,-105.468750
928,-105.468750
929,-105.468750
930,-105.468750
931,-105.468750
932,-105.468750
933,-105.468750
934,-101.562500
935,-101.562500
936,-101.562500
937,-101.562500
938,-101.562500
939,-101.562500
940,-101.562500
941,-97.656250
942,-97.656250
943,-97.656250
944,-97.656250
945,-97.656250
946,-93.750000
947,-93.750000
948,-93.750000
949,-93.750000
950,-93.750000
951,-93.750000
952,-93.750000
953,-89.843750
954,-89.843750
955,-89.843750
956,-89.843750
957,-89.843750
958,-89.843750
959,-85.937500
960,-85.937500
961,-85.937500
962,-85.937500
963,-85.937500
964,-85.937500
965,-82.031250
966,-82.031250
967,-82.031250
968,-82.031250
969,-82.031250
970,-78.125000
971,-78.125000
972,-78.125000
973,-78.125000
974,-78.125000
975,-78.125000
976,-74.218750
977,-74.218750
978,-74.218750
979,-74.218750
980,-74.218750
981,-70.312500
982,-70.312500
983,-70.312500
984,-70.312500
985,-70.312500
986,-66.406250
987,-66.406250
988,-66.406250
989,-66.406250
990,-66.406250
991,-66.406250
992,-62.500000
993,-62.500000
994,-62.500000
995,-62.500000
996,-58.593750
997,-58.593750
998,-58.593750
999,-58.593750
1000,-58.593750
1001,-54.687500
1002,-54.687500
1003,-54.687500
1004,-54.687500
1005,-54.687500
1006,-50.781250
1007,-50.781250
1008,-50.781250
1009,-50.781250
1010,-50.781250
1011,-46.875000
1012,-46.875000
1013,-46.875000
1014,-46.875000
1015,-46.875000
1016,-42.968750
1017,-42.968750
1018,-42.968750
1019,-42.968750
1020,-42.968750
1021,-39.062500
1022,-39.062500
1023,-39.062500
1024,-39.062500
1025,-39.062500
1026,-39.062500
1027,-35.156250
1028,-35.156250
1029,-35.156250
1030,-35.156250
1031,-35.156250
1032,-31.250000
1033,-31.250000
1034,-31.250000
1035,-31.250000
1036,-27.343750
1037,-27.343750
1038,-27.343750
1039,-27.343750
1040,-27.343750
1041,-23.437500
1042,-23.437500
1043,-23.437500
1044,-23.437500
1045,-23.437500
1046,-23.437500
1047,-19.531250
1048,-19.531250
1049,-19.531250
1050,-19.531250
1051,-15.625000
1052,-15.625000
1053,-15.625000
1054,-15.625000
1055,-15.625000
1056,-11.718750
1057,-11.718750
1058,-11.718750
1059,-11.718750
1060,-11.718750
1061,-7.812500
1062,-7.812500
1063,-7.812500
1064,-7.812500
1065,-7.812500
1066,-3.906250
1067,-3.906250
1068,-3.906250
1069,-3.906250
1070,-3.906250
1071,0.000000
1072,0.000000
1073,0.000000
1074,0.000000
1075,0.000000
1076,3.906250
1077,3.906250
1078,3.906250
1079,3.906250
1080,3.906250
1081,7.812500
1082,7.812500
1083,7.812500
1084,7.812500
1085,7.812500
1086,11.718750
1087,11.718750
1088,11.718750
1089,11.718750
1090,11.718750
1091,15.625000
1092,15.625000
1093,15.625000
1094,15.625000
1095,15.625000
1096,15.625000
1097,19.531250
1098,19.531250
1099,19.531250
1100,19.531250
1101,19.531250
1102,19.531250
1103,23.437500
1104,23.437500
1105,23.437500
1106,23.437500
1107,23.437500
1108,27.343750
1109,27.343750
1110,27.343750
1111,27.343750
1112,31.250000
1113,31.250000
1114,31.250000
1115,31.250000
1116,31.250000
1117,31.250000
1118,31.250000
1119,35.156250
1120,35.156250
1121,35.156250
1122,35.156250
1123,35.156250
1124,39.062500
1125,39.062500
1126,39.062500
1127,39.062500
1128,39.062500
1129,39.062500
1130,42.968750
1131,42.968750
1132,42.968750
1133,42.968750
1134,42.968750
1135,42.968750
1136,46.875000
1137,46.875000
1138,46.875000
1139,46.875000
1140,46.875000
1141,46.875000
1142,50.781250
1143,50.781250
1144,50.781250
1145,50.781250
1146,50.781250
1147,50.781250
1148,54.687500
1149,54.687500
1150,54.687500
1151,54.687500
1152,54.687500
1153,54.687500
1154,54.687500
1155,58.593750
1156,58.593750
1157,58.593750
1158,58.593750
1159,58.593750
1160,58.593750
1161,58.593750
1162,58.593750
1163,62.500000
1164,62.500000
1165,62.500000
1166,62.500000
1167,62.500000
1168,62.500000
1169,62.500000
1170,66.406250
1171,66.406250
1172,66.406250
1173,66.406250
1174,66.406250
1175,66.406250
1176,70.312500
1177,70.312500
1178,70.312500
1179,70.312500
1180,70.312500
1181,70.312500
1182,70.312500
1183,70.312500
1184,70.312500
1185,74.218750
1186,74.218750
1187,74.218750
1188,74.218750
1189,74.218750
1190,74.218750
1191,74.218750
1192,74.218750
1193,78.125000
1194,78.125000
1195,78.125000
1196,78.125000
1197,78.125000
1198,78.125000
1199,78.125000
1200,78.125000
1201,82.031250
1202,82.031250
1203,82.031250
1204,82.031250
1205,82.031250
1206,82.031250
1207,82.031250
1208,82.031250
1209,82.031250
1210,82.031250
1211,85.937500
1212,85.937500
1213,85.937500
1214,85.937500
1215,85.937500
1216,85.937500
1217,85.937500
1218,85.937500
1219,85.937500
1220,89.843750
1221,89.843750
1222,89.843750
1223,89.843750
1224,89.843750
1225,89.843750
1226,89.843750
1227,89.843750
1228,89.843750
1229,89.843750
1230,89.843750
1231,89.843750
1232,89.843750
1233,93.750000
1234,93.750000
1235,93.750000
1236,93.750000
1237,93.750000
1238,93.750000
1239,93.750000
1240,93.750000
1241,93.750000
1242,93.750000
1243,93.750000
1244,93.750000
1245,93.750000
1246,97.656250
1247,97.656250
1248,97.656250
1249,97.656250
1250,97.656250
1251,97.656250
1252,97.656250
1253,97.656250
1254,97.656250
1255,97.656250
1256,97.656250
1257,97.656250
1258,97.656250
1259,97.656250
1260,97.656250
1261,97.656250
1262,101.562500
1263,101.562500
1264,101.562500
1265,101.562500
1266,101.562500
1267,101.562500
1268,101.562500
1269,101.562500
1270,101.562500
1271,101.562500
1272,101.562500
1273,101.562500
1274,101.562500
1275,101.562500
1276,101.562500
1277,101.562500
1278,101.562500
1279,101.562500
1280,101.562500
1281,101.562500
1282,101.562500
1283,101.562500
1284,101.562500
1285,105.468750
1286,101.562500
1287,101.562500
1288,101.562500
1289,101.562500
1290,101.562500
1291,101.562500
1292,105.468750
1293,105.468750
1294,105.468750
1295,105.468750
1296,105.468750
1297,105.468750
1298,105.468750
1299,105.468750
1300,105.468750
1301,105.468750
1302,105.468750
1303,105.468750
1304,105.468750
1305,105.468750
1306,105.468750
1307,105.468750
1308,105.468750
1309,105.468750
1310,105.468750
1311,105.468750
1312,105.468750
1313,105.468750
1314,105.468750
1315,105.468750
1316,105.468750
1317,105.468750
1318,101.562500
1319,105.468750
1320,105.468750
1321,105.468750
1322,105.468750
1323,105.468750
1324,101.562500
1325,101.562500
1326,105.468750
1327,101.562500
1328,105.468750
1329,105.468750
1330,101.562500
1331,101.562500
1332,101.562500
1333,101.562500
1334,101.562500
1335,101.562500
1336,101.562500
1337,101.562500
1338,101.562500
1339,101.562500
1340,101.562500
1341,101.562500
1342,101.562500
1343,101.562500
1344,101.562500
1345,101.562500
1346,101.562500
1347,101.562500
1348,101.562500
1349,101.562500
1350,101.562500
1351,101.562500
1352,101.562500
1353,101.562500
1354,101.562500
1355,97.656250
1356,101.562500
1357,97.656250
1358,101.562500
1359,97.656250
1360,97.656250
1361,97.656250
1362,97.656250
1363,97.656250
1364,97.656250
1365,97.656250
1366,97.656250
1367,97.656250
1368,97.656250
1369,97.656250
1370,97.656250
1371,97.656250
1372,97.656250
1373,97.656250
1374,97.656250
1375,97.656250
1376,93.750000
1377,97.656250
1378,93.750000
1379,93.750000
1380,93.750000
1381,93.750000
1382,93.750000
1383,93.750000
1384,93.750000
1385,93.750000
1386,93.750000
1387,93.750000
1388,93.750000
1389,89.843750
1390,93.750000
1391,89.843750
1392,89.843750
1393,89.843750
1394,89.843750
1395,89.843750
1396,89.843750
1397,89.843750
1398,89.843750
1399,89.843750
1400,89.843750
1401,89.843750
1402,85.937500
1403,85.937500
1404,85.937500
1405,85.937500
1406,85.937500
1407,85.937500
1408,85.937500
1409,85.937500
1410,85.937500
1411,85.937500
1412,85.937500
1413,82.031250
1414,82.031250
1415,82.031250
1416,82.031250
1417,82.031250
1418,82.031250
1419,82.031250
1420,82.031250
1421,78.125000
1422,82.031250
1423,78.125000
1424,78.125000
1425,78.125000
1426,78.125000
1427,78.125000
1428,74.218750
1429,74.218750
1430,74.218750
1431,74.218750
1432,74.218750
1433,74.218750
1434,74.218750
1435,74.218750
1436,74.218750
1437,70.312500
1438,70.312500
1439,70.312500
1440,70.312500
1441,70.312500
1442,70.312500
1443,70.312500
1444,66.406250
1445,66.406250
1446,66.406250
1447,66.406250
1448,66.406250
1449,66.406250
1450,66.406250
1451,66.406250
1452,66.406250
1453,62.500000
1454,62.500000
1455,62.500000
1456,62.500000
1457,62.500000
1458,62.500000
1459,58.593750
1460,58.593750
1461,58.593750
1462,58.593750
1463,58.593750
1464,58.593750
1465,58.593750
1466,54.687500
1467,54.687500
1468,54.687500
1469,54.687500
1470,54.687500
1471,54.687500
1472,54.687500
1473,50.781250
1474,50.781250
1475,50.781250
1476,50.781250
1477,50.781250
1478,50.781250
1479,46.875000
1480,46.875000
1481,46.875000
1482,46.875000
1483,46.875000
1484,42.968750
1485,42.968750
1486,42.968750
1487,42.968750
1488,42.968750
1489,42.968750
1490,42.968750
1491,42.968750
1492,39.062500
1493,39.062500
1494,39.062500
1495,39.062500
1496,39.062500
1497,35.156250
1498,35.156250
1499,35.156250
1500,35.156250
1501,35.156250
1502,35.156250
1503,31.250000
1504,31.250000
1505,31.250000
1506,31.250000
1507,31.250000
1508,27.343750
1509,27.343750
1510,27.343750
1511,27.343750
1512,27.343750
1513,27.343750
1514,23.437500
1515,23.437500
1516,23.437500
1517,23.437500
1518,23.437500
1519,19.531250
1520,19.531250
1521,19.531250
1522,19.531250
1523,19.531250
1524,15.625000
1525,15.625000
1526,15.625000
1527,15.625000
1528,15.625000
1529,15.625000
1530,11.718750
1531,11.718750
1532,11.718750
1533,11.718750
1534,11.718750
1535,7.812500
1536,7.812500
1537,7.812500
1538,7.812500
1539,7.812500
1540,3.906250
1541,3.906250
1542,3.906250
1543,3.906250
1544,3.906250
1545,0.000000
1546,0.000000
1547,0.000000
1548,0.000000
1549,0.000000
1550,-3.906250
1551,-3.906250
1552,-3.906250
1553,-3.906250
1554,-3.906250
1555,-7.812500
1556,-7.812500
1557,-7.812500
1558,-7.812500
1559,-7.812500
1560,-11.718750
1561,-11.718750
1562,-11.718750
1563,-11.718750
1564,-11.718750
1565,-15.625000
1566,-15.625000
1567,-15.625000
1568,-15.625000
1569,-15.625000
1570,-19.531250
1571,-19.531250
1572,-19.531250
1573,-19.531250
1574,-19.531250
1575,-23.437500
1576,-23.437500
1577,-23.437500
1578,-23.437500
1579,-27.343750
1580,-27.343750
1581,-27.343750
1582,-27.343750
1583,-27.343750
1584,-27.343750
1585,-31.250000
1586,-31.250000
1587,-31.250000
1588,-31.250000
1589,-35.156250
1590,-35.156250
1591,-35.156250
1592,-35.156250
1593,-35.156250
1594,-39.062500
1595,-39.062500
1596,-39.062500
1597,-39.062500
1598,-39.062500
1599,-39.062500
1600,-42.968750
1601,-42.968750
1602,-42.968750
1603,-42.968750
1604,-46.875000
1605,-46.875000
1606,-46.875000
1607,-46.875000
1608,-46.875000
1609,-50.781250
1610,-50.781250
1611,-50.781250
1612,-50.781250
1613,-50.781250
1614,-50.781250
1615,-54.687500
1616,-54.687500
1617,-54.687500
1618,-54.687500
1619,-58.593750
1620,-58.593750
1621,-58.593750
1622,-58.593750
1623,-58.593750
1624,-58.593750
1625,-62.500000
1626,-62.500000
1627,-62.500000
1628,-62.500000
1629,-62.500000
1630,-66.406250
1631,-66.406250
1632,-66.406250
1633,-66.406250
1634,-66.406250
1635,-70.312500
1636,-70.312500
1637,-70.312500
1638,-70.312500
1639,-74.218750
1640,-74.218750
1641,-74.218750
1642,-74.218750
1643,-74.218750
1644,-74.218750
1645,-74.218750
1646,-78.125000
1647,-78.125000
1648,-78.125000
1649,-78.125000
1650,-78.125000
1651,-82.031250
1652,-82.031250
1653,-82.031250
1654,-82.031250
1655,-82.031250
1656,-82.031250
1657,-85.937500
1658,-85.937500
1659,-85.937500
1660,-85.937500
1661,-85.937500
1662,-85.937500
1663,-89.843750
1664,-89.843750
1665,-89.843750
1666,-89.843750
1667,-89.843750
1668,-93.750000
1669,-93.750000
1670,-93.750000
1671,-93.750000
1672,-93.750000
1673,-93.750000
1674,-97.656250
1675,-97.656250
1676,-97.656250
1677,-97.656250
1678,-97.656250
1679,-97.656250
1680,-97.656250
1681,-101.562500
1682,-101.562500
1683,-101.562500
1684,-101.562500
1685,-101.562500
1686,-101.562500
1687,-101.562500
1688,-105.468750
1689,-105.468750
1690,-105.468750
1691,-105.468750
1692,-105.468750
1693,-105.468750
1694,-109.375000
1695,-109.375000
1696,-109.375000
1697,-109.375000
1698,-109.375000
1699,-109.375000
1700,-109.375000
1701,-113.281250
1702,-113.281250
1703,-113.281250
1704,-113.281250
1705,-113.281250
1706,-113.281250
1707,-113.281250
1708,-117.187500
1709,-117.187500
1710,-117.187500
1711,-117.187500
1712,-117.187500
1713,-117.187500
1714,-117.187500
1715,-117.187500
1716,-121.093750
1717,-121.093750
1718,-121.093750
1719,-121.093750
1720,-121.093750
1721,-121.093750
1722,-121.093750
1723,-121.093750
1724,-121.093750
1725,-125.000000
1726,-125.000000
1727,-125.000000
1728,-125.000000
1729,-125.000000
1730,-125.000000
1731,-125.000000
1732,-125.000000
1733,-125.000000
1734,-125.000000
1735,-128.906250
1736,-128.906250
1737,-128.906250
1738,-128.906250
1739,-128.906250
1740,-128.906250
1741,-128.906250
1742,-128.906250
1743,-128.906250
1744,-128.906250
1745,-132.812500
1746,-128.906250
1747,-132.812500
1748,-132.812500
1749,-132.812500
1750,-132.812500
1751,-132.812500
1752,-132.812500
1753,-132.812500
1754,-132.812500
1755,-132.812500
1756,-132.812500
1757,-132.812500
1758,-132.812500
1759,-132.812500
1760,-136.718750
1761,-136.718750
1762,-136.718750
1763,-136.718750
1764,-136.718750
1765,-136.718750
1766,-136.718750
1767,-136.718750
1768,-136.718750
1769,-136.718750
1770,-136.718750
1771,-136.718750
1772,-136.718750
1773,-136.718750
1774,-136.718750
1775,-136.718750
1776,-136.718750
1777,-136.718750
1778,-140.625000
1779,-140.625000
1780,-140.625000
1781,-140.625000
1782,-136.718750
1783,-140.625000
1784,-140.625000
1785,-140.625000
1786,-140.625000
1787,-140.625000
1788,-140.625000
1789,-140.625000
1790,-140.625000
1791,-140.625000
1792,-140.625000
1793,-140.625000
1794,-140.625000
1795,-140.625000
1796,-140.625000
1797,-140.625000
1798,-140.625000
1799,-140.625000
1800,-140.625000
1801,-140.625000
1802,-140.625000
1803,-140.625000
1804,-140.625000
1805,-140.625000
1806,-140.625000
1807,-140.625000
1808,-140.625000
1809,-140.625000
1810,-140.625000
1811,-140.625000
1812,-140.625000
1813,-140.625000
1814,-140.625000
1815,-140.625000
1816,-140.625000
1817,-140.625000
1818,-140.625000
1819,-140.625000
1820,-140.625000
1821,-140.625000
1822,-140.625000
1823,-140.625000
1824,-140.625000
1825,-140.625000
1826,-140.625000
1827,-140.625000
1828,-140.625000
1829,-140.625000
1830,-140.625000
1831,-140.625000
1832,-140.625000
1833,-140.625000
1834,-140.625000
1835,-136.718750
1836,-136.718750
1837,-136.718750
1838,-136.718750
1839,-136.718750
1840,-136.718750
1841,-136.718750
1842,-136.718750
1843,-136.718750
1844,-136.718750
1845,-136.718750
1846,-136.718750
1847,-136.718750
1848,-136.718750
1849,-136.718750
1850,-136.718750
1851,-136.718750
1852,-136.718750
1853,-136.718750
1854,-132.812500
1855,-132.812500
1856,-132.812500
1857,-132.812500
1858,-132.812500
1859,-132.812500
1860,-132.812500
1861,-132.812500
1862,-132.812500
1863,-132.812500
1864,-132.812500
1865,-132.812500
1866,-128.906250
1867,-128.906250
1868,-128.906250
1869,-128.906250
1870,-128.906250
1871,-128.906250
1872,-128.906250
1873,-128.906250
1874,-128.906250
1875,-128.906250
1876,-128.906250
1877,-128.906250
1878,-125.000000
1879,-125.000000
1880,-125.000000
1881,-125.000000
1882,-125.000000
1883,-125.000000
1884,-125.000000
1885,-125.000000
1886,-125.000000
1887,-121.093750
1888,-121.093750
1889,-121.093750
1890,-121.093750
1891,-121.093750
1892,-121.093750
1893,-121.093750
1894,-121.093750
1895,-117.187500
1896,-117.187500
1897,-117.187500
1898,-117.187500
1899,-117.187500
1900,-117.187500
1901,-117.187500
1902,-117.187500
1903,-117.187500
1904,-113.281250
1905,-113.281250
1906,-113.281250
1907,-113.281250
1908,-113.281250
1909,-113.281250
1910,-109.375000
1911,-109.375000
1912,-109.375000
1913,-109.375000
1914,-109.375000
1915,-109.375000
1916,-109.375000
1917,-109.375000
1918,-105.468750
1919,-105.468750
1920,-105.468750
1921,-105.468750
1922,-105.468750
1923,-105.468750
1924,-105.468750
1925,-101.562500
1926,-101.562500
1927,-101.562500
1928,-101.562500
1929,-101.562500
1930,-101.562500
1931,-101.562500
1932,-97.656250
1933,-97.656250
1934,-97.656250
1935,-97.656250
1936,-97.656250
1937,-93.750000
1938,-93.750000
1939,-93.750000
1940,-93.750000
1941,-93.750000
1942,-93.750000
1943,-93.750000
1944,-89.843750
1945,-89.843750
1946,-89.843750
1947,-89.843750
1948,-89.843750
1949,-85.937500
1950,-85.937500
1951,-85.937500
1952,-85.937500
1953,-85.937500
1954,-85.937500
1955,-85.937500
1956,-82.031250
1957,-82.031250
1958,-82.031250
1959,-82.031250
1960,-82.031250
1961,-78.125000
1962,-78.125000
1963,-78.125000
1964,-78.125000
1965,-78.125000
1966,-78.125000
1967,-74.218750
1968,-74.218750
1969,-74.218750
1970,-74.218750
1971,-74.218750
1972,-70.312500
1973,-70.312500
1974,-70.312500
1975,-70.312500
1976,-70.312500
1977,-66.406250
1978,-66.406250
1979,-66.406250
1980,-66.406250
1981,-66.406250
1982,-66.406250
1983,-62.500000
1984,-62.500000
1985,-62.500000
1986,-62.500000
1987,-58.593750
1988,-58.593750
1989,-58.593750
1990,-58.593750
1991,-58.593750
1992,-58.593750
1993,-54.687500
1994,-54.687500
1995,-54.687500
1996,-54.687500
1997,-50.781250
1998,-50.781250
1999,-50.781250
2000,-50.781250
2001,-50.781250
2002,-50.781250
2003,-46.875000
2004,-46.875000
2005,-46.875000
2006,-46.875000
2007,-46.875000
2008,-42.968750
2009,-42.968750
2010,-42.968750
2011,-42.968750
2012,-42.968750
2013,-39.062500
2014,-39.062500
2015,-39.062500
2016,-39.062500
2017,-35.156250
2018,-35.156250
2019,-35.156250
2020,-35.156250
2021,-35.156250
2022,-35.156250
2023,-31.250000
2024,-31.250000
2025,-31.250000
2026,-31.250000
2027,-27.343750
2028,-27.343750
2029,-27.343750
2030,-27.343750
2031,-27.343750
2032,-23.437500
2033,-23.437500
2034,-23.437500
2035,-23.437500
2036,-23.437500
2037,-19.531250
2038,-19.531250
2039,-19.531250
2040,-19.531250
2041,-15.625000
2042,-15.625000
2043,-15.625000
2044,-15.625000
2045,-15.625000
2046,-15.625000
2047,-11.718750
2048,-11.718750
2049,-11.718750
2050,-11.718750
2051,-7.812500
2052,-7.812500
2053,-7.812500
2054,-7.812500
2055,-7.812500
2056,-7.812500
2057,-3.906250
2058,-3.906250
2059,-3.906250
2060,-3.906250
2061,-3.906250
2062,0.000000
2063,0.000000
2064,0.000000
2065,0.000000
2066,0.000000
2067,3.906250
2068,3.906250
2069,3.906250
2070,3.906250
2071,3.906250
2072,7.812500
2073,7.812500
2074,7.812500
2075,7.812500
2076,7.812500
2077,7.812500
2078,11.718750
2079,11.718750
2080,11.718750
2081,11.718750
2082,15.625000
2083,15.625000
2084,15.625000
2085,15.625000
2086,15.625000
2087,15.625000
2088,19.531250
2089,19.531250
2090,19.531250
2091,19.531250
2092,23.437500
2093,23.437500
2094,23.437500
2095,23.437500
2096,23.437500
2097,23.437500
2098,23.437500
2099,27.343750
2100,27.343750
2101,27.343750
2102,27.343750
2103,31.250000
2104,31.250000
2105,31.250000
2106,31.250000
2107,31.250000
2108,31.250000
2109,31.250000
2110,35.156250
2111,35.156250
2112,35.156250
2113,35.156250
2114,39.062500
2115,39.062500
2116,39.062500
2117,39.062500
2118,39.062500
2119,39.062500
2120,39.062500
2121,42.968750
2122,42.968750
2123,42.968750
2124,42.968750
2125,42.968750
2126,42.968750
2127,46.875000
2128,46.875000
2129,46.875000
2130,46.875000
2131,46.875000
2132,46.875000
2133,50.781250
2134,50.781250
2135,50.781250
2136,50.781250
2137,50.781250
2138,50.781250
2139,54.687500
2140,54.687500
2141,54.687500
2142,54.687500
2143,54.687500
2144,54.687500
2145,58.593750
2146,58.593750
2147,58.593750
2148,58.593750
2149,58.593750
2150,58.593750
2151,62.500000
2152,62.500000
2153,62.500000
2154,62.500000
2155,62.500000
2156,62.500000
2157,62.500000
2158,62.500000
2159,66.406250
2160,66.406250
2161,66.406250
2162,66.406250
2163,66.406250
2164,66.406250
2165,66.406250
2166,70.312500
2167,70.312500
2168,70.312500
2169,70.312500
2170,70.312500
2171,70.312500
2172,70.312500
2173,74.218750
2174,74.218750
2175,74.218750
2176,74.218750
2177,74.218750
2178,74.218750
2179,74.218750
2180,74.218750
2181,74.218750
2182,78.125000
2183,78.125000
2184,78.125000
2185,78.125000
2186,78.125000
2187,78.125000
2188,78.125000
2189,78.125000
2190,78.125000
2191,78.125000
2192,82.031250
2193,82.031250
2194,82.031250
2195,82.031250
2196,82.031250
2197,82.031250
2198,82.031250
2199,82.031250
2200,85.937500
2201,85.937500
2202,85.937500
2203,85.937500
2204,85.937500
2205,85.937500
2206,85.937500
2207,85.937500
2208,85.937500
2209,85.937500
2210,89.843750
2211,89.843750
2212,89.843750
2213,89.843750
2214,89.843750
2215,89.843750
2216,89.843750
2217,89.843750
2218,89.843750
2219,89.843750
2220,93.750000
2221,89.843750
2222,93.750000
2223,93.750000
2224,93.750000
2225,93.750000
2226,93.750000
2227,93.750000
2228,93.750000
2229,93.750000
2230,93.750000
2231,93.750000
2232,93.750000
2233,93.750000
2234,93.750000
2235,93.750000
2236,97.656250
2237,97.656250
2238,97.656250
2239,97.656250
2240,97.656250
2241,97.656250
2242,97.656250
2243,97.656250
2244,97.656250
2245,97.656250
2246,97.656250
2247,97.656250
2248,97.656250
2249,97.656250
2250,97.656250
2251,97.656250
2252,101.562500
2253,101.562500
2254,101.562500
2255,101.562500
2256,101.562500
2257,101.562500
2258,101.562500
2259,101.562500
2260,101.562500
2261,101.562500
2262,101.562500
2263,101.562500
2264,101.562500
2265,101.562500
2266,101.562500
2267,101.562500
2268,101.562500
2269,101.562500
2270,101.562500
2271,101.562500
2272,101.562500
2273,101.562500
2274,101.562500
2275,101.562500
2276,105.468750
2277,101.562500
2278,105.468750
2279,101.562500
2280,101.562500
2281,101.562500
2282,105.468750
2283,105.468750
2284,105.468750
2285,105.468750
2286,105.468750
2287,105.468750
2288,105.468750
2289,105.468750
2290,105.468750
2291,105.468750
2292,105.468750
2293,105.468750
2294,105.468750
2295,105.468750
2296,105.468750
2297,105.468750
2298,105.468750
2299,105.468750
2300,105.468750
2301,105.468750
2302,105.468750
2303,105.468750
2304,105.468750
2305,105.468750
2306,105.468750
2307,105.468750
2308,105.468750
2309,105.468750
2310,105.468750
2311,105.468750
2312,105.468750
2313,105.468750
2314,105.468750
2315,105.468750
2316,105.468750
2317,105.468750
2318,105.468750
2319,105.468750
2320,105.468750
2321,101.562500
2322,101.562500
2323,101.562500
2324,101.562500
2325,101.562500
2326,101.562500
2327,101.562500
2328,101.562500
2329,101.562500
2330,101.562500
2331,101.562500
2332,101.562500
2333,101.562500
2334,101.562500
2335,101.562500
2336,101.562500
2337,101.562500
2338,101.562500
2339,101.562500
2340,101.562500
2341,101.562500
2342,101.562500
2343,101.562500
2344,101.562500
2345,101.562500
2346,97.656250
2347,97.656250
2348,101.562500
2349,101.562500
2350,97.656250
2351,97.656250
2352,97.656250
2353,97.656250
2354,97.656250
2355,97.656250
2356,97.656250
2357,97.656250
2358,97.656250
2359,97.656250
2360,97.656250
2361,97.656250
2362,97.656250
2363,97.656250
2364,93.750000
2365,93.750000
2366,93.750000
2367,93.750000
2368,93.750000
2369,93.750000
2370,93.750000
2371,93.750000
2372,93.750000
2373,93.750000
2374,93.750000
2375,93.750000
2376,93.750000
2377,93.750000
2378,93.750000
2379,89.843750
2380,89.843750
2381,89.843750
2382,89.843750
2383,89.843750
2384,89.843750
2385,89.843750
2386,89.843750
2387,89.843750
2388,89.843750
2389,89.843750
2390,89.843750
2391,89.843750
2392,89.843750
2393,85.937500
2394,85.937500
2395,85.937500
2396,85.937500
2397,85.937500
2398,85.937500
2399,85.937500
2400,85.937500
2401,82.031250
2402,82.031250
2403,82.031250
2404,82.031250
2405,82.031250
2406,82.031250
2407,82.031250
2408,82.031250
2409,82.031250
2410,82.031250
2411,82.031250
2412,78.125000
2413,78.125000
2414,78.125000
2415,78.125000
2416,78.125000
2417,78.125000
2418,78.125000
2419,78.125000
2420,78.125000
2421,74.218750
2422,74.218750
2423,74.218750
2424,74.218750
2425,74.218750
2426,74.218750
2427,70.312500
2428,70.312500
2429,70.312500
2430,70.312500
2431,70.312500
2432,70.312500
2433,70.312500
2434,70.312500
2435,66.406250
2436,66.406250
2437,66.406250
2438,66.406250
2439,66.406250
2440,66.406250
2441,66.406250
2442,66.406250
2443,66.406250
2444,62.500000
2445,62.500000
2446,62.500000
2447,62.500000
2448,62.500000
2449,58.593750
2450,58.593750
2451,58.593750
2452,58.593750
2453,58.593750
2454,58.593750
2455,58.593750
2456,54.687500
2457,54.687500
2458,54.687500
2459,54.687500
2460,54.687500
2461,54.687500
2462,54.687500
2463,50.781250
2464,50.781250
2465,50.781250
2466,50.781250
2467,50.781250
2468,50.781250
2469,46.875000
2470,46.875000
2471,46.875000
2472,46.875000
2473,46.875000
2474,46.875000
2475,42.968750
2476,42.968750
2477,42.968750
2478,42.968750
2479,42.968750
2480,42.968750
2481,39.062500
2482,39.062500
2483,39.062500
2484,39.062500
2485,35.156250
2486,39.062500
2487,35.156250
2488,35.156250
2489,35.156250
2490,35.156250
2491,35.156250
2492,35.156250
2493,31.250000
2494,31.250000
2495,31.250000
2496,31.250000
2497,31.250000
2498,27.343750
2499,27.343750
2500,27.343750
2501,27.343750
2502,27.343750
2503,27.343750
2504,23.437500
2505,23.437500
2506,23.437500
2507,23.437500
2508,23.437500
2509,19.531250
2510,19.531250
2511,19.531250
2512,19.531250
2513,19.531250
2514,15.625000
2515,15.625000
2516,15.625000
2517,15.625000
2518,15.625000
2519,15.625000
2520,11.718750
2521,11.718750
2522,11.718750
2523,7.812500
2524,7.812500
2525,7.812500
2526,7.812500
2527,7.812500
2528,7.812500
2529,3.906250
2530,7.812500
2531,3.906250
2532,3.906250
2533,3.906250
2534,3.906250
2535,0.000000
2536,0.000000
2537,0.000000
2538,0.000000
2539,0.000000
2540,0.000000
2541,-3.906250
2542,-3.906250
2543,-3.906250
2544,-3.906250
2545,-7.812500
2546,-7.812500
2547,-7.812500
2548,-7.812500
2549,-7.812500
2550,-11.718750
2551,-11.718750
2552,-11.718750
2553,-11.718750
2554,-11.718750
2555,-15.625000
2556,-15.625000
2557,-15.625000
2558,-15.625000
2559,-15.625000
2560,-19.531250
2561,-19.531250
2562,-19.531250
2563,-19.531250
2564,-19.531250
2565,-23.437500
2566,-23.437500
2567,-23.437500
2568,-23.437500
2569,-27.343750
2570,-27.343750
2571,-27.343750
2572,-27.343750
2573,-27.343750
2574,-31.250000
2575,-31.250000
2576,-31.250000
2577,-31.250000
2578,-31.250000
2579,-35.156250
2580,-35.156250
2581,-35.156250
2582,-35.156250
2583,-35.156250
2584,-39.062500
2585,-39.062500
2586,-39.062500
2587,-39.062500
2588,-39.062500
2589,-42.968750
2590,-42.968750
2591,-42.968750
2592,-42.968750
2593,-42.968750
2594,-46.875000
2595,-46.875000
2596,-46.875000
2597,-46.875000
2598,-46.875000
2599,-50.781250
2600,-50.781250
2601,-50.781250
2602,-50.781250
2603,-54.687500
2604,-54.687500
2605,-54.687500
2606,-54.687500
2607,-54.687500
2608,-58.593750
2609,-58.593750
2610,-58.593750
2611,-58.593750
2612,-58.593750
2613,-58.593750
2614,-62.500000
2615,-62.500000
2616,-62.500000
2617,-62.500000
2618,-62.500000
2619,-66.406250
2620,-66.406250
2621,-66.406250
2622,-66.406250
2623,-66.406250
2624,-70.312500
2625,-70.312500
2626,-70.312500
2627,-70.312500
2628,-70.312500
2629,-74.218750
2630,-74.218750
2631,-74.218750
2632,-74.218750
2633,-74.218750
2634,-78.125000
2635,-78.125000
2636,-78.125000
2637,-78.125000
2638,-78.125000
2639,-78.125000
2640,-78.125000
2641,-82.031250
2642,-82.031250
2643,-82.031250
2644,-82.031250
2645,-82.031250
2646,-85.937500
2647,-85.937500
2648,-85.937500
2649,-85.937500
2650,-85.937500
2651,-89.843750
2652,-89.843750
2653,-89.843750
2654,-89.843750
2655,-89.843750
2656,-89.843750
2657,-93.750000
2658,-93.750000
2659,-93.750000
2660,-93.750000
2661,-93.750000
2662,-93.750000
2663,-97.656250
2664,-97.656250
2665,-97.656250
2666,-97.656250
2667,-97.656250
2668,-97.656250
2669,-97.656250
2670,-101.562500
2671,-101.562500
2672,-101.562500
2673,-101.562500
2674,-101.562500
2675,-101.562500
2676,-101.562500
2677,-105.468750
2678,-105.468750
2679,-105.468750
2680,-105.468750
2681,-105.468750
2682,-105.468750
2683,-109.375000
2684,-109.375000
2685,-109.375000
2686,-109.375000
2687,-109.375000
2688,-109.375000
2689,-109.375000
2690,-113.281250
2691,-113.281250
2692,-113.281250
2693,-113.281250
2694,-113.281250
2695,-113.281250
2696,-113.281250
2697,-117.187500
2698,-117.187500
2699,-117.187500
2700,-117.187500
2701,-117.187500
2702,-117.187500
2703,-117.187500
2704,-117.187500
2705,-117.187500
2706,-117.187500
2707,-121.093750
2708,-121.093750
2709,-121.093750
2710,-121.093750
2711,-121.093750
2712,-121.093750
2713,-125.000000
2714,-125.000000
2715,-125.000000
2716,-125.000000
2717,-125.000000
2718,-125.000000
2719,-125.000000
2720,-125.000000
2721,-125.000000
2722,-125.000000
2723,-125.000000
2724,-128.906250
2725,-128.906250
2726,-128.906250
2727,-128.906250
2728,-128.906250
2729,-128.906250
2730,-128.906250
2731,-128.906250
2732,-128.906250
2733,-128.906250
2734,-128.906250
2735,-132.812500
2736,-132.812500
2737,-132.812500
2738,-132.812500
2739,-132.812500
2740,-132.812500
2741,-132.812500
2742,-132.812500
2743,-132.812500
2744,-132.812500
2745,-132.812500
2746,-132.812500
2747,-132.812500
2748,-132.812500
2749,-136.718750
2750,-136.718750
2751,-136.718750
2752,-136.718750
2753,-136.718750
2754,-136.718750
2755,-136.718750
2756,-136.718750
2757,-136.718750
2758,-136.718750
2759,-136.718750
2760,-136.718750
2761,-136.718750
2762,-136.718750
2763,-136.718750
2764,-136.718750
2765,-136.718750
2766,-140.625000
2767,-140.625000
2768,-136.718750
2769,-140.625000
2770,-140.625000
2771,-140.625000
2772,-140.625000
2773,-140.625000
2774,-140.625000
2775,-140.625000
2776,-140.625000
2777,-140.625000
2778,-140.625000
2779,-140.625000
2780,-140.625000
2781,-140.625000
2782,-140.625000
2783,-140.625000
2784,-140.625000
2785,-140.625000
2786,-140.625000
2787,-140.625000
2788,-140.625000
2789,-140.625000
2790,-140.625000
2791,-140.625000
2792,-140.625000
2793,-140.625000
2794,-140.625000
2795,-140.625000
2796,-140.625000
2797,-140.625000
2798,-140.625000
2799,-140.625000
2800,-140.625000
2801,-140.625000
2802,-140.625000
2803,-140.625000
2804,-140.625000
2805,-140.625000
2806,-140.625000
2807,-140.625000
2808,-140.625000
2809,-140.625000
2810,-140.625000
2811,-140.625000
2812,-140.625000
2813,-140.625000
2814,-140.625000
2815,-140.625000
2816,-140.625000
2817,-140.625000
2818,-140.625000
2819,-140.625000
2820,-140.625000
2821,-140.625000
2822,-136.718750
2823,-140.625000
2824,-140.625000
2825,-136.718750
2826,-136.718750
2827,-136.718750
2828,-136.718750
2829,-140.625000
2830,-136.718750
2831,-136.718750
2832,-136.718750
2833,-136.718750
2834,-136.718750
2835,-136.718750
2836,-136.718750
2837,-136.718750
2838,-136.718750
2839,-136.718750
2840,-136.718750
2841,-136.718750
2842,-132.812500
2843,-132.812500
2844,-132.812500
2845,-132.812500
2846,-132.812500
2847,-132.812500
2848,-132.812500
2849,-132.812500
2850,-132.812500
2851,-132.812500
2852,-132.812500
2853,-132.812500
2854,-132.812500
2855,-132.812500
2856,-132.812500
2857,-128.906250
2858,-128.906250
2859,-128.906250
2860,-128.906250
2861,-128.906250
2862,-128.906250
2863,-128.906250
2864,-128.906250
2865,-128.906250
2866,-128.906250
2867,-125.000000
2868,-125.000000
2869,-125.000000
2870,-125.000000
2871,-125.000000
2872,-125.000000
2873,-125.000000
2874,-125.000000
2875,-125.000000
2876,-121.093750
2877,-121.093750
2878,-121.093750
2879,-121.093750
2880,-121.093750
2881,-121.093750
2882,-121.093750
2883,-121.093750
2884,-121.093750
2885,-117.187500
2886,-117.187500
2887,-117.187500
2888,-117.187500
2889,-117.187500
2890,-117.187500
2891,-117.187500
2892,-117.187500
2893,-117.187500
2894,-113.281250
2895,-113.281250
2896,-113.281250
2897,-113.281250
2898,-113.281250
2899,-113.281250
2900,-113.281250
2901,-109.375000
2902,-109.375000
2903,-109.375000
2904,-109.375000
2905,-109.375000
2906,-109.375000
2907,-105.468750
2908,-105.468750
2909,-105.468750
2910,-105.468750
2911,-105.468750
2912,-105.468750
2913,-105.468750
2914,-105.468750
2915,-101.562500
2916,-101.562500
2917,-101.562500
2918,-101.562500
2919,-101.562500
2920,-97.656250
2921,-101.562500
2922,-97.656250
2923,-97.656250
2924,-97.656250
2925,-97.656250
2926,-93.750000
2927,-93.750000
2928,-93.750000
2929,-93.750000
2930,-93.750000
2931,-93.750000
2932,-93.750000
2933,-93.750000
2934,-89.843750
2935,-89.843750
2936,-89.843750
2937,-89.843750
2938,-89.843750
2939,-85.937500
2940,-85.937500
2941,-85.937500
2942,-85.937500
2943,-85.937500
2944,-82.031250
2945,-82.031250
2946,-82.031250
2947,-82.031250
2948,-82.031250
2949,-82.031250
2950,-78.125000
2951,-78.125000
2952,-78.125000
2953,-78.125000
2954,-78.125000
2955,-78.125000
2956,-74.218750
2957,-74.218750
2958,-74.218750
2959,-74.218750
2960,-70.312500
2961,-70.312500
2962,-70.312500
2963,-70.312500
2964,-70.312500
2965,-70.312500
2966,-66.406250
2967,-66.406250
2968,-66.406250
2969,-66.406250
2970,-66.406250
2971,-66.406250
2972,-62.500000
2973,-62.500000
2974,-62.500000
2975,-62.500000
2976,-58.593750
2977,-58.593750
2978,-58.593750
2979,-58.593750
2980,-58.593750
2981,-58.593750
2982,-54.687500
2983,-54.687500
2984,-54.687500
2985,-54.687500
2986,-50.781250
2987,-50.781250
2988,-50.781250
2989,-50.781250
2990,-50.781250
2991,-50.781250
2992,-46.875000
2993,-46.875000
2994,-46.875000
2995,-46.875000
2996,-42.968750
2997,-42.968750
2998,-42.968750
2999,-42.968750
3000,-42.968750
3001,-39.062500
3002,-39.062500
3003,-39.062500
3004,-39.062500
3005,-39.062500
3006,-35.156250
3007,-35.156250
3008,-35.156250
3009,-35.156250
3010,-35.156250
3011,-35.156250
3012,-31.250000
3013,-31.250000
3014,-31.250000
3015,-31.250000
3016,-27.343750
3017,-27.343750
3018,-27.343750
3019,-27.343750
3020,-27.343750
3021,-27.343750
3022,-23.437500
3023,-23.437500
3024,-23.437500
3025,-19.531250
3026,-19.531250
3027,-19.531250
3028,-19.531250
3029,-19.531250
3030,-15.625000
3031,-15.625000
3032,-15.625000
3033,-15.625000
3034,-15.625000
3035,-15.625000
3036,-11.718750
3037,-11.718750
3038,-11.718750
3039,-11.718750
3040,-7.812500
3041,-7.812500
3042,-7.812500
3043,-7.812500
3044,-7.812500
3045,-7.812500
3046,-3.906250
3047,-3.906250
3048,-3.906250
3049,-3.906250
3050,-3.906250
3051,0.000000
3052,0.000000
3053,0.000000
3054,0.000000
3055,0.000000
3056,3.906250
3057,3.906250
3058,3.906250
3059,3.906250
3060,3.906250
3061,7.812500
3062,7.812500
3063,7.812500
3064,7.812500
3065,7.812500
3066,11.718750
3067,11.718750
3068,11.718750
3069,11.718750
3070,11.718750
3071,11.718750
3072,15.625000
3073,15.625000
3074,15.625000
3075,15.625000
3076,19.531250
3077,19.531250
3078,19.531250
3079,19.531250
3080,19.531250
3081,19.531250
3082,23.437500
3083,23.437500
3084,23.437500
3085,23.437500
3086,23.437500
3087,27.343750
3088,27.343750
3089,27.343750
3090,27.343750
3091,27.343750
3092,31.250000
3093,31.250000
3094,31.250000
3095,31.250000
3096,31.250000
3097,31.250000
3098,31.250000
3099,35.156250
3100,35.156250
3101,35.156250
3102,39.062500
3103,35.156250
3104,39.062500
3105,39.062500
3106,39.062500
3107,39.062500
3108,39.062500
3109,39.062500
3110,42.968750
3111,42.968750
3112,42.968750
3113,42.968750
3114,42.968750
3115,46.875000
3116,46.875000
3117,46.875000
3118,46.875000
3119,46.875000
3120,46.875000
3121,46.875000
3122,50.781250
3123,50.781250
3124,50.781250
3125,50.781250
3126,50.781250
3127,54.687500
3128,54.687500
3129,54.687500
3130,54.687500
3131,54.687500
3132,54.687500
3133,54.687500
3134,54.687500
3135,58.593750
3136,58.593750
3137,58.593750
3138,58.593750
3139,58.593750
3140,58.593750
3141,62.500000
3142,62.500000
3143,62.500000
3144,62.500000
3145,62.500000
3146,62.500000
3147,62.500000
3148,66.406250
3149,66.406250
3150,66.406250
3151,66.406250
3152,66.406250
3153,66.406250
3154,66.406250
3155,66.406250
3156,70.312500
3157,70.312500
3158,70.312500
3159,70.312500
3160,70.312500
3161,70.312500
3162,70.312500
3163,70.312500
3164,74.218750
3165,74.218750
3166,74.218750
3167,74.218750
3168,74.218750
3169,74.218750
3170,74.218750
3171,78.125000
3172,78.125000
3173,78.125000
3174,78.125000
3175,78.125000
3176,78.125000
3177,78.125000
3178,78.125000
3179,78.125000
3180,82.031250
3181,82.031250
3182,82.031250
3183,82.031250
3184,82.031250
3185,82.031250
3186,82.031250
3187,82.031250
3188,82.031250
3189,85.937500
3190,85.937500
3191,85.937500
3192,85.937500
3193,85.937500
3194,85.937500
3195,85.937500
3196,85.937500
3197,85.937500
3198,89.843750
3199,89.843750
3200,89.843750
3201,89.843750
3202,89.843750
3203,89.843750
3204,89.843750
3205,89.843750
3206,89.843750
3207,93.750000
3208,89.843750
3209,89.843750
3210,93.750000
3211,93.750000
3212,93.750000
3213,93.750000
3214,93.750000
3215,93.750000
3216,93.750000
3217,93.750000
3218,93.750000
3219,93.750000
3220,93.750000
3221,93.750000
3222,93.750000
3223,93.750000
3224,93.750000
3225,93.750000
3226,97.656250
3227,97.656250
3228,97.656250
3229,97.656250
3230,97.656250
3231,97.656250
3232,97.656250
3233,97.656250
3234,97.656250
3235,97.656250
3236,97.656250
3237,97.656250
3238,97.656250
3239,97.656250
3240,101.562500
3241,101.562500
3242,97.656250
3243,101.562500
3244,97.656250
3245,101.562500
3246,101.562500
3247,101.562500
3248,101.562500
3249,101.562500
3250,101.562500
3251,101.562500
3252,101.562500
3253,101.562500
3254,101.562500
3255,101.562500
3256,101.562500
3257,101.562500
3258,101.562500
3259,101.562500
3260,101.562500
3261,101.562500
3262,101.562500
3263,101.562500
3264,101.562500
3265,101.562500
3266,101.562500
3267,101.562500
3268,101.562500
3269,101.562500
3270,101.562500
3271,101.562500
3272,101.562500
3273,101.562500
3274,101.562500
3275,105.468750
3276,105.468750
3277,105.468750
3278,105.468750
3279,105.468750
3280,105.468750
3281,105.468750
3282,105.468750
3283,105.468750
3284,105.468750
3285,105.468750
3286,105.468750
3287,105.468750
3288,105.468750
3289,105.468750
3290,105.468750
3291,105.468750
3292,105.468750
3293,105.468750
3294,105.468750
3295,105.468750
3296,105.468750
3297,105.468750
3298,105.468750
3299,105.468750
3300,105.468750
3301,105.468750
3302,105.468750
3303,105.468750
3304,105.468750
3305,105.468750
3306,105.468750
3307,105.468750
3308,105.468750
3309,105.468750
3310,105.468750
3311,101.562500
3312,101.562500
3313,101.562500
3314,101.562500
3315,101.562500
3316,101.562500
3317,101.562500
3318,101.562500
3319,101.562500
3320,101.562500
3321,101.562500
3322,101.562500
3323,101.562500
3324,101.562500
3325,101.562500
3326,101.562500
3327,101.562500
3328,101.562500
3329,101.562500
3330,101.562500
3331,101.562500
3332,101.562500
3333,101.562500
3334,101.562500
3335,97.656250
3336,101.562500
3337,101.562500
3338,101.562500
3339,101.562500
3340,97.656250
3341,101.562500
3342,97.656250
3343,97.656250
3344,97.656250
3345,97.656250
3346,97.656250
3347,97.656250
3348,97.656250
3349,97.656250
3350,97.656250
3351,97.656250
3352,97.656250
3353,97.656250
3354,97.656250
3355,97.656250
3356,97.656250
3357,93.750000
3358,93.750000
3359,93.750000
3360,93.750000
3361,93.750000
3362,93.750000
3363,93.750000
3364,93.750000
3365,93.750000
3366,93.750000
3367,93.750000
3368,93.750000
3369,93.750000
3370,89.843750
3371,89.843750
3372,93.750000
3373,89.843750
3374,85.937500
3375,89.843750
3376,89.843750
3377,89.843750
3378,89.843750
3379,89.843750
3380,85.937500
3381,85.937500
3382,85.937500
3383,85.937500
3384,85.937500
3385,85.937500
3386,85.937500
3387,85.937500
3388,85.937500
3389,85.937500
3390,82.031250
3391,82.031250
3392,82.031250
3393,82.031250
3394,82.031250
3395,82.031250
3396,82.031250
3397,82.031250
3398,78.125000
3399,78.125000
3400,78.125000
3401,78.125000
3402,78.125000
3403,78.125000
3404,78.125000
3405,78.125000
3406,78.125000
3407,78.125000
3408,74.218750
3409,74.218750
3410,74.218750
3411,74.218750
3412,74.218750
3413,74.218750
3414,74.218750
3415,74.218750
3416,74.218750
3417,70.312500
3418,70.312500
3419,70.312500
3420,70.312500
3421,70.312500
3422,70.312500
3423,70.312500
3424,70.312500
3425,66.406250
3426,66.406250
3427,66.406250
3428,66.406250
3429,66.406250
3430,66.406250
3431,66.406250
3432,62.500000
3433,62.500000
3434,62.500000
3435,62.500000
3436,62.500000
3437,62.500000
3438,62.500000
3439,58.593750
3440,58.593750
3441,58.593750
3442,58.593750
3443,58.593750
3444,58.593750
3445,58.593750
3446,54.687500
3447,54.687500
3448,54.687500
3449,54.687500
3450,54.687500
3451,54.687500
3452,50.781250
3453,50.781250
3454,50.781250
3455,50.781250
3456,50.781250
3457,50.781250
3458,46.875000
3459,46.875000
3460,46.875000
3461,46.875000
3462,46.875000
3463,46.875000
3464,46.875000
3465,42.968750
3466,42.968750
3467,42.968750
3468,42.968750
3469,42.968750
3470,39.062500
3471,39.062500
3472,39.062500
3473,39.062500
3474,39.062500
3475,39.062500
3476,35.156250
3477,35.156250
3478,35.156250
3479,35.156250
3480,35.156250
3481,35.156250
3482,31.250000
3483,31.250000
3484,31.250000
3485,31.250000
3486,31.250000
3487,27.343750
3488,27.343750
3489,27.343750
3490,27.343750
3491,27.343750
3492,27.343750
3493,23.437500
3494,23.437500
3495,23.437500
3496,23.437500
3497,23.437500
3498,19.531250
3499,19.531250
3500,19.531250
3501,19.531250
3502,19.531250
3503,19.531250
3504,15.625000
3505,15.625000
3506,15.625000
3507,15.625000
3508,11.718750
3509,11.718750
3510,11.718750
3511,11.718750
3512,11.718750
3513,11.718750
3514,7.812500
3515,7.812500
3516,7.812500
3517,7.812500
3518,7.812500
3519,3.906250
3520,3.906250
3521,3.906250
3522,3.906250
3523,3.906250
3524,0.000000
3525,0.000000
3526,0.000000
3527,0.000000
3528,0.000000
3529,-3.906250
3530,-3.906250
3531,-3.906250
3532,-3.906250
3533,-3.906250
3534,-7.812500
3535,-7.812500
3536,-7.812500
3537,-7.812500
3538,-7.812500
3539,-11.718750
3540,-11.718750
3541,-11.718750
3542,-11.718750
3543,-11.718750
3544,-15.625000
3545,-15.625000
3546,-15.625000
3547,-15.625000
3548,-15.625000
3549,-15.625000
3550,-19.531250
3551,-19.531250
3552,-19.531250
3553,-19.531250
3554,-23.437500
3555,-23.437500
3556,-23.437500
3557,-23.437500
3558,-23.437500
3559,-23.437500
3560,-27.343750
3561,-27.343750
3562,-27.343750
3563,-27.343750
3564,-31.250000
3565,-31.250000
3566,-31.250000
3567,-31.250000
3568,-31.250000
3569,-31.250000
3570,-35.156250
3571,-35.156250
3572,-35.156250
3573,-35.156250
3574,-39.062500
3575,-39.062500
3576,-39.062500
3577,-39.062500
3578,-39.062500
3579,-42.968750
3580,-42.968750
3581,-42.968750
3582,-42.968750
3583,-42.968750
3584,-46.875000
3585,-46.875000
3586,-46.875000
3587,-46.875000
3588,-46.875000
3589,-46.875000
3590,-46.875000
3591,-50.781250
3592,-50.781250
3593,-50.781250
3594,-54.687500
3595,-54.687500
3596,-54.687500
3597,-54.687500
3598,-54.687500
3599,-58.593750
3600,-58.593750
3601,-58.593750
3602,-58.593750
3603,-58.593750
3604,-58.593750
3605,-62.500000
3606,-62.500000
3607,-62.500000
3608,-62.500000
3609,-66.406250
3610,-66.406250
3611,-66.406250
3612,-66.406250
3613,-66.406250
3614,-66.406250
3615,-70.312500
3616,-70.312500
3617,-70.312500
3618,-70.312500
3619,-70.312500
3620,-74.218750
3621,-74.218750
3622,-74.218750
3623,-74.218750
3624,-74.218750
3625,-74.218750
3626,-78.125000
3627,-78.125000
3628,-78.125000
3629,-78.125000
3630,-78.125000
3631,-82.031250
3632,-82.031250
3633,-82.031250
3634,-82.031250
3635,-82.031250
3636,-82.031250
3637,-85.937500
3638,-85.937500
3639,-85.937500
3640,-85.937500
3641,-85.937500
3642,-89.843750
3643,-89.843750
3644,-89.843750
3645,-89.843750
3646,-89.843750
3647,-89.843750
3648,-93.750000
3649,-93.750000
3650,-93.750000
3651,-93.750000
3652,-93.750000
3653,-93.750000
3654,-97.656250
3655,-97.656250
3656,-97.656250
3657,-97.656250
3658,-97.656250
3659,-97.656250
3660,-101.562500
3661,-101.562500
3662,-101.562500
3663,-101.562500
3664,-101.562500
3665,-101.562500
3666,-101.562500
3667,-101.562500
3668,-105.468750
3669,-105.468750
3670,-105.468750
3671,-105.468750
3672,-105.468750
3673,-105.468750
3674,-109.375000
3675,-109.375000
3676,-109.375000
3677,-109.375000
3678,-109.375000
3679,-109.375000
3680,-109.375000
3681,-113.281250
3682,-113.281250
3683,-113.281250
3684,-113.281250
3685,-113.281250
3686,-113.281250
3687,-113.281250
3688,-117.187500
3689,-117.187500
3690,-117.187500
3691,-117.187500
3692,-117.187500
3693,-117.187500
3694,-117.187500
3695,-121.093750
3696,-117.187500
3697,-121.093750
3698,-121.093750
3699,-121.093750
3700,-121.093750
3701,-121.093750
3702,-121.093750
3703,-121.093750
3704,-125.000000
3705,-125.000000
3706,-125.000000
3707,-125.000000
3708,-125.000000
3709,-125.000000
3710,-125.000000
3711,-125.000000
3712,-125.000000
3713,-125.000000
3714,-125.000000
3715,-128.906250
3716,-128.906250
3717,-128.906250
3718,-128.906250
3719,-128.906250
3720,-128.906250
3721,-128.906250
3722,-128.906250
3723,-128.906250
3724,-128.906250
3725,-128.906250
3726,-132.812500
3727,-128.906250
3728,-132.812500
3729,-132.812500
3730,-132.812500
3731,-132.812500
3732,-132.812500
3733,-132.812500
3734,-132.812500
3735,-132.812500
3736,-132.812500
3737,-132.812500
3738,-132.812500
3739,-136.718750
3740,-132.812500
3741,-136.718750
3742,-136.718750
3743,-136.718750
3744,-136.718750
3745,-136.718750
3746,-136.718750
3747,-136.718750
3748,-136.718750
3749,-136.718750
3750,-136.718750
3751,-136.718750
3752,-136.718750
3753,-136.718750
3754,-136.718750
3755,-136.718750
3756,-136.718750
3757,-136.718750
3758,-140.625000
3759,-140.625000
3760,-140.625000
3761,-136.718750
3762,-140.625000
3763,-140.625000
3764,-140.625000
3765,-140.625000
3766,-140.625000
3767,-140.625000
3768,-140.625000
3769,-140.625000
3770,-140.625000
3771,-140.625000
3772,-140.625000
3773,-140.625000
3774,-136.718750
3775,-140.625000
3776,-140.625000
3777,-140.625000
3778,-140.625000
3779,-140.625000
3780,-140.625000
3781,-140.625000
3782,-140.625000
3783,-140.625000
3784,-140.625000
3785,-140.625000
3786,-140.625000
3787,-140.625000
3788,-140.625000
3789,-140.625000
3790,-140.625000
3791,-140.625000
3792,-140.625000
3793,-140.625000
3794,-140.625000
3795,-140.625000
3796,-140.625000
3797,-140.625000
3798,-140.625000
3799,-140.625000
3800,-140.625000
3801,-140.625000
3802,-140.625000
3803,-140.625000
3804,-140.625000
3805,-140.625000
3806,-140.625000
3807,-140.625000
3808,-140.625000
3809,-140.625000
3810,-136.718750
3811,-136.718750
3812,-136.718750
3813,-136.718750
3814,-136.718750
3815,-136.718750
3816,-136.718750
3817,-136.718750
3818,-136.718750
3819,-136.718750
3820,-136.718750
3821,-136.718750
3822,-136.718750
3823,-136.718750
3824,-136.718750
3825,-136.718750
3826,-132.812500
3827,-136.718750
3828,-136.718750
3829,-136.718750
3830,-132.812500
3831,-132.812500
3832,-132.812500
3833,-132.812500
3834,-132.812500
3835,-132.812500
3836,-132.812500
3837,-132.812500
3838,-132.812500
3839,-132.812500
3840,-132.812500
3841,-132.812500
3842,-128.906250
3843,-128.906250
3844,-128.906250
3845,-128.906250
3846,-128.906250
3847,-128.906250
3848,-128.906250
3849,-128.906250
3850,-128.906250
3851,-128.906250
3852,-128.906250
3853,-128.906250
3854,-128.906250
3855,-125.000000
3856,-125.000000
3857,-125.000000
3858,-125.000000
3859,-125.000000
3860,-125.000000
3861,-125.000000
3862,-125.000000
3863,-125.000000
3864,-121.093750
3865,-121.093750
3866,-121.093750
3867,-121.093750
3868,-121.093750
3869,-121.093750
3870,-121.093750
3871,-121.093750
3872,-117.187500
3873,-117.187500
3874,-117.187500
3875,-117.187500
3876,-117.187500
3877,-117.187500
3878,-117.187500
3879,-117.187500
3880,-113.281250
3881,-113.281250
3882,-113.281250
3883,-113.281250
3884,-113.281250
3885,-113.281250
3886,-113.281250
3887,-113.281250
3888,-109.375000
3889,-109.375000
3890,-109.375000
3891,-109.375000
3892,-109.375000
3893,-109.375000
3894,-109.375000
3895,-105.468750
3896,-105.468750
3897,-105.468750
3898,-105.468750
3899,-105.468750
3900,-105.468750
3901,-105.468750
3902,-101.562500
3903,-105.468750
3904,-101.562500
3905,-101.562500
3906,-101.562500
3907,-101.562500
3908,-101.562500
3909,-101.562500
3910,-97.656250
3911,-97.656250
3912,-97.656250
3913,-97.656250
3914,-97.656250
3915,-93.750000
3916,-93.750000
3917,-93.750000
3918,-93.750000
3919,-93.750000
3920,-93.750000
3921,-93.750000
3922,-89.843750
3923,-89.843750
3924,-89.843750
3925,-89.843750
3926,-89.843750
3927,-89.843750
3928,-85.937500
3929,-85.937500
3930,-85.937500
3931,-85.937500
3932,-85.937500
3933,-82.031250
3934,-85.937500
3935,-82.031250
3936,-82.031250
3937,-82.031250
3938,-82.031250
3939,-78.125000
3940,-78.125000
3941,-78.125000
3942,-78.125000
3943,-78.125000
3944,-74.218750
3945,-74.218750
3946,-74.218750
3947,-74.218750
3948,-74.218750
3949,-74.218750
3950,-70.312500
3951,-70.312500
3952,-70.312500
3953,-70.312500
3954,-70.312500
3955,-66.406250
3956,-66.406250
3957,-66.406250
3958,-66.406250
3959,-66.406250
3960,-62.500000
3961,-62.500000
3962,-62.500000
3963,-62.500000
3964,-62.500000
3965,-58.593750
3966,-58.593750
3967,-58.593750
3968,-58.593750
3969,-58.593750
3970,-58.593750
3971,-54.687500
3972,-54.687500
3973,-54.687500
3974,-54.687500
3975,-50.781250
3976,-50.781250
3977,-50.781250
3978,-50.781250
3979,-50.781250
3980,-46.875000
3981,-46.875000
3982,-46.875000
3983,-46.875000
3984,-46.875000
3985,-46.875000
3986,-42.968750
3987,-42.968750
3988,-42.968750
3989,-42.968750
3990,-39.062500
3991,-39.062500
3992,-39.062500
3993,-39.062500
3994,-39.062500
3995,-39.062500
3996,-35.156250
3997,-35.156250
3998,-35.156250
3999,-35.156250
4000,-35.156250
4001,-31.250000
4002,-31.250000
4003,-31.250000
4004,-31.250000
4005,-31.250000
4006,-27.343750
4007,-27.343750
4008,-27.343750
4009,-27.343750
4010,-27.343750
4011,-23.437500
4012,-23.437500
4013,-23.437500
4014,-23.437500
4015,-23.437500
4016,-19.531250
4017,-19.531250
4018,-19.531250
4019,-19.531250
4020,-15.625000
4021,-15.625000
4022,-15.625000
4023,-15.625000
4024,-15.625000
4025,-15.625000
4026,-11.718750
4027,-11.718750
4028,-11.718750
4029,-11.718750
4030,-7.812500
4031,-11.718750
4032,-7.812500
4033,-7.812500
4034,-7.812500
4035,-7.812500
4036,-7.812500
4037,-3.906250
4038,-3.906250
4039,-3.906250
4040,-3.906250
4041,0.000000
4042,0.000000
4043,0.000000
4044,0.000000
4045,0.000000
4046,3.906250
4047,3.906250
4048,3.906250
4049,3.906250
4050,3.906250
4051,7.812500
4052,7.812500
4053,7.812500
4054,7.812500
4055,7.812500
4056,11.718750
4057,11.718750
4058,11.718750
4059,11.718750
4060,11.718750
4061,15.625000
4062,15.625000
4063,15.625000
4064,15.625000
4065,15.625000
4066,15.625000
4067,19.531250
4068,19.531250
4069,19.531250
4070,19.531250
4071,19.531250
4072,23.437500
4073,23.437500
4074,23.437500
4075,23.437500
4076,23.437500
4077,27.343750
4078,27.343750
4079,27.343750
4080,27.343750
4081,27.343750
4082,27.343750
4083,27.343750
4084,31.250000
4085,31.250000
4086,31.250000
4087,31.250000
4088,35.156250
4089,35.156250
4090,35.156250
4091,35.156250
4092,35.156250
4093,35.156250
4094,35.156250
4095,39.062500
4096,39.062500
4097,39.062500
4098,39.062500
4099,39.062500
4100,42.968750
4101,42.968750
4102,42.968750
4103,42.968750
4104,42.968750
4105,46.875000
4106,46.875000
4107,46.875000
4108,46.875000
4109,46.875000
4110,46.875000
4111,46.875000
4112,50.781250
4113,50.781250
4114,50.781250
4115,50.781250
4116,50.781250
4117,50.781250
4118,54.687500
4119,54.687500
4120,54.687500
4121,54.687500
4122,54.687500
4123,54.687500
4124,54.687500
4125,54.687500
4126,58.593750
4127,58.593750
4128,58.593750
4129,58.593750
4130,58.593750
4131,58.593750
4132,58.593750
4133,58.593750
4134,62.500000
4135,62.500000
4136,62.500000
4137,62.500000
4138,62.500000
4139,62.500000
4140,66.406250
4141,66.406250
4142,66.406250
4143,66.406250
4144,66.406250
4145,66.406250
4146,70.312500
4147,70.312500
4148,70.312500
4149,70.312500
4150,70.312500
4151,70.312500
4152,70.312500
4153,70.312500
4154,74.218750
4155,74.218750
4156,74.218750
4157,74.218750
4158,74.218750
4159,74.218750
4160,74.218750
4161,74.218750
4162,74.218750
4163,78.125000
4164,78.125000
4165,78.125000
4166,78.125000
4167,78.125000
4168,78.125000
4169,78.125000
4170,78.125000
4171,82.031250
4172,82.031250
4173,82.031250
4174,82.031250
4175,82.031250
4176,82.031250
4177,82.031250
4178,82.031250
4179,82.031250
4180,82.031250
4181,85.937500
4182,85.937500
4183,85.937500
4184,85.937500
4185,85.937500
4186,85.937500
4187,85.937500
4188,85.937500
4189,85.937500
4190,85.937500
4191,89.843750
4192,89.843750
4193,89.843750
4194,89.843750
4195,89.843750
4196,89.843750
4197,89.843750
4198,89.843750
4199,89.843750
4200,89.843750
4201,89.843750
4202,93.750000
4203,93.750000
4204,93.750000
4205,93.750000
4206,93.750000
4207,93.750000
4208,93.750000
4209,93.750000
4210,93.750000
4211,93.750000
4212,93.750000
4213,93.750000
4214,93.750000
4215,93.750000
4216,97.656250
4217,97.656250
4218,97.656250
4219,97.656250
4220,97.656250
4221,97.656250
4222,97.656250
4223,97.656250
4224,97.656250
4225,97.656250
4226,97.656250
4227,97.656250
4228,97.656250
4229,97.656250
4230,97.656250
4231,97.656250
4232,101.562500
4233,101.562500
4234,101.562500
4235,101.562500
4236,101.562500
4237,101.562500
4238,97.656250
4239,101.562500
4240,101.562500
4241,101.562500
4242,101.562500
4243,101.562500
4244,101.562500
4245,101.562500
4246,101.562500
4247,101.562500
4248,101.562500
4249,101.562500
4250,101.562500
4251,101.562500
4252,101.562500
4253,101.562500
4254,101.562500
4255,101.562500
4256,101.562500
4257,101.562500
4258,101.562500
4259,101.562500
4260,101.562500
4261,101.562500
4262,101.562500
4263,101.562500
4264,105.468750
4265,101.562500
4266,101.562500
4267,101.562500
4268,101.562500
4269,101.562500
4270,101.562500
4271,105.468750
4272,105.468750
4273,105.468750
4274,101.562500
4275,101.562500
4276,105.468750
4277,101.562500
4278,105.468750
4279,101.562500
4280,101.562500
4281,105.468750
4282,105.468750
4283,101.562500
4284,105.468750
4285,105.468750
4286,101.562500
4287,101.562500
4288,105.468750
4289,105.468750
4290,105.468750
4291,101.562500
4292,105.468750
4293,101.562500
4294,101.562500
4295,101.562500
4296,105.468750
4297,101.562500
4298,101.562500
4299,101.562500
4300,101.562500
4301,101.562500
4302,101.562500
4303,101.562500
4304,101.562500
4305,101.562500
4306,101.562500
4307,101.562500
4308,101.562500
4309,101.562500
4310,101.562500
4311,101.562500
4312,101.562500
4313,101.562500
4314,101.562500
4315,101.562500
4316,101.562500
4317,101.562500
4318,101.562500
4319,101.562500
4320,101.562500
4321,101.562500
4322,101.562500
4323,101.562500
4324,101.562500
4325,101.562500
4326,97.656250
4327,101.562500
4328,101.562500
4329,97.656250
4330,97.656250
4331,97.656250
4332,97.656250
4333,97.656250
4334,97.656250
4335,97.656250
4336,97.656250
4337,97.656250
4338,97.656250
4339,97.656250
4340,97.656250
4341,97.656250
4342,97.656250
4343,97.656250
4344,97.656250
4345,93.750000
4346,93.750000
4347,93.750000
4348,93.750000
4349,93.750000
4350,93.750000
4351,93.750000
4352,93.750000
4353,93.750000
4354,93.750000
4355,93.750000
4356,93.750000
4357,93.750000
4358,93.750000
4359,89.843750
4360,89.843750
4361,89.843750
4362,89.843750
4363,89.843750
4364,89.843750
4365,89.843750
4366,89.843750
4367,89.843750
4368,89.843750
4369,89.843750
4370,89.843750
4371,85.937500
4372,85.937500
4373,85.937500
4374,85.937500
4375,85.937500
4376,85.937500
4377,85.937500
4378,85.937500
4379,85.937500
4380,82.031250
4381,82.031250
4382,82.031250
4383,82.031250
4384,82.031250
4385,82.031250
4386,82.031250
4387,82.031250
4388,82.031250
4389,82.031250
4390,78.125000
4391,78.125000
4392,78.125000
4393,78.125000
4394,78.125000
4395,78.125000
4396,78.125000
4397,78.125000
4398,78.125000
4399,74.218750
4400,74.218750
4401,74.218750
4402,74.218750
4403,74.218750
4404,74.218750
4405,74.218750
4406,74.218750
4407,70.312500
4408,70.312500
4409,70.312500
4410,70.312500
4411,70.312500
4412,70.312500
4413,70.312500
4414,66.406250
4415,66.406250
4416,66.406250
4417,66.406250
4418,66.406250
4419,66.406250
4420,66.406250
4421,66.406250
4422,62.500000
4423,62.500000
4424,62.500000
4425,62.500000
4426,62.500000
4427,62.500000
4428,62.500000
4429,62.500000
4430,58.593750
4431,58.593750
4432,58.593750
4433,58.593750
4434,58.593750
4435,58.593750
4436,54.687500
4437,54.687500
4438,54.687500
4439,54.687500
4440,54.687500
4441,54.687500
4442,54.687500
4443,50.781250
4444,50.781250
4445,50.781250
4446,50.781250
4447,50.781250
4448,46.875000
4449,46.875000
4450,46.875000
4451,46.875000
4452,46.875000
4453,46.875000
4454,46.875000
4455,42.968750
4456,42.968750
4457,42.968750
4458,42.968750
4459,42.968750
4460,42.968750
4461,42.968750
4462,39.062500
4463,39.062500
4464,39.062500
4465,35.156250
4466,35.156250
4467,35.156250
4468,35.156250
4469,35.156250
4470,35.156250
4471,35.156250
4472,35.156250
4473,31.250000
4474,31.250000
4475,31.250000
4476,31.250000
4477,31.250000
4478,27.343750
4479,27.343750
4480,31.250000
4481,27.343750
4482,27.343750
4483,27.343750
4484,23.437500
4485,23.437500
4486,23.437500
4487,23.437500
4488,23.437500
4489,23.437500
4490,19.531250
4491,19.531250
4492,19.531250
4493,19.531250
4494,19.531250
4495,15.625000
4496,15.625000
4497,15.625000
4498,15.625000
4499,11.718750
4500,11.718750
4501,11.718750
4502,11.718750
4503,11.718750
4504,11.718750
4505,7.812500
4506,7.812500
4507,7.812500
4508,7.812500
4509,7.812500
4510,7.812500
4511,3.906250
4512,3.906250
4513,3.906250
4514,3.906250
4515,0.000000
4516,0.000000
4517,0.000000
4518,0.000000
4519,0.000000
4520,-3.906250
4521,-3.906250
4522,-3.906250
4523,-3.906250
4524,-3.906250
4525,-7.812500
4526,-7.812500
4527,-7.812500
4528,-7.812500
4529,-7.812500
4530,-11.718750
4531,-11.718750
4532,-11.718750
4533,-11.718750
4534,-11.718750
4535,-15.625000
4536,-15.625000
4537,-15.625000
4538,-15.625000
4539,-19.531250
4540,-19.531250
4541,-19.531250
4542,-19.531250
4543,-19.531250
4544,-19.531250
4545,-23.437500
4546,-23.437500
4547,-23.437500
4548,-23.437500
4549,-27.343750
4550,-27.343750
4551,-27.343750
4552,-27.343750
4553,-31.250000
4554,-31.250000
4555,-31.250000
4556,-31.250000
4557,-31.250000
4558,-31.250000
4559,-31.250000
4560,-35.156250
4561,-35.156250
4562,-35.156250
4563,-35.156250
4564,-39.062500
4565,-39.062500
4566,-39.062500
4567,-39.062500
4568,-39.062500
4569,-42.968750
4570,-42.968750
4571,-42.968750
4572,-42.968750
4573,-42.968750
4574,-46.875000
4575,-46.875000
4576,-46.875000
4577,-46.875000
4578,-46.875000
4579,-50.781250
4580,-50.781250
4581,-50.781250
4582,-50.781250
4583,-50.781250
4584,-50.781250
4585,-54.687500
4586,-54.687500
4587,-54.687500
4588,-54.687500
4589,-54.687500
4590,-58.593750
4591,-58.593750
4592,-58.593750
4593,-58.593750
4594,-58.593750
4595,-62.500000
4596,-62.500000
4597,-62.500000
4598,-62.500000
4599,-62.500000
4600,-66.406250
4601,-66.406250
4602,-66.406250
4603,-66.406250
4604,-66.406250
4605,-70.312500
4606,-70.312500
4607,-70.312500
4608,-70.312500
4609,-70.312500
4610,-70.312500
4611,-74.218750
4612,-74.218750
4613,-74.218750
4614,-74.218750
4615,-74.218750
4616,-78.125000
4617,-78.125000
4618,-78.125000
4619,-78.125000
4620,-78.125000
4621,-82.031250
4622,-78.125000
4623,-82.031250
4624,-82.031250
4625,-82.031250
4626,-82.031250
4627,-85.937500
4628,-85.937500
4629,-85.937500
4630,-85.937500
4631,-85.937500
4632,-85.937500
4633,-89.843750
4634,-89.843750
4635,-89.843750
4636,-89.843750
4637,-89.843750
4638,-93.750000
4639,-93.750000
4640,-93.750000
4641,-93.750000
4642,-93.750000
4643,-93.750000
4644,-93.750000
4645,-97.656250
4646,-97.656250
4647,-97.656250
4648,-97.656250
4649,-97.656250
4650,-101.562500
4651,-97.656250
4652,-101.562500
4653,-101.562500
4654,-101.562500
4655,-101.562500
4656,-105.468750
4657,-105.468750
4658,-105.468750
4659,-105.468750
4660,-105.468750
4661,-105.468750
4662,-105.468750
4663,-105.468750
4664,-109.375000
4665,-109.375000
4666,-109.375000
4667,-109.375000
4668,-109.375000
4669,-109.375000
4670,-109.375000
4671,-113.281250
4672,-113.281250
4673,-113.281250
4674,-113.281250
4675,-113.281250
4676,-113.281250
4677,-117.187500
4678,-117.187500
4679,-117.187500
4680,-117.187500
4681,-117.187500
4682,-117.187500
4683,-117.187500
4684,-117.187500
4685,-117.187500
4686,-121.093750
4687,-121.093750
4688,-121.093750
4689,-121.093750
4690,-121.093750
4691,-121.093750
4692,-121.093750
4693,-121.093750
4694,-121.093750
4695,-125.000000
4696,-125.000000
4697,-125.000000
4698,-125.000000
4699,-125.000000
4700,-125.000000
4701,-125.000000
4702,-125.000000
4703,-125.000000
4704,-125.000000
4705,-128.906250
4706,-128.906250
4707,-128.906250
4708,-128.906250
4709,-128.906250
4710,-128.906250
4711,-128.906250
4712,-128.906250
4713,-128.906250
4714,-128.906250
4715,-128.906250
4716,-132.812500
4717,-132.812500
4718,-132.812500
4719,-132.812500
4720,-132.812500
4721,-132.812500
4722,-132.812500
4723,-132.812500
4724,-132.812500
4725,-132.812500
4726,-132.812500
4727,-132.812500
4728,-132.812500
4729,-136.718750
4730,-136.718750
4731,-136.718750
4732,-136.718750
4733,-136.718750
4734,-136.718750
4735,-136.718750
4736,-136.718750
4737,-136.718750
4738,-136.718750
4739,-136.718750
4740,-136.718750
4741,-136.718750
4742,-136.718750
4743,-136.718750
4744,-136.718750
4745,-136.718750
4746,-136.718750
4747,-136.718750
4748,-140.625000
4749,-136.718750
4750,-136.718750
4751,-136.718750
4752,-136.718750
4753,-136.718750
4754,-140.625000
4755,-140.625000
4756,-136.718750
4757,-140.625000
4758,-140.625000
4759,-140.625000
4760,-140.625000
4761,-140.625000
4762,-136.718750
4763,-140.625000
4764,-140.625000
4765,-140.625000
4766,-140.625000
4767,-140.625000
4768,-140.625000
4769,-140.625000
4770,-140.625000
4771,-140.625000
4772,-140.625000
4773,-140.625000
4774,-140.625000
4775,-140.625000
4776,-140.625000
4777,-140.625000
4778,-140.625000
4779,-140.625000
4780,-140.625000
4781,-140.625000
4782,-140.625000
4783,-140.625000
4784,-140.625000
4785,-140.625000
4786,-140.625000
4787,-140.625000
4788,-140.625000
4789,-140.625000
4790,-140.625000
4791,-140.625000
4792,-140.625000
4793,-140.625000
4794,-140.625000
4795,-140.625000
4796,-140.625000
4797,-140.625000
4798,-140.625000
4799,-140.625000
4800,-136.718750
4801,-140.625000
4802,-136.718750
4803,-136.718750
4804,-136.718750
4805,-136.718750
4806,-136.718750
4807,-136.718750
4808,-136.718750
4809,-136.718750
4810,-136.718750
4811,-136.718750
4812,-136.718750
4813,-136.718750
4814,-136.718750
4815,-136.718750
4816,-136.718750
4817,-136.718750
4818,-136.718750
4819,-132.812500
4820,-132.812500
4821,-136.718750
4822,-132.812500
4823,-132.812500
4824,-132.812500
4825,-132.812500
4826,-132.812500
4827,-132.812500
4828,-132.812500
4829,-132.812500
4830,-132.812500
4831,-132.812500
4832,-132.812500
4833,-132.812500
4834,-132.812500
4835,-128.906250
4836,-128.906250
4837,-128.906250
4838,-132.812500
4839,-128.906250
4840,-128.906250
4841,-128.906250
4842,-128.906250
4843,-125.000000
4844,-125.000000
4845,-125.000000
4846,-125.000000
4847,-125.000000
4848,-125.000000
4849,-125.000000
4850,-125.000000
4851,-125.000000
4852,-125.000000
4853,-121.093750
4854,-121.093750
4855,-121.093750
4856,-121.093750
4857,-121.093750
4858,-121.093750
4859,-121.093750
4860,-117.187500
4861,-121.093750
4862,-121.093750
4863,-117.187500
4864,-117.187500
4865,-117.187500
4866,-117.187500
4867,-117.187500
4868,-117.187500
4869,-117.187500
4870,-117.187500
4871,-117.187500
4872,-113.281250
4873,-113.281250
4874,-113.281250
4875,-113.281250
4876,-113.281250
4877,-113.281250
4878,-113.281250
4879,-113.281250
4880,-109.375000
4881,-109.375000
4882,-109.375000
4883,-109.375000
4884,-105.468750
4885,-109.375000
4886,-105.468750
4887,-105.468750
4888,-105.468750
4889,-105.468750
4890,-105.468750
4891,-105.468750
4892,-105.468750
4893,-101.562500
4894,-101.562500
4895,-101.562500
4896,-101.562500
4897,-101.562500
4898,-101.562500
4899,-97.656250
4900,-97.656250
4901,-97.656250
4902,-97.656250
4903,-97.656250
4904,-97.656250
4905,-93.750000
4906,-93.750000
4907,-93.750000
4908,-93.750000
4909,-93.750000
4910,-93.750000
4911,-93.750000
4912,-93.750000
4913,-89.843750
4914,-89.843750
4915,-89.843750
4916,-89.843750
4917,-89.843750
4918,-85.937500
4919,-85.937500
4920,-85.937500
4921,-85.937500
4922,-85.937500
4923,-85.937500
4924,-82.031250
4925,-82.031250
4926,-82.031250
4927,-82.031250
4928,-82.031250
4929,-82.031250
4930,-78.125000
4931,-78.125000
4932,-78.125000
4933,-78.125000
4934,-78.125000
4935,-74.218750
4936,-74.218750
4937,-74.218750
4938,-74.218750
4939,-74.218750
4940,-70.312500
4941,-70.312500
4942,-70.312500
4943,-70.312500
4944,-70.312500
4945,-70.312500
4946,-66.406250
4947,-66.406250
4948,-66.406250
4949,-66.406250
4950,-66.406250
4951,-66.406250
4952,-62.500000
4953,-62.500000
4954,-62.500000
4955,-62.500000
4956,-58.593750
4957,-58.593750
4958,-58.593750
4959,-58.593750
4960,-58.593750
4961,-54.687500
4962,-54.687500
4963,-54.687500
4964,-54.687500
4965,-54.687500
4966,-50.781250
4967,-50.781250
4968,-50.781250
4969,-50.781250
4970,-50.781250
4971,-50.781250
4972,-46.875000
4973,-46.875000
4974,-46.875000
4975,-46.875000
4976,-42.968750
4977,-42.968750
4978,-42.968750
4979,-42.968750
4980,-42.968750
4981,-39.062500
4982,-39.062500
4983,-39.062500
4984,-39.062500
4985,-39.062500
4986,-39.062500
4987,-35.156250
4988,-35.156250
4989,-35.156250
4990,-35.156250
4991,-31.250000
4992,-31.250000
4993,-31.250000
4994,-31.250000
4995,-31.250000
4996,-27.343750
4997,-27.343750
4998,-27.343750
4999,-27.343750
5000,-27.343750
5001,-23.437500
5002,-23.437500
5003,-23.437500
5004,-23.437500
5005,-23.437500
5006,-19.531250
5007,-19.531250
5008,-19.531250
5009,-19.531250
5010,-15.625000
5011,-15.625000
5012,-15.625000
5013,-15.625000
5014,-15.625000
5015,-15.625000
5016,-11.718750
5017,-11.718750
5018,-11.718750
5019,-11.718750
5020,-11.718750
5021,-7.812500
5022,-7.812500
5023,-7.812500
5024,-7.812500
5025,-3.906250
5026,-3.906250
5027,-3.906250
5028,-3.906250
5029,-3.906250
5030,0.000000
5031,0.000000
5032,0.000000
5033,0.000000
5034,0.000000
5035,0.000000
5036,3.906250
5037,3.906250
5038,3.906250
5039,3.906250
5040,3.906250
5041,7.812500
5042,7.812500
5043,7.812500
5044,7.812500
5045,7.812500
5046,11.718750
5047,11.718750
5048,11.718750
5049,11.718750
5050,11.718750
5051,11.718750
5052,15.625000
5053,15.625000
5054,15.625000
5055,15.625000
5056,15.625000
5057,15.625000
5058,19.531250
5059,19.531250
5060,19.531250
5061,19.531250
5062,23.437500
5063,23.437500
5064,23.437500
5065,23.437500
5066,23.437500
5067,27.343750
5068,27.343750
5069,27.343750
5070,27.343750
5071,27.343750
5072,27.343750
5073,27.343750
5074,31.250000
5075,31.250000
5076,31.250000
5077,31.250000
5078,31.250000
5079,35.156250
5080,35.156250
5081,35.156250
5082,35.156250
5083,35.156250
5084,35.156250
5085,39.062500
5086,39.062500
5087,39.062500
5088,39.062500
5089,39.062500
5090,42.968750
5091,42.968750
5092,42.968750
5093,42.968750
5094,42.968750
5095,42.968750
5096,46.875000
5097,46.875000
5098,46.875000
5099,46.875000
5100,46.875000
5101,46.875000
5102,50.781250
5103,50.781250
5104,50.781250
5105,50.781250
5106,50.781250
5107,50.781250
5108,50.781250
5109,54.687500
5110,54.687500
5111,54.687500
5112,54.687500
5113,54.687500
5114,54.687500
5115,54.687500
5116,58.593750
5117,58.593750
5118,58.593750
5119,58.593750
5120,58.593750
5121,58.593750
5122,62.500000
5123,62.500000
5124,62.500000
5125,62.500000
5126,62.500000
5127,62.500000
5128,66.406250
5129,66.406250
5130,66.406250
5131,66.406250
5132,66.406250
5133,66.406250
5134,66.406250
5135,66.406250
5136,70.312500
5137,70.312500
5138,70.312500
5139,70.312500
5140,70.312500
5141,70.312500
5142,70.312500
5143,70.312500
5144,70.312500
5145,74.218750
5146,74.218750
5147,74.218750
5148,74.218750
5149,74.218750
5150,74.218750
5151,74.218750
5152,78.125000
5153,78.125000
5154,78.125000
5155,78.125000
5156,78.125000
5157,78.125000
5158,78.125000
5159,78.125000
5160,78.125000
5161,82.031250
5162,82.031250
5163,82.031250
5164,82.031250
5165,82.031250
5166,82.031250
5167,82.031250
5168,82.031250
5169,85.937500
5170,85.937500
5171,85.937500
5172,85.937500
5173,85.937500
5174,85.937500
5175,85.937500
5176,85.937500
5177,85.937500
5178,85.937500
5179,85.937500
5180,89.843750
5181,89.843750
5182,89.843750
5183,89.843750
5184,89.843750
5185,89.843750
5186,89.843750
5187,89.843750
5188,89.843750
5189,89.843750
5190,89.843750
5191,89.843750
5192,89.843750
5193,89.843750
5194,93.750000
5195,93.750000
5196,93.750000
5197,93.750000
5198,93.750000
5199,93.750000
5200,93.750000
5201,93.750000
5202,93.750000
5203,93.750000
5204,93.750000
5205,93.750000
5206,97.656250
5207,97.656250
5208,97.656250
5209,97.656250
5210,97.656250
5211,97.656250
5212,97.656250
5213,97.656250
5214,97.656250
5215,97.656250
5216,97.656250
5217,97.656250
5218,101.562500
5219,97.656250
5220,101.562500
5221,97.656250
5222,97.656250
5223,97.656250
5224,101.562500
5225,101.562500
5226,97.656250
5227,101.562500
5228,101.562500
5229,97.656250
5230,101.562500
5231,101.562500
5232,97.656250
5233,101.562500
5234,101.562500
5235,97.656250
5236,101.562500
5237,101.562500
5238,101.562500
5239,101.562500
5240,97.656250
5241,101.562500
5242,101.562500
5243,101.562500
5244,101.562500
5245,101.562500
5246,101.562500
5247,101.562500
5248,101.562500
5249,101.562500
5250,105.468750
5251,101.562500
5252,101.562500
5253,101.562500
5254,105.468750
5255,105.468750
5256,105.468750
5257,105.468750
5258,105.468750
5259,105.468750
5260,105.468750
5261,105.468750
5262,101.562500
5263,105.468750
5264,105.468750
5265,105.468750
5266,105.468750
5267,105.468750
5268,105.468750
5269,105.468750
5270,105.468750
5271,105.468750
5272,105.468750
5273,105.468750
5274,105.468750
5275,105.468750
5276,105.468750
5277,105.468750
5278,105.468750
5279,105.468750
5280,105.468750
5281,105.468750
5282,105.468750
5283,105.468750
5284,105.468750
5285,105.468750
5286,105.468750
5287,105.468750
5288,105.468750
5289,101.562500
5290,105.468750
5291,105.468750
5292,105.468750
5293,101.562500
5294,101.562500
5295,101.562500
5296,101.562500
5297,101.562500
5298,101.562500
5299,101.562500
5300,101.562500
5301,101.562500
5302,101.562500
5303,101.562500
5304,101.562500
5305,101.562500
5306,101.562500
5307,101.562500
5308,101.562500
5309,101.562500
5310,101.562500
5311,101.562500
5312,101.562500
5313,101.562500
5314,101.562500
5315,101.562500
5316,97.656250
5317,101.562500
5318,97.656250
5319,97.656250
5320,97.656250
5321,97.656250
5322,97.656250
5323,97.656250
5324,97.656250
5325,97.656250
5326,97.656250
5327,97.656250
5328,97.656250
5329,97.656250
5330,97.656250
5331,97.656250
5332,97.656250
5333,97.656250
5334,97.656250
5335,93.750000
5336,93.750000
5337,93.750000
5338,93.750000
5339,93.750000
5340,93.750000
5341,93.750000
5342,93.750000
5343,93.750000
5344,93.750000
5345,93.750000
5346,93.750000
5347,93.750000
5348,93.750000
5349,89.843750
5350,89.843750
5351,89.843750
5352,89.843750
5353,89.843750
5354,89.843750
5355,89.843750
5356,89.843750
5357,89.843750
5358,89.843750
5359,89.843750
5360,89.843750
5361,85.937500
5362,89.843750
5363,85.937500
5364,85.937500
5365,85.937500
5366,85.937500
5367,85.937500
5368,85.937500
5369,85.937500
5370,85.937500
5371,82.031250
5372,85.937500
5373,82.031250
5374,82.031250
5375,82.031250
5376,82.031250
5377,82.031250
5378,82.031250
5379,82.031250
5380,82.031250
5381,78.125000
5382,78.125000
5383,78.125000
5384,78.125000
5385,78.125000
5386,78.125000
5387,78.125000
5388,78.125000
5389,74.218750
5390,78.125000
5391,74.218750
5392,74.218750
5393,74.218750
5394,74.218750
5395,74.218750
5396,74.218750
5397,70.312500
5398,70.312500
5399,70.312500
5400,70.312500
5401,70.312500
5402,70.312500
5403,70.312500
5404,70.312500
5405,66.406250
5406,66.406250
5407,66.406250
5408,66.406250
5409,66.406250
5410,66.406250
5411,66.406250
5412,62.500000
5413,62.500000
5414,62.500000
5415,62.500000
5416,62.500000
5417,62.500000
5418,62.500000
5419,62.500000
5420,58.593750
5421,58.593750
5422,58.593750
5423,58.593750
5424,58.593750
5425,54.687500
5426,54.687500
5427,54.687500
5428,54.687500
5429,54.687500
5430,54.687500
5431,54.687500
5432,50.781250
5433,50.781250
5434,50.781250
5435,50.781250
5436,50.781250
5437,50.781250
5438,50.781250
5439,50.781250
5440,46.875000
5441,46.875000
5442,46.875000
5443,46.875000
5444,46.875000
5445,42.968750
5446,42.968750
5447,42.968750
5448,42.968750
5449,42.968750
5450,42.968750
5451,39.062500
5452,39.062500
5453,39.062500
5454,39.062500
5455,39.062500
5456,39.062500
5457,35.156250
5458,35.156250
5459,35.156250
5460,35.156250
5461,35.156250
5462,31.250000
5463,31.250000
5464,31.250000
5465,31.250000
5466,31.250000
5467,27.343750
5468,27.343750
5469,27.343750
5470,27.343750
5471,27.343750
5472,27.343750
5473,23.437500
5474,23.437500
5475,23.437500
5476,23.437500
5477,23.437500
5478,19.531250
5479,19.531250
5480,19.531250
5481,19.531250
5482,19.531250
5483,15.625000
5484,15.625000
5485,15.625000
5486,15.625000
5487,15.625000
5488,15.625000
5489,11.718750
5490,11.718750
5491,11.718750
5492,11.718750
5493,11.718750
5494,11.718750
5495,7.812500
5496,7.812500
5497,7.812500
5498,7.812500
5499,3.906250
5500,3.906250
5501,3.906250
5502,3.906250
5503,3.906250
5504,3.906250
5505,0.000000
5506,0.000000
5507,0.000000
5508,0.000000
5509,0.000000
5510,-3.906250
5511,-3.906250
5512,-3.906250
5513,-3.906250
5514,-7.812500
5515,-7.812500
5516,-7.812500
5517,-7.812500
5518,-7.812500
5519,-7.812500
5520,-11.718750
5521,-11.718750
5522,-11.718750
5523,-11.718750
5524,-15.625000
5525,-15.625000
5526,-15.625000
5527,-15.625000
5528,-15.625000
5529,-15.625000
5530,-19.531250
5531,-19.531250
5532,-19.531250
5533,-19.531250
5534,-19.531250
5535,-23.437500
5536,-23.437500
5537,-23.437500
5538,-23.437500
5539,-27.343750
5540,-27.343750
5541,-27.343750
5542,-27.343750
5543,-27.343750
5544,-31.250000
5545,-31.250000
5546,-31.250000
5547,-31.250000
5548,-31.250000
5549,-35.156250
5550,-35.156250
5551,-35.156250
5552,-35.156250
5553,-39.062500
5554,-39.062500
5555,-35.156250
5556,-39.062500
5557,-39.062500
5558,-39.062500
5559,-42.968750
5560,-42.968750
5561,-42.968750
5562,-42.968750
5563,-46.875000
5564,-46.875000
5565,-46.875000
5566,-46.875000
5567,-46.875000
5568,-46.875000
5569,-50.781250
5570,-50.781250
5571,-50.781250
5572,-50.781250
5573,-54.687500
5574,-54.687500
5575,-54.687500
5576,-54.687500
5577,-54.687500
5578,-54.687500
5579,-58.593750
5580,-58.593750
5581,-58.593750
5582,-58.593750
5583,-58.593750
5584,-62.500000
5585,-62.500000
5586,-62.500000
5587,-62.500000
5588,-62.500000
5589,-66.406250
5590,-66.406250
5591,-66.406250
5592,-66.406250
5593,-66.406250
5594,-66.406250
5595,-70.312500
5596,-70.312500
5597,-70.312500
5598,-70.312500
5599,-70.312500
5600,-74.218750
5601,-74.218750
5602,-74.218750
5603,-74.218750
5604,-74.218750
5605,-78.125000
5606,-78.125000
5607,-78.125000
5608,-78.125000
5609,-78.125000
5610,-78.125000
5611,-82.031250
5612,-82.031250
5613,-82.031250
5614,-82.031250
5615,-82.031250
5616,-85.937500
5617,-85.937500
5618,-85.937500
5619,-85.937500
5620,-85.937500
5621,-89.843750
5622,-89.843750
5623,-89.843750
5624,-89.843750
5625,-89.843750
5626,-89.843750
5627,-89.843750
5628,-93.750000
5629,-93.750000
5630,-93.750000
5631,-93.750000
5632,-93.750000
5633,-93.750000
5634,-97.656250
5635,-97.656250
5636,-97.656250
5637,-97.656250
5638,-97.656250
5639,-97.656250
5640,-97.656250
5641,-101.562500
5642,-97.656250
5643,-101.562500
5644,-101.562500
5645,-101.562500
5646,-101.562500
5647,-105.468750
5648,-105.468750
5649,-105.468750
5650,-105.468750
5651,-105.468750
5652,-105.468750
5653,-109.375000
5654,-109.375000
5655,-109.375000
5656,-109.375000
5657,-109.375000
5658,-109.375000
5659,-109.375000
5660,-109.375000
5661,-113.281250
5662,-113.281250
5663,-113.281250
5664,-113.281250
5665,-113.281250
5666,-113.281250
5667,-113.281250
5668,-113.281250
5669,-117.187500
5670,-117.187500
5671,-117.187500
5672,-117.187500
5673,-117.187500
5674,-117.187500
5675,-117.187500
5676,-117.187500
5677,-121.093750
5678,-121.093750
5679,-121.093750
5680,-121.093750
5681,-121.093750
5682,-121.093750
5683,-121.093750
5684,-121.093750
5685,-125.000000
5686,-125.000000
5687,-125.000000
5688,-125.000000
5689,-125.000000
5690,-125.000000
5691,-125.000000
5692,-125.000000
5693,-125.000000
5694,-128.906250
5695,-128.906250
5696,-128.906250
5697,-128.906250
5698,-128.906250
5699,-128.906250
5700,-128.906250
5701,-128.906250
5702,-128.906250
5703,-128.906250
5704,-128.906250
5705,-132.812500
5706,-132.812500
5707,-132.812500
5708,-132.812500
5709,-132.812500
5710,-132.812500
5711,-132.812500
5712,-132.812500
5713,-132.812500
5714,-132.812500
5715,-132.812500
5716,-132.812500
5717,-132.812500
5718,-132.812500
5719,-132.812500
5720,-132.812500
5721,-136.718750
5722,-136.718750
5723,-136.718750
5724,-136.718750
5725,-136.718750
5726,-136.718750
5727,-136.718750
5728,-136.718750
5729,-136.718750
5730,-136.718750
5731,-136.718750
5732,-136.718750
5733,-136.718750
5734,-136.718750
5735,-136.718750
5736,-136.718750
5737,-136.718750
5738,-136.718750
5739,-140.625000
5740,-140.625000
5741,-136.718750
5742,-136.718750
5743,-140.625000
5744,-140.625000
5745,-140.625000
5746,-140.625000
5747,-140.625000
5748,-140.625000
5749,-140.625000
5750,-140.625000
5751,-140.625000
5752,-140.625000
5753,-140.625000
5754,-140.625000
5755,-140.625000
5756,-140.625000
5757,-140.625000
5758,-140.625000
5759,-140.625000
5760,-140.625000
5761,-140.625000
5762,-140.625000
5763,-140.625000
5764,-140.625000
5765,-140.625000
5766,-140.625000
5767,-140.625000
5768,-140.625000
5769,-140.625000
5770,-140.625000
5771,-140.625000
5772,-140.625000
5773,-140.625000
5774,-140.625000
5775,-140.625000
5776,-140.625000
5777,-140.625000
5778,-140.625000
5779,-140.625000
5780,-140.625000
5781,-140.625000
5782,-140.625000
5783,-140.625000
5784,-140.625000
5785,-140.625000
5786,-140.625000
5787,-136.718750
5788,-136.718750
5789,-136.718750
5790,-136.718750
5791,-136.718750
5792,-136.718750
5793,-136.718750
5794,-136.718750
5795,-136.718750
5796,-136.718750
5797,-136.718750
5798,-136.718750
5799,-136.718750
5800,-136.718750
5801,-136.718750
5802,-136.718750
5803,-136.718750
5804,-136.718750
5805,-132.812500
5806,-136.718750
5807,-136.718750
5808,-132.812500
5809,-136.718750
5810,-132.812500
5811,-136.718750
5812,-132.812500
5813,-132.812500
5814,-132.812500
5815,-132.812500
5816,-132.812500
5817,-132.812500
5818,-132.812500
5819,-132.812500
5820,-132.812500
5821,-132.812500
5822,-132.812500
5823,-128.906250
5824,-128.906250
5825,-128.906250
5826,-128.906250
5827,-128.906250
5828,-128.906250
5829,-128.906250
5830,-128.906250
5831,-128.906250
5832,-128.906250
5833,-125.000000
5834,-128.906250
5835,-125.000000
5836,-125.000000
5837,-125.000000
5838,-125.000000
5839,-125.000000
5840,-125.000000
5841,-125.000000
5842,-125.000000
5843,-125.000000
5844,-121.093750
5845,-121.093750
5846,-121.093750
5847,-121.093750
5848,-121.093750
5849,-121.093750
5850,-121.093750
5851,-121.093750
5852,-117.187500
5853,-121.093750
5854,-117.187500
5855,-117.187500
5856,-117.187500
5857,-117.187500
5858,-117.187500
5859,-117.187500
5860,-113.281250
5861,-113.281250
5862,-113.281250
5863,-113.281250
5864,-113.281250
5865,-113.281250
5866,-113.281250
5867,-109.375000
5868,-109.375000
5869,-109.375000
5870,-109.375000
5871,-109.375000
5872,-109.375000
5873,-109.375000
5874,-109.375000
5875,-105.468750
5876,-105.468750
5877,-105.468750
5878,-105.468750
5879,-105.468750
5880,-105.468750
5881,-105.468750
5882,-101.562500
5883,-101.562500
5884,-101.562500
5885,-101.562500
5886,-101.562500
5887,-101.562500
5888,-101.562500
5889,-101.562500
5890,-97.656250
5891,-97.656250
5892,-97.656250
5893,-97.656250
5894,-97.656250
5895,-97.656250
5896,-93.750000
5897,-93.750000
5898,-93.750000
5899,-93.750000
5900,-93.750000
5901,-89.843750
5902,-89.843750
5903,-89.843750
5904,-89.843750
5905,-89.843750
5906,-89.843750
5907,-89.843750
5908,-85.937500
5909,-85.937500
5910,-85.937500
5911,-85.937500
5912,-85.937500
5913,-82.031250
5914,-82.031250
5915,-82.031250
5916,-82.031250
5917,-82.031250
5918,-82.031250
5919,-82.031250
5920,-78.125000
5921,-78.125000
5922,-78.125000
5923,-78.125000
5924,-78.125000
5925,-74.218750
5926,-74.218750
5927,-74.218750
5928,-74.218750
5929,-74.218750
5930,-70.312500
5931,-70.312500
5932,-70.312500
5933,-70.312500
5934,-70.312500
5935,-66.406250
5936,-66.406250
5937,-66.406250
5938,-66.406250
5939,-66.406250
5940,-66.406250
5941,-62.500000
5942,-62.500000
5943,-62.500000
5944,-62.500000
5945,-58.593750
5946,-58.593750
5947,-58.593750
5948,-58.593750
5949,-58.593750
5950,-58.593750
5951,-54.687500
5952,-54.687500
5953,-54.687500
5954,-54.687500
5955,-50.781250
5956,-50.781250
5957,-50.781250
5958,-50.781250
5959,-50.781250
5960,-50.781250
5961,-46.875000
5962,-46.875000
5963,-46.875000
5964,-46.875000
5965,-46.875000
5966,-42.968750
5967,-42.968750
5968,-42.968750
5969,-42.968750
5970,-42.968750
5971,-39.062500
5972,-39.062500
5973,-39.062500
5974,-39.062500
5975,-39.062500
5976,-35.156250
5977,-35.156250
5978,-35.156250
5979,-35.156250
5980,-35.156250
5981,-31.250000
5982,-31.250000
5983,-31.250000
5984,-31.250000
5985,-27.343750
5986,-27.343750
5987,-27.343750
5988,-27.343750
5989,-27.343750
5990,-27.343750
5991,-23.437500
5992,-23.437500
5993,-23.437500
5994,-23.437500
5995,-23.437500
5996,-19.531250
5997,-19.531250
5998,-19.531250
5999,-19.531250
6000,-15.625000
6001,-15.625000
6002,-15.625000
6003,-15.625000
6004,-15.625000
6005,-11.718750
6006,-11.718750
6007,-11.718750
6008,-11.718750
6009,-11.718750
6010,-7.812500
6011,-7.812500
6012,-7.812500
6013,-7.812500
6014,-7.812500
6015,-7.812500
6016,-3.906250
6017,-3.906250
6018,-3.906250
6019,-3.906250
6020,0.000000
6021,0.000000
6022,0.000000
6023,0.000000
6024,0.000000
6025,0.000000
6026,3.906250
6027,3.906250
6028,3.906250
6029,3.906250
6030,7.812500
6031,7.812500
6032,7.812500
6033,7.812500
6034,7.812500
6035,11.718750
6036,11.718750
6037,11.718750
6038,11.718750
6039,11.718750
6040,11.718750
6041,11.718750
6042,15.625000
6043,15.625000
6044,15.625000
6045,15.625000
6046,19.531250
6047,19.531250
6048,19.531250
6049,19.531250
6050,19.531250
6051,19.531250
6052,23.437500
6053,23.437500
6054,23.437500
6055,23.437500
6056,27.343750
6057,27.343750
6058,27.343750
6059,27.343750
6060,27.343750
6061,27.343750
6062,27.343750
6063,31.250000
6064,31.250000
6065,31.250000
6066,31.250000
6067,35.156250
6068,35.156250
6069,35.156250
6070,35.156250
6071,35.156250
6072,35.156250
6073,39.062500
6074,39.062500
6075,39.062500
6076,39.062500
6077,39.062500
6078,39.062500
6079,42.968750
6080,42.968750
6081,42.968750
6082,42.968750
6083,42.968750
6084,42.968750
6085,42.968750
6086,46.875000
6087,46.875000
6088,46.875000
6089,46.875000
6090,46.875000
6091,46.875000
6092,50.781250
6093,50.781250
6094,50.781250
6095,50.781250
6096,50.781250
6097,54.687500
6098,54.687500
6099,54.687500
6100,54.687500
6101,54.687500
6102,54.687500
6103,54.687500
6104,58.593750
6105,58.593750
6106,58.593750
6107,58.593750
6108,58.593750
6109,58.593750
6110,58.593750
6111,58.593750
6112,62.500000
6113,62.500000
6114,66.406250
6115,62.500000
6116,62.500000
6117,62.500000
6118,66.406250
6119,66.406250
6120,66.406250
6121,66.406250
6122,66.406250
6123,66.406250
6124,66.406250
6125,70.312500
6126,70.312500
6127,70.312500
6128,70.312500
6129,70.312500
6130,70.312500
6131,70.312500
6132,70.312500
6133,70.312500
6134,74.218750
6135,74.218750
6136,74.218750
6137,74.218750
6138,74.218750
6139,74.218750
6140,74.218750
6141,78.125000
6142,78.125000
6143,78.125000
6144,78.125000
6145,78.125000
6146,78.125000
6147,78.125000
6148,78.125000
6149,78.125000
6150,82.031250
6151,82.031250
6152,82.031250
6153,82.031250
6154,82.031250
6155,82.031250
6156,82.031250
6157,82.031250
6158,82.031250
6159,82.031250
6160,85.937500
6161,85.937500
6162,85.937500
6163,85.937500
6164,85.937500
6165,85.937500
6166,85.937500
6167,85.937500
6168,89.843750
6169,89.843750
6170,89.843750
6171,89.843750
6172,89.843750
6173,89.843750
6174,89.843750
6175,89.843750
6176,89.843750
6177,89.843750
6178,89.843750
6179,89.843750
6180,93.750000
6181,93.750000
6182,93.750000
6183,93.750000
6184,93.750000
6185,93.750000
6186,93.750000
6187,93.750000
6188,93.750000
6189,93.750000
6190,93.750000
6191,93.750000
6192,93.750000
6193,93.750000
6194,97.656250
6195,97.656250
6196,97.656250
6197,97.656250
6198,97.656250
6199,97.656250
6200,97.656250
6201,97.656250
6202,97.656250
6203,97.656250
6204,97.656250
6205,97.656250
6206,97.656250
6207,97.656250
6208,97.656250
6209,97.656250
6210,97.656250
6211,97.656250
6212,101.562500
6213,101.562500
6214,101.562500
6215,101.562500
6216,101.562500
6217,101.562500
6218,101.562500
6219,101.562500
6220,101.562500
6221,101.562500
6222,101.562500
6223,101.562500
6224,101.562500
6225,101.562500
6226,101.562500
6227,101.562500
6228,101.562500
6229,101.562500
6230,101.562500
6231,101.562500
6232,101.562500
6233,101.562500
6234,101.562500
6235,101.562500
6236,101.562500
6237,101.562500
6238,101.562500
6239,101.562500
6240,101.562500
6241,101.562500
6242,105.468750
6243,105.468750
6244,105.468750
6245,105.468750
6246,105.468750
6247,101.562500
6248,105.468750
6249,105.468750
6250,105.468750
6251,105.468750
6252,105.468750
6253,101.562500
6254,105.468750
6255,105.468750
6256,105.468750
6257,105.468750
6258,105.468750
6259,105.468750
6260,105.468750
6261,105.468750
6262,105.468750
6263,105.468750
6264,105.468750
6265,105.468750
6266,105.468750
6267,105.468750
6268,101.562500
6269,105.468750
6270,105.468750
6271,105.468750
6272,105.468750
6273,101.562500
6274,105.468750
6275,105.468750
6276,105.468750
6277,105.468750
6278,105.468750
6279,105.468750
6280,101.562500
6281,105.468750
6282,101.562500
6283,101.562500
6284,101.562500
6285,101.562500
6286,101.562500
6287,101.562500
6288,101.562500
6289,101.562500
6290,101.562500
6291,101.562500
6292,101.562500
6293,101.562500
6294,101.562500
6295,101.562500
6296,101.562500
6297,101.562500
6298,101.562500
6299,101.562500
6300,101.562500
6301,101.562500
6302,101.562500
6303,101.562500
6304,101.562500
6305,101.562500
6306,101.562500
6307,97.656250
6308,101.562500
6309,97.656250
6310,97.656250
6311,97.656250
6312,101.562500
6313,97.656250
6314,97.656250
6315,97.656250
6316,97.656250
6317,97.656250
6318,97.656250
6319,97.656250
6320,97.656250
6321,97.656250
6322,97.656250
6323,97.656250
6324,97.656250
6325,93.750000
6326,93.750000
6327,93.750000
6328,93.750000
6329,93.750000
6330,93.750000
6331,93.750000
6332,93.750000
6333,93.750000
6334,93.750000
6335,93.750000
6336,93.750000
6337,93.750000
6338,89.843750
6339,89.843750
6340,89.843750
6341,89.843750
6342,89.843750
6343,89.843750
6344,89.843750
6345,89.843750
6346,89.843750
6347,89.843750
6348,85.937500
6349,85.937500
6350,89.843750
6351,85.937500
6352,85.937500
6353,85.937500
6354,85.937500
6355,85.937500
6356,85.937500
6357,85.937500
6358,82.031250
6359,85.937500
6360,85.937500
6361,85.937500
6362,82.031250
6363,82.031250
6364,82.031250
6365,82.031250
6366,82.031250
6367,82.031250
6368,82.031250
6369,82.031250
6370,78.125000
6371,78.125000
6372,78.125000
6373,78.125000
6374,78.125000
6375,78.125000
6376,78.125000
6377,78.125000
6378,74.218750
6379,74.218750
6380,74.218750
6381,74.218750
6382,74.218750
6383,74.218750
6384,74.218750
6385,70.312500
6386,74.218750
6387,70.312500
6388,70.312500
6389,70.312500
6390,70.312500
6391,70.312500
6392,70.312500
6393,70.312500
6394,70.312500
6395,66.406250
6396,66.406250
6397,66.406250
6398,66.406250
6399,66.406250
6400,66.406250
6401,66.406250
6402,62.500000
6403,66.406250
6404,62.500000
6405,58.593750
6406,62.500000
6407,62.500000
6408,62.500000
6409,62.500000
6410,58.593750
6411,54.687500
6412,58.593750
6413,58.593750
6414,58.593750
6415,54.687500
6416,54.687500
6417,54.687500
6418,54.687500
6419,54.687500
6420,54.687500
6421,54.687500
6422,50.781250
6423,50.781250
6424,50.781250
6425,50.781250
6426,50.781250
6427,50.781250
6428,50.781250
6429,46.875000
6430,46.875000
6431,46.875000
6432,46.875000
6433,42.968750
6434,46.875000
6435,42.968750
6436,42.968750
6437,42.968750
6438,42.968750
6439,42.968750
6440,39.062500
6441,39.062500
6442,39.062500
6443,39.062500
6444,39.062500
6445,35.156250
6446,39.062500
6447,35.156250
6448,35.156250
6449,35.156250
6450,35.156250
6451,35.156250
6452,31.250000
6453,35.156250
6454,31.250000
6455,31.250000
6456,31.250000
6457,27.343750
6458,27.343750
6459,27.343750
6460,27.343750
6461,27.343750
6462,27.343750
6463,23.437500
6464,23.437500
6465,23.437500
6466,23.437500
6467,23.437500
6468,19.531250
6469,19.531250
6470,19.531250
6471,19.531250
6472,19.531250
6473,15.625000
6474,15.625000
6475,15.625000
6476,15.625000
6477,11.718750
6478,11.718750
6479,11.718750
6480,11.718750
6481,11.718750
6482,11.718750
6483,11.718750
6484,7.812500
6485,7.812500
6486,7.812500
6487,7.812500
6488,3.906250
6489,3.906250
6490,3.906250
6491,3.906250
6492,3.906250
6493,0.000000
6494,0.000000
6495,0.000000
6496,0.000000
6497,0.000000
6498,0.000000
6499,-3.906250
6500,-3.906250
6501,-3.906250
6502,-3.906250
6503,-3.906250
6504,-7.812500
6505,-7.812500
6506,-7.812500
6507,-7.812500
6508,-7.812500
6509,-11.718750
6510,-11.718750
6511,-11.718750
6512,-11.718750
6513,-11.718750
6514,-15.625000
6515,-15.625000
6516,-15.625000
6517,-15.625000
6518,-15.625000
6519,-19.531250
6520,-19.531250
6521,-19.531250
6522,-19.531250
6523,-19.531250
6524,-19.531250
6525,-23.437500
6526,-23.437500
6527,-23.437500
6528,-23.437500
6529,-27.343750
6530,-27.343750
6531,-27.343750
6532,-27.343750
6533,-31.250000
6534,-31.250000
6535,-31.250000
6536,-31.250000
6537,-31.250000
6538,-31.250000
6539,-35.156250
6540,-35.156250
6541,-35.156250
6542,-35.156250
6543,-39.062500
6544,-39.062500
6545,-39.062500
6546,-39.062500
6547,-39.062500
6548,-39.062500
6549,-42.968750
6550,-42.968750
6551,-42.968750
6552,-42.968750
6553,-46.875000
6554,-46.875000
6555,-46.875000
6556,-46.875000
6557,-46.875000
6558,-46.875000
6559,-50.781250
6560,-50.781250
6561,-50.781250
6562,-50.781250
6563,-50.781250
6564,-54.687500
6565,-54.687500
6566,-54.687500
6567,-54.687500
6568,-58.593750
6569,-58.593750
6570,-58.593750
6571,-58.593750
6572,-58.593750
6573,-58.593750
6574,-62.500000
6575,-62.500000
6576,-62.500000
6577,-66.406250
6578,-62.500000
6579,-66.406250
6580,-66.406250
6581,-66.406250
6582,-66.406250
6583,-66.406250
6584,-70.312500
6585,-70.312500
6586,-70.312500
6587,-70.312500
6588,-70.312500
6589,-70.312500
6590,-74.218750
6591,-74.218750
6592,-74.218750
6593,-74.218750
6594,-74.218750
6595,-78.125000
6596,-78.125000
6597,-78.125000
6598,-78.125000
6599,-78.125000
6600,-78.125000
6601,-82.031250
6602,-82.031250
6603,-82.031250
6604,-82.031250
6605,-82.031250
6606,-85.937500
6607,-85.937500
6608,-85.937500
6609,-85.937500
6610,-85.937500
6611,-85.937500
6612,-89.843750
6613,-89.843750
6614,-89.843750
6615,-89.843750
6616,-93.750000
6617,-89.843750
6618,-93.750000
6619,-93.750000
6620,-93.750000
6621,-93.750000
6622,-93.750000
6623,-93.750000
6624,-97.656250
6625,-97.656250
6626,-97.656250
6627,-97.656250
6628,-97.656250
6629,-97.656250
6630,-101.562500
6631,-101.562500
6632,-101.562500
6633,-101.562500
6634,-101.562500
6635,-101.562500
6636,-101.562500
6637,-105.468750
6638,-105.468750
6639,-105.468750
6640,-105.468750
6641,-105.468750
6642,-105.468750
6643,-109.375000
6644,-109.375000
6645,-109.375000
6646,-109.375000
6647,-109.375000
6648,-109.375000
6649,-109.375000
6650,-109.375000
6651,-113.281250
6652,-113.281250
6653,-113.281250
6654,-113.281250
6655,-113.281250
6656,-113.281250
6657,-113.281250
6658,-113.281250
6659,-117.187500
6660,-117.187500
6661,-117.187500
6662,-117.187500
6663,-117.187500
6664,-117.187500
6665,-121.093750
6666,-117.187500
6667,-121.093750
6668,-121.093750
6669,-121.093750
6670,-121.093750
6671,-121.093750
6672,-121.093750
6673,-121.093750
6674,-121.093750
6675,-121.093750
6676,-121.093750
6677,-121.093750
6678,-125.000000
6679,-125.000000
6680,-125.000000
6681,-125.000000
6682,-125.000000
6683,-125.000000
6684,-125.000000
6685,-125.000000
6686,-125.000000
6687,-128.906250
6688,-128.906250
6689,-128.906250
6690,-128.906250
6691,-128.906250
6692,-128.906250
6693,-128.906250
6694,-128.906250
6695,-128.906250
6696,-128.906250
6697,-132.812500
6698,-132.812500
6699,-132.812500
6700,-132.812500
6701,-132.812500
6702,-132.812500
6703,-132.812500
6704,-132.812500
6705,-132.812500
6706,-132.812500
6707,-132.812500
6708,-132.812500
6709,-132.812500
6710,-136.718750
6711,-132.812500
6712,-136.718750
6713,-136.718750
6714,-136.718750
6715,-136.718750
6716,-136.718750
6717,-136.718750
6718,-136.718750
6719,-136.718750
6720,-136.718750
6721,-136.718750
6722,-136.718750
6723,-136.718750
6724,-136.718750
6725,-136.718750
6726,-136.718750
6727,-136.718750
6728,-136.718750
6729,-136.718750
6730,-136.718750
6731,-140.625000
6732,-140.625000
6733,-140.625000
6734,-140.625000
6735,-140.625000
6736,-140.625000
6737,-140.625000
6738,-140.625000
6739,-140.625000
6740,-140.625000
6741,-140.625000
6742,-140.625000
6743,-140.625000
6744,-140.625000
6745,-140.625000
6746,-140.625000
6747,-140.625000
6748,-140.625000
6749,-140.625000
6750,-140.625000
6751,-140.625000
6752,-140.625000
6753,-140.625000
6754,-140.625000
6755,-140.625000
6756,-140.625000
6757,-140.625000
6758,-140.625000
6759,-140.625000
6760,-140.625000
6761,-140.625000
6762,-140.625000
6763,-140.625000
6764,-140.625000
6765,-140.625000
6766,-140.625000
6767,-140.625000
6768,-140.625000
6769,-140.625000
6770,-140.625000
6771,-140.625000
6772,-140.625000
6773,-140.625000
6774,-140.625000
6775,-140.625000
6776,-136.718750
6777,-136.718750
6778,-136.718750
6779,-136.718750
6780,-136.718750
6781,-136.718750
6782,-136.718750
6783,-136.718750
6784,-136.718750
6785,-136.718750
6786,-136.718750
6787,-136.718750
6788,-136.718750
6789,-136.718750
6790,-136.718750
6791,-136.718750
6792,-136.718750
6793,-136.718750
6794,-136.718750
6795,-136.718750
6796,-136.718750
6797,-136.718750
6798,-136.718750
6799,-136.718750
6800,-136.718750
6801,-132.812500
6802,-132.812500
6803,-132.812500
6804,-132.812500
6805,-132.812500
6806,-132.812500
6807,-132.812500
6808,-132.812500
6809,-132.812500
6810,-132.812500
6811,-132.812500
6812,-132.812500
6813,-132.812500
6814,-128.906250
6815,-128.906250
6816,-128.906250
6817,-128.906250
6818,-128.906250
6819,-128.906250
6820,-128.906250
6821,-128.906250
6822,-125.000000
6823,-128.906250
6824,-128.906250
6825,-125.000000
6826,-125.000000
6827,-125.000000
6828,-125.000000
6829,-125.000000
6830,-125.000000
6831,-125.000000
6832,-125.000000
6833,-121.093750
6834,-121.093750
6835,-121.093750
6836,-121.093750
6837,-121.093750
6838,-121.093750
6839,-121.093750
6840,-121.093750
6841,-121.093750
6842,-121.093750
6843,-117.187500
6844,-117.187500
6845,-117.187500
6846,-117.187500
6847,-117.187500
6848,-117.187500
6849,-117.187500
6850,-117.187500
6851,-117.187500
6852,-113.281250
6853,-113.281250
6854,-113.281250
6855,-113.281250
6856,-113.281250
6857,-113.281250
6858,-109.375000
6859,-109.375000
6860,-109.375000
6861,-109.375000
6862,-109.375000
6863,-109.375000
6864,-109.375000
6865,-105.468750
6866,-109.375000
6867,-105.468750
6868,-105.468750
6869,-105.468750
6870,-105.468750
6871,-105.468750
6872,-101.562500
6873,-105.468750
6874,-101.562500
6875,-101.562500
6876,-101.562500
6877,-101.562500
6878,-97.656250
6879,-101.562500
6880,-97.656250
6881,-97.656250
6882,-97.656250
6883,-97.656250
6884,-97.656250
6885,-97.656250
6886,-93.750000
6887,-93.750000
6888,-93.750000
6889,-93.750000
6890,-93.750000
6891,-93.750000
6892,-89.843750
6893,-89.843750
6894,-89.843750
6895,-89.843750
6896,-89.843750
6897,-89.843750
6898,-85.937500
6899,-85.937500
6900,-85.937500
6901,-85.937500
6902,-85.937500
6903,-85.937500
6904,-82.031250
6905,-82.031250
6906,-82.031250
6907,-82.031250
6908,-82.031250
6909,-78.125000
6910,-78.125000
6911,-78.125000
6912,-78.125000
6913,-78.125000
6914,-78.125000
6915,-74.218750
6916,-74.218750
6917,-74.218750
6918,-74.218750
6919,-74.218750
6920,-70.312500
6921,-70.312500
6922,-70.312500
6923,-70.312500
6924,-70.312500
6925,-66.406250
6926,-66.406250
6927,-66.406250
6928,-66.406250
6929,-66.406250
6930,-62.500000
6931,-62.500000
6932,-62.500000
6933,-62.500000
6934,-62.500000
6935,-62.500000
6936,-58.593750
6937,-58.593750
6938,-58.593750
6939,-58.593750
6940,-58.593750
6941,-54.687500
6942,-54.687500
6943,-54.687500
6944,-54.687500
6945,-50.781250
6946,-50.781250
6947,-50.781250
6948,-50.781250
6949,-50.781250
6950,-46.875000
6951,-46.875000
6952,-46.875000
6953,-46.875000
6954,-46.875000
6955,-42.968750
6956,-42.968750
6957,-42.968750
6958,-42.968750
6959,-42.968750
6960,-42.968750
6961,-39.062500
6962,-39.062500
6963,-39.062500
6964,-39.062500
6965,-39.062500
6966,-35.156250
6967,-35.156250
6968,-35.156250
6969,-35.156250
6970,-35.156250
6971,-31.250000
6972,-31.250000
6973,-31.250000
6974,-31.250000
6975,-27.343750
6976,-27.343750
6977,-27.343750
6978,-27.343750
6979,-27.343750
6980,-23.437500
6981,-23.437500
6982,-23.437500
6983,-23.437500
6984,-23.437500
6985,-19.531250
6986,-19.531250
6987,-19.531250
6988,-19.531250
6989,-19.531250
6990,-15.625000
6991,-15.625000
6992,-15.625000
6993,-15.625000
6994,-11.718750
6995,-11.718750
6996,-11.718750
6997,-11.718750
6998,-11.718750
6999,-11.718750
7000,-7.812500
7001,-7.812500
7002,-7.812500
7003,-7.812500
7004,-7.812500
7005,-7.812500
7006,-3.906250
7007,-3.906250
7008,-3.906250
7009,-3.906250
7010,0.000000
7011,0.000000
7012,0.000000
7013,0.000000
7014,0.000000
7015,3.906250
7016,3.906250
7017,3.906250
7018,3.906250
7019,3.906250
7020,3.906250
7021,7.812500
7022,7.812500
7023,7.812500
7024,11.718750
7025,7.812500
7026,11.718750
7027,11.718750
7028,11.718750
7029,11.718750
7030,11.718750
7031,11.718750
7032,15.625000
7033,15.625000
7034,15.625000
7035,15.625000
7036,19.531250
7037,19.531250
7038,19.531250
7039,19.531250
7040,19.531250
7041,19.531250
7042,23.437500
7043,23.437500
7044,23.437500
7045,23.437500
7046,23.437500
7047,27.343750
7048,27.343750
7049,27.343750
7050,27.343750
7051,27.343750
7052,27.343750
7053,31.250000
7054,31.250000
7055,31.250000
7056,31.250000
7057,35.156250
7058,35.156250
7059,35.156250
7060,35.156250
7061,35.156250
7062,35.156250
7063,39.062500
7064,39.062500
7065,39.062500
7066,39.062500
7067,39.062500
7068,39.062500
7069,42.968750
7070,42.968750
7071,42.968750
7072,42.968750
7073,42.968750
7074,46.875000
7075,42.968750
7076,46.875000
7077,46.875000
7078,46.875000
7079,46.875000
7080,50.781250
7081,50.781250
7082,50.781250
7083,50.781250
7084,50.781250
7085,50.781250
7086,50.781250
7087,50.781250
7088,54.687500
7089,54.687500
7090,54.687500
7091,54.687500
7092,54.687500
7093,54.687500
7094,58.593750
7095,58.593750
7096,58.593750
7097,58.593750
7098,58.593750
7099,58.593750
7100,58.593750
7101,62.500000
7102,62.500000
7103,62.500000
7104,62.500000
7105,62.500000
7106,62.500000
7107,62.500000
7108,62.500000
7109,66.406250
7110,66.406250
7111,66.406250
7112,66.406250
7113,66.406250
7114,66.406250
7115,66.406250
7116,70.312500
7117,70.312500
7118,70.312500
7119,70.312500
7120,70.312500
7121,70.312500
7122,70.312500
7123,70.312500
7124,74.218750
7125,74.218750
7126,74.218750
7127,74.218750
7128,74.218750
7129,74.218750
7130,74.218750
7131,74.218750
7132,78.125000
7133,78.125000
7134,78.125000
7135,78.125000
7136,78.125000
7137,78.125000
7138,78.125000
7139,78.125000
7140,78.125000
7141,78.125000
7142,82.031250
7143,82.031250
7144,82.031250
7145,82.031250
7146,82.031250
7147,82.031250
7148,82.031250
7149,82.031250
7150,82.031250
7151,85.937500
7152,85.937500
7153,85.937500
7154,85.937500
7155,85.937500
7156,85.937500
7157,85.937500
7158,85.937500
7159,89.843750
7160,89.843750
7161,89.843750
7162,89.843750
7163,89.843750
7164,89.843750
7165,89.843750
7166,89.843750
7167,89.843750
7168,89.843750
7169,89.843750
7170,89.843750
7171,89.843750
7172,89.843750
7173,93.750000
7174,93.750000
7175,93.750000
7176,93.750000
7177,93.750000
7178,93.750000
7179,93.750000
7180,93.750000
7181,93.750000
7182,93.750000
7183,93.750000
7184,93.750000
7185,93.750000
7186,93.750000
7187,93.750000
7188,97.656250
7189,97.656250
7190,97.656250
7191,97.656250
7192,97.656250
7193,97.656250
7194,97.656250
7195,97.656250
7196,97.656250
7197,97.656250
7198,97.656250
7199,97.656250
7200,97.656250
7201,97.656250
7202,97.656250
7203,97.656250
7204,101.562500
7205,101.562500
7206,101.562500
7207,101.562500
7208,101.562500
7209,101.562500
7210,101.562500
7211,101.562500
7212,101.562500
7213,101.562500
7214,101.562500
7215,101.562500
7216,101.562500
7217,101.562500
7218,101.562500
7219,101.562500
7220,101.562500
7221,101.562500
7222,101.562500
7223,101.562500
7224,101.562500
7225,101.562500
7226,101.562500
7227,101.562500
7228,101.562500
7229,101.562500
7230,101.562500
7231,101.562500
7232,105.468750
7233,101.562500
7234,105.468750
7235,101.562500
7236,101.562500
7237,101.562500
7238,101.562500
7239,105.468750
7240,105.468750
7241,105.468750
7242,105.468750
7243,105.468750
7244,105.468750
7245,105.468750
7246,105.468750
7247,105.468750
7248,105.468750
7249,105.468750
7250,105.468750
7251,105.468750
7252,105.468750
7253,101.562500
7254,105.468750
7255,105.468750
7256,101.562500
7257,101.562500
7258,101.562500
7259,101.562500
7260,101.562500
7261,105.468750
7262,101.562500
7263,101.562500
7264,101.562500
7265,105.468750
7266,105.468750
7267,101.562500
7268,105.468750
7269,101.562500
7270,101.562500
7271,101.562500
7272,101.562500
7273,101.562500
7274,101.562500
7275,101.562500
7276,101.562500
7277,101.562500
7278,101.562500
7279,101.562500
7280,101.562500
7281,101.562500
7282,101.562500
7283,101.562500
7284,101.562500
7285,101.562500
7286,101.562500
7287,101.562500
7288,101.562500
7289,101.562500
7290,101.562500
7291,101.562500
7292,101.562500
7293,101.562500
7294,97.656250
7295,97.656250
7296,101.562500
7297,97.656250
7298,97.656250
7299,97.656250
7300,97.656250
7301,97.656250
7302,97.656250
7303,97.656250
7304,97.656250
7305,97.656250
7306,97.656250
7307,97.656250
7308,97.656250
7309,97.656250
7310,97.656250
7311,97.656250
7312,97.656250
7313,97.656250
7314,97.656250
7315,97.656250
7316,93.750000
7317,93.750000
7318,93.750000
7319,93.750000
7320,93.750000
7321,93.750000
7322,93.750000
7323,93.750000
7324,93.750000
7325,93.750000
7326,93.750000
7327,89.843750
7328,89.843750
7329,89.843750
7330,89.843750
7331,89.843750
7332,89.843750
7333,89.843750
7334,89.843750
7335,89.843750
7336,89.843750
7337,89.843750
7338,89.843750
7339,89.843750
7340,85.937500
7341,85.937500
7342,85.937500
7343,85.937500
7344,85.937500
7345,85.937500
7346,85.937500
7347,85.937500
7348,85.937500
7349,85.937500
7350,82.031250
7351,82.031250
7352,82.031250
7353,82.031250
7354,82.031250
7355,82.031250
7356,82.031250
7357,82.031250
7358,82.031250
7359,78.125000
7360,78.125000
7361,78.125000
7362,78.125000
7363,78.125000
7364,78.125000
7365,78.125000
7366,78.125000
7367,78.125000
7368,74.218750
7369,74.218750
7370,74.218750
7371,74.218750
7372,74.218750
7373,74.218750
7374,74.218750
7375,74.218750
7376,70.312500
7377,70.312500
7378,70.312500
7379,70.312500
7380,70.312500
7381,70.312500
7382,70.312500
7383,70.312500
7384,70.312500
7385,66.406250
7386,66.406250
7387,66.406250
7388,66.406250
7389,66.406250
7390,66.406250
7391,62.500000
7392,62.500000
7393,62.500000
7394,62.500000
7395,62.500000
7396,62.500000
7397,62.500000
7398,62.500000
7399,58.593750
7400,58.593750
7401,58.593750
7402,58.593750
7403,58.593750
7404,58.593750
7405,58.593750
7406,54.687500
7407,54.687500
7408,54.687500
7409,54.687500
7410,54.687500
7411,54.687500
7412,50.781250
7413,50.781250
7414,50.781250
7415,50.781250
7416,50.781250
7417,50.781250
7418,46.875000
7419,46.875000
7420,46.875000
7421,46.875000
7422,46.875000
7423,42.968750
7424,42.968750
7425,42.968750
7426,42.968750
7427,42.968750
7428,42.968750
7429,42.968750
7430,42.968750
7431,39.062500
7432,39.062500
7433,39.062500
7434,39.062500
7435,39.062500
7436,35.156250
7437,35.156250
7438,35.156250
7439,35.156250
7440,35.156250
7441,35.156250
7442,35.156250
7443,31.250000
7444,31.250000
7445,31.250000
7446,31.250000
7447,27.343750
7448,27.343750
7449,27.343750
7450,27.343750
7451,27.343750
7452,27.343750
7453,27.343750
7454,23.437500
7455,23.437500
7456,23.437500
7457,23.437500
7458,23.437500
7459,19.531250
7460,19.531250
7461,19.531250
7462,19.531250
7463,19.531250
7464,15.625000
7465,15.625000
7466,15.625000
7467,15.625000
7468,15.625000
7469,11.718750
7470,11.718750
7471,11.718750
7472,11.718750
7473,11.718750
7474,11.718750
7475,7.812500
7476,7.812500
7477,7.812500
7478,7.812500
7479,3.906250
7480,3.906250
7481,3.906250
7482,3.906250
7483,3.906250
7484,3.906250
7485,0.000000
7486,0.000000
7487,0.000000
7488,0.000000
7489,-3.906250
7490,-3.906250
7491,-3.906250
7492,-3.906250
7493,-3.906250
7494,-3.906250
7495,-7.812500
7496,-7.812500
7497,-7.812500
7498,-7.812500
7499,-11.718750
7500,-11.718750
7501,-11.718750
7502,-11.718750
7503,-11.718750
7504,-15.625000
7505,-15.625000
7506,-15.625000
7507,-15.625000
7508,-15.625000
7509,-19.531250
7510,-19.531250
7511,-19.531250
7512,-19.531250
7513,-19.531250
7514,-19.531250
7515,-23.437500
7516,-23.437500
7517,-23.437500
7518,-23.437500
7519,-27.343750
7520,-27.343750
7521,-27.343750
7522,-27.343750
7523,-27.343750
7524,-27.343750
7525,-31.250000
7526,-31.250000
7527,-31.250000
7528,-31.250000
7529,-35.156250
7530,-35.156250
7531,-35.156250
7532,-35.156250
7533,-35.156250
7534,-35.156250
7535,-39.062500
7536,-39.062500
7537,-39.062500
7538,-39.062500
7539,-42.968750
7540,-42.968750
7541,-42.968750
7542,-42.968750
7543,-42.968750
7544,-46.875000
7545,-46.875000
7546,-46.875000
7547,-46.875000
7548,-46.875000
7549,-50.781250
7550,-50.781250
7551,-50.781250
7552,-50.781250
7553,-54.687500
7554,-54.687500
7555,-54.687500
7556,-54.687500
7557,-54.687500
7558,-54.687500
7559,-58.593750
7560,-58.593750
7561,-58.593750
7562,-58.593750
7563,-58.593750
7564,-62.500000
7565,-62.500000
7566,-62.500000
7567,-62.500000
7568,-62.500000
7569,-66.406250
7570,-66.406250
7571,-66.406250
7572,-66.406250
7573,-66.406250
7574,-66.406250
7575,-70.312500
7576,-70.312500
7577,-70.312500
7578,-70.312500
7579,-70.312500
7580,-74.218750
7581,-74.218750
7582,-74.218750
7583,-74.218750
7584,-74.218750
7585,-74.218750
7586,-74.218750
7587,-78.125000
7588,-78.125000
7589,-78.125000
7590,-78.125000
7591,-82.031250
7592,-82.031250
7593,-82.031250
7594,-82.031250
7595,-82.031250
7596,-82.031250
7597,-82.031250
7598,-85.937500
7599,-85.937500
7600,-85.937500
7601,-85.937500
7602,-85.937500
7603,-89.843750
7604,-89.843750
7605,-89.843750
7606,-89.843750
7607,-89.843750
7608,-89.843750
7609,-93.750000
7610,-93.750000
7611,-93.750000
7612,-93.750000
7613,-93.750000
7614,-93.750000
7615,-97.656250
7616,-97.656250
7617,-97.656250
7618,-97.656250
7619,-97.656250
7620,-97.656250
7621,-101.562500
7622,-101.562500
7623,-101.562500
7624,-101.562500
7625,-101.562500
7626,-101.562500
7627,-105.468750
7628,-105.468750
7629,-105.468750
7630,-105.468750
7631,-105.468750
7632,-105.468750
7633,-109.375000
7634,-109.375000
7635,-109.375000
7636,-109.375000
7637,-109.375000
7638,-109.375000
7639,-109.375000
7640,-113.281250
7641,-113.281250
7642,-113.281250
7643,-113.281250
7644,-113.281250
7645,-113.281250
7646,-113.281250
7647,-113.281250
7648,-117.187500
7649,-117.187500
7650,-117.187500
7651,-117.187500
7652,-117.187500
7653,-117.187500
7654,-117.187500
7655,-117.187500
7656,-117.187500
7657,-121.093750
7658,-121.093750
7659,-121.093750
7660,-121.093750
7661,-121.093750
7662,-121.093750
7663,-121.093750
7664,-121.093750
7665,-125.000000
7666,-125.000000
7667,-125.000000
7668,-125.000000
7669,-125.000000
7670,-125.000000
7671,-125.000000
7672,-125.000000
7673,-125.000000
7674,-125.000000
7675,-125.000000
7676,-128.906250
7677,-128.906250
7678,-128.906250
7679,-128.906250
7680,-128.906250
7681,-128.906250
7682,-128.906250
7683,-128.906250
7684,-128.906250
7685,-132.812500
7686,-132.812500
7687,-132.812500
7688,-132.812500
7689,-132.812500
7690,-132.812500
7691,-132.812500
7692,-132.812500
7693,-132.812500
7694,-132.812500
7695,-132.812500
7696,-132.812500
7697,-132.812500
7698,-132.812500
7699,-136.718750
7700,-132.812500
7701,-136.718750
7702,-136.718750
7703,-136.718750
7704,-136.718750
7705,-136.718750
7706,-136.718750
7707,-136.718750
7708,-136.718750
7709,-136.718750
7710,-136.718750
7711,-136.718750
7712,-136.718750
7713,-136.718750
7714,-136.718750
7715,-136.718750
7716,-136.718750
7717,-136.718750
7718,-140.625000
7719,-136.718750
7720,-140.625000
7721,-140.625000
7722,-140.625000
7723,-136.718750
7724,-140.625000
7725,-140.625000
7726,-140.625000
7727,-140.625000
7728,-140.625000
7729,-140.625000
7730,-140.625000
7731,-140.625000
7732,-140.625000
7733,-140.625000
7734,-140.625000
7735,-140.625000
7736,-140.625000
7737,-140.625000
7738,-140.625000
7739,-140.625000
7740,-140.625000
7741,-140.625000
7742,-140.625000
7743,-140.625000
7744,-140.625000
7745,-140.625000
7746,-140.625000
7747,-140.625000
7748,-140.625000
7749,-140.625000
7750,-140.625000
7751,-140.625000
7752,-140.625000
7753,-140.625000
7754,-140.625000
7755,-140.625000
7756,-140.625000
7757,-140.625000
7758,-140.625000
7759,-140.625000
7760,-140.625000
7761,-140.625000
7762,-140.625000
7763,-140.625000
7764,-140.625000
7765,-140.625000
7766,-140.625000
7767,-136.718750
7768,-140.625000
7769,-136.718750
7770,-140.625000
7771,-140.625000
7772,-140.625000
7773,-136.718750
7774,-140.625000
7775,-136.718750
7776,-136.718750
7777,-136.718750
7778,-136.718750
7779,-136.718750
7780,-136.718750
7781,-136.718750
7782,-136.718750
7783,-136.718750
7784,-136.718750
7785,-136.718750
7786,-136.718750
7787,-136.718750
7788,-136.718750
7789,-136.718750
7790,-136.718750
7791,-136.718750
7792,-132.812500
7793,-132.812500
7794,-132.812500
7795,-132.812500
7796,-132.812500
7797,-132.812500
7798,-132.812500
7799,-132.812500
7800,-132.812500
7801,-132.812500
7802,-132.812500
7803,-132.812500
7804,-132.812500
7805,-128.906250
7806,-128.906250
7807,-128.906250
7808,-128.906250
7809,-128.906250
7810,-128.906250
7811,-128.906250
7812,-128.906250
7813,-128.906250
7814,-125.000000
7815,-128.906250
7816,-125.000000
7817,-125.000000
7818,-125.000000
7819,-125.000000
7820,-125.000000
7821,-125.000000
7822,-121.093750
7823,-125.000000
7824,-125.000000
7825,-121.093750
7826,-121.093750
7827,-121.093750
7828,-121.093750
7829,-121.093750
7830,-121.093750
7831,-121.093750
7832,-121.093750
7833,-117.187500
7834,-117.187500
7835,-117.187500
7836,-117.187500
7837,-117.187500
7838,-117.187500
7839,-117.187500
7840,-117.187500
7841,-113.281250
7842,-117.187500
7843,-113.281250
7844,-113.281250
7845,-113.281250
7846,-113.281250
7847,-113.281250
7848,-113.281250
7849,-109.375000
7850,-109.375000
7851,-109.375000
7852,-109.375000
7853,-109.375000
7854,-109.375000
7855,-109.375000
7856,-105.468750
7857,-105.468750
7858,-105.468750
7859,-105.468750
7860,-105.468750
7861,-105.468750
7862,-105.468750
7863,-101.562500
7864,-101.562500
7865,-101.562500
7866,-101.562500
7867,-101.562500
7868,-101.562500
7869,-101.562500
7870,-97.656250
7871,-97.656250
7872,-97.656250
7873,-97.656250
7874,-97.656250
7875,-93.750000
7876,-93.750000
7877,-93.750000
7878,-93.750000
7879,-93.750000
7880,-93.750000
7881,-89.843750
7882,-89.843750
7883,-89.843750
7884,-89.843750
7885,-89.843750
7886,-89.843750
7887,-89.843750
7888,-85.937500
7889,-85.937500
7890,-85.937500
7891,-85.937500
7892,-85.937500
7893,-85.937500
7894,-82.031250
7895,-82.031250
7896,-82.031250
7897,-82.031250
7898,-82.031250
7899,-78.125000
7900,-78.125000
7901,-78.125000
7902,-78.125000
7903,-78.125000
7904,-78.125000
7905,-74.218750
7906,-74.218750
7907,-74.218750
7908,-74.218750
7909,-74.218750
7910,-74.218750
7911,-70.312500
7912,-70.312500
7913,-70.312500
7914,-70.312500
7915,-66.406250
7916,-66.406250
7917,-66.406250
7918,-66.406250
7919,-66.406250
7920,-66.406250
7921,-62.500000
7922,-62.500000
7923,-62.500000
7924,-62.500000
7925,-62.500000
7926,-58.593750
7927,-58.593750
7928,-58.593750
7929,-58.593750
7930,-58.593750
7931,-58.593750
7932,-54.687500
7933,-54.687500
7934,-54.687500
7935,-54.687500
7936,-50.781250
7937,-50.781250
7938,-50.781250
7939,-50.781250
7940,-50.781250
7941,-46.875000
7942,-46.875000
7943,-46.875000
7944,-46.875000
7945,-46.875000
7946,-42.968750
7947,-42.968750
7948,-42.968750
7949,-42.968750
7950,-42.968750
7951,-35.156250
7952,-39.062500
7953,-39.062500
7954,-39.062500
7955,-35.156250
7956,-35.156250
7957,-35.156250
7958,-35.156250
7959,-35.156250
7960,-35.156250
7961,-31.250000
7962,-31.250000
7963,-31.250000
7964,-31.250000
7965,-27.343750
7966,-31.250000
7967,-27.343750
7968,-27.343750
7969,-27.343750
7970,-23.437500
7971,-23.437500
7972,-23.437500
7973,-23.437500
7974,-23.437500
7975,-19.531250
7976,-19.531250
7977,-15.625000
7978,-19.531250
7979,-19.531250
7980,-19.531250
7981,-15.625000
7982,-15.625000
7983,-15.625000
7984,-11.718750
7985,-11.718750
7986,-11.718750
7987,-11.718750
7988,-11.718750
7989,-11.718750
7990,-7.812500
7991,-7.812500
7992,-7.812500
7993,-7.812500
7994,-7.812500
7995,-3.906250
7996,-3.906250
7997,-3.906250
7998,-3.906250
7999,-3.906250
8000,-3.906250
8001,0.000000
8002,0.000000
8003,0.000000
8004,0.000000
8005,0.000000
8006,3.906250
8007,3.906250
8008,3.906250
8009,3.906250
8010,7.812500
8011,7.812500
8012,7.812500
8013,7.812500
8014,7.812500
8015,11.718750
8016,11.718750
8017,11.718750
8018,11.718750
8019,11.718750
8020,11.718750
8021,11.718750
8022,15.625000
8023,15.625000
8024,15.625000
8025,15.625000
8026,19.531250
8027,19.531250
8028,19.531250
8029,19.531250
8030,19.531250
8031,23.437500
8032,23.437500
8033,23.437500
8034,23.437500
8035,23.437500
8036,23.437500
8037,23.437500
8038,27.343750
8039,27.343750
8040,27.343750
8041,27.343750
8042,27.343750
8043,27.343750
8044,31.250000
8045,31.250000
8046,31.250000
8047,31.250000
8048,35.156250
8049,31.250000
8050,35.156250
8051,35.156250
8052,35.156250
8053,35.156250
8054,39.062500
8055,39.062500
8056,39.062500
8057,39.062500
8058,39.062500
8059,42.968750
8060,42.968750
8061,42.968750
8062,42.968750
8063,42.968750
8064,42.968750
8065,42.968750
8066,46.875000
8067,46.875000
8068,46.875000
8069,46.875000
8070,46.875000
8071,46.875000
8072,50.781250
8073,50.781250
8074,50.781250
8075,50.781250
8076,50.781250
8077,50.781250
8078,54.687500
8079,54.687500
8080,54.687500
8081,54.687500
8082,54.687500
8083,54.687500
8084,54.687500
8085,58.593750
8086,58.593750
8087,58.593750
8088,58.593750
8089,58.593750
8090,58.593750
8091,58.593750
8092,62.500000
8093,62.500000
8094,62.500000
8095,62.500000
8096,62.500000
8097,62.500000
8098,66.406250
8099,66.406250
8100,66.406250
8101,66.406250
8102,66.406250
8103,66.406250
8104,66.406250
8105,70.312500
8106,70.312500
8107,70.312500
8108,70.312500
8109,70.312500
8110,70.312500
8111,70.312500
8112,70.312500
8113,74.218750
8114,74.218750
8115,74.218750
8116,74.218750
8117,74.218750
8118,74.218750
8119,74.218750
8120,74.218750
8121,74.218750
8122,78.125000
8123,78.125000
8124,78.125000
8125,78.125000
8126,78.125000
8127,78.125000
8128,78.125000
8129,78.125000
8130,82.031250
8131,82.031250
8132,82.031250
8133,82.031250
8134,82.031250
8135,82.031250
8136,82.031250
8137,82.031250
8138,82.031250
8139,82.031250
8140,85.937500
8141,85.937500
8142,85.937500
8143,85.937500
8144,85.937500
8145,85.937500
8146,85.937500
8147,85.937500
8148,85.937500
8149,85.937500
8150,85.937500
8151,85.937500
8152,89.843750
8153,89.843750
8154,89.843750
8155,89.843750
8156,89.843750
8157,89.843750
8158,89.843750
8159,89.843750
8160,89.843750
8161,89.843750
8162,89.843750
8163,93.750000
8164,93.750000
8165,93.750000
8166,93.750000
8167,93.750000
8168,93.750000
8169,93.750000
8170,93.750000
8171,93.750000
8172,93.750000
8173,93.750000
8174,93.750000
8175,93.750000
8176,93.750000
8177,97.656250
8178,97.656250
8179,97.656250
8180,97.656250
8181,97.656250
8182,97.656250
8183,97.656250
8184,97.656250
8185,97.656250
8186,97.656250
8187,97.656250
8188,97.656250
8189,97.656250
8190,97.656250
8191,101.562500
8192,97.656250
8193,97.656250
8194,101.562500
8195,101.562500
8196,101.562500
8197,101.562500
8198,101.562500
8199,101.562500
8200,101.562500
8201,101.562500
8202,101.562500
8203,101.562500
8204,101.562500
8205,101.562500
8206,101.562500
8207,101.562500
8208,101.562500
8209,101.562500
8210,101.562500
8211,101.562500
8212,101.562500
8213,101.562500
8214,101.562500
8215,101.562500
8216,101.562500
8217,101.562500
8218,101.562500
8219,101.562500
8220,105.468750
8221,105.468750
8222,105.468750
8223,105.468750
8224,105.468750
8225,105.468750
8226,105.468750
8227,105.468750
8228,105.468750
8229,105.468750
8230,105.468750
8231,105.468750
8232,105.468750
8233,105.468750
8234,105.468750
8235,105.468750
8236,105.468750
8237,105.468750
8238,105.468750
8239,105.468750
8240,105.468750
8241,105.468750
8242,105.468750
8243,105.468750
8244,105.468750
8245,105.468750
8246,105.468750
8247,105.468750
8248,105.468750
8249,101.562500
8250,105.468750
8251,105.468750
8252,105.468750
8253,101.562500
8254,105.468750
8255,105.468750
8256,105.468750
8257,105.468750
8258,101.562500
8259,105.468750
8260,105.468750
8261,101.562500
8262,101.562500
8263,101.562500
8264,101.562500
8265,101.562500
8266,101.562500
8267,101.562500
8268,101.562500
8269,101.562500
8270,101.562500
8271,101.562500
8272,101.562500
8273,101.562500
8274,101.562500
8275,101.562500
8276,101.562500
8277,101.562500
8278,101.562500
8279,101.562500
8280,101.562500
8281,101.562500
8282,101.562500
8283,101.562500
8284,101.562500
8285,97.656250
8286,101.562500
8287,101.562500
8288,97.656250
8289,97.656250
8290,97.656250
8291,97.656250
8292,101.562500
8293,97.656250
8294,97.656250
8295,97.656250
8296,97.656250
8297,97.656250
8298,97.656250
8299,97.656250
8300,97.656250
8301,97.656250
8302,97.656250
8303,97.656250
8304,97.656250
8305,93.750000
8306,93.750000
8307,93.750000
8308,93.750000
8309,93.750000
8310,93.750000
8311,93.750000
8312,93.750000
8313,93.750000
8314,93.750000
8315,93.750000
8316,93.750000
8317,89.843750
8318,93.750000
8319,89.843750
8320,89.843750
8321,89.843750
8322,89.843750
8323,89.843750
8324,89.843750
8325,89.843750
8326,89.843750
8327,89.843750
8328,89.843750
8329,85.937500
8330,89.843750
8331,85.937500
8332,85.937500
8333,85.937500
8334,85.937500
8335,85.937500
8336,85.937500
8337,85.937500
8338,85.937500
8339,85.937500
8340,85.937500
8341,85.937500
8342,82.031250
8343,82.031250
8344,82.031250
8345,82.031250
8346,82.031250
8347,82.031250
8348,82.031250
8349,82.031250
8350,82.031250
8351,78.125000
8352,78.125000
8353,78.125000
8354,78.125000
8355,78.125000
8356,78.125000
8357,78.125000
8358,78.125000
8359,74.218750
8360,78.125000
8361,74.218750
8362,74.218750
8363,74.218750
8364,74.218750
8365,74.218750
8366,74.218750
8367,74.218750
8368,70.312500
8369,70.312500
8370,70.312500
8371,70.312500
8372,70.312500
8373,70.312500
8374,70.312500
8375,66.406250
8376,66.406250
8377,66.406250
8378,66.406250
8379,66.406250
8380,66.406250
8381,66.406250
8382,62.500000
8383,62.500000
8384,62.500000
8385,62.500000
8386,62.500000
8387,62.500000
8388,58.593750
8389,58.593750
8390,58.593750
8391,58.593750
8392,58.593750
8393,58.593750
8394,58.593750
8395,54.687500
8396,54.687500
8397,54.687500
8398,54.687500
8399,54.687500
8400,54.687500
8401,54.687500
8402,50.781250
8403,50.781250
8404,50.781250
8405,50.781250
8406,50.781250
8407,50.781250
8408,50.781250
8409,46.875000
8410,46.875000
8411,46.875000
8412,46.875000
8413,46.875000
8414,42.968750
8415,42.968750
8416,42.968750
8417,42.968750
8418,42.968750
8419,42.968750
8420,42.968750
8421,39.062500
8422,39.062500
8423,39.062500
8424,39.062500
8425,35.156250
8426,35.156250
8427,35.156250
8428,35.156250
8429,35.156250
8430,35.156250
8431,35.156250
8432,31.250000
8433,31.250000
8434,31.250000
8435,31.250000
8436,31.250000
8437,27.343750
8438,27.343750
8439,27.343750
8440,27.343750
8441,27.343750
8442,27.343750
8443,23.437500
8444,23.437500
8445,23.437500
8446,23.437500
8447,23.437500
8448,23.437500
8449,19.531250
8450,19.531250
8451,19.531250
8452,19.531250
8453,19.531250
8454,15.625000
8455,15.625000
8456,15.625000
8457,11.718750
8458,11.718750
8459,15.625000
8460,11.718750
8461,11.718750
8462,11.718750
8463,11.718750
8464,7.812500
8465,7.812500
8466,7.812500
8467,7.812500
8468,7.812500
8469,3.906250
8470,3.906250
8471,3.906250
8472,3.906250
8473,0.000000
8474,0.000000
8475,0.000000
8476,0.000000
8477,0.000000
8478,0.000000
8479,-3.906250
8480,-3.906250
8481,-3.906250
8482,-3.906250
8483,-3.906250
8484,-3.906250
8485,-7.812500
8486,-7.812500
8487,-7.812500
8488,-7.812500
8489,-11.718750
8490,-11.718750
8491,-11.718750
8492,-11.718750
8493,-11.718750
8494,-15.625000
8495,-15.625000
8496,-15.625000
8497,-15.625000
8498,-15.625000
8499,-19.531250
8500,-19.531250
8501,-19.531250
8502,-19.531250
8503,-19.531250
8504,-23.437500
8505,-23.437500
8506,-23.437500
8507,-23.437500
8508,-23.437500
8509,-27.343750
8510,-27.343750
8511,-27.343750
8512,-27.343750
8513,-31.250000
8514,-31.250000
8515,-31.250000
8516,-31.250000
8517,-31.250000
8518,-31.250000
8519,-35.156250
8520,-35.156250
8521,-35.156250
8522,-35.156250
8523,-35.156250
8524,-39.062500
8525,-39.062500
8526,-39.062500
8527,-39.062500
8528,-42.968750
8529,-42.968750
8530,-42.968750
8531,-42.968750
8532,-42.968750
8533,-46.875000
8534,-46.875000
8535,-46.875000
8536,-46.875000
8537,-50.781250
8538,-50.781250
8539,-50.781250
8540,-50.781250
8541,-50.781250
8542,-50.781250
8543,-54.687500
8544,-54.687500
8545,-54.687500
8546,-54.687500
8547,-54.687500
8548,-54.687500
8549,-58.593750
8550,-58.593750
8551,-58.593750
8552,-58.593750
8553,-62.500000
8554,-62.500000
8555,-62.500000
8556,-62.500000
8557,-62.500000
8558,-66.406250
8559,-66.406250
8560,-66.406250
8561,-66.406250
8562,-66.406250
8563,-66.406250
8564,-70.312500
8565,-70.312500
8566,-70.312500
8567,-70.312500
8568,-70.312500
8569,-74.218750
8570,-74.218750
8571,-74.218750
8572,-74.218750
8573,-74.218750
8574,-74.218750
8575,-78.125000
8576,-78.125000
8577,-78.125000
8578,-78.125000
8579,-78.125000
8580,-82.031250
8581,-82.031250
8582,-82.031250
8583,-82.031250
8584,-82.031250
8585,-85.937500
8586,-85.937500
8587,-85.937500
8588,-85.937500
8589,-85.937500
8590,-85.937500
8591,-89.843750
8592,-89.843750
8593,-89.843750
8594,-89.843750
8595,-89.843750
8596,-89.843750
8597,-93.750000
8598,-93.750000
8599,-93.750000
8600,-93.750000
8601,-93.750000
8602,-93.750000
8603,-97.656250
8604,-97.656250
8605,-97.656250
8606,-97.656250
8607,-97.656250
8608,-97.656250
8609,-101.562500
8610,-101.562500
8611,-101.562500
8612,-101.562500
8613,-101.562500
8614,-101.562500
8615,-101.562500
8616,-105.468750
8617,-105.468750
8618,-105.468750
8619,-105.468750
8620,-105.468750
8621,-105.468750
8622,-105.468750
8623,-109.375000
8624,-109.375000
8625,-109.375000
8626,-109.375000
8627,-109.375000
8628,-109.375000
8629,-109.375000
8630,-113.281250
8631,-113.281250
8632,-113.281250
8633,-113.281250
8634,-113.281250
8635,-113.281250
8636,-113.281250
8637,-117.187500
8638,-117.187500
8639,-117.187500
8640,-117.187500
8641,-117.187500
8642,-117.187500
8643,-117.187500
8644,-117.187500
8645,-121.093750
8646,-121.093750
8647,-121.093750
8648,-121.093750
8649,-121.093750
8650,-121.093750
8651,-121.093750
8652,-121.093750
8653,-121.093750
8654,-125.000000
8655,-125.000000
8656,-125.000000
8657,-125.000000
8658,-125.000000
8659,-125.000000
8660,-125.000000
8661,-125.000000
8662,-125.000000
8663,-125.000000
8664,-128.906250
8665,-128.906250
8666,-128.906250
8667,-128.906250
8668,-128.906250
8669,-128.906250
8670,-128.906250
8671,-128.906250
8672,-132.812500
8673,-128.906250
8674,-132.812500
8675,-132.812500
8676,-132.812500
8677,-132.812500
8678,-132.812500
8679,-132.812500
8680,-132.812500
8681,-132.812500
8682,-132.812500
8683,-132.812500
8684,-132.812500
8685,-132.812500
8686,-132.812500
8687,-136.718750
8688,-132.812500
8689,-136.718750
8690,-136.718750
8691,-136.718750
8692,-136.718750
8693,-136.718750
8694,-136.718750
8695,-136.718750
8696,-136.718750
8697,-136.718750
8698,-136.718750
8699,-136.718750
8700,-136.718750
8701,-136.718750
8702,-136.718750
8703,-136.718750
8704,-136.718750
8705,-136.718750
8706,-140.625000
8707,-140.625000
8708,-140.625000
8709,-140.625000
8710,-140.625000
8711,-140.625000
8712,-140.625000
8713,-140.625000
8714,-140.625000
8715,-140.625000
8716,-140.625000
8717,-140.625000
8718,-140.625000
8719,-140.625000
8720,-140.625000
8721,-140.625000
8722,-140.625000
8723,-140.625000
8724,-140.625000
8725,-140.625000
8726,-140.625000
8727,-140.625000
8728,-140.625000
8729,-140.625000
8730,-140.625000
8731,-140.625000
8732,-140.625000
8733,-140.625000
8734,-140.625000
8735,-140.625000
8736,-140.625000
8737,-140.625000
8738,-140.625000
8739,-140.625000
8740,-140.625000
8741,-140.625000
8742,-140.625000
8743,-140.625000
8744,-140.625000
8745,-140.625000
8746,-140.625000
8747,-140.625000
8748,-140.625000
8749,-140.625000
8750,-140.625000
8751,-140.625000
8752,-140.625000
8753,-140.625000
8754,-140.625000
8755,-140.625000
8756,-140.625000
8757,-140.625000
8758,-140.625000
8759,-140.625000
8760,-140.625000
8761,-136.718750
8762,-136.718750
8763,-136.718750
8764,-136.718750
8765,-136.718750
8766,-136.718750
8767,-136.718750
8768,-136.718750
8769,-136.718750
8770,-136.718750
8771,-136.718750
8772,-136.718750
8773,-136.718750
8774,-136.718750
8775,-136.718750
8776,-136.718750
8777,-136.718750
8778,-136.718750
8779,-136.718750
8780,-132.812500
8781,-132.812500
8782,-132.812500
8783,-132.812500
8784,-132.812500
8785,-132.812500
8786,-132.812500
8787,-132.812500
8788,-132.812500
8789,-132.812500
8790,-132.812500
8791,-132.812500
8792,-132.812500
8793,-132.812500
8794,-128.906250
8795,-128.906250
8796,-128.906250
8797,-128.906250
8798,-128.906250
8799,-128.906250
8800,-128.906250
8801,-128.906250
8802,-128.906250
8803,-128.906250
8804,-128.906250
8805,-128.906250
8806,-125.000000
8807,-125.000000
8808,-125.000000
8809,-125.000000
8810,-125.000000
8811,-125.000000
8812,-125.000000
8813,-125.000000
8814,-125.000000
8815,-121.093750
8816,-121.093750
8817,-121.093750
8818,-121.093750
8819,-121.093750
8820,-121.093750
8821,-121.093750
8822,-121.093750
8823,-121.093750
8824,-117.187500
8825,-117.187500
8826,-117.187500
8827,-117.187500
8828,-117.187500
8829,-117.187500
8830,-117.187500
8831,-113.281250
8832,-113.281250
8833,-113.281250
8834,-113.281250
8835,-113.281250
8836,-113.281250
8837,-113.281250
8838,-113.281250
8839,-109.375000
8840,-109.375000
8841,-109.375000
8842,-109.375000
8843,-109.375000
8844,-109.375000
8845,-109.375000
8846,-105.468750
8847,-105.468750
8848,-105.468750
8849,-105.468750
8850,-105.468750
8851,-105.468750
8852,-101.562500
8853,-101.562500
8854,-101.562500
8855,-101.562500
8856,-101.562500
8857,-101.562500
8858,-101.562500
8859,-97.656250
8860,-97.656250
8861,-97.656250
8862,-97.656250
8863,-97.656250
8864,-97.656250
8865,-93.750000
8866,-93.750000
8867,-93.750000
8868,-93.750000
8869,-93.750000
8870,-93.750000
8871,-93.750000
8872,-89.843750
8873,-89.843750
8874,-89.843750
8875,-89.843750
8876,-89.843750
8877,-89.843750
8878,-85.937500
8879,-85.937500
8880,-85.937500
8881,-85.937500
8882,-85.937500
8883,-82.031250
8884,-82.031250
8885,-82.031250
8886,-82.031250
8887,-82.031250
8888,-78.125000
8889,-78.125000
8890,-78.125000
8891,-78.125000
8892,-78.125000
8893,-78.125000
8894,-78.125000
8895,-74.218750
8896,-74.218750
8897,-74.218750
8898,-74.218750
8899,-74.218750
8900,-70.312500
8901,-70.312500
8902,-70.312500
8903,-70.312500
8904,-66.406250
8905,-66.406250
8906,-66.406250
8907,-66.406250
8908,-66.406250
8909,-66.406250
8910,-62.500000
8911,-62.500000
8912,-62.500000
8913,-62.500000
8914,-62.500000
8915,-62.500000
8916,-58.593750
8917,-58.593750
8918,-58.593750
8919,-58.593750
8920,-54.687500
8921,-54.687500
8922,-54.687500
8923,-54.687500
8924,-54.687500
8925,-54.687500
8926,-50.781250
8927,-50.781250
8928,-50.781250
8929,-50.781250
8930,-50.781250
8931,-50.781250
8932,-46.875000
8933,-46.875000
8934,-46.875000
8935,-46.875000
8936,-46.875000
8937,-42.968750
8938,-42.968750
8939,-42.968750
8940,-42.968750
8941,-39.062500
8942,-39.062500
8943,-39.062500
8944,-39.062500
8945,-39.062500
8946,-35.156250
8947,-35.156250
8948,-35.156250
8949,-35.156250
8950,-35.156250
8951,-31.250000
8952,-31.250000
8953,-31.250000
8954,-31.250000
8955,-31.250000
8956,-27.343750
8957,-27.343750
8958,-27.343750
8959,-27.343750
8960,-23.437500
8961,-23.437500
8962,-23.437500
8963,-23.437500
8964,-23.437500
8965,-23.437500
8966,-19.531250
8967,-19.531250
8968,-19.531250
8969,-19.531250
8970,-19.531250
8971,-15.625000
8972,-15.625000
8973,-15.625000
8974,-15.625000
8975,-11.718750
8976,-11.718750
8977,-11.718750
8978,-11.718750
8979,-11.718750
8980,-11.718750
8981,-7.812500
8982,-7.812500
8983,-7.812500
8984,-7.812500
8985,-3.906250
8986,-3.906250
8987,-3.906250
8988,-3.906250
8989,-3.906250
8990,-3.906250
8991,0.000000
8992,0.000000
8993,0.000000
8994,0.000000
8995,3.906250
8996,3.906250
8997,3.906250
8998,3.906250
8999,3.906250
9000,3.906250
9001,7.812500
9002,7.812500
9003,7.812500
9004,7.812500
9005,11.718750
9006,11.718750
9007,11.718750
9008,11.718750
9009,11.718750
9010,15.625000
9011,15.625000
9012,15.625000
9013,15.625000
9014,15.625000
9015,15.625000
9016,19.531250
9017,19.531250
9018,19.531250
9019,19.531250
9020,23.437500
9021,19.531250
9022,23.437500
9023,23.437500
9024,23.437500
9025,23.437500
9026,23.437500
9027,27.343750
9028,27.343750
9029,27.343750
9030,27.343750
9031,27.343750
9032,31.250000
9033,31.250000
9034,31.250000
9035,31.250000
9036,31.250000
9037,31.250000
9038,35.156250
9039,35.156250
9040,35.156250
9041,35.156250
9042,39.062500
9043,35.156250
9044,39.062500
9045,39.062500
9046,39.062500
9047,39.062500
9048,39.062500
9049,39.062500
9050,42.968750
9051,42.968750
9052,42.968750
9053,42.968750
9054,42.968750
9055,46.875000
9056,46.875000
9057,46.875000
9058,46.875000
9059,46.875000
9060,46.875000
9061,50.781250
9062,50.781250
9063,50.781250
9064,50.781250
9065,50.781250
9066,50.781250
9067,50.781250
9068,54.687500
9069,54.687500
9070,54.687500
9071,54.687500
9072,54.687500
9073,54.687500
9074,54.687500
9075,58.593750
9076,58.593750
9077,58.593750
9078,58.593750
9079,58.593750
9080,58.593750
9081,62.500000
9082,62.500000
9083,62.500000
9084,62.500000
9085,62.500000
9086,62.500000
9087,62.500000
9088,66.406250
9089,66.406250
9090,66.406250
9091,66.406250
9092,66.406250
9093,66.406250
9094,66.406250
9095,66.406250
9096,70.312500
9097,70.312500
9098,70.312500
9099,70.312500
9100,70.312500
9101,70.312500
9102,70.312500
9103,70.312500
9104,74.218750
9105,74.218750
9106,74.218750
9107,74.218750
9108,74.218750
9109,74.218750
9110,74.218750
9111,74.218750
9112,78.125000
9113,78.125000
9114,78.125000
9115,78.125000
9116,78.125000
9117,78.125000
9118,78.125000
9119,78.125000
9120,82.031250
9121,82.031250
9122,82.031250
9123,82.031250
9124,82.031250
9125,82.031250
9126,82.031250
9127,82.031250
9128,85.937500
9129,85.937500
9130,85.937500
9131,85.937500
9132,85.937500
9133,85.937500
9134,85.937500
9135,85.937500
9136,85.937500
9137,85.937500
9138,85.937500
9139,85.937500
9140,89.843750
9141,89.843750
9142,89.843750
9143,89.843750
9144,89.843750
9145,89.843750
9146,89.843750
9147,89.843750
9148,89.843750
9149,89.843750
9150,93.750000
9151,93.750000
9152,93.750000
9153,93.750000
9154,93.750000
9155,93.750000
9156,93.750000
9157,93.750000
9158,93.750000
9159,93.750000
9160,93.750000
9161,93.750000
9162,93.750000
9163,97.656250
9164,97.656250
9165,93.750000
9166,97.656250
9167,97.656250
9168,97.656250
9169,97.656250
9170,97.656250
9171,97.656250
9172,97.656250
9173,97.656250
9174,97.656250
9175,97.656250
9176,97.656250
9177,97.656250
9178,97.656250
9179,97.656250
9180,97.656250
9181,97.656250
9182,97.656250
9183,97.656250
9184,97.656250
9185,101.562500
9186,101.562500
9187,101.562500
9188,101.562500
9189,101.562500
9190,101.562500
9191,101.562500
9192,101.562500
9193,101.562500
9194,101.562500
9195,101.562500
9196,101.562500
9197,101.562500
9198,101.562500
9199,101.562500
9200,101.562500
9201,101.562500
9202,101.562500
9203,101.562500
9204,105.468750
9205,101.562500
9206,101.562500
9207,101.562500
9208,101.562500
9209,101.562500
9210,105.468750
9211,101.562500
9212,101.562500
9213,105.468750
9214,101.562500
9215,101.562500
9216,101.562500
9217,101.562500
9218,105.468750
9219,101.562500
9220,105.468750
9221,105.468750
9222,105.468750
9223,105.468750
9224,101.562500
9225,105.468750
9226,105.468750
9227,105.468750
9228,105.468750
9229,101.562500
9230,105.468750
9231,101.562500
9232,105.468750
9233,105.468750
9234,105.468750
9235,105.468750
9236,101.562500
9237,105.468750
9238,101.562500
9239,105.468750
9240,105.468750
9241,105.468750
9242,105.468750
9243,101.562500
9244,101.562500
9245,101.562500
9246,105.468750
9247,101.562500
9248,101.562500
9249,105.468750
9250,101.562500
9251,101.562500
9252,101.562500
9253,101.562500
9254,101.562500
9255,101.562500
9256,101.562500
9257,101.562500
9258,101.562500
9259,101.562500
9260,101.562500
9261,101.562500
9262,101.562500
9263,101.562500
9264,101.562500
9265,101.562500
9266,101.562500
9267,101.562500
9268,101.562500
9269,101.562500
9270,101.562500
9271,101.562500
9272,101.562500
9273,101.562500
9274,101.562500
9275,101.562500
9276,101.562500
9277,97.656250
9278,97.656250
9279,97.656250
9280,97.656250
9281,97.656250
9282,97.656250
9283,97.656250
9284,97.656250
9285,97.656250
9286,97.656250
9287,97.656250
9288,97.656250
9289,97.656250
9290,97.656250
9291,97.656250
9292,97.656250
9293,97.656250
9294,97.656250
9295,93.750000
9296,93.750000
9297,93.750000
9298,93.750000
9299,93.750000
9300,93.750000
9301,93.750000
9302,93.750000
9303,93.750000
9304,93.750000
9305,93.750000
9306,93.750000
9307,89.843750
9308,89.843750
9309,89.843750
9310,89.843750
9311,89.843750
9312,89.843750
9313,89.843750
9314,89.843750
9315,89.843750
9316,89.843750
9317,89.843750
9318,89.843750
9319,85.937500
9320,85.937500
9321,85.937500
9322,85.937500
9323,85.937500
9324,85.937500
9325,85.937500
9326,85.937500
9327,85.937500
9328,82.031250
9329,82.031250
9330,82.031250
9331,82.031250
9332,82.031250
9333,82.031250
9334,82.031250
9335,82.031250
9336,82.031250
9337,82.031250
9338,78.125000
9339,78.125000
9340,78.125000
9341,78.125000
9342,78.125000
9343,78.125000
9344,78.125000
9345,78.125000
9346,78.125000
9347,74.218750
9348,74.218750
9349,74.218750
9350,74.218750
9351,74.218750
9352,74.218750
9353,74.218750
9354,74.218750
9355,70.312500
9356,70.312500
9357,70.312500
9358,70.312500
9359,70.312500
9360,70.312500
9361,70.312500
9362,70.312500
9363,66.406250
9364,66.406250
9365,66.406250
9366,66.406250
9367,66.406250
9368,66.406250
9369,66.406250
9370,66.406250
9371,62.500000
9372,62.500000
9373,62.500000
9374,62.500000
9375,62.500000
9376,62.500000
9377,62.500000
9378,58.593750
9379,58.593750
9380,58.593750
9381,58.593750
9382,58.593750
9383,58.593750
9384,54.687500
9385,54.687500
9386,54.687500
9387,54.687500
9388,54.687500
9389,54.687500
9390,54.687500
9391,50.781250
9392,50.781250
9393,50.781250
9394,50.781250
9395,50.781250
9396,50.781250
9397,46.875000
9398,46.875000
9399,46.875000
9400,46.875000
9401,46.875000
9402,46.875000
9403,42.968750
9404,42.968750
9405,42.968750
9406,42.968750
9407,42.968750
9408,42.968750
9409,39.062500
9410,39.062500
9411,39.062500
9412,39.062500
9413,39.062500
9414,39.062500
9415,35.156250
9416,35.156250
9417,35.156250
9418,35.156250
9419,35.156250
9420,35.156250
9421,31.250000
9422,31.250000
9423,31.250000
9424,31.250000
9425,27.343750
9426,27.343750
9427,27.343750
9428,27.343750
9429,27.343750
9430,27.343750
9431,27.343750
9432,23.437500
9433,23.437500
9434,23.437500
9435,23.437500
9436,23.437500
9437,19.531250
9438,19.531250
9439,19.531250
9440,19.531250
9441,19.531250
9442,19.531250
9443,15.625000
9444,15.625000
9445,15.625000
9446,15.625000
9447,15.625000
9448,11.718750
9449,11.718750
9450,11.718750
9451,11.718750
9452,7.812500
9453,7.812500
9454,7.812500
9455,7.812500
9456,7.812500
9457,7.812500
9458,7.812500
9459,3.906250
9460,3.906250
9461,3.906250
9462,3.906250
9463,0.000000
9464,0.000000
9465,0.000000
9466,0.000000
9467,0.000000
9468,-3.906250
9469,-3.906250
9470,-3.906250
9471,-3.906250
9472,-3.906250
9473,-7.812500
9474,-7.812500
9475,-7.812500
9476,-7.812500
9477,-7.812500
9478,-7.812500
9479,-11.718750
9480,-11.718750
9481,-11.718750
9482,-11.718750
9483,-15.625000
9484,-15.625000
9485,-15.625000
9486,-15.625000
9487,-15.625000
9488,-15.625000
9489,-19.531250
9490,-15.625000
9491,-23.437500
9492,-19.531250
9493,-19.531250
9494,-23.437500
9495,-23.437500
9496,-23.437500
9497,-23.437500
9498,-23.437500
9499,-27.343750
9500,-27.343750
9501,-27.343750
9502,-27.343750
9503,-27.343750
9504,-31.250000
9505,-31.250000
9506,-31.250000
9507,-31.250000
9508,-35.156250
9509,-35.156250
9510,-35.156250
9511,-35.156250
9512,-35.156250
9513,-39.062500
9514,-39.062500
9515,-39.062500
9516,-39.062500
9517,-39.062500
9518,-42.968750
9519,-42.968750
9520,-42.968750
9521,-42.968750
9522,-42.968750
9523,-46.875000
9524,-46.875000
9525,-46.875000
9526,-50.781250
9527,-46.875000
9528,-50.781250
9529,-50.781250
9530,-50.781250
9531,-50.781250
9532,-50.781250
9533,-54.687500
9534,-54.687500
9535,-54.687500
9536,-54.687500
9537,-54.687500
9538,-58.593750
9539,-58.593750
9540,-58.593750
9541,-58.593750
9542,-58.593750
9543,-58.593750
9544,-62.500000
9545,-62.500000
9546,-62.500000
9547,-62.500000
9548,-62.500000
9549,-66.406250
9550,-66.406250
9551,-66.406250
9552,-66.406250
9553,-66.406250
9554,-70.312500
9555,-70.312500
9556,-70.312500
9557,-70.312500
9558,-70.312500
9559,-70.312500
9560,-74.218750
9561,-74.218750
9562,-74.218750
9563,-74.218750
9564,-78.125000
9565,-78.125000
9566,-78.125000
9567,-78.125000
9568,-78.125000
9569,-78.125000
9570,-82.031250
9571,-82.031250
9572,-82.031250
9573,-82.031250
9574,-82.031250
9575,-85.937500
9576,-85.937500
9577,-85.937500
9578,-85.937500
9579,-85.937500
9580,-85.937500
9581,-89.843750
9582,-89.843750
9583,-89.843750
9584,-89.843750
9585,-89.843750
9586,-89.843750
9587,-89.843750
9588,-93.750000
9589,-93.750000
9590,-93.750000
9591,-93.750000
9592,-97.656250
9593,-97.656250
9594,-97.656250
9595,-97.656250
9596,-97.656250
9597,-97.656250
9598,-97.656250
9599,-101.562500
9600,-101.562500
9601,-101.562500
9602,-101.562500
9603,-101.562500
9604,-101.562500
9605,-105.468750
9606,-105.468750
9607,-105.468750
9608,-105.468750
9609,-105.468750
9610,-105.468750
9611,-105.468750
9612,-105.468750
9613,-109.375000
9614,-109.375000
9615,-109.375000
9616,-109.375000
9617,-109.375000
9618,-109.375000
9619,-109.375000
9620,-109.375000
9621,-113.281250
9622,-113.281250
9623,-113.281250
9624,-113.281250
9625,-113.281250
9626,-113.281250
9627,-117.187500
9628,-117.187500
9629,-117.187500
9630,-117.187500
9631,-117.187500
9632,-117.187500
9633,-117.187500
9634,-117.187500
9635,-121.093750
9636,-117.187500
9637,-121.093750
9638,-121.093750
9639,-121.093750
9640,-121.093750
9641,-121.093750
9642,-121.093750
9643,-121.093750
9644,-121.093750
9645,-125.000000
9646,-125.000000
9647,-125.000000
9648,-125.000000
9649,-125.000000
9650,-125.000000
9651,-125.000000
9652,-125.000000
9653,-125.000000
9654,-125.000000
9655,-128.906250
9656,-125.000000
9657,-128.906250
9658,-128.906250
9659,-128.906250
9660,-128.906250
9661,-128.906250
9662,-128.906250
9663,-128.906250
9664,-128.906250
9665,-128.906250
9666,-128.906250
9667,-128.906250
9668,-132.812500
9669,-132.812500
9670,-132.812500
9671,-132.812500
9672,-132.812500
9673,-132.812500
9674,-132.812500
9675,-132.812500
9676,-132.812500
9677,-132.812500
9678,-132.812500
9679,-132.812500
9680,-132.812500
9681,-132.812500
9682,-136.718750
9683,-136.718750
9684,-136.718750
9685,-136.718750
9686,-136.718750
9687,-136.718750
9688,-136.718750
9689,-136.718750
9690,-136.718750
9691,-136.718750
9692,-136.718750
9693,-136.718750
9694,-136.718750
9695,-136.718750
9696,-136.718750
9697,-136.718750
9698,-136.718750
9699,-136.718750
9700,-140.625000
9701,-140.625000
9702,-140.625000
9703,-140.625000
9704,-136.718750
9705,-136.718750
9706,-136.718750
9707,-140.625000
9708,-140.625000
9709,-140.625000
9710,-140.625000
9711,-140.625000
9712,-140.625000
9713,-140.625000
9714,-140.625000
9715,-140.625000
9716,-140.625000
9717,-140.625000
9718,-140.625000
9719,-140.625000
9720,-140.625000
9721,-140.625000
9722,-140.625000
9723,-140.625000
9724,-140.625000
9725,-140.625000
9726,-140.625000
9727,-140.625000
9728,-140.625000
9729,-140.625000
9730,-140.625000
9731,-140.625000
9732,-140.625000
9733,-140.625000
9734,-140.625000
9735,-140.625000
9736,-140.625000
9737,-140.625000
9738,-140.625000
9739,-140.625000
9740,-140.625000
9741,-140.625000
9742,-140.625000
9743,-140.625000
9744,-136.718750
9745,-140.625000
9746,-140.625000
9747,-136.718750
9748,-140.625000
9749,-136.718750
9750,-136.718750
9751,-136.718750
9752,-136.718750
9753,-136.718750
9754,-136.718750
9755,-136.718750
9756,-136.718750
9757,-136.718750
9758,-136.718750
9759,-136.718750
9760,-136.718750
9761,-136.718750
9762,-136.718750
9763,-136.718750
9764,-136.718750
9765,-136.718750
9766,-136.718750
9767,-136.718750
9768,-132.812500
9769,-136.718750
9770,-132.812500
9771,-132.812500
9772,-132.812500
9773,-132.812500
9774,-132.812500
9775,-132.812500
9776,-132.812500
9777,-132.812500
9778,-132.812500
9779,-132.812500
9780,-132.812500
9781,-132.812500
9782,-128.906250
9783,-128.906250
9784,-128.906250
9785,-128.906250
9786,-128.906250
9787,-128.906250
9788,-128.906250
9789,-128.906250
9790,-128.906250
9791,-128.906250
9792,-125.000000
9793,-125.000000
9794,-125.000000
9795,-125.000000
9796,-125.000000
9797,-125.000000
9798,-125.000000
9799,-125.000000
9800,-125.000000
9801,-125.000000
9802,-125.000000
9803,-121.093750
9804,-121.093750
9805,-121.093750
9806,-121.093750
9807,-121.093750
9808,-121.093750
9809,-121.093750
9810,-121.093750
9811,-121.093750
9812,-117.187500
9813,-117.187500
9814,-117.187500
9815,-117.187500
9816,-117.187500
9817,-117.187500
9818,-117.187500
9819,-117.187500
9820,-113.281250
9821,-113.281250
9822,-113.281250
9823,-113.281250
9824,-113.281250
9825,-113.281250
9826,-113.281250
9827,-113.281250
9828,-109.375000
9829,-109.375000
9830,-109.375000
9831,-109.375000
9832,-109.375000
9833,-109.375000
9834,-109.375000
9835,-105.468750
9836,-105.468750
9837,-105.468750
9838,-105.468750
9839,-105.468750
9840,-105.468750
9841,-105.468750
9842,-101.562500
9843,-101.562500
9844,-101.562500
9845,-101.562500
9846,-101.562500
9847,-101.562500
9848,-97.656250
9849,-97.656250
9850,-97.656250
9851,-97.656250
9852,-97.656250
9853,-97.656250
9854,-97.656250
9855,-93.750000
9856,-93.750000
9857,-93.750000
9858,-93.750000
9859,-93.750000
9860,-93.750000
9861,-89.843750
9862,-89.843750
9863,-89.843750
9864,-89.843750
9865,-89.843750
9866,-89.843750
9867,-85.937500
9868,-85.937500
9869,-85.937500
9870,-85.937500
9871,-85.937500
9872,-85.937500
9873,-82.031250
9874,-82.031250
9875,-82.031250
9876,-82.031250
9877,-82.031250
9878,-82.031250
9879,-78.125000
9880,-78.125000
9881,-78.125000
9882,-78.125000
9883,-78.125000
9884,-74.218750
9885,-74.218750
9886,-74.218750
9887,-74.218750
9888,-74.218750
9889,-70.312500
9890,-70.312500
9891,-70.312500
9892,-70.312500
9893,-70.312500
9894,-70.312500
9895,-66.406250
9896,-66.406250
9897,-66.406250
9898,-66.406250
9899,-66.406250
9900,-62.500000
9901,-66.406250
9902,-62.500000
9903,-62.500000
9904,-62.500000
9905,-58.593750
9906,-58.593750
9907,-58.593750
9908,-58.593750
9909,-58.593750
9910,-54.687500
9911,-54.687500
9912,-58.593750
9913,-54.687500
9914,-54.687500
9915,-54.687500
9916,-50.781250
9917,-50.781250
9918,-50.781250
9919,-50.781250
9920,-46.875000
9921,-46.875000
9922,-46.875000
9923,-46.875000
9924,-46.875000
9925,-46.875000
9926,-42.968750
9927,-42.968750
9928,-42.968750
9929,-42.968750
9930,-39.062500
9931,-39.062500
9932,-39.062500
9933,-39.062500
9934,-39.062500
9935,-35.156250
9936,-35.156250
9937,-35.156250
9938,-35.156250
9939,-35.156250
9940,-35.156250
9941,-31.250000
9942,-31.250000
9943,-31.250000
9944,-31.250000
9945,-27.343750
9946,-27.343750
9947,-27.343750
9948,-27.343750
9949,-27.343750
9950,-23.437500
9951,-23.437500
9952,-23.437500
9953,-23.437500
9954,-23.437500
9955,-23.437500
9956,-19.531250
9957,-19.531250
9958,-19.531250
9959,-19.531250
9960,-19.531250
9961,-15.625000
9962,-15.625000
9963,-15.625000
9964,-15.625000
9965,-11.718750
9966,-11.718750
9967,-11.718750
9968,-11.718750
9969,-11.718750
9970,-7.812500
9971,-7.812500
9972,-7.812500
9973,-7.812500
9974,-7.812500
9975,-3.906250
9976,-3.906250
9977,-3.906250
9978,-3.906250
9979,-3.906250
9980,-3.906250
9981,0.000000
9982,0.000000
9983,0.000000
9984,0.000000
9985,0.000000
9986,3.906250
9987,3.906250
9988,3.906250
9989,3.906250
9990,3.906250
9991,7.812500
9992,7.812500
9993,7.812500
9994,7.812500
9995,7.812500
9996,11.718750
9997,11.718750
9998,11.718750
9999,11.718750
10000,11.718750
