Channel              :,CH1
Frequency            :,857.1Hz
Period               :,1.167ms
PK-PK                :,72.27mV
Probe attenuation    :,1X
Voltage per ADC value:,0.122070mV
Time interval        :,2.00000us

index,CH1_Voltage(mV)
1,17.578125
2,17.578125
3,17.578125
4,17.578125
5,17.578125
6,15.625000
7,17.578125
8,15.625000
9,15.625000
10,15.625000
11,15.625000
12,15.625000
13,15.625000
14,13.671875
15,13.671875
16,13.671875
17,13.671875
18,13.671875
19,13.671875
20,13.671875
21,11.718750
22,13.671875
23,11.718750
24,11.718750
25,11.718750
26,11.718750
27,9.765625
28,11.718750
29,9.765625
30,9.765625
31,9.765625
32,9.765625
33,7.812500
34,9.765625
35,7.812500
36,7.812500
37,7.812500
38,5.859375
39,5.859375
40,5.859375
41,5.859375
42,5.859375
43,5.859375
44,3.906250
45,5.859375
46,3.906250
47,1.953125
48,3.906250
49,3.906250
50,1.953125
51,1.953125
52,1.953125
53,1.953125
54,0.000000
55,0.000000
56,0.000000
57,0.000000
58,-1.953125
59,-1.953125
60,-1.953125
61,-1.953125
62,-3.906250
63,-3.906250
64,-3.906250
65,-3.906250
66,-3.906250
67,-5.859375
68,-5.859375
69,-5.859375
70,-7.812500
71,-5.859375
72,-5.859375
73,-7.812500
74,-7.812500
75,-7.812500
76,-7.812500
77,-9.765625
78,-9.765625
79,-9.765625
80,-9.765625
81,-9.765625
82,-11.718750
83,-11.718750
84,-11.718750
85,-11.718750
86,-13.671875
87,-13.671875
88,-13.671875
89,-13.671875
90,-15.625000
91,-13.671875
92,-15.625000
93,-15.625000
94,-15.625000
95,-15.625000
96,-17.578125
97,-17.578125
98,-17.578125
99,-17.578125
100,-17.578125
101,-17.578125
102,-19.531250
103,-19.531250
104,-19.531250
105,-19.531250
106,-19.531250
107,-21.484375
108,-21.484375
109,-21.484375
110,-21.484375
111,-23.437500
112,-23.437500
113,-23.437500
114,-25.390625
115,-25.390625
116,-23.437500
117,-25.390625
118,-25.390625
119,-27.343750
120,-27.343750
121,-25.390625
122,-27.343750
123,-27.343750
124,-27.343750
125,-27.343750
126,-29.296875
127,-27.343750
128,-29.296875
129,-29.296875
130,-29.296875
131,-29.296875
132,-31.250000
133,-31.250000
134,-31.250000
135,-31.250000
136,-33.203125
137,-33.203125
138,-33.203125
139,-33.203125
140,-33.203125
141,-33.203125
142,-33.203125
143,-33.203125
144,-35.156250
145,-35.156250
146,-35.156250
147,-35.156250
148,-35.156250
149,-35.156250
150,-35.156250
151,-37.109375
152,-37.109375
153,-37.109375
154,-37.109375
155,-37.109375
156,-37.109375
157,-39.062500
158,-37.109375
159,-37.109375
160,-39.062500
161,-39.062500
162,-39.062500
163,-39.062500
164,-39.062500
165,-39.062500
166,-39.062500
167,-39.062500
168,-39.062500
169,-41.015625
170,-41.015625
171,-41.015625
172,-41.015625
173,-41.015625
174,-41.015625
175,-41.015625
176,-41.015625
177,-41.015625
178,-41.015625
179,-41.015625
180,-41.015625
181,-42.968750
182,-42.968750
183,-42.968750
184,-42.968750
185,-42.968750
186,-42.968750
187,-42.968750
188,-42.968750
189,-42.968750
190,-42.968750
191,-42.968750
192,-44.921875
193,-42.968750
194,-42.968750
195,-44.921875
196,-42.968750
197,-42.968750
198,-42.968750
199,-44.921875
200,-44.921875
201,-44.921875
202,-44.921875
203,-44.921875
204,-44.921875
205,-44.921875
206,-44.921875
207,-44.921875
208,-44.921875
209,-42.968750
210,-44.921875
211,-44.921875
212,-44.921875
213,-44.921875
214,-44.921875
215,-44.921875
216,-44.921875
217,-44.921875
218,-44.921875
219,-44.921875
220,-44.921875
221,-44.921875
222,-44.921875
223,-44.921875
224,-44.921875
225,-44.921875
226,-46.875000
227,-44.921875
228,-44.921875
229,-44.921875
230,-44.921875
231,-44.921875
232,-44.921875
233,-44.921875
234,-44.921875
235,-44.921875
236,-44.921875
237,-44.921875
238,-42.968750
239,-44.921875
240,-44.921875
241,-44.921875
242,-44.921875
243,-42.968750
244,-42.968750
245,-42.968750
246,-42.968750
247,-42.968750
248,-42.968750
249,-42.968750
250,-42.968750
251,-42.968750
252,-42.968750
253,-42.968750
254,-41.015625
255,-42.968750
256,-42.968750
257,-42.968750
258,-41.015625
259,-41.015625
260,-41.015625
261,-42.968750
262,-41.015625
263,-41.015625
264,-41.015625
265,-41.015625
266,-41.015625
267,-41.015625
268,-41.015625
269,-39.062500
270,-39.062500
271,-39.062500
272,-39.062500
273,-39.062500
274,-39.062500
275,-39.062500
276,-39.062500
277,-37.109375
278,-37.109375
279,-37.109375
280,-37.109375
281,-37.109375
282,-35.156250
283,-35.156250
284,-35.156250
285,-35.156250
286,-35.156250
287,-35.156250
288,-33.203125
289,-33.203125
290,-33.203125
291,-33.203125
292,-33.203125
293,-33.203125
294,-33.203125
295,-31.250000
296,-31.250000
297,-33.203125
298,-31.250000
299,-31.250000
300,-29.296875
301,-29.296875
302,-29.296875
303,-29.296875
304,-29.296875
305,-29.296875
306,-27.343750
307,-27.343750
308,-27.343750
309,-27.343750
310,-27.343750
311,-27.343750
312,-25.390625
313,-25.390625
314,-25.390625
315,-25.390625
316,-25.390625
317,-23.437500
318,-23.437500
319,-23.437500
320,-23.437500
321,-23.437500
322,-21.484375
323,-21.484375
324,-21.484375
325,-21.484375
326,-19.531250
327,-19.531250
328,-19.531250
329,-19.531250
330,-19.531250
331,-19.531250
332,-17.578125
333,-17.578125
334,-17.578125
335,-17.578125
336,-15.625000
337,-15.625000
338,-15.625000
339,-15.625000
340,-15.625000
341,-15.625000
342,-13.671875
343,-13.671875
344,-13.671875
345,-13.671875
346,-11.718750
347,-11.718750
348,-11.718750
349,-11.718750
350,-9.765625
351,-11.718750
352,-9.765625
353,-9.765625
354,-9.765625
355,-9.765625
356,-9.765625
357,-7.812500
358,-7.812500
359,-7.812500
360,-7.812500
361,-7.812500
362,-7.812500
363,-5.859375
364,-5.859375
365,-5.859375
366,-5.859375
367,-3.906250
368,-3.906250
369,-3.906250
370,-3.906250
371,-3.906250
372,-3.906250
373,-1.953125
374,-1.953125
375,-1.953125
376,-1.953125
377,-1.953125
378,0.000000
379,0.000000
380,0.000000
381,0.000000
382,0.000000
383,0.000000
384,1.953125
385,0.000000
386,1.953125
387,1.953125
388,3.906250
389,1.953125
390,1.953125
391,1.953125
392,3.906250
393,3.906250
394,3.906250
395,3.906250
396,3.906250
397,3.906250
398,3.906250
399,3.906250
400,3.906250
401,5.859375
402,5.859375
403,5.859375
404,5.859375
405,5.859375
406,5.859375
407,5.859375
408,7.812500
409,7.812500
410,7.812500
411,7.812500
412,7.812500
413,7.812500
414,7.812500
415,9.765625
416,9.765625
417,9.765625
418,9.765625
419,9.765625
420,9.765625
421,9.765625
422,9.765625
423,9.765625
424,9.765625
425,11.718750
426,13.671875
427,11.718750
428,11.718750
429,11.718750
430,11.718750
431,11.718750
432,11.718750
433,11.718750
434,11.718750
435,13.671875
436,13.671875
437,13.671875
438,13.671875
439,13.671875
440,13.671875
441,13.671875
442,13.671875
443,13.671875
444,13.671875
445,13.671875
446,15.625000
447,13.671875
448,15.625000
449,15.625000
450,15.625000
451,15.625000
452,15.625000
453,15.625000
454,15.625000
455,15.625000
456,15.625000
457,15.625000
458,15.625000
459,15.625000
460,15.625000
461,17.578125
462,17.578125
463,17.578125
464,17.578125
465,17.578125
466,17.578125
467,15.625000
468,17.578125
469,17.578125
470,17.578125
471,17.578125
472,17.578125
473,17.578125
474,17.578125
475,19.531250
476,19.531250
477,17.578125
478,17.578125
479,19.531250
480,19.531250
481,19.531250
482,19.531250
483,19.531250
484,19.531250
485,19.531250
486,19.531250
487,19.531250
488,19.531250
489,19.531250
490,19.531250
491,19.531250
492,19.531250
493,19.531250
494,19.531250
495,19.531250
496,21.484375
497,21.484375
498,21.484375
499,21.484375
500,19.531250
501,21.484375
502,21.484375
503,21.484375
504,21.484375
505,21.484375
506,21.484375
507,21.484375
508,21.484375
509,21.484375
510,21.484375
511,21.484375
512,21.484375
513,21.484375
514,21.484375
515,23.437500
516,21.484375
517,21.484375
518,21.484375
519,21.484375
520,21.484375
521,21.484375
522,21.484375
523,23.437500
524,23.437500
525,21.484375
526,21.484375
527,21.484375
528,21.484375
529,23.437500
530,21.484375
531,21.484375
532,21.484375
533,21.484375
534,21.484375
535,23.437500
536,23.437500
537,23.437500
538,23.437500
539,23.437500
540,21.484375
541,23.437500
542,23.437500
543,21.484375
544,23.437500
545,23.437500
546,23.437500
547,23.437500
548,21.484375
549,21.484375
550,23.437500
551,23.437500
552,23.437500
553,21.484375
554,21.484375
555,21.484375
556,21.484375
557,23.437500
558,23.437500
559,21.484375
560,21.484375
561,23.437500
562,21.484375
563,21.484375
564,21.484375
565,21.484375
566,21.484375
567,21.484375
568,19.531250
569,21.484375
570,21.484375
571,21.484375
572,19.531250
573,21.484375
574,19.531250
575,19.531250
576,19.531250
577,19.531250
578,19.531250
579,19.531250
580,19.531250
581,19.531250
582,19.531250
583,19.531250
584,17.578125
585,17.578125
586,17.578125
587,17.578125
588,17.578125
589,17.578125
590,15.625000
591,15.625000
592,15.625000
593,15.625000
594,15.625000
595,15.625000
596,13.671875
597,13.671875
598,13.671875
599,13.671875
600,13.671875
601,13.671875
602,13.671875
603,13.671875
604,11.718750
605,11.718750
606,11.718750
607,11.718750
608,11.718750
609,11.718750
610,11.718750
611,9.765625
612,9.765625
613,9.765625
614,9.765625
615,9.765625
616,9.765625
617,9.765625
618,7.812500
619,7.812500
620,7.812500
621,5.859375
622,7.812500
623,7.812500
624,5.859375
625,5.859375
626,5.859375
627,3.906250
628,5.859375
629,5.859375
630,3.906250
631,3.906250
632,3.906250
633,1.953125
634,3.906250
635,1.953125
636,1.953125
637,0.000000
638,0.000000
639,0.000000
640,0.000000
641,-1.953125
642,-1.953125
643,-1.953125
644,-1.953125
645,-3.906250
646,-3.906250
647,-3.906250
648,-3.906250
649,-3.906250
650,-3.906250
651,-5.859375
652,-5.859375
653,-5.859375
654,-5.859375
655,-7.812500
656,-7.812500
657,-7.812500
658,-7.812500
659,-7.812500
660,-9.765625
661,-9.765625
662,-9.765625
663,-9.765625
664,-11.718750
665,-11.718750
666,-11.718750
667,-11.718750
668,-11.718750
669,-11.718750
670,-13.671875
671,-13.671875
672,-13.671875
673,-13.671875
674,-13.671875
675,-15.625000
676,-15.625000
677,-15.625000
678,-15.625000
679,-15.625000
680,-15.625000
681,-17.578125
682,-17.578125
683,-17.578125
684,-17.578125
685,-19.531250
686,-19.531250
687,-19.531250
688,-19.531250
689,-19.531250
690,-19.531250
691,-21.484375
692,-21.484375
693,-21.484375
694,-21.484375
695,-23.437500
696,-23.437500
697,-23.437500
698,-23.437500
699,-23.437500
700,-25.390625
701,-25.390625
702,-25.390625
703,-25.390625
704,-27.343750
705,-27.343750
706,-27.343750
707,-27.343750
708,-27.343750
709,-27.343750
710,-29.296875
711,-29.296875
712,-29.296875
713,-29.296875
714,-29.296875
715,-29.296875
716,-31.250000
717,-31.250000
718,-31.250000
719,-31.250000
720,-31.250000
721,-33.203125
722,-33.203125
723,-33.203125
724,-33.203125
725,-35.156250
726,-33.203125
727,-33.203125
728,-35.156250
729,-35.156250
730,-35.156250
731,-35.156250
732,-35.156250
733,-35.156250
734,-35.156250
735,-37.109375
736,-37.109375
737,-37.109375
738,-37.109375
739,-37.109375
740,-37.109375
741,-37.109375
742,-37.109375
743,-37.109375
744,-39.062500
745,-39.062500
746,-39.062500
747,-39.062500
748,-39.062500
749,-39.062500
750,-39.062500
751,-39.062500
752,-39.062500
753,-39.062500
754,-39.062500
755,-41.015625
756,-41.015625
757,-41.015625
758,-41.015625
759,-41.015625
760,-41.015625
761,-41.015625
762,-41.015625
763,-41.015625
764,-41.015625
765,-42.968750
766,-42.968750
767,-42.968750
768,-42.968750
769,-42.968750
770,-42.968750
771,-42.968750
772,-42.968750
773,-44.921875
774,-42.968750
775,-42.968750
776,-42.968750
777,-44.921875
778,-44.921875
779,-42.968750
780,-44.921875
781,-44.921875
782,-44.921875
783,-44.921875
784,-46.875000
785,-44.921875
786,-44.921875
787,-44.921875
788,-44.921875
789,-44.921875
790,-44.921875
791,-44.921875
792,-44.921875
793,-44.921875
794,-44.921875
795,-44.921875
796,-44.921875
797,-44.921875
798,-44.921875
799,-44.921875
800,-44.921875
801,-44.921875
802,-44.921875
803,-44.921875
804,-44.921875
805,-44.921875
806,-44.921875
807,-44.921875
808,-44.921875
809,-42.968750
810,-44.921875
811,-44.921875
812,-44.921875
813,-44.921875
814,-44.921875
815,-44.921875
816,-44.921875
817,-44.921875
818,-44.921875
819,-44.921875
820,-44.921875
821,-44.921875
822,-42.968750
823,-44.921875
824,-44.921875
825,-44.921875
826,-44.921875
827,-44.921875
828,-42.968750
829,-42.968750
830,-42.968750
831,-42.968750
832,-42.968750
833,-42.968750
834,-42.968750
835,-42.968750
836,-42.968750
837,-41.015625
838,-42.968750
839,-42.968750
840,-42.968750
841,-42.968750
842,-41.015625
843,-41.015625
844,-41.015625
845,-41.015625
846,-41.015625
847,-41.015625
848,-41.015625
849,-41.015625
850,-41.015625
851,-41.015625
852,-41.015625
853,-41.015625
854,-39.062500
855,-39.062500
856,-39.062500
857,-39.062500
858,-39.062500
859,-39.062500
860,-37.109375
861,-37.109375
862,-37.109375
863,-37.109375
864,-37.109375
865,-37.109375
866,-37.109375
867,-37.109375
868,-35.156250
869,-35.156250
870,-35.156250
871,-35.156250
872,-35.156250
873,-35.156250
874,-33.203125
875,-33.203125
876,-33.203125
877,-33.203125
878,-31.250000
879,-31.250000
880,-31.250000
881,-31.250000
882,-31.250000
883,-29.296875
884,-29.296875
885,-29.296875
886,-29.296875
887,-29.296875
888,-29.296875
889,-29.296875
890,-27.343750
891,-27.343750
892,-27.343750
893,-25.390625
894,-25.390625
895,-25.390625
896,-25.390625
897,-25.390625
898,-25.390625
899,-25.390625
900,-23.437500
901,-23.437500
902,-23.437500
903,-23.437500
904,-23.437500
905,-21.484375
906,-21.484375
907,-21.484375
908,-21.484375
909,-19.531250
910,-19.531250
911,-21.484375
912,-19.531250
913,-19.531250
914,-19.531250
915,-17.578125
916,-17.578125
917,-17.578125
918,-17.578125
919,-15.625000
920,-15.625000
921,-15.625000
922,-15.625000
923,-15.625000
924,-13.671875
925,-15.625000
926,-13.671875
927,-11.718750
928,-13.671875
929,-11.718750
930,-11.718750
931,-11.718750
932,-11.718750
933,-9.765625
934,-9.765625
935,-9.765625
936,-9.765625
937,-9.765625
938,-9.765625
939,-7.812500
940,-7.812500
941,-7.812500
942,-7.812500
943,-7.812500
944,-7.812500
945,-5.859375
946,-5.859375
947,-5.859375
948,-5.859375
949,-5.859375
950,-3.906250
951,-3.906250
952,-3.906250
953,-3.906250
954,-3.906250
955,-3.906250
956,-3.906250
957,-1.953125
958,-1.953125
959,-1.953125
960,-1.953125
961,-1.953125
962,0.000000
963,0.000000
964,0.000000
965,0.000000
966,0.000000
967,0.000000
968,1.953125
969,1.953125
970,1.953125
971,1.953125
972,1.953125
973,1.953125
974,1.953125
975,3.906250
976,3.906250
977,1.953125
978,3.906250
979,3.906250
980,3.906250
981,3.906250
982,3.906250
983,3.906250
984,5.859375
985,5.859375
986,5.859375
987,5.859375
988,5.859375
989,5.859375
990,5.859375
991,7.812500
992,7.812500
993,7.812500
994,7.812500
995,7.812500
996,7.812500
997,7.812500
998,9.765625
999,9.765625
1000,9.765625
1001,9.765625
1002,11.718750
1003,9.765625
1004,9.765625
1005,11.718750
1006,11.718750
1007,11.718750
1008,11.718750
1009,11.718750
1010,11.718750
1011,11.718750
1012,11.718750
1013,11.718750
1014,13.671875
1015,11.718750
1016,13.671875
1017,13.671875
1018,13.671875
1019,13.671875
1020,13.671875
1021,13.671875
1022,13.671875
1023,13.671875
1024,13.671875
1025,13.671875
1026,13.671875
1027,15.625000
1028,13.671875
1029,15.625000
1030,15.625000
1031,15.625000
1032,15.625000
1033,15.625000
1034,15.625000
1035,15.625000
1036,15.625000
1037,15.625000
1038,15.625000
1039,15.625000
1040,15.625000
1041,17.578125
1042,17.578125
1043,17.578125
1044,17.578125
1045,17.578125
1046,17.578125
1047,17.578125
1048,17.578125
1049,17.578125
1050,17.578125
1051,17.578125
1052,17.578125
1053,17.578125
1054,19.531250
1055,17.578125
1056,17.578125
1057,17.578125
1058,19.531250
1059,19.531250
1060,19.531250
1061,19.531250
1062,19.531250
1063,17.578125
1064,19.531250
1065,19.531250
1066,19.531250
1067,19.531250
1068,19.531250
1069,19.531250
1070,21.484375
1071,21.484375
1072,21.484375
1073,21.484375
1074,19.531250
1075,21.484375
1076,21.484375
1077,21.484375
1078,21.484375
1079,21.484375
1080,21.484375
1081,21.484375
1082,21.484375
1083,21.484375
1084,21.484375
1085,21.484375
1086,21.484375
1087,21.484375
1088,21.484375
1089,21.484375
1090,21.484375
1091,21.484375
1092,21.484375
1093,21.484375
1094,23.437500
1095,23.437500
1096,21.484375
1097,21.484375
1098,21.484375
1099,21.484375
1100,21.484375
1101,23.437500
1102,23.437500
1103,21.484375
1104,23.437500
1105,21.484375
1106,21.484375
1107,23.437500
1108,23.437500
1109,21.484375
1110,23.437500
1111,23.437500
1112,21.484375
1113,23.437500
1114,23.437500
1115,23.437500
1116,23.437500
1117,23.437500
1118,23.437500
1119,23.437500
1120,23.437500
1121,23.437500
1122,23.437500
1123,23.437500
1124,23.437500
1125,23.437500
1126,23.437500
1127,23.437500
1128,23.437500
1129,25.390625
1130,23.437500
1131,23.437500
1132,23.437500
1133,23.437500
1134,23.437500
1135,23.437500
1136,23.437500
1137,23.437500
1138,23.437500
1139,23.437500
1140,23.437500
1141,23.437500
1142,23.437500
1143,23.437500
1144,23.437500
1145,23.437500
1146,21.484375
1147,19.531250
1148,21.484375
1149,21.484375
1150,21.484375
1151,21.484375
1152,21.484375
1153,21.484375
1154,21.484375
1155,21.484375
1156,19.531250
1157,19.531250
1158,19.531250
1159,21.484375
1160,19.531250
1161,19.531250
1162,19.531250
1163,19.531250
1164,17.578125
1165,19.531250
1166,19.531250
1167,17.578125
1168,17.578125
1169,17.578125
1170,17.578125
1171,17.578125
1172,17.578125
1173,17.578125
1174,17.578125
1175,15.625000
1176,15.625000
1177,15.625000
1178,15.625000
1179,15.625000
1180,15.625000
1181,17.578125
1182,15.625000
1183,15.625000
1184,13.671875
1185,13.671875
1186,13.671875
1187,13.671875
1188,11.718750
1189,11.718750
1190,13.671875
1191,11.718750
1192,11.718750
1193,11.718750
1194,9.765625
1195,9.765625
1196,9.765625
1197,9.765625
1198,11.718750
1199,9.765625
1200,7.812500
1201,7.812500
1202,7.812500
1203,7.812500
1204,7.812500
1205,7.812500
1206,5.859375
1207,5.859375
1208,5.859375
1209,5.859375
1210,3.906250
1211,3.906250
1212,3.906250
1213,3.906250
1214,3.906250
1215,3.906250
1216,3.906250
1217,1.953125
1218,1.953125
1219,1.953125
1220,1.953125
1221,0.000000
1222,0.000000
1223,0.000000
1224,0.000000
1225,-1.953125
1226,-1.953125
1227,-1.953125
1228,-1.953125
1229,-3.906250
1230,-1.953125
1231,-3.906250
1232,-3.906250
1233,-5.859375
1234,-5.859375
1235,-5.859375
1236,-5.859375
1237,-5.859375
1238,-5.859375
1239,-7.812500
1240,-7.812500
1241,-7.812500
1242,-7.812500
1243,-7.812500
1244,-9.765625
1245,-9.765625
1246,-9.765625
1247,-9.765625
1248,-11.718750
1249,-9.765625
1250,-11.718750
1251,-11.718750
1252,-11.718750
1253,-13.671875
1254,-13.671875
1255,-13.671875
1256,-13.671875
1257,-13.671875
1258,-15.625000
1259,-15.625000
1260,-15.625000
1261,-15.625000
1262,-17.578125
1263,-15.625000
1264,-17.578125
1265,-17.578125
1266,-17.578125
1267,-19.531250
1268,-19.531250
1269,-19.531250
1270,-19.531250
1271,-19.531250
1272,-21.484375
1273,-21.484375
1274,-21.484375
1275,-21.484375
1276,-21.484375
1277,-21.484375
1278,-23.437500
1279,-23.437500
1280,-23.437500
1281,-23.437500
1282,-23.437500
1283,-25.390625
1284,-25.390625
1285,-25.390625
1286,-25.390625
1287,-25.390625
1288,-27.343750
1289,-27.343750
1290,-27.343750
1291,-27.343750
1292,-29.296875
1293,-29.296875
1294,-29.296875
1295,-29.296875
1296,-31.250000
1297,-29.296875
1298,-31.250000
1299,-31.250000
1300,-31.250000
1301,-31.250000
1302,-31.250000
1303,-33.203125
1304,-33.203125
1305,-33.203125
1306,-33.203125
1307,-33.203125
1308,-33.203125
1309,-33.203125
1310,-35.156250
1311,-35.156250
1312,-35.156250
1313,-35.156250
1314,-35.156250
1315,-37.109375
1316,-37.109375
1317,-37.109375
1318,-37.109375
1319,-37.109375
1320,-37.109375
1321,-37.109375
1322,-37.109375
1323,-37.109375
1324,-39.062500
1325,-39.062500
1326,-39.062500
1327,-39.062500
1328,-39.062500
1329,-39.062500
1330,-39.062500
1331,-39.062500
1332,-39.062500
1333,-39.062500
1334,-39.062500
1335,-41.015625
1336,-41.015625
1337,-41.015625
1338,-41.015625
1339,-41.015625
1340,-41.015625
1341,-41.015625
1342,-41.015625
1343,-41.015625
1344,-42.968750
1345,-42.968750
1346,-42.968750
1347,-42.968750
1348,-42.968750
1349,-42.968750
1350,-42.968750
1351,-42.968750
1352,-42.968750
1353,-42.968750
1354,-42.968750
1355,-42.968750
1356,-42.968750
1357,-42.968750
1358,-44.921875
1359,-44.921875
1360,-44.921875
1361,-44.921875
1362,-44.921875
1363,-44.921875
1364,-44.921875
1365,-46.875000
1366,-44.921875
1367,-44.921875
1368,-44.921875
1369,-44.921875
1370,-44.921875
1371,-44.921875
1372,-44.921875
1373,-46.875000
1374,-46.875000
1375,-44.921875
1376,-44.921875
1377,-44.921875
1378,-44.921875
1379,-46.875000
1380,-46.875000
1381,-44.921875
1382,-44.921875
1383,-44.921875
1384,-46.875000
1385,-44.921875
1386,-44.921875
1387,-44.921875
1388,-44.921875
1389,-44.921875
1390,-44.921875
1391,-44.921875
1392,-44.921875
1393,-44.921875
1394,-44.921875
1395,-44.921875
1396,-44.921875
1397,-44.921875
1398,-44.921875
1399,-44.921875
1400,-44.921875
1401,-44.921875
1402,-44.921875
1403,-44.921875
1404,-44.921875
1405,-44.921875
1406,-44.921875
1407,-44.921875
1408,-44.921875
1409,-44.921875
1410,-44.921875
1411,-42.968750
1412,-44.921875
1413,-44.921875
1414,-42.968750
1415,-44.921875
1416,-44.921875
1417,-42.968750
1418,-42.968750
1419,-42.968750
1420,-42.968750
1421,-42.968750
1422,-42.968750
1423,-42.968750
1424,-42.968750
1425,-42.968750
1426,-42.968750
1427,-41.015625
1428,-42.968750
1429,-41.015625
1430,-41.015625
1431,-41.015625
1432,-41.015625
1433,-41.015625
1434,-41.015625
1435,-41.015625
1436,-41.015625
1437,-41.015625
1438,-39.062500
1439,-39.062500
1440,-39.062500
1441,-39.062500
1442,-39.062500
1443,-39.062500
1444,-39.062500
1445,-37.109375
1446,-37.109375
1447,-37.109375
1448,-37.109375
1449,-37.109375
1450,-37.109375
1451,-37.109375
1452,-35.156250
1453,-35.156250
1454,-35.156250
1455,-33.203125
1456,-35.156250
1457,-33.203125
1458,-33.203125
1459,-33.203125
1460,-33.203125
1461,-33.203125
1462,-31.250000
1463,-31.250000
1464,-31.250000
1465,-31.250000
1466,-31.250000
1467,-31.250000
1468,-29.296875
1469,-29.296875
1470,-29.296875
1471,-29.296875
1472,-27.343750
1473,-27.343750
1474,-27.343750
1475,-27.343750
1476,-27.343750
1477,-25.390625
1478,-27.343750
1479,-25.390625
1480,-25.390625
1481,-25.390625
1482,-25.390625
1483,-23.437500
1484,-23.437500
1485,-23.437500
1486,-23.437500
1487,-23.437500
1488,-23.437500
1489,-23.437500
1490,-21.484375
1491,-21.484375
1492,-19.531250
1493,-19.531250
1494,-19.531250
1495,-19.531250
1496,-19.531250
1497,-19.531250
1498,-17.578125
1499,-17.578125
1500,-17.578125
1501,-17.578125
1502,-17.578125
1503,-17.578125
1504,-15.625000
1505,-15.625000
1506,-15.625000
1507,-13.671875
1508,-13.671875
1509,-13.671875
1510,-13.671875
1511,-11.718750
1512,-11.718750
1513,-11.718750
1514,-11.718750
1515,-11.718750
1516,-11.718750
1517,-9.765625
1518,-9.765625
1519,-9.765625
1520,-9.765625
1521,-9.765625
1522,-7.812500
1523,-7.812500
1524,-7.812500
1525,-7.812500
1526,-7.812500
1527,-5.859375
1528,-5.859375
1529,-5.859375
1530,-5.859375
1531,-5.859375
1532,-5.859375
1533,-3.906250
1534,-3.906250
1535,-3.906250
1536,-3.906250
1537,-1.953125
1538,-3.906250
1539,-1.953125
1540,-3.906250
1541,-3.906250
1542,-1.953125
1543,0.000000
1544,-1.953125
1545,-1.953125
1546,0.000000
1547,0.000000
1548,0.000000
1549,0.000000
1550,0.000000
1551,0.000000
1552,0.000000
1553,1.953125
1554,1.953125
1555,1.953125
1556,1.953125
1557,3.906250
1558,1.953125
1559,3.906250
1560,3.906250
1561,3.906250
1562,3.906250
1563,3.906250
1564,3.906250
1565,5.859375
1566,5.859375
1567,5.859375
1568,5.859375
1569,5.859375
1570,7.812500
1571,5.859375
1572,5.859375
1573,5.859375
1574,7.812500
1575,7.812500
1576,7.812500
1577,7.812500
1578,7.812500
1579,7.812500
1580,7.812500
1581,9.765625
1582,9.765625
1583,9.765625
1584,9.765625
1585,9.765625
1586,9.765625
1587,11.718750
1588,9.765625
1589,11.718750
1590,11.718750
1591,11.718750
1592,11.718750
1593,11.718750
1594,11.718750
1595,11.718750
1596,11.718750
1597,13.671875
1598,13.671875
1599,13.671875
1600,13.671875
1601,13.671875
1602,15.625000
1603,13.671875
1604,13.671875
1605,13.671875
1606,13.671875
1607,13.671875
1608,13.671875
1609,15.625000
1610,15.625000
1611,13.671875
1612,15.625000
1613,15.625000
1614,15.625000
1615,15.625000
1616,15.625000
1617,15.625000
1618,15.625000
1619,15.625000
1620,15.625000
1621,15.625000
1622,17.578125
1623,15.625000
1624,15.625000
1625,17.578125
1626,17.578125
1627,15.625000
1628,17.578125
1629,17.578125
1630,17.578125
1631,17.578125
1632,17.578125
1633,17.578125
1634,17.578125
1635,17.578125
1636,17.578125
1637,19.531250
1638,19.531250
1639,19.531250
1640,17.578125
1641,19.531250
1642,19.531250
1643,19.531250
1644,19.531250
1645,19.531250
1646,19.531250
1647,19.531250
1648,19.531250
1649,19.531250
1650,19.531250
1651,21.484375
1652,21.484375
1653,19.531250
1654,21.484375
1655,19.531250
1656,21.484375
1657,21.484375
1658,21.484375
1659,21.484375
1660,21.484375
1661,21.484375
1662,21.484375
1663,21.484375
1664,21.484375
1665,21.484375
1666,21.484375
1667,21.484375
1668,21.484375
1669,21.484375
1670,23.437500
1671,21.484375
1672,21.484375
1673,23.437500
1674,23.437500
1675,23.437500
1676,21.484375
1677,21.484375
1678,21.484375
1679,21.484375
1680,23.437500
1681,21.484375
1682,21.484375
1683,23.437500
1684,23.437500
1685,23.437500
1686,23.437500
1687,23.437500
1688,21.484375
1689,23.437500
1690,23.437500
1691,23.437500
1692,23.437500
1693,23.437500
1694,23.437500
1695,23.437500
1696,23.437500
1697,23.437500
1698,23.437500
1699,23.437500
1700,23.437500
1701,23.437500
1702,23.437500
1703,25.390625
1704,23.437500
1705,23.437500
1706,23.437500
1707,23.437500
1708,23.437500
1709,23.437500
1710,23.437500
1711,23.437500
1712,23.437500
1713,23.437500
1714,23.437500
1715,23.437500
1716,23.437500
1717,23.437500
1718,23.437500
1719,23.437500
1720,23.437500
1721,23.437500
1722,23.437500
1723,23.437500
1724,23.437500
1725,23.437500
1726,21.484375
1727,21.484375
1728,23.437500
1729,21.484375
1730,21.484375
1731,21.484375
1732,21.484375
1733,21.484375
1734,23.437500
1735,21.484375
1736,21.484375
1737,21.484375
1738,21.484375
1739,21.484375
1740,21.484375
1741,21.484375
1742,19.531250
1743,19.531250
1744,19.531250
1745,19.531250
1746,19.531250
1747,19.531250
1748,17.578125
1749,19.531250
1750,19.531250
1751,17.578125
1752,17.578125
1753,17.578125
1754,17.578125
1755,17.578125
1756,17.578125
1757,17.578125
1758,15.625000
1759,15.625000
1760,15.625000
1761,15.625000
1762,15.625000
1763,15.625000
1764,13.671875
1765,13.671875
1766,13.671875
1767,11.718750
1768,13.671875
1769,13.671875
1770,11.718750
1771,13.671875
1772,11.718750
1773,11.718750
1774,11.718750
1775,11.718750
1776,9.765625
1777,9.765625
1778,9.765625
1779,9.765625
1780,9.765625
1781,9.765625
1782,9.765625
1783,7.812500
1784,7.812500
1785,7.812500
1786,7.812500
1787,7.812500
1788,5.859375
1789,5.859375
1790,5.859375
1791,5.859375
1792,5.859375
1793,5.859375
1794,3.906250
1795,3.906250
1796,1.953125
1797,3.906250
1798,1.953125
1799,1.953125
1800,1.953125
1801,1.953125
1802,1.953125
1803,1.953125
1804,0.000000
1805,0.000000
1806,0.000000
1807,-1.953125
1808,-1.953125
1809,-1.953125
1810,0.000000
1811,-3.906250
1812,-3.906250
1813,-3.906250
1814,-3.906250
1815,-3.906250
1816,-5.859375
1817,-5.859375
1818,-5.859375
1819,-5.859375
1820,-5.859375
1821,-7.812500
1822,-7.812500
1823,-7.812500
1824,-7.812500
1825,-7.812500
1826,-9.765625
1827,-9.765625
1828,-9.765625
1829,-9.765625
1830,-9.765625
1831,-11.718750
1832,-11.718750
1833,-11.718750
1834,-11.718750
1835,-11.718750
1836,-13.671875
1837,-13.671875
1838,-13.671875
1839,-13.671875
1840,-15.625000
1841,-15.625000
1842,-15.625000
1843,-15.625000
1844,-17.578125
1845,-15.625000
1846,-17.578125
1847,-17.578125
1848,-17.578125
1849,-19.531250
1850,-19.531250
1851,-19.531250
1852,-19.531250
1853,-19.531250
1854,-19.531250
1855,-21.484375
1856,-21.484375
1857,-21.484375
1858,-21.484375
1859,-23.437500
1860,-23.437500
1861,-23.437500
1862,-23.437500
1863,-25.390625
1864,-23.437500
1865,-25.390625
1866,-25.390625
1867,-25.390625
1868,-25.390625
1869,-27.343750
1870,-27.343750
1871,-27.343750
1872,-27.343750
1873,-29.296875
1874,-29.296875
1875,-29.296875
1876,-29.296875
1877,-29.296875
1878,-29.296875
1879,-31.250000
1880,-31.250000
1881,-31.250000
1882,-31.250000
1883,-31.250000
1884,-31.250000
1885,-33.203125
1886,-33.203125
1887,-33.203125
1888,-33.203125
1889,-35.156250
1890,-35.156250
1891,-33.203125
1892,-35.156250
1893,-37.109375
1894,-35.156250
1895,-35.156250
1896,-37.109375
1897,-35.156250
1898,-35.156250
1899,-37.109375
1900,-37.109375
1901,-35.156250
1902,-37.109375
1903,-37.109375
1904,-37.109375
1905,-39.062500
1906,-39.062500
1907,-39.062500
1908,-37.109375
1909,-39.062500
1910,-39.062500
1911,-39.062500
1912,-39.062500
1913,-41.015625
1914,-39.062500
1915,-41.015625
1916,-41.015625
1917,-41.015625
1918,-41.015625
1919,-41.015625
1920,-41.015625
1921,-41.015625
1922,-41.015625
1923,-41.015625
1924,-41.015625
1925,-42.968750
1926,-42.968750
1927,-42.968750
1928,-42.968750
1929,-42.968750
1930,-42.968750
1931,-42.968750
1932,-42.968750
1933,-44.921875
1934,-42.968750
1935,-42.968750
1936,-42.968750
1937,-44.921875
1938,-44.921875
1939,-42.968750
1940,-44.921875
1941,-44.921875
1942,-42.968750
1943,-44.921875
1944,-44.921875
1945,-44.921875
1946,-44.921875
1947,-46.875000
1948,-44.921875
1949,-44.921875
1950,-46.875000
1951,-46.875000
1952,-44.921875
1953,-44.921875
1954,-46.875000
1955,-44.921875
1956,-46.875000
1957,-44.921875
1958,-44.921875
1959,-46.875000
1960,-46.875000
1961,-44.921875
1962,-42.968750
1963,-46.875000
1964,-46.875000
1965,-46.875000
1966,-46.875000
1967,-44.921875
1968,-46.875000
1969,-46.875000
1970,-46.875000
1971,-44.921875
1972,-44.921875
1973,-44.921875
1974,-46.875000
1975,-46.875000
1976,-44.921875
1977,-44.921875
1978,-44.921875
1979,-46.875000
1980,-44.921875
1981,-44.921875
1982,-44.921875
1983,-44.921875
1984,-44.921875
1985,-44.921875
1986,-44.921875
1987,-44.921875
1988,-44.921875
1989,-44.921875
1990,-44.921875
1991,-44.921875
1992,-44.921875
1993,-44.921875
1994,-42.968750
1995,-44.921875
1996,-42.968750
1997,-42.968750
1998,-42.968750
1999,-44.921875
2000,-42.968750
2001,-42.968750
2002,-42.968750
2003,-42.968750
2004,-44.921875
2005,-42.968750
2006,-42.968750
2007,-42.968750
2008,-42.968750
2009,-41.015625
2010,-42.968750
2011,-42.968750
2012,-41.015625
2013,-41.015625
2014,-41.015625
2015,-41.015625
2016,-41.015625
2017,-41.015625
2018,-41.015625
2019,-39.062500
2020,-41.015625
2021,-41.015625
2022,-41.015625
2023,-39.062500
2024,-39.062500
2025,-39.062500
2026,-39.062500
2027,-39.062500
2028,-39.062500
2029,-37.109375
2030,-37.109375
2031,-37.109375
2032,-35.156250
2033,-37.109375
2034,-37.109375
2035,-35.156250
2036,-35.156250
2037,-35.156250
2038,-35.156250
2039,-33.203125
2040,-35.156250
2041,-33.203125
2042,-33.203125
2043,-33.203125
2044,-31.250000
2045,-31.250000
2046,-31.250000
2047,-31.250000
2048,-31.250000
2049,-31.250000
2050,-31.250000
2051,-29.296875
2052,-29.296875
2053,-29.296875
2054,-29.296875
2055,-29.296875
2056,-29.296875
2057,-27.343750
2058,-27.343750
2059,-27.343750
2060,-27.343750
2061,-25.390625
2062,-27.343750
2063,-25.390625
2064,-23.437500
2065,-25.390625
2066,-23.437500
2067,-23.437500
2068,-23.437500
2069,-23.437500
2070,-21.484375
2071,-21.484375
2072,-21.484375
2073,-21.484375
2074,-21.484375
2075,-19.531250
2076,-19.531250
2077,-19.531250
2078,-19.531250
2079,-19.531250
2080,-17.578125
2081,-17.578125
2082,-17.578125
2083,-17.578125
2084,-17.578125
2085,-17.578125
2086,-15.625000
2087,-15.625000
2088,-15.625000
2089,-13.671875
2090,-13.671875
2091,-13.671875
2092,-13.671875
2093,-13.671875
2094,-11.718750
2095,-11.718750
2096,-13.671875
2097,-11.718750
2098,-9.765625
2099,-9.765625
2100,-9.765625
2101,-9.765625
2102,-9.765625
2103,-9.765625
2104,-7.812500
2105,-7.812500
2106,-7.812500
2107,-7.812500
2108,-5.859375
2109,-5.859375
2110,-5.859375
2111,-5.859375
2112,-5.859375
2113,-5.859375
2114,-5.859375
2115,-3.906250
2116,-3.906250
2117,-3.906250
2118,-3.906250
2119,-3.906250
2120,-1.953125
2121,-1.953125
2122,-1.953125
2123,-1.953125
2124,-1.953125
2125,-1.953125
2126,-1.953125
2127,-1.953125
2128,0.000000
2129,0.000000
2130,0.000000
2131,0.000000
2132,0.000000
2133,0.000000
2134,1.953125
2135,1.953125
2136,1.953125
2137,1.953125
2138,1.953125
2139,1.953125
2140,1.953125
2141,3.906250
2142,3.906250
2143,3.906250
2144,3.906250
2145,3.906250
2146,5.859375
2147,3.906250
2148,5.859375
2149,5.859375
2150,5.859375
2151,5.859375
2152,5.859375
2153,5.859375
2154,7.812500
2155,7.812500
2156,7.812500
2157,7.812500
2158,7.812500
2159,7.812500
2160,9.765625
2161,7.812500
2162,9.765625
2163,9.765625
2164,9.765625
2165,9.765625
2166,9.765625
2167,9.765625
2168,9.765625
2169,9.765625
2170,9.765625
2171,11.718750
2172,11.718750
2173,11.718750
2174,11.718750
2175,11.718750
2176,11.718750
2177,11.718750
2178,11.718750
2179,13.671875
2180,13.671875
2181,13.671875
2182,13.671875
2183,13.671875
2184,13.671875
2185,13.671875
2186,13.671875
2187,13.671875
2188,13.671875
2189,13.671875
2190,15.625000
2191,13.671875
2192,13.671875
2193,15.625000
2194,15.625000
2195,15.625000
2196,15.625000
2197,15.625000
2198,15.625000
2199,15.625000
2200,15.625000
2201,15.625000
2202,15.625000
2203,17.578125
2204,17.578125
2205,17.578125
2206,17.578125
2207,17.578125
2208,17.578125
2209,17.578125
2210,17.578125
2211,17.578125
2212,17.578125
2213,17.578125
2214,17.578125
2215,17.578125
2216,17.578125
2217,17.578125
2218,19.531250
2219,19.531250
2220,19.531250
2221,19.531250
2222,19.531250
2223,19.531250
2224,19.531250
2225,17.578125
2226,19.531250
2227,19.531250
2228,19.531250
2229,19.531250
2230,21.484375
2231,19.531250
2232,19.531250
2233,21.484375
2234,21.484375
2235,19.531250
2236,19.531250
2237,21.484375
2238,21.484375
2239,21.484375
2240,21.484375
2241,21.484375
2242,21.484375
2243,21.484375
2244,21.484375
2245,21.484375
2246,21.484375
2247,21.484375
2248,21.484375
2249,21.484375
2250,21.484375
2251,21.484375
2252,21.484375
2253,21.484375
2254,21.484375
2255,21.484375
2256,21.484375
2257,23.437500
2258,21.484375
2259,21.484375
2260,21.484375
2261,21.484375
2262,23.437500
2263,23.437500
2264,23.437500
2265,21.484375
2266,23.437500
2267,23.437500
2268,23.437500
2269,23.437500
2270,21.484375
2271,23.437500
2272,23.437500
2273,23.437500
2274,23.437500
2275,23.437500
2276,23.437500
2277,23.437500
2278,23.437500
2279,23.437500
2280,23.437500
2281,23.437500
2282,23.437500
2283,21.484375
2284,23.437500
2285,23.437500
2286,23.437500
2287,23.437500
2288,23.437500
2289,23.437500
2290,23.437500
2291,23.437500
2292,23.437500
2293,23.437500
2294,23.437500
2295,23.437500
2296,23.437500
2297,23.437500
2298,23.437500
2299,23.437500
2300,23.437500
2301,23.437500
2302,23.437500
2303,23.437500
2304,23.437500
2305,23.437500
2306,23.437500
2307,21.484375
2308,21.484375
2309,23.437500
2310,21.484375
2311,21.484375
2312,23.437500
2313,23.437500
2314,21.484375
2315,21.484375
2316,21.484375
2317,21.484375
2318,21.484375
2319,21.484375
2320,21.484375
2321,21.484375
2322,19.531250
2323,19.531250
2324,19.531250
2325,19.531250
2326,19.531250
2327,19.531250
2328,19.531250
2329,19.531250
2330,19.531250
2331,17.578125
2332,17.578125
2333,17.578125
2334,17.578125
2335,17.578125
2336,17.578125
2337,17.578125
2338,17.578125
2339,17.578125
2340,17.578125
2341,15.625000
2342,15.625000
2343,15.625000
2344,15.625000
2345,15.625000
2346,15.625000
2347,13.671875
2348,13.671875
2349,13.671875
2350,9.765625
2351,13.671875
2352,13.671875
2353,11.718750
2354,11.718750
2355,11.718750
2356,11.718750
2357,11.718750
2358,11.718750
2359,11.718750
2360,9.765625
2361,9.765625
2362,9.765625
2363,9.765625
2364,9.765625
2365,9.765625
2366,7.812500
2367,7.812500
2368,7.812500
2369,7.812500
2370,5.859375
2371,5.859375
2372,5.859375
2373,5.859375
2374,5.859375
2375,3.906250
2376,3.906250
2377,3.906250
2378,3.906250
2379,3.906250
2380,3.906250
2381,1.953125
2382,1.953125
2383,1.953125
2384,1.953125
2385,0.000000
2386,0.000000
2387,0.000000
2388,0.000000
2389,1.953125
2390,-1.953125
2391,-1.953125
2392,-1.953125
2393,-1.953125
2394,-3.906250
2395,-3.906250
2396,-3.906250
2397,-5.859375
2398,-3.906250
2399,-3.906250
2400,-5.859375
2401,-5.859375
2402,-5.859375
2403,-7.812500
2404,-7.812500
2405,-7.812500
2406,-7.812500
2407,-7.812500
2408,-9.765625
2409,-9.765625
2410,-9.765625
2411,-9.765625
2412,-11.718750
2413,-11.718750
2414,-11.718750
2415,-11.718750
2416,-11.718750
2417,-13.671875
2418,-13.671875
2419,-13.671875
2420,-13.671875
2421,-13.671875
2422,-13.671875
2423,-13.671875
2424,-15.625000
2425,-15.625000
2426,-15.625000
2427,-17.578125
2428,-17.578125
2429,-17.578125
2430,-17.578125
2431,-17.578125
2432,-17.578125
2433,-19.531250
2434,-19.531250
2435,-19.531250
2436,-19.531250
2437,-21.484375
2438,-21.484375
2439,-21.484375
2440,-21.484375
2441,-21.484375
2442,-21.484375
2443,-23.437500
2444,-23.437500
2445,-23.437500
2446,-25.390625
2447,-23.437500
2448,-25.390625
2449,-25.390625
2450,-27.343750
2451,-27.343750
2452,-27.343750
2453,-27.343750
2454,-27.343750
2455,-27.343750
2456,-27.343750
2457,-29.296875
2458,-29.296875
2459,-29.296875
2460,-29.296875
2461,-31.250000
2462,-31.250000
2463,-31.250000
2464,-31.250000
2465,-31.250000
2466,-33.203125
2467,-33.203125
2468,-31.250000
2469,-33.203125
2470,-33.203125
2471,-33.203125
2472,-33.203125
2473,-33.203125
2474,-35.156250
2475,-35.156250
2476,-35.156250
2477,-35.156250
2478,-35.156250
2479,-37.109375
2480,-35.156250
2481,-37.109375
2482,-37.109375
2483,-37.109375
2484,-37.109375
2485,-37.109375
2486,-37.109375
2487,-37.109375
2488,-37.109375
2489,-37.109375
2490,-39.062500
2491,-39.062500
2492,-39.062500
2493,-37.109375
2494,-39.062500
2495,-39.062500
2496,-39.062500
2497,-39.062500
2498,-41.015625
2499,-41.015625
2500,-41.015625
2501,-41.015625
2502,-41.015625
2503,-41.015625
2504,-41.015625
2505,-42.968750
2506,-41.015625
2507,-41.015625
2508,-42.968750
2509,-42.968750
2510,-42.968750
2511,-42.968750
2512,-42.968750
2513,-42.968750
2514,-42.968750
2515,-42.968750
2516,-42.968750
2517,-42.968750
2518,-42.968750
2519,-42.968750
2520,-44.921875
2521,-42.968750
2522,-44.921875
2523,-44.921875
2524,-44.921875
2525,-44.921875
2526,-44.921875
2527,-44.921875
2528,-44.921875
2529,-44.921875
2530,-44.921875
2531,-44.921875
2532,-44.921875
2533,-44.921875
2534,-44.921875
2535,-44.921875
2536,-44.921875
2537,-44.921875
2538,-44.921875
2539,-44.921875
2540,-46.875000
2541,-44.921875
2542,-46.875000
2543,-44.921875
2544,-44.921875
2545,-44.921875
2546,-46.875000
2547,-44.921875
2548,-44.921875
2549,-44.921875
2550,-46.875000
2551,-44.921875
2552,-44.921875
2553,-44.921875
2554,-46.875000
2555,-44.921875
2556,-44.921875
2557,-44.921875
2558,-46.875000
2559,-44.921875
2560,-44.921875
2561,-44.921875
2562,-44.921875
2563,-44.921875
2564,-46.875000
2565,-44.921875
2566,-44.921875
2567,-44.921875
2568,-46.875000
2569,-44.921875
2570,-44.921875
2571,-44.921875
2572,-44.921875
2573,-44.921875
2574,-44.921875
2575,-44.921875
2576,-44.921875
2577,-44.921875
2578,-44.921875
2579,-44.921875
2580,-42.968750
2581,-44.921875
2582,-42.968750
2583,-42.968750
2584,-44.921875
2585,-42.968750
2586,-42.968750
2587,-42.968750
2588,-41.015625
2589,-42.968750
2590,-42.968750
2591,-41.015625
2592,-41.015625
2593,-41.015625
2594,-41.015625
2595,-42.968750
2596,-41.015625
2597,-41.015625
2598,-41.015625
2599,-41.015625
2600,-41.015625
2601,-39.062500
2602,-39.062500
2603,-39.062500
2604,-39.062500
2605,-39.062500
2606,-39.062500
2607,-39.062500
2608,-39.062500
2609,-39.062500
2610,-37.109375
2611,-37.109375
2612,-37.109375
2613,-37.109375
2614,-37.109375
2615,-35.156250
2616,-35.156250
2617,-35.156250
2618,-35.156250
2619,-35.156250
2620,-33.203125
2621,-33.203125
2622,-33.203125
2623,-33.203125
2624,-33.203125
2625,-33.203125
2626,-31.250000
2627,-31.250000
2628,-31.250000
2629,-31.250000
2630,-31.250000
2631,-31.250000
2632,-29.296875
2633,-29.296875
2634,-29.296875
2635,-27.343750
2636,-29.296875
2637,-29.296875
2638,-27.343750
2639,-27.343750
2640,-27.343750
2641,-25.390625
2642,-25.390625
2643,-27.343750
2644,-25.390625
2645,-25.390625
2646,-25.390625
2647,-23.437500
2648,-23.437500
2649,-23.437500
2650,-23.437500
2651,-23.437500
2652,-21.484375
2653,-21.484375
2654,-21.484375
2655,-21.484375
2656,-21.484375
2657,-19.531250
2658,-19.531250
2659,-19.531250
2660,-17.578125
2661,-19.531250
2662,-19.531250
2663,-17.578125
2664,-17.578125
2665,-15.625000
2666,-17.578125
2667,-17.578125
2668,-15.625000
2669,-15.625000
2670,-15.625000
2671,-13.671875
2672,-13.671875
2673,-13.671875
2674,-13.671875
2675,-13.671875
2676,-11.718750
2677,-11.718750
2678,-11.718750
2679,-9.765625
2680,-11.718750
2681,-9.765625
2682,-9.765625
2683,-11.718750
2684,-9.765625
2685,-9.765625
2686,-7.812500
2687,-7.812500
2688,-7.812500
2689,-7.812500
2690,-7.812500
2691,-5.859375
2692,-5.859375
2693,-5.859375
2694,-5.859375
2695,-5.859375
2696,-3.906250
2697,-3.906250
2698,-3.906250
2699,-3.906250
2700,-3.906250
2701,-1.953125
2702,-3.906250
2703,-3.906250
2704,-1.953125
2705,-1.953125
2706,-1.953125
2707,-1.953125
2708,-1.953125
2709,0.000000
2710,0.000000
2711,0.000000
2712,0.000000
2713,0.000000
2714,0.000000
2715,0.000000
2716,0.000000
2717,1.953125
2718,1.953125
2719,1.953125
2720,1.953125
2721,1.953125
2722,3.906250
2723,1.953125
2724,3.906250
2725,3.906250
2726,3.906250
2727,3.906250
2728,3.906250
2729,5.859375
2730,5.859375
2731,5.859375
2732,5.859375
2733,5.859375
2734,5.859375
2735,7.812500
2736,5.859375
2737,7.812500
2738,7.812500
2739,7.812500
2740,7.812500
2741,7.812500
2742,7.812500
2743,7.812500
2744,7.812500
2745,9.765625
2746,7.812500
2747,9.765625
2748,9.765625
2749,9.765625
2750,9.765625
2751,13.671875
2752,11.718750
2753,9.765625
2754,11.718750
2755,11.718750
2756,11.718750
2757,11.718750
2758,11.718750
2759,11.718750
2760,11.718750
2761,11.718750
2762,11.718750
2763,11.718750
2764,11.718750
2765,13.671875
2766,13.671875
2767,13.671875
2768,13.671875
2769,13.671875
2770,13.671875
2771,13.671875
2772,13.671875
2773,13.671875
2774,13.671875
2775,15.625000
2776,13.671875
2777,17.578125
2778,15.625000
2779,15.625000
2780,15.625000
2781,15.625000
2782,15.625000
2783,15.625000
2784,19.531250
2785,15.625000
2786,15.625000
2787,15.625000
2788,15.625000
2789,15.625000
2790,15.625000
2791,17.578125
2792,17.578125
2793,17.578125
2794,15.625000
2795,17.578125
2796,19.531250
2797,17.578125
2798,17.578125
2799,17.578125
2800,17.578125
2801,17.578125
2802,17.578125
2803,19.531250
2804,17.578125
2805,17.578125
2806,19.531250
2807,19.531250
2808,19.531250
2809,19.531250
2810,19.531250
2811,19.531250
2812,19.531250
2813,19.531250
2814,19.531250
2815,19.531250
2816,19.531250
2817,19.531250
2818,19.531250
2819,19.531250
2820,19.531250
2821,19.531250
2822,19.531250
2823,19.531250
2824,21.484375
2825,21.484375
2826,19.531250
2827,21.484375
2828,21.484375
2829,21.484375
2830,21.484375
2831,21.484375
2832,21.484375
2833,21.484375
2834,21.484375
2835,19.531250
2836,21.484375
2837,21.484375
2838,21.484375
2839,21.484375
2840,21.484375
2841,21.484375
2842,21.484375
2843,23.437500
2844,21.484375
2845,21.484375
2846,21.484375
2847,21.484375
2848,23.437500
2849,21.484375
2850,21.484375
2851,23.437500
2852,23.437500
2853,23.437500
2854,21.484375
2855,23.437500
2856,23.437500
2857,23.437500
2858,23.437500
2859,23.437500
2860,23.437500
2861,23.437500
2862,23.437500
2863,23.437500
2864,23.437500
2865,23.437500
2866,23.437500
2867,23.437500
2868,23.437500
2869,23.437500
2870,23.437500
2871,23.437500
2872,23.437500
2873,23.437500
2874,23.437500
2875,23.437500
2876,23.437500
2877,23.437500
2878,23.437500
2879,23.437500
2880,23.437500
2881,23.437500
2882,23.437500
2883,21.484375
2884,23.437500
2885,23.437500
2886,23.437500
2887,23.437500
2888,21.484375
2889,23.437500
2890,23.437500
2891,21.484375
2892,21.484375
2893,21.484375
2894,21.484375
2895,21.484375
2896,21.484375
2897,21.484375
2898,21.484375
2899,21.484375
2900,21.484375
2901,21.484375
2902,21.484375
2903,21.484375
2904,19.531250
2905,19.531250
2906,19.531250
2907,19.531250
2908,19.531250
2909,19.531250
2910,19.531250
2911,19.531250
2912,19.531250
2913,19.531250
2914,17.578125
2915,17.578125
2916,17.578125
2917,17.578125
2918,17.578125
2919,17.578125
2920,15.625000
2921,17.578125
2922,15.625000
2923,15.625000
2924,15.625000
2925,15.625000
2926,15.625000
2927,15.625000
2928,13.671875
2929,15.625000
2930,13.671875
2931,13.671875
2932,13.671875
2933,13.671875
2934,13.671875
2935,13.671875
2936,13.671875
2937,11.718750
2938,11.718750
2939,11.718750
2940,11.718750
2941,11.718750
2942,9.765625
2943,9.765625
2944,9.765625
2945,9.765625
2946,9.765625
2947,9.765625
2948,7.812500
2949,7.812500
2950,7.812500
2951,7.812500
2952,7.812500
2953,5.859375
2954,5.859375
2955,5.859375
2956,5.859375
2957,5.859375
2958,3.906250
2959,3.906250
2960,3.906250
2961,3.906250
2962,3.906250
2963,3.906250
2964,1.953125
2965,1.953125
2966,1.953125
2967,0.000000
2968,1.953125
2969,0.000000
2970,0.000000
2971,0.000000
2972,0.000000
2973,-1.953125
2974,-1.953125
2975,-1.953125
2976,-1.953125
2977,-1.953125
2978,-3.906250
2979,-3.906250
2980,-3.906250
2981,-3.906250
2982,-5.859375
2983,-3.906250
2984,-5.859375
2985,-5.859375
2986,-7.812500
2987,-7.812500
2988,-7.812500
2989,-9.765625
2990,-9.765625
2991,-9.765625
2992,-9.765625
2993,-9.765625
2994,-9.765625
2995,-9.765625
2996,-11.718750
2997,-11.718750
2998,-11.718750
2999,-11.718750
3000,-11.718750
3001,-13.671875
3002,-13.671875
3003,-13.671875
3004,-13.671875
3005,-15.625000
3006,-15.625000
3007,-15.625000
3008,-15.625000
3009,-15.625000
3010,-15.625000
3011,-17.578125
3012,-17.578125
3013,-17.578125
3014,-17.578125
3015,-17.578125
3016,-19.531250
3017,-19.531250
3018,-21.484375
3019,-19.531250
3020,-19.531250
3021,-21.484375
3022,-21.484375
3023,-21.484375
3024,-21.484375
3025,-23.437500
3026,-23.437500
3027,-23.437500
3028,-25.390625
3029,-25.390625
3030,-23.437500
3031,-25.390625
3032,-25.390625
3033,-25.390625
3034,-27.343750
3035,-27.343750
3036,-27.343750
3037,-27.343750
3038,-27.343750
3039,-29.296875
3040,-27.343750
3041,-29.296875
3042,-29.296875
3043,-29.296875
3044,-31.250000
3045,-31.250000
3046,-31.250000
3047,-31.250000
3048,-31.250000
3049,-31.250000
3050,-33.203125
3051,-33.203125
3052,-33.203125
3053,-33.203125
3054,-33.203125
3055,-33.203125
3056,-33.203125
3057,-35.156250
3058,-35.156250
3059,-35.156250
3060,-35.156250
3061,-35.156250
3062,-35.156250
3063,-35.156250
3064,-35.156250
3065,-37.109375
3066,-37.109375
3067,-37.109375
3068,-37.109375
3069,-37.109375
3070,-37.109375
3071,-37.109375
3072,-37.109375
3073,-39.062500
3074,-39.062500
3075,-39.062500
3076,-39.062500
3077,-39.062500
3078,-39.062500
3079,-39.062500
3080,-41.015625
3081,-41.015625
3082,-41.015625
3083,-41.015625
3084,-41.015625
3085,-41.015625
3086,-41.015625
3087,-41.015625
3088,-41.015625
3089,-41.015625
3090,-41.015625
3091,-41.015625
3092,-42.968750
3093,-42.968750
3094,-42.968750
3095,-42.968750
3096,-41.015625
3097,-42.968750
3098,-42.968750
3099,-42.968750
3100,-42.968750
3101,-42.968750
3102,-42.968750
3103,-42.968750
3104,-44.921875
3105,-44.921875
3106,-42.968750
3107,-44.921875
3108,-42.968750
3109,-44.921875
3110,-44.921875
3111,-44.921875
3112,-42.968750
3113,-44.921875
3114,-44.921875
3115,-44.921875
3116,-44.921875
3117,-44.921875
3118,-44.921875
3119,-44.921875
3120,-44.921875
3121,-46.875000
3122,-44.921875
3123,-44.921875
3124,-44.921875
3125,-44.921875
3126,-44.921875
3127,-44.921875
3128,-46.875000
3129,-46.875000
3130,-44.921875
3131,-44.921875
3132,-44.921875
3133,-44.921875
3134,-44.921875
3135,-44.921875
3136,-44.921875
3137,-44.921875
3138,-44.921875
3139,-44.921875
3140,-44.921875
3141,-44.921875
3142,-44.921875
3143,-44.921875
3144,-44.921875
3145,-44.921875
3146,-44.921875
3147,-44.921875
3148,-44.921875
3149,-44.921875
3150,-44.921875
3151,-44.921875
3152,-44.921875
3153,-44.921875
3154,-44.921875
3155,-44.921875
3156,-44.921875
3157,-42.968750
3158,-42.968750
3159,-42.968750
3160,-42.968750
3161,-44.921875
3162,-44.921875
3163,-42.968750
3164,-42.968750
3165,-42.968750
3166,-42.968750
3167,-42.968750
3168,-42.968750
3169,-42.968750
3170,-42.968750
3171,-42.968750
3172,-42.968750
3173,-41.015625
3174,-42.968750
3175,-41.015625
3176,-41.015625
3177,-41.015625
3178,-41.015625
3179,-41.015625
3180,-41.015625
3181,-41.015625
3182,-41.015625
3183,-41.015625
3184,-41.015625
3185,-39.062500
3186,-39.062500
3187,-39.062500
3188,-39.062500
3189,-39.062500
3190,-37.109375
3191,-37.109375
3192,-37.109375
3193,-37.109375
3194,-37.109375
3195,-37.109375
3196,-37.109375
3197,-35.156250
3198,-35.156250
3199,-35.156250
3200,-35.156250
3201,-35.156250
3202,-33.203125
3203,-35.156250
3204,-33.203125
3205,-33.203125
3206,-33.203125
3207,-33.203125
3208,-33.203125
3209,-31.250000
3210,-31.250000
3211,-31.250000
3212,-31.250000
3213,-31.250000
3214,-29.296875
3215,-29.296875
3216,-29.296875
3217,-27.343750
3218,-27.343750
3219,-27.343750
3220,-27.343750
3221,-27.343750
3222,-27.343750
3223,-27.343750
3224,-25.390625
3225,-25.390625
3226,-25.390625
3227,-25.390625
3228,-23.437500
3229,-23.437500
3230,-23.437500
3231,-23.437500
3232,-23.437500
3233,-23.437500
3234,-23.437500
3235,-21.484375
3236,-21.484375
3237,-21.484375
3238,-21.484375
3239,-19.531250
3240,-19.531250
3241,-19.531250
3242,-19.531250
3243,-19.531250
3244,-17.578125
3245,-17.578125
3246,-17.578125
3247,-17.578125
3248,-15.625000
3249,-15.625000
3250,-15.625000
3251,-15.625000
3252,-15.625000
3253,-13.671875
3254,-13.671875
3255,-13.671875
3256,-13.671875
3257,-11.718750
3258,-11.718750
3259,-11.718750
3260,-11.718750
3261,-11.718750
3262,-11.718750
3263,-9.765625
3264,-9.765625
3265,-9.765625
3266,-9.765625
3267,-9.765625
3268,-7.812500
3269,-7.812500
3270,-7.812500
3271,-7.812500
3272,-7.812500
3273,-7.812500
3274,-5.859375
3275,-5.859375
3276,-5.859375
3277,-5.859375
3278,-5.859375
3279,-3.906250
3280,-3.906250
3281,-3.906250
3282,-1.953125
3283,-3.906250
3284,-3.906250
3285,-1.953125
3286,-1.953125
3287,-1.953125
3288,-1.953125
3289,-1.953125
3290,-1.953125
3291,-1.953125
3292,-1.953125
3293,0.000000
3294,0.000000
3295,0.000000
3296,0.000000
3297,1.953125
3298,1.953125
3299,0.000000
3300,1.953125
3301,1.953125
3302,1.953125
3303,1.953125
3304,1.953125
3305,3.906250
3306,1.953125
3307,3.906250
3308,3.906250
3309,3.906250
3310,3.906250
3311,3.906250
3312,3.906250
3313,5.859375
3314,5.859375
3315,5.859375
3316,5.859375
3317,5.859375
3318,5.859375
3319,7.812500
3320,7.812500
3321,7.812500
3322,7.812500
3323,5.859375
3324,7.812500
3325,7.812500
3326,9.765625
3327,9.765625
3328,9.765625
3329,9.765625
3330,9.765625
3331,9.765625
3332,9.765625
3333,11.718750
3334,11.718750
3335,9.765625
3336,9.765625
3337,11.718750
3338,11.718750
3339,11.718750
3340,11.718750
3341,11.718750
3342,11.718750
3343,11.718750
3344,11.718750
3345,11.718750
3346,11.718750
3347,13.671875
3348,13.671875
3349,13.671875
3350,13.671875
3351,13.671875
3352,13.671875
3353,13.671875
3354,13.671875
3355,13.671875
3356,13.671875
3357,15.625000
3358,13.671875
3359,15.625000
3360,13.671875
3361,15.625000
3362,15.625000
3363,15.625000
3364,15.625000
3365,15.625000
3366,15.625000
3367,15.625000
3368,15.625000
3369,15.625000
3370,15.625000
3371,17.578125
3372,15.625000
3373,15.625000
3374,15.625000
3375,17.578125
3376,17.578125
3377,17.578125
3378,17.578125
3379,17.578125
3380,17.578125
3381,17.578125
3382,17.578125
3383,17.578125
3384,17.578125
3385,17.578125
3386,17.578125
3387,17.578125
3388,19.531250
3389,19.531250
3390,19.531250
3391,17.578125
3392,19.531250
3393,19.531250
3394,19.531250
3395,19.531250
3396,19.531250
3397,19.531250
3398,19.531250
3399,19.531250
3400,19.531250
3401,19.531250
3402,19.531250
3403,19.531250
3404,19.531250
3405,19.531250
3406,21.484375
3407,19.531250
3408,21.484375
3409,21.484375
3410,21.484375
3411,21.484375
3412,21.484375
3413,21.484375
3414,21.484375
3415,21.484375
3416,21.484375
3417,21.484375
3418,21.484375
3419,21.484375
3420,21.484375
3421,21.484375
3422,21.484375
3423,21.484375
3424,21.484375
3425,21.484375
3426,21.484375
3427,21.484375
3428,21.484375
3429,23.437500
3430,21.484375
3431,21.484375
3432,21.484375
3433,21.484375
3434,21.484375
3435,21.484375
3436,21.484375
3437,23.437500
3438,23.437500
3439,21.484375
3440,23.437500
3441,23.437500
3442,23.437500
3443,23.437500
3444,21.484375
3445,23.437500
3446,23.437500
3447,23.437500
3448,23.437500
3449,23.437500
3450,23.437500
3451,21.484375
3452,23.437500
3453,23.437500
3454,23.437500
3455,23.437500
3456,23.437500
3457,23.437500
3458,23.437500
3459,23.437500
3460,23.437500
3461,23.437500
3462,23.437500
3463,23.437500
3464,23.437500
3465,23.437500
3466,21.484375
3467,23.437500
3468,23.437500
3469,23.437500
3470,23.437500
3471,21.484375
3472,23.437500
3473,21.484375
3474,21.484375
3475,21.484375
3476,21.484375
3477,23.437500
3478,21.484375
3479,21.484375
3480,21.484375
3481,21.484375
3482,21.484375
3483,21.484375
3484,21.484375
3485,19.531250
3486,21.484375
3487,19.531250
3488,19.531250
3489,19.531250
3490,19.531250
3491,19.531250
3492,19.531250
3493,19.531250
3494,19.531250
3495,19.531250
3496,17.578125
3497,17.578125
3498,15.625000
3499,17.578125
3500,17.578125
3501,17.578125
3502,17.578125
3503,15.625000
3504,17.578125
3505,15.625000
3506,15.625000
3507,15.625000
3508,15.625000
3509,15.625000
3510,15.625000
3511,15.625000
3512,15.625000
3513,13.671875
3514,13.671875
3515,13.671875
3516,13.671875
3517,13.671875
3518,11.718750
3519,11.718750
3520,11.718750
3521,11.718750
3522,11.718750
3523,11.718750
3524,11.718750
3525,9.765625
3526,9.765625
3527,9.765625
3528,9.765625
3529,9.765625
3530,9.765625
3531,7.812500
3532,7.812500
3533,7.812500
3534,7.812500
3535,5.859375
3536,5.859375
3537,5.859375
3538,5.859375
3539,5.859375
3540,3.906250
3541,3.906250
3542,3.906250
3543,3.906250
3544,3.906250
3545,3.906250
3546,1.953125
3547,1.953125
3548,1.953125
3549,0.000000
3550,0.000000
3551,0.000000
3552,0.000000
3553,0.000000
3554,-1.953125
3555,-1.953125
3556,-1.953125
3557,-1.953125
3558,-1.953125
3559,-3.906250
3560,-3.906250
3561,-3.906250
3562,-3.906250
3563,-3.906250
3564,-5.859375
3565,-5.859375
3566,-5.859375
3567,-5.859375
3568,-7.812500
3569,-7.812500
3570,-7.812500
3571,-7.812500
3572,-7.812500
3573,-7.812500
3574,-9.765625
3575,-9.765625
3576,-9.765625
3577,-9.765625
3578,-11.718750
3579,-11.718750
3580,-11.718750
3581,-11.718750
3582,-11.718750
3583,-11.718750
3584,-13.671875
3585,-13.671875
3586,-13.671875
3587,-13.671875
3588,-13.671875
3589,-15.625000
3590,-15.625000
3591,-15.625000
3592,-15.625000
3593,-17.578125
3594,-17.578125
3595,-17.578125
3596,-17.578125
3597,-19.531250
3598,-19.531250
3599,-19.531250
3600,-19.531250
3601,-19.531250
3602,-19.531250
3603,-21.484375
3604,-21.484375
3605,-21.484375
3606,-21.484375
3607,-23.437500
3608,-23.437500
3609,-23.437500
3610,-23.437500
3611,-23.437500
3612,-23.437500
3613,-25.390625
3614,-25.390625
3615,-25.390625
3616,-25.390625
3617,-27.343750
3618,-27.343750
3619,-27.343750
3620,-27.343750
3621,-29.296875
3622,-29.296875
3623,-29.296875
3624,-29.296875
3625,-29.296875
3626,-29.296875
3627,-31.250000
3628,-31.250000
3629,-31.250000
3630,-31.250000
3631,-31.250000
3632,-33.203125
3633,-31.250000
3634,-33.203125
3635,-33.203125
3636,-33.203125
3637,-33.203125
3638,-33.203125
3639,-33.203125
3640,-35.156250
3641,-35.156250
3642,-35.156250
3643,-35.156250
3644,-35.156250
3645,-37.109375
3646,-37.109375
3647,-37.109375
3648,-37.109375
3649,-37.109375
3650,-37.109375
3651,-37.109375
3652,-39.062500
3653,-37.109375
3654,-37.109375
3655,-39.062500
3656,-39.062500
3657,-39.062500
3658,-39.062500
3659,-39.062500
3660,-39.062500
3661,-39.062500
3662,-39.062500
3663,-41.015625
3664,-41.015625
3665,-41.015625
3666,-41.015625
3667,-41.015625
3668,-41.015625
3669,-41.015625
3670,-41.015625
3671,-42.968750
3672,-42.968750
3673,-42.968750
3674,-42.968750
3675,-42.968750
3676,-42.968750
3677,-42.968750
3678,-42.968750
3679,-42.968750
3680,-42.968750
3681,-42.968750
3682,-42.968750
3683,-42.968750
3684,-44.921875
3685,-44.921875
3686,-42.968750
3687,-44.921875
3688,-44.921875
3689,-44.921875
3690,-44.921875
3691,-44.921875
3692,-44.921875
3693,-44.921875
3694,-44.921875
3695,-44.921875
3696,-44.921875
3697,-44.921875
3698,-44.921875
3699,-44.921875
3700,-44.921875
3701,-44.921875
3702,-44.921875
3703,-46.875000
3704,-44.921875
3705,-48.828125
3706,-44.921875
3707,-46.875000
3708,-44.921875
3709,-44.921875
3710,-44.921875
3711,-44.921875
3712,-44.921875
3713,-44.921875
3714,-46.875000
3715,-44.921875
3716,-44.921875
3717,-46.875000
3718,-46.875000
3719,-44.921875
3720,-44.921875
3721,-46.875000
3722,-44.921875
3723,-46.875000
3724,-44.921875
3725,-44.921875
3726,-44.921875
3727,-44.921875
3728,-44.921875
3729,-44.921875
3730,-44.921875
3731,-44.921875
3732,-44.921875
3733,-44.921875
3734,-44.921875
3735,-44.921875
3736,-44.921875
3737,-44.921875
3738,-44.921875
3739,-44.921875
3740,-44.921875
3741,-44.921875
3742,-42.968750
3743,-42.968750
3744,-44.921875
3745,-44.921875
3746,-42.968750
3747,-42.968750
3748,-42.968750
3749,-42.968750
3750,-42.968750
3751,-42.968750
3752,-42.968750
3753,-42.968750
3754,-42.968750
3755,-42.968750
3756,-42.968750
3757,-41.015625
3758,-42.968750
3759,-41.015625
3760,-41.015625
3761,-39.062500
3762,-41.015625
3763,-41.015625
3764,-41.015625
3765,-39.062500
3766,-41.015625
3767,-39.062500
3768,-41.015625
3769,-39.062500
3770,-39.062500
3771,-39.062500
3772,-39.062500
3773,-37.109375
3774,-39.062500
3775,-37.109375
3776,-37.109375
3777,-37.109375
3778,-37.109375
3779,-37.109375
3780,-37.109375
3781,-37.109375
3782,-35.156250
3783,-35.156250
3784,-33.203125
3785,-35.156250
3786,-35.156250
3787,-33.203125
3788,-33.203125
3789,-33.203125
3790,-33.203125
3791,-31.250000
3792,-31.250000
3793,-31.250000
3794,-31.250000
3795,-31.250000
3796,-31.250000
3797,-29.296875
3798,-29.296875
3799,-29.296875
3800,-29.296875
3801,-27.343750
3802,-29.296875
3803,-27.343750
3804,-27.343750
3805,-27.343750
3806,-27.343750
3807,-25.390625
3808,-25.390625
3809,-25.390625
3810,-25.390625
3811,-25.390625
3812,-25.390625
3813,-23.437500
3814,-23.437500
3815,-23.437500
3816,-23.437500
3817,-23.437500
3818,-21.484375
3819,-21.484375
3820,-21.484375
3821,-21.484375
3822,-19.531250
3823,-19.531250
3824,-19.531250
3825,-19.531250
3826,-19.531250
3827,-17.578125
3828,-17.578125
3829,-17.578125
3830,-17.578125
3831,-17.578125
3832,-15.625000
3833,-15.625000
3834,-15.625000
3835,-15.625000
3836,-15.625000
3837,-13.671875
3838,-13.671875
3839,-13.671875
3840,-13.671875
3841,-13.671875
3842,-11.718750
3843,-11.718750
3844,-11.718750
3845,-11.718750
3846,-11.718750
3847,-9.765625
3848,-9.765625
3849,-9.765625
3850,-9.765625
3851,-9.765625
3852,-9.765625
3853,-7.812500
3854,-7.812500
3855,-7.812500
3856,-7.812500
3857,-7.812500
3858,-7.812500
3859,-5.859375
3860,-5.859375
3861,-5.859375
3862,-5.859375
3863,-3.906250
3864,-3.906250
3865,-3.906250
3866,-3.906250
3867,-3.906250
3868,-3.906250
3869,-3.906250
3870,-3.906250
3871,-1.953125
3872,-1.953125
3873,-1.953125
3874,-1.953125
3875,-1.953125
3876,0.000000
3877,0.000000
3878,0.000000
3879,0.000000
3880,0.000000
3881,0.000000
3882,1.953125
3883,1.953125
3884,1.953125
3885,1.953125
3886,1.953125
3887,1.953125
3888,3.906250
3889,1.953125
3890,1.953125
3891,3.906250
3892,3.906250
3893,3.906250
3894,3.906250
3895,3.906250
3896,3.906250
3897,5.859375
3898,3.906250
3899,5.859375
3900,5.859375
3901,5.859375
3902,7.812500
3903,5.859375
3904,5.859375
3905,7.812500
3906,7.812500
3907,5.859375
3908,7.812500
3909,7.812500
3910,7.812500
3911,9.765625
3912,7.812500
3913,7.812500
3914,9.765625
3915,9.765625
3916,9.765625
3917,9.765625
3918,9.765625
3919,9.765625
3920,11.718750
3921,9.765625
3922,11.718750
3923,11.718750
3924,11.718750
3925,11.718750
3926,11.718750
3927,11.718750
3928,11.718750
3929,11.718750
3930,11.718750
3931,13.671875
3932,13.671875
3933,13.671875
3934,13.671875
3935,13.671875
3936,13.671875
3937,13.671875
3938,13.671875
3939,13.671875
3940,13.671875
3941,13.671875
3942,15.625000
3943,15.625000
3944,15.625000
3945,13.671875
3946,15.625000
3947,15.625000
3948,15.625000
3949,15.625000
3950,15.625000
3951,15.625000
3952,17.578125
3953,15.625000
3954,15.625000
3955,15.625000
3956,15.625000
3957,17.578125
3958,17.578125
3959,17.578125
3960,17.578125
3961,15.625000
3962,17.578125
3963,17.578125
3964,17.578125
3965,17.578125
3966,17.578125
3967,17.578125
3968,17.578125
3969,17.578125
3970,19.531250
3971,19.531250
3972,17.578125
3973,19.531250
3974,19.531250
3975,19.531250
3976,19.531250
3977,19.531250
3978,19.531250
3979,19.531250
3980,19.531250
3981,19.531250
3982,19.531250
3983,19.531250
3984,19.531250
3985,21.484375
3986,19.531250
3987,19.531250
3988,19.531250
3989,21.484375
3990,21.484375
3991,21.484375
3992,19.531250
3993,21.484375
3994,21.484375
3995,21.484375
3996,21.484375
3997,21.484375
3998,21.484375
3999,21.484375
4000,21.484375
4001,21.484375
4002,21.484375
4003,21.484375
4004,21.484375
4005,21.484375
4006,21.484375
4007,21.484375
4008,21.484375
4009,21.484375
4010,21.484375
4011,23.437500
4012,21.484375
4013,21.484375
4014,21.484375
4015,23.437500
4016,21.484375
4017,23.437500
4018,21.484375
4019,23.437500
4020,21.484375
4021,21.484375
4022,23.437500
4023,23.437500
4024,21.484375
4025,23.437500
4026,23.437500
4027,23.437500
4028,23.437500
4029,23.437500
4030,23.437500
4031,23.437500
4032,23.437500
4033,23.437500
4034,23.437500
4035,23.437500
4036,23.437500
4037,23.437500
4038,23.437500
4039,23.437500
4040,23.437500
4041,23.437500
4042,23.437500
4043,23.437500
4044,23.437500
4045,23.437500
4046,23.437500
4047,23.437500
4048,23.437500
4049,23.437500
4050,23.437500
4051,23.437500
4052,23.437500
4053,23.437500
4054,23.437500
4055,23.437500
4056,21.484375
4057,23.437500
4058,23.437500
4059,21.484375
4060,21.484375
4061,21.484375
4062,21.484375
4063,21.484375
4064,21.484375
4065,21.484375
4066,21.484375
4067,21.484375
4068,21.484375
4069,19.531250
4070,19.531250
4071,19.531250
4072,19.531250
4073,19.531250
4074,19.531250
4075,19.531250
4076,17.578125
4077,17.578125
4078,19.531250
4079,19.531250
4080,17.578125
4081,17.578125
4082,17.578125
4083,17.578125
4084,17.578125
4085,17.578125
4086,17.578125
4087,15.625000
4088,15.625000
4089,15.625000
4090,15.625000
4091,15.625000
4092,15.625000
4093,15.625000
4094,13.671875
4095,13.671875
4096,13.671875
4097,13.671875
4098,13.671875
4099,13.671875
4100,13.671875
4101,13.671875
4102,11.718750
4103,11.718750
4104,11.718750
4105,11.718750
4106,11.718750
4107,11.718750
4108,9.765625
4109,9.765625
4110,9.765625
4111,9.765625
4112,9.765625
4113,9.765625
4114,7.812500
4115,7.812500
4116,7.812500
4117,7.812500
4118,7.812500
4119,5.859375
4120,7.812500
4121,5.859375
4122,5.859375
4123,5.859375
4124,5.859375
4125,3.906250
4126,3.906250
4127,3.906250
4128,1.953125
4129,1.953125
4130,1.953125
4131,1.953125
4132,0.000000
4133,0.000000
4134,0.000000
4135,0.000000
4136,0.000000
4137,-1.953125
4138,0.000000
4139,-1.953125
4140,-1.953125
4141,-1.953125
4142,0.000000
4143,-3.906250
4144,-3.906250
4145,-3.906250
4146,-3.906250
4147,-5.859375
4148,-5.859375
4149,-5.859375
4150,-5.859375
4151,-7.812500
4152,-7.812500
4153,-7.812500
4154,-7.812500
4155,-7.812500
4156,-9.765625
4157,-9.765625
4158,-9.765625
4159,-9.765625
4160,-9.765625
4161,-9.765625
4162,-11.718750
4163,-11.718750
4164,-11.718750
4165,-11.718750
4166,-11.718750
4167,-11.718750
4168,-13.671875
4169,-13.671875
4170,-15.625000
4171,-15.625000
4172,-15.625000
4173,-15.625000
4174,-15.625000
4175,-15.625000
4176,-17.578125
4177,-17.578125
4178,-17.578125
4179,-17.578125
4180,-17.578125
4181,-17.578125
4182,-19.531250
4183,-19.531250
4184,-21.484375
4185,-21.484375
4186,-21.484375
4187,-19.531250
4188,-21.484375
4189,-21.484375
4190,-23.437500
4191,-23.437500
4192,-23.437500
4193,-23.437500
4194,-25.390625
4195,-25.390625
4196,-25.390625
4197,-25.390625
4198,-25.390625
4199,-25.390625
4200,-27.343750
4201,-27.343750
4202,-27.343750
4203,-27.343750
4204,-27.343750
4205,-27.343750
4206,-29.296875
4207,-29.296875
4208,-29.296875
4209,-31.250000
4210,-31.250000
4211,-31.250000
4212,-31.250000
4213,-31.250000
4214,-31.250000
4215,-33.203125
4216,-31.250000
4217,-33.203125
4218,-33.203125
4219,-33.203125
4220,-33.203125
4221,-33.203125
4222,-35.156250
4223,-35.156250
4224,-35.156250
4225,-35.156250
4226,-35.156250
4227,-35.156250
4228,-37.109375
4229,-37.109375
4230,-37.109375
4231,-37.109375
4232,-37.109375
4233,-37.109375
4234,-37.109375
4235,-37.109375
4236,-37.109375
4237,-39.062500
4238,-39.062500
4239,-39.062500
4240,-39.062500
4241,-39.062500
4242,-39.062500
4243,-39.062500
4244,-39.062500
4245,-41.015625
4246,-41.015625
4247,-41.015625
4248,-41.015625
4249,-41.015625
4250,-41.015625
4251,-41.015625
4252,-41.015625
4253,-41.015625
4254,-41.015625
4255,-42.968750
4256,-41.015625
4257,-41.015625
4258,-42.968750
4259,-42.968750
4260,-42.968750
4261,-42.968750
4262,-42.968750
4263,-42.968750
4264,-44.921875
4265,-42.968750
4266,-44.921875
4267,-44.921875
4268,-44.921875
4269,-44.921875
4270,-42.968750
4271,-44.921875
4272,-44.921875
4273,-44.921875
4274,-44.921875
4275,-44.921875
4276,-44.921875
4277,-44.921875
4278,-44.921875
4279,-44.921875
4280,-46.875000
4281,-44.921875
4282,-44.921875
4283,-46.875000
4284,-44.921875
4285,-44.921875
4286,-44.921875
4287,-44.921875
4288,-46.875000
4289,-44.921875
4290,-44.921875
4291,-46.875000
4292,-46.875000
4293,-44.921875
4294,-46.875000
4295,-44.921875
4296,-46.875000
4297,-46.875000
4298,-46.875000
4299,-44.921875
4300,-46.875000
4301,-44.921875
4302,-46.875000
4303,-46.875000
4304,-44.921875
4305,-46.875000
4306,-46.875000
4307,-44.921875
4308,-46.875000
4309,-44.921875
4310,-44.921875
4311,-46.875000
4312,-44.921875
4313,-44.921875
4314,-46.875000
4315,-44.921875
4316,-44.921875
4317,-46.875000
4318,-44.921875
4319,-44.921875
4320,-44.921875
4321,-44.921875
4322,-44.921875
4323,-44.921875
4324,-44.921875
4325,-44.921875
4326,-44.921875
4327,-44.921875
4328,-44.921875
4329,-44.921875
4330,-42.968750
4331,-44.921875
4332,-44.921875
4333,-44.921875
4334,-42.968750
4335,-42.968750
4336,-42.968750
4337,-42.968750
4338,-42.968750
4339,-42.968750
4340,-42.968750
4341,-42.968750
4342,-42.968750
4343,-42.968750
4344,-42.968750
4345,-41.015625
4346,-41.015625
4347,-42.968750
4348,-41.015625
4349,-41.015625
4350,-39.062500
4351,-39.062500
4352,-39.062500
4353,-41.015625
4354,-39.062500
4355,-39.062500
4356,-39.062500
4357,-39.062500
4358,-37.109375
4359,-37.109375
4360,-37.109375
4361,-37.109375
4362,-37.109375
4363,-37.109375
4364,-35.156250
4365,-37.109375
4366,-35.156250
4367,-35.156250
4368,-35.156250
4369,-35.156250
4370,-35.156250
4371,-33.203125
4372,-33.203125
4373,-33.203125
4374,-33.203125
4375,-33.203125
4376,-31.250000
4377,-31.250000
4378,-31.250000
4379,-31.250000
4380,-31.250000
4381,-29.296875
4382,-29.296875
4383,-29.296875
4384,-29.296875
4385,-29.296875
4386,-29.296875
4387,-29.296875
4388,-29.296875
4389,-27.343750
4390,-27.343750
4391,-25.390625
4392,-27.343750
4393,-25.390625
4394,-25.390625
4395,-23.437500
4396,-25.390625
4397,-25.390625
4398,-23.437500
4399,-23.437500
4400,-23.437500
4401,-23.437500
4402,-23.437500
4403,-21.484375
4404,-21.484375
4405,-21.484375
4406,-21.484375
4407,-21.484375
4408,-19.531250
4409,-19.531250
4410,-19.531250
4411,-19.531250
4412,-17.578125
4413,-17.578125
4414,-17.578125
4415,-17.578125
4416,-15.625000
4417,-17.578125
4418,-15.625000
4419,-15.625000
4420,-13.671875
4421,-15.625000
4422,-13.671875
4423,-13.671875
4424,-13.671875
4425,-13.671875
4426,-11.718750
4427,-13.671875
4428,-11.718750
4429,-11.718750
4430,-9.765625
4431,-9.765625
4432,-9.765625
4433,-9.765625
4434,-9.765625
4435,-9.765625
4436,-7.812500
4437,-9.765625
4438,-7.812500
4439,-7.812500
4440,-5.859375
4441,-5.859375
4442,-5.859375
4443,-5.859375
4444,-5.859375
4445,-5.859375
4446,-5.859375
4447,-5.859375
4448,-3.906250
4449,-3.906250
4450,-3.906250
4451,-3.906250
4452,-3.906250
4453,-3.906250
4454,-1.953125
4455,-1.953125
4456,-1.953125
4457,-1.953125
4458,-1.953125
4459,-1.953125
4460,-1.953125
4461,0.000000
4462,0.000000
4463,0.000000
4464,0.000000
4465,0.000000
4466,1.953125
4467,1.953125
4468,1.953125
4469,1.953125
4470,3.906250
4471,3.906250
4472,1.953125
4473,3.906250
4474,3.906250
4475,3.906250
4476,3.906250
4477,3.906250
4478,3.906250
4479,3.906250
4480,5.859375
4481,5.859375
4482,5.859375
4483,5.859375
4484,5.859375
4485,5.859375
4486,7.812500
4487,7.812500
4488,7.812500
4489,7.812500
4490,7.812500
4491,7.812500
4492,7.812500
4493,9.765625
4494,11.718750
4495,9.765625
4496,9.765625
4497,9.765625
4498,9.765625
4499,9.765625
4500,9.765625
4501,11.718750
4502,11.718750
4503,11.718750
4504,11.718750
4505,11.718750
4506,11.718750
4507,11.718750
4508,11.718750
4509,11.718750
4510,11.718750
4511,11.718750
4512,13.671875
4513,13.671875
4514,13.671875
4515,13.671875
4516,13.671875
4517,13.671875
4518,13.671875
4519,13.671875
4520,13.671875
4521,13.671875
4522,15.625000
4523,15.625000
4524,15.625000
4525,15.625000
4526,15.625000
4527,15.625000
4528,15.625000
4529,15.625000
4530,15.625000
4531,17.578125
4532,17.578125
4533,17.578125
4534,15.625000
4535,17.578125
4536,17.578125
4537,17.578125
4538,15.625000
4539,17.578125
4540,17.578125
4541,17.578125
4542,17.578125
4543,17.578125
4544,17.578125
4545,19.531250
4546,17.578125
4547,17.578125
4548,19.531250
4549,19.531250
4550,19.531250
4551,19.531250
4552,19.531250
4553,19.531250
4554,19.531250
4555,19.531250
4556,19.531250
4557,19.531250
4558,19.531250
4559,19.531250
4560,19.531250
4561,19.531250
4562,19.531250
4563,21.484375
4564,19.531250
4565,21.484375
4566,21.484375
4567,21.484375
4568,19.531250
4569,21.484375
4570,21.484375
4571,21.484375
4572,21.484375
4573,21.484375
4574,21.484375
4575,21.484375
4576,21.484375
4577,21.484375
4578,21.484375
4579,21.484375
4580,21.484375
4581,21.484375
4582,21.484375
4583,21.484375
4584,21.484375
4585,23.437500
4586,23.437500
4587,23.437500
4588,21.484375
4589,23.437500
4590,23.437500
4591,23.437500
4592,23.437500
4593,23.437500
4594,23.437500
4595,23.437500
4596,23.437500
4597,23.437500
4598,23.437500
4599,23.437500
4600,23.437500
4601,23.437500
4602,23.437500
4603,23.437500
4604,23.437500
4605,23.437500
4606,23.437500
4607,23.437500
4608,23.437500
4609,23.437500
4610,23.437500
4611,23.437500
4612,23.437500
4613,23.437500
4614,23.437500
4615,23.437500
4616,23.437500
4617,23.437500
4618,23.437500
4619,23.437500
4620,23.437500
4621,23.437500
4622,23.437500
4623,25.390625
4624,23.437500
4625,23.437500
4626,23.437500
4627,23.437500
4628,23.437500
4629,23.437500
4630,23.437500
4631,23.437500
4632,23.437500
4633,23.437500
4634,23.437500
4635,23.437500
4636,23.437500
4637,23.437500
4638,23.437500
4639,23.437500
4640,23.437500
4641,23.437500
4642,23.437500
4643,23.437500
4644,21.484375
4645,21.484375
4646,23.437500
4647,21.484375
4648,21.484375
4649,21.484375
4650,21.484375
4651,21.484375
4652,21.484375
4653,19.531250
4654,21.484375
4655,19.531250
4656,21.484375
4657,19.531250
4658,19.531250
4659,19.531250
4660,19.531250
4661,19.531250
4662,19.531250
4663,19.531250
4664,17.578125
4665,17.578125
4666,17.578125
4667,17.578125
4668,17.578125
4669,17.578125
4670,15.625000
4671,17.578125
4672,15.625000
4673,17.578125
4674,15.625000
4675,15.625000
4676,15.625000
4677,15.625000
4678,13.671875
4679,15.625000
4680,13.671875
4681,13.671875
4682,13.671875
4683,13.671875
4684,13.671875
4685,13.671875
4686,11.718750
4687,11.718750
4688,11.718750
4689,11.718750
4690,11.718750
4691,9.765625
4692,9.765625
4693,9.765625
4694,9.765625
4695,9.765625
4696,7.812500
4697,7.812500
4698,7.812500
4699,5.859375
4700,7.812500
4701,7.812500
4702,7.812500
4703,5.859375
4704,5.859375
4705,3.906250
4706,5.859375
4707,3.906250
4708,3.906250
4709,3.906250
4710,3.906250
4711,1.953125
4712,1.953125
4713,1.953125
4714,1.953125
4715,1.953125
4716,0.000000
4717,0.000000
4718,0.000000
4719,0.000000
4720,-1.953125
4721,-1.953125
4722,-1.953125
4723,-1.953125
4724,-3.906250
4725,-1.953125
4726,-3.906250
4727,-3.906250
4728,-3.906250
4729,-3.906250
4730,-5.859375
4731,-5.859375
4732,-5.859375
4733,-5.859375
4734,-7.812500
4735,-7.812500
4736,-7.812500
4737,-7.812500
4738,-7.812500
4739,-9.765625
4740,-9.765625
4741,-9.765625
4742,-9.765625
4743,-9.765625
4744,-9.765625
4745,-11.718750
4746,-11.718750
4747,-11.718750
4748,-13.671875
4749,-13.671875
4750,-13.671875
4751,-13.671875
4752,-13.671875
4753,-15.625000
4754,-15.625000
4755,-15.625000
4756,-15.625000
4757,-15.625000
4758,-17.578125
4759,-15.625000
4760,-17.578125
4761,-17.578125
4762,-19.531250
4763,-17.578125
4764,-19.531250
4765,-19.531250
4766,-19.531250
4767,-21.484375
4768,-21.484375
4769,-21.484375
4770,-21.484375
4771,-21.484375
4772,-23.437500
4773,-23.437500
4774,-23.437500
4775,-23.437500
4776,-23.437500
4777,-25.390625
4778,-25.390625
4779,-25.390625
4780,-25.390625
4781,-27.343750
4782,-25.390625
4783,-27.343750
4784,-27.343750
4785,-27.343750
4786,-29.296875
4787,-29.296875
4788,-29.296875
4789,-29.296875
4790,-29.296875
4791,-31.250000
4792,-31.250000
4793,-31.250000
4794,-31.250000
4795,-31.250000
4796,-31.250000
4797,-33.203125
4798,-33.203125
4799,-33.203125
4800,-33.203125
4801,-33.203125
4802,-35.156250
4803,-33.203125
4804,-35.156250
4805,-35.156250
4806,-35.156250
4807,-35.156250
4808,-37.109375
4809,-35.156250
4810,-37.109375
4811,-37.109375
4812,-37.109375
4813,-37.109375
4814,-37.109375
4815,-37.109375
4816,-37.109375
4817,-37.109375
4818,-39.062500
4819,-39.062500
4820,-39.062500
4821,-39.062500
4822,-39.062500
4823,-39.062500
4824,-39.062500
4825,-41.015625
4826,-41.015625
4827,-41.015625
4828,-41.015625
4829,-41.015625
4830,-41.015625
4831,-41.015625
4832,-41.015625
4833,-41.015625
4834,-41.015625
4835,-41.015625
4836,-41.015625
4837,-42.968750
4838,-42.968750
4839,-42.968750
4840,-42.968750
4841,-42.968750
4842,-42.968750
4843,-42.968750
4844,-44.921875
4845,-42.968750
4846,-42.968750
4847,-42.968750
4848,-44.921875
4849,-44.921875
4850,-44.921875
4851,-44.921875
4852,-44.921875
4853,-44.921875
4854,-44.921875
4855,-44.921875
4856,-44.921875
4857,-44.921875
4858,-44.921875
4859,-44.921875
4860,-44.921875
4861,-44.921875
4862,-44.921875
4863,-44.921875
4864,-44.921875
4865,-44.921875
4866,-44.921875
4867,-44.921875
4868,-46.875000
4869,-46.875000
4870,-46.875000
4871,-44.921875
4872,-46.875000
4873,-44.921875
4874,-46.875000
4875,-46.875000
4876,-44.921875
4877,-46.875000
4878,-44.921875
4879,-46.875000
4880,-46.875000
4881,-44.921875
4882,-44.921875
4883,-44.921875
4884,-46.875000
4885,-46.875000
4886,-44.921875
4887,-44.921875
4888,-46.875000
4889,-44.921875
4890,-44.921875
4891,-44.921875
4892,-44.921875
4893,-44.921875
4894,-44.921875
4895,-44.921875
4896,-44.921875
4897,-42.968750
4898,-44.921875
4899,-44.921875
4900,-44.921875
4901,-44.921875
4902,-44.921875
4903,-44.921875
4904,-44.921875
4905,-44.921875
4906,-44.921875
4907,-44.921875
4908,-44.921875
4909,-44.921875
4910,-42.968750
4911,-44.921875
4912,-42.968750
4913,-42.968750
4914,-42.968750
4915,-42.968750
4916,-42.968750
4917,-42.968750
4918,-42.968750
4919,-42.968750
4920,-42.968750
4921,-42.968750
4922,-42.968750
4923,-42.968750
4924,-41.015625
4925,-41.015625
4926,-41.015625
4927,-41.015625
4928,-41.015625
4929,-41.015625
4930,-41.015625
4931,-41.015625
4932,-39.062500
4933,-39.062500
4934,-39.062500
4935,-39.062500
4936,-39.062500
4937,-39.062500
4938,-37.109375
4939,-39.062500
4940,-37.109375
4941,-37.109375
4942,-37.109375
4943,-37.109375
4944,-35.156250
4945,-35.156250
4946,-35.156250
4947,-35.156250
4948,-35.156250
4949,-35.156250
4950,-33.203125
4951,-33.203125
4952,-33.203125
4953,-33.203125
4954,-33.203125
4955,-33.203125
4956,-31.250000
4957,-31.250000
4958,-31.250000
4959,-31.250000
4960,-31.250000
4961,-31.250000
4962,-29.296875
4963,-29.296875
4964,-29.296875
4965,-29.296875
4966,-29.296875
4967,-29.296875
4968,-27.343750
4969,-27.343750
4970,-27.343750
4971,-27.343750
4972,-27.343750
4973,-25.390625
4974,-25.390625
4975,-25.390625
4976,-25.390625
4977,-25.390625
4978,-23.437500
4979,-23.437500
4980,-23.437500
4981,-23.437500
4982,-23.437500
4983,-23.437500
4984,-21.484375
4985,-21.484375
4986,-21.484375
4987,-19.531250
4988,-19.531250
4989,-19.531250
4990,-19.531250
4991,-19.531250
4992,-19.531250
4993,-17.578125
4994,-17.578125
4995,-17.578125
4996,-17.578125
4997,-17.578125
4998,-17.578125
4999,-15.625000
5000,-15.625000
5001,-15.625000
5002,-15.625000
5003,-13.671875
5004,-13.671875
5005,-13.671875
5006,-11.718750
5007,-11.718750
5008,-11.718750
5009,-11.718750
5010,-11.718750
5011,-9.765625
5012,-9.765625
5013,-9.765625
5014,-9.765625
5015,-9.765625
5016,-9.765625
5017,-9.765625
5018,-7.812500
5019,-7.812500
5020,-7.812500
5021,-5.859375
5022,-5.859375
5023,-5.859375
5024,-5.859375
5025,-5.859375
5026,-5.859375
5027,-5.859375
5028,-3.906250
5029,-3.906250
5030,-3.906250
5031,-3.906250
5032,-3.906250
5033,-3.906250
5034,-1.953125
5035,-1.953125
5036,-1.953125
5037,-1.953125
5038,-1.953125
5039,-1.953125
5040,-1.953125
5041,0.000000
5042,0.000000
5043,0.000000
5044,0.000000
5045,0.000000
5046,0.000000
5047,0.000000
5048,1.953125
5049,1.953125
5050,1.953125
5051,1.953125
5052,1.953125
5053,1.953125
5054,3.906250
5055,1.953125
5056,3.906250
5057,3.906250
5058,3.906250
5059,3.906250
5060,3.906250
5061,3.906250
5062,3.906250
5063,5.859375
5064,5.859375
5065,5.859375
5066,5.859375
5067,7.812500
5068,5.859375
5069,9.765625
5070,7.812500
5071,7.812500
5072,7.812500
5073,7.812500
5074,7.812500
5075,9.765625
5076,9.765625
5077,9.765625
5078,9.765625
5079,9.765625
5080,9.765625
5081,9.765625
5082,9.765625
5083,11.718750
5084,11.718750
5085,11.718750
5086,11.718750
5087,11.718750
5088,11.718750
5089,11.718750
5090,11.718750
5091,11.718750
5092,11.718750
5093,13.671875
5094,11.718750
5095,13.671875
5096,13.671875
5097,13.671875
5098,13.671875
5099,13.671875
5100,13.671875
5101,13.671875
5102,13.671875
5103,13.671875
5104,13.671875
5105,13.671875
5106,13.671875
5107,13.671875
5108,15.625000
5109,15.625000
5110,15.625000
5111,15.625000
5112,15.625000
5113,15.625000
5114,15.625000
5115,15.625000
5116,15.625000
5117,17.578125
5118,17.578125
5119,15.625000
5120,17.578125
5121,15.625000
5122,17.578125
5123,17.578125
5124,17.578125
5125,17.578125
5126,17.578125
5127,17.578125
5128,17.578125
5129,17.578125
5130,19.531250
5131,17.578125
5132,19.531250
5133,17.578125
5134,19.531250
5135,19.531250
5136,19.531250
5137,19.531250
5138,19.531250
5139,19.531250
5140,19.531250
5141,19.531250
5142,19.531250
5143,19.531250
5144,19.531250
5145,19.531250
5146,19.531250
5147,21.484375
5148,19.531250
5149,21.484375
5150,21.484375
5151,19.531250
5152,21.484375
5153,21.484375
5154,21.484375
5155,21.484375
5156,21.484375
5157,21.484375
5158,21.484375
5159,21.484375
5160,21.484375
5161,21.484375
5162,21.484375
5163,21.484375
5164,21.484375
5165,21.484375
5166,21.484375
5167,21.484375
5168,21.484375
5169,21.484375
5170,21.484375
5171,21.484375
5172,21.484375
5173,21.484375
5174,21.484375
5175,21.484375
5176,21.484375
5177,21.484375
5178,21.484375
5179,23.437500
5180,23.437500
5181,21.484375
5182,23.437500
5183,23.437500
5184,23.437500
5185,23.437500
5186,23.437500
5187,21.484375
5188,23.437500
5189,23.437500
5190,23.437500
5191,23.437500
5192,23.437500
5193,21.484375
5194,23.437500
5195,23.437500
5196,21.484375
5197,23.437500
5198,23.437500
5199,23.437500
5200,23.437500
5201,23.437500
5202,23.437500
5203,23.437500
5204,23.437500
5205,23.437500
5206,23.437500
5207,23.437500
5208,23.437500
5209,23.437500
5210,23.437500
5211,23.437500
5212,23.437500
5213,23.437500
5214,23.437500
5215,23.437500
5216,23.437500
5217,23.437500
5218,21.484375
5219,23.437500
5220,21.484375
5221,23.437500
5222,21.484375
5223,21.484375
5224,21.484375
5225,21.484375
5226,21.484375
5227,21.484375
5228,21.484375
5229,21.484375
5230,21.484375
5231,21.484375
5232,19.531250
5233,21.484375
5234,21.484375
5235,21.484375
5236,19.531250
5237,19.531250
5238,19.531250
5239,19.531250
5240,17.578125
5241,19.531250
5242,19.531250
5243,19.531250
5244,17.578125
5245,17.578125
5246,17.578125
5247,17.578125
5248,17.578125
5249,17.578125
5250,17.578125
5251,17.578125
5252,15.625000
5253,15.625000
5254,15.625000
5255,15.625000
5256,15.625000
5257,15.625000
5258,15.625000
5259,15.625000
5260,13.671875
5261,13.671875
5262,13.671875
5263,15.625000
5264,13.671875
5265,13.671875
5266,11.718750
5267,11.718750
5268,11.718750
5269,11.718750
5270,11.718750
5271,11.718750
5272,11.718750
5273,9.765625
5274,9.765625
5275,9.765625
5276,9.765625
5277,9.765625
5278,7.812500
5279,7.812500
5280,7.812500
5281,7.812500
5282,7.812500
5283,5.859375
5284,5.859375
5285,5.859375
5286,5.859375
5287,5.859375
5288,3.906250
5289,3.906250
5290,3.906250
5291,3.906250
5292,3.906250
5293,1.953125
5294,1.953125
5295,1.953125
5296,1.953125
5297,0.000000
5298,0.000000
5299,0.000000
5300,0.000000
5301,-1.953125
5302,-1.953125
5303,-1.953125
5304,-1.953125
5305,-1.953125
5306,-1.953125
5307,-3.906250
5308,-3.906250
5309,-3.906250
5310,-3.906250
5311,-3.906250
5312,-5.859375
5313,-5.859375
5314,-5.859375
5315,-5.859375
5316,-7.812500
5317,-7.812500
5318,-7.812500
5319,-7.812500
5320,-7.812500
5321,-9.765625
5322,-7.812500
5323,-9.765625
5324,-9.765625
5325,-9.765625
5326,-9.765625
5327,-11.718750
5328,-11.718750
5329,-11.718750
5330,-11.718750
5331,-11.718750
5332,-13.671875
5333,-13.671875
5334,-13.671875
5335,-13.671875
5336,-15.625000
5337,-15.625000
5338,-15.625000
5339,-15.625000
5340,-17.578125
5341,-17.578125
5342,-17.578125
5343,-17.578125
5344,-17.578125
5345,-19.531250
5346,-19.531250
5347,-17.578125
5348,-19.531250
5349,-21.484375
5350,-21.484375
5351,-19.531250
5352,-21.484375
5353,-21.484375
5354,-23.437500
5355,-23.437500
5356,-23.437500
5357,-23.437500
5358,-23.437500
5359,-25.390625
5360,-25.390625
5361,-25.390625
5362,-25.390625
5363,-25.390625
5364,-27.343750
5365,-27.343750
5366,-27.343750
5367,-27.343750
5368,-27.343750
5369,-29.296875
5370,-29.296875
5371,-29.296875
5372,-29.296875
5373,-29.296875
5374,-31.250000
5375,-31.250000
5376,-31.250000
5377,-31.250000
5378,-31.250000
5379,-33.203125
5380,-31.250000
5381,-33.203125
5382,-31.250000
5383,-33.203125
5384,-33.203125
5385,-35.156250
5386,-33.203125
5387,-33.203125
5388,-35.156250
5389,-35.156250
5390,-35.156250
5391,-35.156250
5392,-35.156250
5393,-35.156250
5394,-37.109375
5395,-37.109375
5396,-37.109375
5397,-37.109375
5398,-37.109375
5399,-37.109375
5400,-37.109375
5401,-39.062500
5402,-39.062500
5403,-39.062500
5404,-37.109375
5405,-39.062500
5406,-39.062500
5407,-39.062500
5408,-39.062500
5409,-39.062500
5410,-39.062500
5411,-41.015625
5412,-41.015625
5413,-41.015625
5414,-41.015625
5415,-41.015625
5416,-41.015625
5417,-41.015625
5418,-41.015625
5419,-41.015625
5420,-41.015625
5421,-42.968750
5422,-42.968750
5423,-41.015625
5424,-42.968750
5425,-42.968750
5426,-42.968750
5427,-42.968750
5428,-42.968750
5429,-42.968750
5430,-42.968750
5431,-42.968750
5432,-42.968750
5433,-42.968750
5434,-44.921875
5435,-42.968750
5436,-44.921875
5437,-42.968750
5438,-44.921875
5439,-44.921875
5440,-44.921875
5441,-44.921875
5442,-44.921875
5443,-44.921875
5444,-44.921875
5445,-44.921875
5446,-44.921875
5447,-44.921875
5448,-44.921875
5449,-44.921875
5450,-44.921875
5451,-44.921875
5452,-44.921875
5453,-44.921875
5454,-44.921875
5455,-44.921875
5456,-44.921875
5457,-44.921875
5458,-44.921875
5459,-44.921875
5460,-44.921875
5461,-44.921875
5462,-44.921875
5463,-44.921875
5464,-44.921875
5465,-44.921875
5466,-44.921875
5467,-44.921875
5468,-44.921875
5469,-44.921875
5470,-44.921875
5471,-44.921875
5472,-44.921875
5473,-44.921875
5474,-44.921875
5475,-44.921875
5476,-44.921875
5477,-44.921875
5478,-44.921875
5479,-44.921875
5480,-44.921875
5481,-44.921875
5482,-44.921875
5483,-44.921875
5484,-44.921875
5485,-44.921875
5486,-42.968750
5487,-44.921875
5488,-44.921875
5489,-42.968750
5490,-42.968750
5491,-44.921875
5492,-42.968750
5493,-42.968750
5494,-42.968750
5495,-42.968750
5496,-42.968750
5497,-42.968750
5498,-42.968750
5499,-42.968750
5500,-41.015625
5501,-42.968750
5502,-42.968750
5503,-42.968750
5504,-41.015625
5505,-42.968750
5506,-41.015625
5507,-41.015625
5508,-41.015625
5509,-41.015625
5510,-41.015625
5511,-39.062500
5512,-41.015625
5513,-41.015625
5514,-41.015625
5515,-39.062500
5516,-39.062500
5517,-39.062500
5518,-39.062500
5519,-39.062500
5520,-39.062500
5521,-39.062500
5522,-37.109375
5523,-37.109375
5524,-37.109375
5525,-37.109375
5526,-37.109375
5527,-37.109375
5528,-35.156250
5529,-37.109375
5530,-35.156250
5531,-35.156250
5532,-35.156250
5533,-35.156250
5534,-33.203125
5535,-33.203125
5536,-31.250000
5537,-33.203125
5538,-31.250000
5539,-33.203125
5540,-31.250000
5541,-31.250000
5542,-29.296875
5543,-31.250000
5544,-29.296875
5545,-29.296875
5546,-29.296875
5547,-29.296875
5548,-29.296875
5549,-27.343750
5550,-29.296875
5551,-29.296875
5552,-25.390625
5553,-27.343750
5554,-27.343750
5555,-25.390625
5556,-25.390625
5557,-25.390625
5558,-25.390625
5559,-25.390625
5560,-25.390625
5561,-23.437500
5562,-23.437500
5563,-23.437500
5564,-23.437500
5565,-21.484375
5566,-21.484375
5567,-21.484375
5568,-21.484375
5569,-19.531250
5570,-21.484375
5571,-19.531250
5572,-21.484375
5573,-19.531250
5574,-19.531250
5575,-17.578125
5576,-17.578125
5577,-17.578125
5578,-17.578125
5579,-17.578125
5580,-15.625000
5581,-15.625000
5582,-15.625000
5583,-15.625000
5584,-13.671875
5585,-17.578125
5586,-13.671875
5587,-13.671875
5588,-13.671875
5589,-13.671875
5590,-13.671875
5591,-11.718750
5592,-11.718750
5593,-9.765625
5594,-11.718750
5595,-9.765625
5596,-9.765625
5597,-9.765625
5598,-9.765625
5599,-9.765625
5600,-7.812500
5601,-7.812500
5602,-7.812500
5603,-7.812500
5604,-5.859375
5605,-7.812500
5606,-5.859375
5607,-5.859375
5608,-5.859375
5609,-5.859375
5610,-3.906250
5611,-3.906250
5612,-3.906250
5613,-3.906250
5614,-3.906250
5615,-3.906250
5616,-3.906250
5617,-1.953125
5618,-1.953125
5619,-3.906250
5620,-1.953125
5621,0.000000
5622,-1.953125
5623,0.000000
5624,-1.953125
5625,0.000000
5626,0.000000
5627,0.000000
5628,0.000000
5629,0.000000
5630,1.953125
5631,1.953125
5632,1.953125
5633,1.953125
5634,1.953125
5635,3.906250
5636,3.906250
5637,5.859375
5638,3.906250
5639,3.906250
5640,3.906250
5641,5.859375
5642,3.906250
5643,5.859375
5644,3.906250
5645,5.859375
5646,5.859375
5647,5.859375
5648,5.859375
5649,5.859375
5650,5.859375
5651,7.812500
5652,1.953125
5653,7.812500
5654,7.812500
5655,7.812500
5656,7.812500
5657,7.812500
5658,9.765625
5659,9.765625
5660,9.765625
5661,9.765625
5662,9.765625
5663,9.765625
5664,9.765625
5665,9.765625
5666,11.718750
5667,11.718750
5668,11.718750
5669,11.718750
5670,11.718750
5671,11.718750
5672,13.671875
5673,11.718750
5674,11.718750
5675,13.671875
5676,13.671875
5677,13.671875
5678,13.671875
5679,13.671875
5680,13.671875
5681,13.671875
5682,13.671875
5683,13.671875
5684,11.718750
5685,13.671875
5686,13.671875
5687,13.671875
5688,13.671875
5689,15.625000
5690,15.625000
5691,15.625000
5692,15.625000
5693,15.625000
5694,15.625000
5695,15.625000
5696,15.625000
5697,15.625000
5698,15.625000
5699,15.625000
5700,17.578125
5701,15.625000
5702,17.578125
5703,17.578125
5704,17.578125
5705,17.578125
5706,17.578125
5707,17.578125
5708,17.578125
5709,17.578125
5710,17.578125
5711,17.578125
5712,17.578125
5713,19.531250
5714,17.578125
5715,19.531250
5716,19.531250
5717,19.531250
5718,19.531250
5719,19.531250
5720,19.531250
5721,19.531250
5722,19.531250
5723,19.531250
5724,19.531250
5725,19.531250
5726,19.531250
5727,19.531250
5728,19.531250
5729,19.531250
5730,19.531250
5731,21.484375
5732,21.484375
5733,21.484375
5734,19.531250
5735,21.484375
5736,21.484375
5737,21.484375
5738,21.484375
5739,21.484375
5740,21.484375
5741,21.484375
5742,21.484375
5743,21.484375
5744,21.484375
5745,21.484375
5746,21.484375
5747,21.484375
5748,21.484375
5749,21.484375
5750,21.484375
5751,21.484375
5752,21.484375
5753,21.484375
5754,21.484375
5755,23.437500
5756,21.484375
5757,23.437500
5758,21.484375
5759,23.437500
5760,21.484375
5761,23.437500
5762,21.484375
5763,23.437500
5764,23.437500
5765,23.437500
5766,21.484375
5767,23.437500
5768,23.437500
5769,23.437500
5770,23.437500
5771,23.437500
5772,21.484375
5773,23.437500
5774,23.437500
5775,23.437500
5776,23.437500
5777,21.484375
5778,23.437500
5779,23.437500
5780,23.437500
5781,23.437500
5782,23.437500
5783,23.437500
5784,23.437500
5785,23.437500
5786,23.437500
5787,23.437500
5788,23.437500
5789,23.437500
5790,23.437500
5791,23.437500
5792,23.437500
5793,23.437500
5794,23.437500
5795,23.437500
5796,23.437500
5797,23.437500
5798,23.437500
5799,23.437500
5800,23.437500
5801,23.437500
5802,23.437500
5803,23.437500
5804,21.484375
5805,23.437500
5806,21.484375
5807,21.484375
5808,21.484375
5809,21.484375
5810,21.484375
5811,21.484375
5812,21.484375
5813,21.484375
5814,21.484375
5815,21.484375
5816,19.531250
5817,19.531250
5818,19.531250
5819,19.531250
5820,19.531250
5821,19.531250
5822,19.531250
5823,19.531250
5824,19.531250
5825,19.531250
5826,17.578125
5827,17.578125
5828,17.578125
5829,17.578125
5830,17.578125
5831,17.578125
5832,17.578125
5833,15.625000
5834,17.578125
5835,17.578125
5836,15.625000
5837,15.625000
5838,15.625000
5839,15.625000
5840,15.625000
5841,15.625000
5842,15.625000
5843,13.671875
5844,13.671875
5845,13.671875
5846,13.671875
5847,13.671875
5848,11.718750
5849,11.718750
5850,11.718750
5851,11.718750
5852,11.718750
5853,9.765625
5854,9.765625
5855,9.765625
5856,9.765625
5857,9.765625
5858,11.718750
5859,9.765625
5860,7.812500
5861,7.812500
5862,7.812500
5863,7.812500
5864,7.812500
5865,7.812500
5866,5.859375
5867,5.859375
5868,5.859375
5869,5.859375
5870,5.859375
5871,3.906250
5872,5.859375
5873,3.906250
5874,3.906250
5875,3.906250
5876,1.953125
5877,1.953125
5878,1.953125
5879,1.953125
5880,0.000000
5881,0.000000
5882,0.000000
5883,0.000000
5884,0.000000
5885,-1.953125
5886,-3.906250
5887,-3.906250
5888,-3.906250
5889,-1.953125
5890,-3.906250
5891,-3.906250
5892,-5.859375
5893,-7.812500
5894,-5.859375
5895,-5.859375
5896,-5.859375
5897,-7.812500
5898,-7.812500
5899,-7.812500
5900,-7.812500
5901,-7.812500
5902,-7.812500
5903,-9.765625
5904,-9.765625
5905,-9.765625
5906,-9.765625
5907,-9.765625
5908,-11.718750
5909,-11.718750
5910,-11.718750
5911,-11.718750
5912,-11.718750
5913,-11.718750
5914,-13.671875
5915,-13.671875
5916,-13.671875
5917,-13.671875
5918,-15.625000
5919,-15.625000
5920,-15.625000
5921,-15.625000
5922,-15.625000
5923,-17.578125
5924,-17.578125
5925,-17.578125
5926,-17.578125
5927,-19.531250
5928,-19.531250
5929,-19.531250
5930,-19.531250
5931,-21.484375
5932,-19.531250
5933,-19.531250
5934,-21.484375
5935,-21.484375
5936,-23.437500
5937,-23.437500
5938,-23.437500
5939,-23.437500
5940,-23.437500
5941,-23.437500
5942,-25.390625
5943,-25.390625
5944,-25.390625
5945,-25.390625
5946,-25.390625
5947,-27.343750
5948,-27.343750
5949,-27.343750
5950,-27.343750
5951,-27.343750
5952,-29.296875
5953,-29.296875
5954,-29.296875
5955,-29.296875
5956,-29.296875
5957,-31.250000
5958,-31.250000
5959,-31.250000
5960,-31.250000
5961,-31.250000
5962,-31.250000
5963,-33.203125
5964,-33.203125
5965,-33.203125
5966,-33.203125
5967,-33.203125
5968,-33.203125
5969,-33.203125
5970,-35.156250
5971,-35.156250
5972,-35.156250
5973,-35.156250
5974,-35.156250
5975,-35.156250
5976,-35.156250
5977,-35.156250
5978,-37.109375
5979,-37.109375
5980,-37.109375
5981,-37.109375
5982,-37.109375
5983,-39.062500
5984,-39.062500
5985,-39.062500
5986,-39.062500
5987,-39.062500
5988,-39.062500
5989,-39.062500
5990,-39.062500
5991,-39.062500
5992,-41.015625
5993,-39.062500
5994,-41.015625
5995,-39.062500
5996,-41.015625
5997,-41.015625
5998,-41.015625
5999,-41.015625
6000,-41.015625
6001,-41.015625
6002,-41.015625
6003,-41.015625
6004,-41.015625
6005,-42.968750
6006,-42.968750
6007,-42.968750
6008,-41.015625
6009,-42.968750
6010,-42.968750
6011,-42.968750
6012,-42.968750
6013,-42.968750
6014,-42.968750
6015,-42.968750
6016,-44.921875
6017,-44.921875
6018,-42.968750
6019,-44.921875
6020,-44.921875
6021,-44.921875
6022,-44.921875
6023,-44.921875
6024,-44.921875
6025,-44.921875
6026,-44.921875
6027,-44.921875
6028,-44.921875
6029,-44.921875
6030,-44.921875
6031,-44.921875
6032,-44.921875
6033,-44.921875
6034,-44.921875
6035,-44.921875
6036,-44.921875
6037,-44.921875
6038,-44.921875
6039,-44.921875
6040,-44.921875
6041,-44.921875
6042,-44.921875
6043,-44.921875
6044,-44.921875
6045,-44.921875
6046,-44.921875
6047,-44.921875
6048,-44.921875
6049,-44.921875
6050,-44.921875
6051,-44.921875
6052,-44.921875
6053,-44.921875
6054,-44.921875
6055,-44.921875
6056,-44.921875
6057,-44.921875
6058,-44.921875
6059,-44.921875
6060,-44.921875
6061,-44.921875
6062,-44.921875
6063,-44.921875
6064,-44.921875
6065,-44.921875
6066,-44.921875
6067,-44.921875
6068,-42.968750
6069,-44.921875
6070,-44.921875
6071,-44.921875
6072,-42.968750
6073,-44.921875
6074,-42.968750
6075,-42.968750
6076,-42.968750
6077,-42.968750
6078,-42.968750
6079,-42.968750
6080,-42.968750
6081,-42.968750
6082,-42.968750
6083,-42.968750
6084,-42.968750
6085,-42.968750
6086,-41.015625
6087,-41.015625
6088,-42.968750
6089,-41.015625
6090,-41.015625
6091,-41.015625
6092,-41.015625
6093,-41.015625
6094,-41.015625
6095,-41.015625
6096,-39.062500
6097,-39.062500
6098,-39.062500
6099,-39.062500
6100,-39.062500
6101,-39.062500
6102,-39.062500
6103,-37.109375
6104,-37.109375
6105,-37.109375
6106,-37.109375
6107,-37.109375
6108,-37.109375
6109,-37.109375
6110,-35.156250
6111,-35.156250
6112,-35.156250
6113,-35.156250
6114,-35.156250
6115,-33.203125
6116,-35.156250
6117,-33.203125
6118,-33.203125
6119,-33.203125
6120,-33.203125
6121,-31.250000
6122,-31.250000
6123,-31.250000
6124,-31.250000
6125,-31.250000
6126,-29.296875
6127,-29.296875
6128,-29.296875
6129,-29.296875
6130,-29.296875
6131,-29.296875
6132,-27.343750
6133,-27.343750
6134,-27.343750
6135,-27.343750
6136,-27.343750
6137,-25.390625
6138,-25.390625
6139,-25.390625
6140,-25.390625
6141,-23.437500
6142,-23.437500
6143,-23.437500
6144,-23.437500
6145,-23.437500
6146,-23.437500
6147,-21.484375
6148,-21.484375
6149,-21.484375
6150,-21.484375
6151,-21.484375
6152,-19.531250
6153,-19.531250
6154,-21.484375
6155,-19.531250
6156,-17.578125
6157,-17.578125
6158,-19.531250
6159,-17.578125
6160,-17.578125
6161,-17.578125
6162,-15.625000
6163,-15.625000
6164,-15.625000
6165,-15.625000
6166,-13.671875
6167,-13.671875
6168,-13.671875
6169,-13.671875
6170,-11.718750
6171,-11.718750
6172,-11.718750
6173,-11.718750
6174,-11.718750
6175,-11.718750
6176,-11.718750
6177,-9.765625
6178,-9.765625
6179,-9.765625
6180,-9.765625
6181,-9.765625
6182,-7.812500
6183,-7.812500
6184,-7.812500
6185,-5.859375
6186,-5.859375
6187,-7.812500
6188,-7.812500
6189,-5.859375
6190,-3.906250
6191,-5.859375
6192,-3.906250
6193,-3.906250
6194,-3.906250
6195,-3.906250
6196,-3.906250
6197,-3.906250
6198,-1.953125
6199,-3.906250
6200,-1.953125
6201,-1.953125
6202,-1.953125
6203,-1.953125
6204,0.000000
6205,-1.953125
6206,0.000000
6207,0.000000
6208,0.000000
6209,0.000000
6210,0.000000
6211,1.953125
6212,1.953125
6213,1.953125
6214,1.953125
6215,1.953125
6216,1.953125
6217,1.953125
6218,1.953125
6219,3.906250
6220,3.906250
6221,3.906250
6222,1.953125
6223,1.953125
6224,5.859375
6225,5.859375
6226,5.859375
6227,5.859375
6228,5.859375
6229,5.859375
6230,5.859375
6231,7.812500
6232,5.859375
6233,7.812500
6234,7.812500
6235,7.812500
6236,7.812500
6237,7.812500
6238,7.812500
6239,9.765625
6240,9.765625
6241,7.812500
6242,9.765625
6243,9.765625
6244,9.765625
6245,9.765625
6246,9.765625
6247,9.765625
6248,11.718750
6249,11.718750
6250,9.765625
6251,11.718750
6252,11.718750
6253,11.718750
6254,11.718750
6255,11.718750
6256,13.671875
6257,13.671875
6258,13.671875
6259,13.671875
6260,13.671875
6261,13.671875
6262,13.671875
6263,13.671875
6264,13.671875
6265,13.671875
6266,13.671875
6267,13.671875
6268,13.671875
6269,15.625000
6270,15.625000
6271,13.671875
6272,13.671875
6273,15.625000
6274,15.625000
6275,15.625000
6276,15.625000
6277,15.625000
6278,15.625000
6279,15.625000
6280,15.625000
6281,17.578125
6282,15.625000
6283,17.578125
6284,15.625000
6285,17.578125
6286,17.578125
6287,17.578125
6288,17.578125
6289,17.578125
6290,17.578125
6291,17.578125
6292,17.578125
6293,19.531250
6294,17.578125
6295,17.578125
6296,17.578125
6297,17.578125
6298,19.531250
6299,19.531250
6300,19.531250
6301,19.531250
6302,19.531250
6303,19.531250
6304,19.531250
6305,19.531250
6306,19.531250
6307,19.531250
6308,19.531250
6309,19.531250
6310,19.531250
6311,19.531250
6312,19.531250
6313,19.531250
6314,21.484375
6315,19.531250
6316,21.484375
6317,19.531250
6318,21.484375
6319,21.484375
6320,19.531250
6321,21.484375
6322,21.484375
6323,21.484375
6324,21.484375
6325,21.484375
6326,21.484375
6327,21.484375
6328,21.484375
6329,21.484375
6330,21.484375
6331,21.484375
6332,21.484375
6333,21.484375
6334,21.484375
6335,21.484375
6336,21.484375
6337,21.484375
6338,21.484375
6339,23.437500
6340,21.484375
6341,21.484375
6342,21.484375
6343,23.437500
6344,23.437500
6345,21.484375
6346,21.484375
6347,21.484375
6348,23.437500
6349,21.484375
6350,21.484375
6351,21.484375
6352,23.437500
6353,23.437500
6354,23.437500
6355,21.484375
6356,23.437500
6357,23.437500
6358,23.437500
6359,21.484375
6360,23.437500
6361,23.437500
6362,23.437500
6363,23.437500
6364,23.437500
6365,23.437500
6366,23.437500
6367,23.437500
6368,23.437500
6369,23.437500
6370,23.437500
6371,21.484375
6372,23.437500
6373,23.437500
6374,23.437500
6375,23.437500
6376,23.437500
6377,23.437500
6378,23.437500
6379,23.437500
6380,23.437500
6381,23.437500
6382,21.484375
6383,23.437500
6384,23.437500
6385,21.484375
6386,21.484375
6387,21.484375
6388,21.484375
6389,21.484375
6390,21.484375
6391,21.484375
6392,21.484375
6393,21.484375
6394,21.484375
6395,21.484375
6396,21.484375
6397,21.484375
6398,21.484375
6399,19.531250
6400,19.531250
6401,19.531250
6402,19.531250
6403,19.531250
6404,19.531250
6405,19.531250
6406,17.578125
6407,17.578125
6408,17.578125
6409,17.578125
6410,17.578125
6411,17.578125
6412,17.578125
6413,17.578125
6414,17.578125
6415,17.578125
6416,17.578125
6417,17.578125
6418,15.625000
6419,15.625000
6420,15.625000
6421,15.625000
6422,15.625000
6423,13.671875
6424,13.671875
6425,13.671875
6426,13.671875
6427,13.671875
6428,13.671875
6429,13.671875
6430,11.718750
6431,13.671875
6432,11.718750
6433,11.718750
6434,11.718750
6435,11.718750
6436,11.718750
6437,9.765625
6438,9.765625
6439,9.765625
6440,9.765625
6441,9.765625
6442,9.765625
6443,7.812500
6444,7.812500
6445,7.812500
6446,7.812500
6447,5.859375
6448,5.859375
6449,5.859375
6450,5.859375
6451,5.859375
6452,3.906250
6453,3.906250
6454,3.906250
6455,3.906250
6456,3.906250
6457,3.906250
6458,1.953125
6459,1.953125
6460,1.953125
6461,1.953125
6462,0.000000
6463,0.000000
6464,0.000000
6465,0.000000
6466,0.000000
6467,-1.953125
6468,-1.953125
6469,-1.953125
6470,-1.953125
6471,-1.953125
6472,-3.906250
6473,-3.906250
6474,-3.906250
6475,-3.906250
6476,-3.906250
6477,-5.859375
6478,-5.859375
6479,-5.859375
6480,-5.859375
6481,-7.812500
6482,-7.812500
6483,-7.812500
6484,-7.812500
6485,-7.812500
6486,-9.765625
6487,-9.765625
6488,-9.765625
6489,-9.765625
6490,-11.718750
6491,-11.718750
6492,-11.718750
6493,-11.718750
6494,-11.718750
6495,-11.718750
6496,-13.671875
6497,-13.671875
6498,-13.671875
6499,-13.671875
6500,-13.671875
6501,-15.625000
6502,-15.625000
6503,-15.625000
6504,-15.625000
6505,-15.625000
6506,-17.578125
6507,-17.578125
6508,-17.578125
6509,-17.578125
6510,-19.531250
6511,-19.531250
6512,-17.578125
6513,-19.531250
6514,-19.531250
6515,-19.531250
6516,-21.484375
6517,-21.484375
6518,-21.484375
6519,-21.484375
6520,-21.484375
6521,-23.437500
6522,-23.437500
6523,-23.437500
6524,-23.437500
6525,-23.437500
6526,-25.390625
6527,-25.390625
6528,-25.390625
6529,-25.390625
6530,-25.390625
6531,-27.343750
6532,-27.343750
6533,-27.343750
6534,-27.343750
6535,-27.343750
6536,-29.296875
6537,-29.296875
6538,-29.296875
6539,-29.296875
6540,-29.296875
6541,-31.250000
6542,-31.250000
6543,-31.250000
6544,-31.250000
6545,-33.203125
6546,-31.250000
6547,-31.250000
6548,-33.203125
6549,-33.203125
6550,-33.203125
6551,-33.203125
6552,-33.203125
6553,-35.156250
6554,-35.156250
6555,-35.156250
6556,-35.156250
6557,-35.156250
6558,-35.156250
6559,-37.109375
6560,-37.109375
6561,-35.156250
6562,-35.156250
6563,-37.109375
6564,-37.109375
6565,-37.109375
6566,-37.109375
6567,-37.109375
6568,-39.062500
6569,-37.109375
6570,-37.109375
6571,-39.062500
6572,-39.062500
6573,-39.062500
6574,-39.062500
6575,-39.062500
6576,-39.062500
6577,-39.062500
6578,-41.015625
6579,-39.062500
6580,-41.015625
6581,-41.015625
6582,-41.015625
6583,-41.015625
6584,-41.015625
6585,-41.015625
6586,-41.015625
6587,-41.015625
6588,-42.968750
6589,-41.015625
6590,-41.015625
6591,-41.015625
6592,-42.968750
6593,-42.968750
6594,-42.968750
6595,-42.968750
6596,-42.968750
6597,-42.968750
6598,-42.968750
6599,-42.968750
6600,-42.968750
6601,-42.968750
6602,-44.921875
6603,-44.921875
6604,-44.921875
6605,-44.921875
6606,-44.921875
6607,-44.921875
6608,-42.968750
6609,-44.921875
6610,-44.921875
6611,-44.921875
6612,-44.921875
6613,-44.921875
6614,-44.921875
6615,-44.921875
6616,-44.921875
6617,-44.921875
6618,-44.921875
6619,-44.921875
6620,-44.921875
6621,-44.921875
6622,-44.921875
6623,-44.921875
6624,-44.921875
6625,-44.921875
6626,-44.921875
6627,-44.921875
6628,-44.921875
6629,-44.921875
6630,-44.921875
6631,-44.921875
6632,-44.921875
6633,-44.921875
6634,-44.921875
6635,-42.968750
6636,-44.921875
6637,-44.921875
6638,-44.921875
6639,-44.921875
6640,-44.921875
6641,-44.921875
6642,-44.921875
6643,-44.921875
6644,-44.921875
6645,-44.921875
6646,-44.921875
6647,-44.921875
6648,-44.921875
6649,-42.968750
6650,-44.921875
6651,-42.968750
6652,-44.921875
6653,-44.921875
6654,-42.968750
6655,-44.921875
6656,-42.968750
6657,-42.968750
6658,-42.968750
6659,-42.968750
6660,-42.968750
6661,-42.968750
6662,-42.968750
6663,-42.968750
6664,-42.968750
6665,-42.968750
6666,-41.015625
6667,-42.968750
6668,-41.015625
6669,-42.968750
6670,-41.015625
6671,-41.015625
6672,-41.015625
6673,-41.015625
6674,-41.015625
6675,-41.015625
6676,-41.015625
6677,-41.015625
6678,-39.062500
6679,-41.015625
6680,-39.062500
6681,-39.062500
6682,-39.062500
6683,-39.062500
6684,-37.109375
6685,-39.062500
6686,-39.062500
6687,-37.109375
6688,-37.109375
6689,-37.109375
6690,-37.109375
6691,-37.109375
6692,-35.156250
6693,-35.156250
6694,-35.156250
6695,-35.156250
6696,-35.156250
6697,-35.156250
6698,-33.203125
6699,-33.203125
6700,-33.203125
6701,-33.203125
6702,-33.203125
6703,-31.250000
6704,-33.203125
6705,-31.250000
6706,-31.250000
6707,-31.250000
6708,-29.296875
6709,-31.250000
6710,-31.250000
6711,-29.296875
6712,-29.296875
6713,-29.296875
6714,-29.296875
6715,-27.343750
6716,-27.343750
6717,-27.343750
6718,-27.343750
6719,-27.343750
6720,-27.343750
6721,-27.343750
6722,-25.390625
6723,-25.390625
6724,-25.390625
6725,-23.437500
6726,-23.437500
6727,-23.437500
6728,-23.437500
6729,-23.437500
6730,-23.437500
6731,-21.484375
6732,-21.484375
6733,-21.484375
6734,-21.484375
6735,-21.484375
6736,-19.531250
6737,-19.531250
6738,-19.531250
6739,-19.531250
6740,-19.531250
6741,-17.578125
6742,-17.578125
6743,-17.578125
6744,-17.578125
6745,-17.578125
6746,-15.625000
6747,-15.625000
6748,-15.625000
6749,-15.625000
6750,-15.625000
6751,-13.671875
6752,-13.671875
6753,-13.671875
6754,-13.671875
6755,-13.671875
6756,-11.718750
6757,-11.718750
6758,-9.765625
6759,-11.718750
6760,-11.718750
6761,-9.765625
6762,-9.765625
6763,-9.765625
6764,-9.765625
6765,-9.765625
6766,-7.812500
6767,-7.812500
6768,-7.812500
6769,-7.812500
6770,-7.812500
6771,-7.812500
6772,-5.859375
6773,-5.859375
6774,-5.859375
6775,-5.859375
6776,-5.859375
6777,-3.906250
6778,-5.859375
6779,-3.906250
6780,-3.906250
6781,-3.906250
6782,-3.906250
6783,-1.953125
6784,-1.953125
6785,-1.953125
6786,-1.953125
6787,-1.953125
6788,-1.953125
6789,-1.953125
6790,0.000000
6791,0.000000
6792,0.000000
6793,0.000000
6794,0.000000
6795,0.000000
6796,1.953125
6797,1.953125
6798,0.000000
6799,1.953125
6800,1.953125
6801,1.953125
6802,1.953125
6803,1.953125
6804,3.906250
6805,3.906250
6806,3.906250
6807,3.906250
6808,3.906250
6809,5.859375
6810,3.906250
6811,5.859375
6812,3.906250
6813,5.859375
6814,5.859375
6815,5.859375
6816,5.859375
6817,7.812500
6818,7.812500
6819,7.812500
6820,7.812500
6821,7.812500
6822,7.812500
6823,9.765625
6824,9.765625
6825,9.765625
6826,9.765625
6827,7.812500
6828,9.765625
6829,9.765625
6830,11.718750
6831,9.765625
6832,9.765625
6833,11.718750
6834,9.765625
6835,11.718750
6836,11.718750
6837,11.718750
6838,11.718750
6839,11.718750
6840,11.718750
6841,11.718750
6842,11.718750
6843,13.671875
6844,13.671875
6845,13.671875
6846,13.671875
6847,13.671875
6848,13.671875
6849,13.671875
6850,13.671875
6851,13.671875
6852,13.671875
6853,13.671875
6854,13.671875
6855,13.671875
6856,13.671875
6857,15.625000
6858,15.625000
6859,15.625000
6860,15.625000
6861,15.625000
6862,15.625000
6863,15.625000
6864,15.625000
6865,15.625000
6866,15.625000
6867,15.625000
6868,15.625000
6869,17.578125
6870,17.578125
6871,17.578125
6872,17.578125
6873,17.578125
6874,17.578125
6875,17.578125
6876,17.578125
6877,17.578125
6878,17.578125
6879,17.578125
6880,17.578125
6881,17.578125
6882,19.531250
6883,19.531250
6884,19.531250
6885,19.531250
6886,19.531250
6887,19.531250
6888,19.531250
6889,19.531250
6890,19.531250
6891,19.531250
6892,19.531250
6893,19.531250
6894,19.531250
6895,19.531250
6896,21.484375
6897,19.531250
6898,19.531250
6899,19.531250
6900,21.484375
6901,19.531250
6902,21.484375
6903,21.484375
6904,21.484375
6905,21.484375
6906,21.484375
6907,21.484375
6908,21.484375
6909,21.484375
6910,21.484375
6911,21.484375
6912,21.484375
6913,21.484375
6914,21.484375
6915,21.484375
6916,21.484375
6917,21.484375
6918,21.484375
6919,21.484375
6920,21.484375
6921,21.484375
6922,21.484375
6923,21.484375
6924,21.484375
6925,21.484375
6926,21.484375
6927,21.484375
6928,21.484375
6929,23.437500
6930,21.484375
6931,21.484375
6932,21.484375
6933,23.437500
6934,23.437500
6935,23.437500
6936,23.437500
6937,21.484375
6938,23.437500
6939,23.437500
6940,23.437500
6941,23.437500
6942,23.437500
6943,23.437500
6944,23.437500
6945,23.437500
6946,23.437500
6947,23.437500
6948,23.437500
6949,23.437500
6950,23.437500
6951,23.437500
6952,23.437500
6953,23.437500
6954,23.437500
6955,23.437500
6956,23.437500
6957,23.437500
6958,23.437500
6959,23.437500
6960,23.437500
6961,23.437500
6962,23.437500
6963,21.484375
6964,23.437500
6965,23.437500
6966,23.437500
6967,21.484375
6968,21.484375
6969,23.437500
6970,21.484375
6971,21.484375
6972,23.437500
6973,21.484375
6974,21.484375
6975,21.484375
6976,21.484375
6977,21.484375
6978,21.484375
6979,21.484375
6980,21.484375
6981,19.531250
6982,19.531250
6983,19.531250
6984,21.484375
6985,19.531250
6986,19.531250
6987,19.531250
6988,19.531250
6989,19.531250
6990,19.531250
6991,17.578125
6992,19.531250
6993,19.531250
6994,17.578125
6995,17.578125
6996,17.578125
6997,17.578125
6998,17.578125
6999,17.578125
7000,17.578125
7001,17.578125
7002,15.625000
7003,15.625000
7004,15.625000
7005,15.625000
7006,15.625000
7007,15.625000
7008,15.625000
7009,13.671875
7010,13.671875
7011,13.671875
7012,13.671875
7013,13.671875
7014,13.671875
7015,11.718750
7016,11.718750
7017,11.718750
7018,11.718750
7019,11.718750
7020,11.718750
7021,11.718750
7022,9.765625
7023,9.765625
7024,9.765625
7025,9.765625
7026,9.765625
7027,7.812500
7028,7.812500
7029,7.812500
7030,7.812500
7031,5.859375
7032,7.812500
7033,5.859375
7034,5.859375
7035,5.859375
7036,5.859375
7037,5.859375
7038,3.906250
7039,3.906250
7040,1.953125
7041,3.906250
7042,3.906250
7043,1.953125
7044,1.953125
7045,1.953125
7046,1.953125
7047,0.000000
7048,0.000000
7049,0.000000
7050,0.000000
7051,-1.953125
7052,-1.953125
7053,-1.953125
7054,-1.953125
7055,-1.953125
7056,-3.906250
7057,-3.906250
7058,-3.906250
7059,-3.906250
7060,-3.906250
7061,-5.859375
7062,-5.859375
7063,-5.859375
7064,-5.859375
7065,-5.859375
7066,-7.812500
7067,-7.812500
7068,-7.812500
7069,-9.765625
7070,-9.765625
7071,-9.765625
7072,-9.765625
7073,-9.765625
7074,-9.765625
7075,-11.718750
7076,-11.718750
7077,-11.718750
7078,-11.718750
7079,-11.718750
7080,-13.671875
7081,-13.671875
7082,-13.671875
7083,-13.671875
7084,-13.671875
7085,-15.625000
7086,-15.625000
7087,-15.625000
7088,-15.625000
7089,-15.625000
7090,-15.625000
7091,-17.578125
7092,-17.578125
7093,-17.578125
7094,-17.578125
7095,-19.531250
7096,-19.531250
7097,-19.531250
7098,-19.531250
7099,-21.484375
7100,-21.484375
7101,-21.484375
7102,-21.484375
7103,-21.484375
7104,-21.484375
7105,-23.437500
7106,-23.437500
7107,-23.437500
7108,-23.437500
7109,-25.390625
7110,-25.390625
7111,-25.390625
7112,-25.390625
7113,-25.390625
7114,-25.390625
7115,-27.343750
7116,-27.343750
7117,-27.343750
7118,-27.343750
7119,-29.296875
7120,-29.296875
7121,-29.296875
7122,-29.296875
7123,-29.296875
7124,-29.296875
7125,-31.250000
7126,-31.250000
7127,-31.250000
7128,-31.250000
7129,-31.250000
7130,-33.203125
7131,-33.203125
7132,-33.203125
7133,-33.203125
7134,-33.203125
7135,-33.203125
7136,-33.203125
7137,-33.203125
7138,-35.156250
7139,-35.156250
7140,-35.156250
7141,-35.156250
7142,-35.156250
7143,-35.156250
7144,-35.156250
7145,-37.109375
7146,-37.109375
7147,-37.109375
7148,-37.109375
7149,-37.109375
7150,-37.109375
7151,-39.062500
7152,-39.062500
7153,-37.109375
7154,-39.062500
7155,-39.062500
7156,-39.062500
7157,-39.062500
7158,-39.062500
7159,-39.062500
7160,-39.062500
7161,-41.015625
7162,-41.015625
7163,-41.015625
7164,-41.015625
7165,-41.015625
7166,-41.015625
7167,-41.015625
7168,-42.968750
7169,-42.968750
7170,-41.015625
7171,-42.968750
7172,-41.015625
7173,-42.968750
7174,-42.968750
7175,-42.968750
7176,-42.968750
7177,-42.968750
7178,-42.968750
7179,-42.968750
7180,-42.968750
7181,-42.968750
7182,-44.921875
7183,-42.968750
7184,-42.968750
7185,-44.921875
7186,-44.921875
7187,-44.921875
7188,-44.921875
7189,-44.921875
7190,-44.921875
7191,-44.921875
7192,-44.921875
7193,-44.921875
7194,-44.921875
7195,-44.921875
7196,-44.921875
7197,-44.921875
7198,-44.921875
7199,-44.921875
7200,-44.921875
7201,-44.921875
7202,-44.921875
7203,-44.921875
7204,-44.921875
7205,-46.875000
7206,-44.921875
7207,-44.921875
7208,-44.921875
7209,-44.921875
7210,-44.921875
7211,-44.921875
7212,-44.921875
7213,-44.921875
7214,-44.921875
7215,-44.921875
7216,-44.921875
7217,-44.921875
7218,-44.921875
7219,-44.921875
7220,-44.921875
7221,-46.875000
7222,-44.921875
7223,-44.921875
7224,-44.921875
7225,-44.921875
7226,-44.921875
7227,-44.921875
7228,-44.921875
7229,-44.921875
7230,-44.921875
7231,-44.921875
7232,-44.921875
7233,-44.921875
7234,-44.921875
7235,-44.921875
7236,-44.921875
7237,-44.921875
7238,-44.921875
7239,-44.921875
7240,-44.921875
7241,-42.968750
7242,-44.921875
7243,-42.968750
7244,-42.968750
7245,-42.968750
7246,-42.968750
7247,-44.921875
7248,-42.968750
7249,-42.968750
7250,-42.968750
7251,-42.968750
7252,-42.968750
7253,-42.968750
7254,-42.968750
7255,-41.015625
7256,-42.968750
7257,-41.015625
7258,-41.015625
7259,-41.015625
7260,-41.015625
7261,-41.015625
7262,-41.015625
7263,-41.015625
7264,-39.062500
7265,-39.062500
7266,-39.062500
7267,-39.062500
7268,-39.062500
7269,-39.062500
7270,-39.062500
7271,-39.062500
7272,-37.109375
7273,-37.109375
7274,-37.109375
7275,-37.109375
7276,-35.156250
7277,-37.109375
7278,-35.156250
7279,-35.156250
7280,-35.156250
7281,-35.156250
7282,-35.156250
7283,-33.203125
7284,-33.203125
7285,-35.156250
7286,-33.203125
7287,-33.203125
7288,-33.203125
7289,-33.203125
7290,-31.250000
7291,-31.250000
7292,-31.250000
7293,-31.250000
7294,-31.250000
7295,-31.250000
7296,-29.296875
7297,-29.296875
7298,-29.296875
7299,-29.296875
7300,-29.296875
7301,-27.343750
7302,-27.343750
7303,-27.343750
7304,-25.390625
7305,-27.343750
7306,-25.390625
7307,-25.390625
7308,-25.390625
7309,-23.437500
7310,-23.437500
7311,-23.437500
7312,-23.437500
7313,-23.437500
7314,-23.437500
7315,-21.484375
7316,-21.484375
7317,-21.484375
7318,-21.484375
7319,-19.531250
7320,-19.531250
7321,-21.484375
7322,-19.531250
7323,-17.578125
7324,-19.531250
7325,-17.578125
7326,-17.578125
7327,-17.578125
7328,-17.578125
7329,-17.578125
7330,-15.625000
7331,-15.625000
7332,-15.625000
7333,-15.625000
7334,-13.671875
7335,-13.671875
7336,-13.671875
7337,-13.671875
7338,-13.671875
7339,-11.718750
7340,-13.671875
7341,-11.718750
7342,-11.718750
7343,-11.718750
7344,-11.718750
7345,-9.765625
7346,-9.765625
7347,-9.765625
7348,-9.765625
7349,-9.765625
7350,-7.812500
7351,-9.765625
7352,-7.812500
7353,-7.812500
7354,-7.812500
7355,-7.812500
7356,-5.859375
7357,-7.812500
7358,-5.859375
7359,-5.859375
7360,-3.906250
7361,-3.906250
7362,-3.906250
7363,-3.906250
7364,-3.906250
7365,-3.906250
7366,-5.859375
7367,-1.953125
7368,-1.953125
7369,-1.953125
7370,-1.953125
7371,-1.953125
7372,-1.953125
7373,-1.953125
7374,-1.953125
7375,0.000000
7376,0.000000
7377,0.000000
7378,0.000000
7379,0.000000
7380,1.953125
7381,1.953125
7382,0.000000
7383,1.953125
7384,1.953125
7385,1.953125
7386,1.953125
7387,1.953125
7388,3.906250
7389,3.906250
7390,3.906250
7391,3.906250
7392,3.906250
7393,3.906250
7394,3.906250
7395,5.859375
7396,5.859375
7397,5.859375
7398,5.859375
7399,5.859375
7400,7.812500
7401,7.812500
7402,7.812500
7403,7.812500
7404,7.812500
7405,7.812500
7406,7.812500
7407,9.765625
7408,9.765625
7409,9.765625
7410,9.765625
7411,9.765625
7412,9.765625
7413,9.765625
7414,11.718750
7415,11.718750
7416,9.765625
7417,11.718750
7418,11.718750
7419,11.718750
7420,11.718750
7421,11.718750
7422,11.718750
7423,13.671875
7424,13.671875
7425,11.718750
7426,13.671875
7427,13.671875
7428,13.671875
7429,13.671875
7430,13.671875
7431,13.671875
7432,13.671875
7433,15.625000
7434,13.671875
7435,13.671875
7436,15.625000
7437,15.625000
7438,15.625000
7439,15.625000
7440,13.671875
7441,15.625000
7442,15.625000
7443,15.625000
7444,15.625000
7445,15.625000
7446,15.625000
7447,15.625000
7448,15.625000
7449,15.625000
7450,17.578125
7451,17.578125
7452,17.578125
7453,17.578125
7454,17.578125
7455,17.578125
7456,17.578125
7457,17.578125
7458,17.578125
7459,17.578125
7460,17.578125
7461,17.578125
7462,17.578125
7463,17.578125
7464,19.531250
7465,19.531250
7466,19.531250
7467,19.531250
7468,19.531250
7469,19.531250
7470,19.531250
7471,19.531250
7472,19.531250
7473,19.531250
7474,21.484375
7475,19.531250
7476,19.531250
7477,21.484375
7478,19.531250
7479,21.484375
7480,21.484375
7481,21.484375
7482,21.484375
7483,21.484375
7484,21.484375
7485,21.484375
7486,21.484375
7487,21.484375
7488,21.484375
7489,21.484375
7490,21.484375
7491,21.484375
7492,21.484375
7493,21.484375
7494,21.484375
7495,21.484375
7496,21.484375
7497,21.484375
7498,21.484375
7499,21.484375
7500,21.484375
7501,21.484375
7502,23.437500
7503,23.437500
7504,21.484375
7505,21.484375
7506,23.437500
7507,23.437500
7508,23.437500
7509,21.484375
7510,21.484375
7511,23.437500
7512,23.437500
7513,23.437500
7514,23.437500
7515,23.437500
7516,23.437500
7517,23.437500
7518,23.437500
7519,21.484375
7520,23.437500
7521,23.437500
7522,23.437500
7523,23.437500
7524,23.437500
7525,23.437500
7526,23.437500
7527,23.437500
7528,23.437500
7529,23.437500
7530,23.437500
7531,23.437500
7532,23.437500
7533,23.437500
7534,25.390625
7535,23.437500
7536,23.437500
7537,23.437500
7538,23.437500
7539,25.390625
7540,23.437500
7541,23.437500
7542,23.437500
7543,23.437500
7544,23.437500
7545,23.437500
7546,23.437500
7547,23.437500
7548,23.437500
7549,23.437500
7550,21.484375
7551,21.484375
7552,23.437500
7553,23.437500
7554,21.484375
7555,23.437500
7556,21.484375
7557,21.484375
7558,21.484375
7559,21.484375
7560,21.484375
7561,21.484375
7562,21.484375
7563,21.484375
7564,21.484375
7565,19.531250
7566,19.531250
7567,19.531250
7568,19.531250
7569,19.531250
7570,19.531250
7571,19.531250
7572,17.578125
7573,19.531250
7574,19.531250
7575,17.578125
7576,19.531250
7577,17.578125
7578,17.578125
7579,17.578125
7580,17.578125
7581,17.578125
7582,17.578125
7583,15.625000
7584,15.625000
7585,17.578125
7586,13.671875
7587,15.625000
7588,15.625000
7589,15.625000
7590,15.625000
7591,15.625000
7592,13.671875
7593,13.671875
7594,13.671875
7595,13.671875
7596,13.671875
7597,11.718750
7598,13.671875
7599,11.718750
7600,11.718750
7601,11.718750
7602,11.718750
7603,11.718750
7604,9.765625
7605,9.765625
7606,11.718750
7607,9.765625
7608,9.765625
7609,7.812500
7610,7.812500
7611,7.812500
7612,7.812500
7613,5.859375
7614,7.812500
7615,5.859375
7616,5.859375
7617,5.859375
7618,5.859375
7619,5.859375
7620,3.906250
7621,3.906250
7622,3.906250
7623,3.906250
7624,3.906250
7625,1.953125
7626,1.953125
7627,0.000000
7628,1.953125
7629,1.953125
7630,0.000000
7631,0.000000
7632,0.000000
7633,-1.953125
7634,-1.953125
7635,-1.953125
7636,-1.953125
7637,-1.953125
7638,-1.953125
7639,-3.906250
7640,-3.906250
7641,-3.906250
7642,-3.906250
7643,-5.859375
7644,-5.859375
7645,-5.859375
7646,-5.859375
7647,-7.812500
7648,-7.812500
7649,-7.812500
7650,-7.812500
7651,-7.812500
7652,-9.765625
7653,-9.765625
7654,-9.765625
7655,-9.765625
7656,-9.765625
7657,-11.718750
7658,-11.718750
7659,-11.718750
7660,-11.718750
7661,-11.718750
7662,-11.718750
7663,-13.671875
7664,-13.671875
7665,-13.671875
7666,-15.625000
7667,-13.671875
7668,-15.625000
7669,-15.625000
7670,-15.625000
7671,-17.578125
7672,-17.578125
7673,-17.578125
7674,-17.578125
7675,-17.578125
7676,-19.531250
7677,-19.531250
7678,-19.531250
7679,-19.531250
7680,-19.531250
7681,-21.484375
7682,-21.484375
7683,-21.484375
7684,-21.484375
7685,-21.484375
7686,-23.437500
7687,-23.437500
7688,-23.437500
7689,-25.390625
7690,-25.390625
7691,-25.390625
7692,-25.390625
7693,-25.390625
7694,-25.390625
7695,-27.343750
7696,-27.343750
7697,-27.343750
7698,-27.343750
7699,-27.343750
7700,-27.343750
7701,-29.296875
7702,-29.296875
7703,-29.296875
7704,-31.250000
7705,-29.296875
7706,-31.250000
7707,-31.250000
7708,-31.250000
7709,-31.250000
7710,-31.250000
7711,-33.203125
7712,-33.203125
7713,-33.203125
7714,-33.203125
7715,-33.203125
7716,-33.203125
7717,-35.156250
7718,-33.203125
7719,-33.203125
7720,-35.156250
7721,-35.156250
7722,-35.156250
7723,-35.156250
7724,-35.156250
7725,-37.109375
7726,-37.109375
7727,-37.109375
7728,-37.109375
7729,-37.109375
7730,-37.109375
7731,-37.109375
7732,-39.062500
7733,-39.062500
7734,-39.062500
7735,-39.062500
7736,-39.062500
7737,-39.062500
7738,-41.015625
7739,-39.062500
7740,-39.062500
7741,-41.015625
7742,-39.062500
7743,-41.015625
7744,-41.015625
7745,-41.015625
7746,-41.015625
7747,-41.015625
7748,-41.015625
7749,-41.015625
7750,-42.968750
7751,-42.968750
7752,-42.968750
7753,-42.968750
7754,-42.968750
7755,-42.968750
7756,-42.968750
7757,-42.968750
7758,-44.921875
7759,-42.968750
7760,-42.968750
7761,-42.968750
7762,-44.921875
7763,-44.921875
7764,-42.968750
7765,-44.921875
7766,-44.921875
7767,-44.921875
7768,-44.921875
7769,-44.921875
7770,-44.921875
7771,-44.921875
7772,-44.921875
7773,-44.921875
7774,-44.921875
7775,-44.921875
7776,-44.921875
7777,-46.875000
7778,-44.921875
7779,-44.921875
7780,-46.875000
7781,-44.921875
7782,-44.921875
7783,-44.921875
7784,-44.921875
7785,-44.921875
7786,-44.921875
7787,-44.921875
7788,-44.921875
7789,-44.921875
7790,-46.875000
7791,-46.875000
7792,-44.921875
7793,-44.921875
7794,-46.875000
7795,-44.921875
7796,-44.921875
7797,-44.921875
7798,-44.921875
7799,-44.921875
7800,-44.921875
7801,-44.921875
7802,-46.875000
7803,-44.921875
7804,-44.921875
7805,-44.921875
7806,-44.921875
7807,-44.921875
7808,-44.921875
7809,-44.921875
7810,-46.875000
7811,-44.921875
7812,-44.921875
7813,-44.921875
7814,-44.921875
7815,-44.921875
7816,-44.921875
7817,-44.921875
7818,-44.921875
7819,-46.875000
7820,-44.921875
7821,-44.921875
7822,-44.921875
7823,-44.921875
7824,-42.968750
7825,-42.968750
7826,-42.968750
7827,-42.968750
7828,-42.968750
7829,-42.968750
7830,-42.968750
7831,-42.968750
7832,-42.968750
7833,-42.968750
7834,-42.968750
7835,-42.968750
7836,-41.015625
7837,-42.968750
7838,-42.968750
7839,-41.015625
7840,-41.015625
7841,-41.015625
7842,-41.015625
7843,-41.015625
7844,-41.015625
7845,-39.062500
7846,-41.015625
7847,-39.062500
7848,-39.062500
7849,-39.062500
7850,-39.062500
7851,-37.109375
7852,-39.062500
7853,-37.109375
7854,-37.109375
7855,-37.109375
7856,-37.109375
7857,-37.109375
7858,-37.109375
7859,-37.109375
7860,-35.156250
7861,-35.156250
7862,-35.156250
7863,-35.156250
7864,-33.203125
7865,-33.203125
7866,-33.203125
7867,-33.203125
7868,-33.203125
7869,-33.203125
7870,-31.250000
7871,-31.250000
7872,-31.250000
7873,-31.250000
7874,-31.250000
7875,-29.296875
7876,-29.296875
7877,-29.296875
7878,-29.296875
7879,-29.296875
7880,-29.296875
7881,-27.343750
7882,-27.343750
7883,-27.343750
7884,-27.343750
7885,-27.343750
7886,-25.390625
7887,-25.390625
7888,-25.390625
7889,-25.390625
7890,-25.390625
7891,-23.437500
7892,-23.437500
7893,-23.437500
7894,-23.437500
7895,-21.484375
7896,-23.437500
7897,-23.437500
7898,-21.484375
7899,-21.484375
7900,-21.484375
7901,-21.484375
7902,-19.531250
7903,-19.531250
7904,-19.531250
7905,-17.578125
7906,-19.531250
7907,-17.578125
7908,-17.578125
7909,-17.578125
7910,-17.578125
7911,-15.625000
7912,-15.625000
7913,-15.625000
7914,-13.671875
7915,-13.671875
7916,-13.671875
7917,-13.671875
7918,-13.671875
7919,-11.718750
7920,-13.671875
7921,-13.671875
7922,-11.718750
7923,-11.718750
7924,-11.718750
7925,-9.765625
7926,-9.765625
7927,-9.765625
7928,-9.765625
7929,-9.765625
7930,-9.765625
7931,-7.812500
7932,-7.812500
7933,-7.812500
7934,-7.812500
7935,-5.859375
7936,-5.859375
7937,-5.859375
7938,-5.859375
7939,-5.859375
7940,-5.859375
7941,-5.859375
7942,-5.859375
7943,-3.906250
7944,-3.906250
7945,-3.906250
7946,-3.906250
7947,-3.906250
7948,-1.953125
7949,-1.953125
7950,-1.953125
7951,-1.953125
7952,-1.953125
7953,-1.953125
7954,0.000000
7955,0.000000
7956,0.000000
7957,0.000000
7958,0.000000
7959,0.000000
7960,0.000000
7961,1.953125
7962,1.953125
7963,1.953125
7964,1.953125
7965,1.953125
7966,3.906250
7967,3.906250
7968,3.906250
7969,3.906250
7970,3.906250
7971,3.906250
7972,3.906250
7973,3.906250
7974,5.859375
7975,3.906250
7976,5.859375
7977,5.859375
7978,5.859375
7979,5.859375
7980,5.859375
7981,7.812500
7982,7.812500
7983,7.812500
7984,7.812500
7985,7.812500
7986,7.812500
7987,7.812500
7988,7.812500
7989,7.812500
7990,9.765625
7991,9.765625
7992,7.812500
7993,9.765625
7994,9.765625
7995,9.765625
7996,9.765625
7997,11.718750
7998,11.718750
7999,11.718750
8000,11.718750
8001,11.718750
8002,11.718750
8003,11.718750
8004,11.718750
8005,11.718750
8006,11.718750
8007,13.671875
8008,13.671875
8009,13.671875
8010,13.671875
8011,13.671875
8012,13.671875
8013,13.671875
8014,13.671875
8015,13.671875
8016,13.671875
8017,13.671875
8018,13.671875
8019,15.625000
8020,15.625000
8021,13.671875
8022,15.625000
8023,15.625000
8024,15.625000
8025,15.625000
8026,15.625000
8027,17.578125
8028,15.625000
8029,15.625000
8030,15.625000
8031,15.625000
8032,15.625000
8033,17.578125
8034,17.578125
8035,17.578125
8036,17.578125
8037,17.578125
8038,17.578125
8039,17.578125
8040,17.578125
8041,17.578125
8042,17.578125
8043,17.578125
8044,17.578125
8045,19.531250
8046,19.531250
8047,17.578125
8048,19.531250
8049,19.531250
8050,19.531250
8051,19.531250
8052,19.531250
8053,19.531250
8054,19.531250
8055,19.531250
8056,19.531250
8057,19.531250
8058,19.531250
8059,19.531250
8060,19.531250
8061,21.484375
8062,21.484375
8063,19.531250
8064,19.531250
8065,21.484375
8066,21.484375
8067,21.484375
8068,21.484375
8069,21.484375
8070,21.484375
8071,21.484375
8072,21.484375
8073,21.484375
8074,21.484375
8075,21.484375
8076,21.484375
8077,21.484375
8078,21.484375
8079,21.484375
8080,21.484375
8081,21.484375
8082,21.484375
8083,21.484375
8084,21.484375
8085,21.484375
8086,21.484375
8087,21.484375
8088,23.437500
8089,21.484375
8090,21.484375
8091,21.484375
8092,21.484375
8093,23.437500
8094,23.437500
8095,21.484375
8096,21.484375
8097,23.437500
8098,23.437500
8099,23.437500
8100,21.484375
8101,23.437500
8102,23.437500
8103,23.437500
8104,23.437500
8105,23.437500
8106,23.437500
8107,23.437500
8108,23.437500
8109,23.437500
8110,23.437500
8111,23.437500
8112,23.437500
8113,23.437500
8114,23.437500
8115,23.437500
8116,23.437500
8117,23.437500
8118,23.437500
8119,23.437500
8120,23.437500
8121,23.437500
8122,23.437500
8123,23.437500
8124,23.437500
8125,23.437500
8126,23.437500
8127,23.437500
8128,23.437500
8129,23.437500
8130,21.484375
8131,23.437500
8132,23.437500
8133,21.484375
8134,21.484375
8135,23.437500
8136,21.484375
8137,21.484375
8138,21.484375
8139,21.484375
8140,23.437500
8141,21.484375
8142,21.484375
8143,21.484375
8144,21.484375
8145,21.484375
8146,21.484375
8147,19.531250
8148,21.484375
8149,19.531250
8150,19.531250
8151,19.531250
8152,19.531250
8153,19.531250
8154,19.531250
8155,19.531250
8156,19.531250
8157,17.578125
8158,17.578125
8159,17.578125
8160,17.578125
8161,17.578125
8162,17.578125
8163,15.625000
8164,17.578125
8165,17.578125
8166,15.625000
8167,15.625000
8168,15.625000
8169,15.625000
8170,15.625000
8171,15.625000
8172,15.625000
8173,13.671875
8174,13.671875
8175,13.671875
8176,13.671875
8177,13.671875
8178,13.671875
8179,13.671875
8180,11.718750
8181,11.718750
8182,11.718750
8183,11.718750
8184,11.718750
8185,11.718750
8186,9.765625
8187,9.765625
8188,9.765625
8189,9.765625
8190,9.765625
8191,7.812500
8192,7.812500
8193,7.812500
8194,7.812500
8195,7.812500
8196,5.859375
8197,5.859375
8198,5.859375
8199,3.906250
8200,5.859375
8201,3.906250
8202,3.906250
8203,3.906250
8204,3.906250
8205,3.906250
8206,1.953125
8207,1.953125
8208,0.000000
8209,1.953125
8210,0.000000
8211,0.000000
8212,0.000000
8213,0.000000
8214,0.000000
8215,-1.953125
8216,-1.953125
8217,-1.953125
8218,-1.953125
8219,-1.953125
8220,-3.906250
8221,-3.906250
8222,-1.953125
8223,-3.906250
8224,-5.859375
8225,-5.859375
8226,-5.859375
8227,-5.859375
8228,-5.859375
8229,-5.859375
8230,-7.812500
8231,-7.812500
8232,-7.812500
8233,-7.812500
8234,-7.812500
8235,-9.765625
8236,-9.765625
8237,-9.765625
8238,-11.718750
8239,-11.718750
8240,-9.765625
8241,-11.718750
8242,-11.718750
8243,-11.718750
8244,-11.718750
8245,-13.671875
8246,-13.671875
8247,-13.671875
8248,-13.671875
8249,-13.671875
8250,-13.671875
8251,-15.625000
8252,-15.625000
8253,-15.625000
8254,-17.578125
8255,-17.578125
8256,-17.578125
8257,-17.578125
8258,-19.531250
8259,-19.531250
8260,-19.531250
8261,-19.531250
8262,-19.531250
8263,-21.484375
8264,-21.484375
8265,-21.484375
8266,-21.484375
8267,-21.484375
8268,-23.437500
8269,-23.437500
8270,-23.437500
8271,-23.437500
8272,-25.390625
8273,-25.390625
8274,-25.390625
8275,-25.390625
8276,-25.390625
8277,-25.390625
8278,-27.343750
8279,-27.343750
8280,-27.343750
8281,-27.343750
8282,-29.296875
8283,-27.343750
8284,-29.296875
8285,-29.296875
8286,-29.296875
8287,-29.296875
8288,-31.250000
8289,-31.250000
8290,-31.250000
8291,-31.250000
8292,-33.203125
8293,-33.203125
8294,-31.250000
8295,-33.203125
8296,-33.203125
8297,-33.203125
8298,-33.203125
8299,-33.203125
8300,-33.203125
8301,-35.156250
8302,-35.156250
8303,-35.156250
8304,-35.156250
8305,-35.156250
8306,-35.156250
8307,-35.156250
8308,-35.156250
8309,-37.109375
8310,-37.109375
8311,-37.109375
8312,-37.109375
8313,-37.109375
8314,-37.109375
8315,-37.109375
8316,-39.062500
8317,-39.062500
8318,-39.062500
8319,-39.062500
8320,-39.062500
8321,-39.062500
8322,-39.062500
8323,-39.062500
8324,-39.062500
8325,-39.062500
8326,-41.015625
8327,-41.015625
8328,-41.015625
8329,-41.015625
8330,-41.015625
8331,-41.015625
8332,-41.015625
8333,-41.015625
8334,-42.968750
8335,-41.015625
8336,-41.015625
8337,-42.968750
8338,-42.968750
8339,-42.968750
8340,-42.968750
8341,-42.968750
8342,-42.968750
8343,-42.968750
8344,-44.921875
8345,-42.968750
8346,-42.968750
8347,-42.968750
8348,-44.921875
8349,-42.968750
8350,-44.921875
8351,-44.921875
8352,-44.921875
8353,-44.921875
8354,-44.921875
8355,-44.921875
8356,-44.921875
8357,-44.921875
8358,-44.921875
8359,-44.921875
8360,-44.921875
8361,-44.921875
8362,-44.921875
8363,-44.921875
8364,-44.921875
8365,-44.921875
8366,-44.921875
8367,-44.921875
8368,-44.921875
8369,-44.921875
8370,-44.921875
8371,-44.921875
8372,-44.921875
8373,-44.921875
8374,-44.921875
8375,-44.921875
8376,-44.921875
8377,-44.921875
8378,-44.921875
8379,-44.921875
8380,-44.921875
8381,-44.921875
8382,-44.921875
8383,-44.921875
8384,-44.921875
8385,-44.921875
8386,-44.921875
8387,-44.921875
8388,-44.921875
8389,-44.921875
8390,-44.921875
8391,-44.921875
8392,-44.921875
8393,-44.921875
8394,-44.921875
8395,-44.921875
8396,-44.921875
8397,-44.921875
8398,-44.921875
8399,-42.968750
8400,-44.921875
8401,-44.921875
8402,-42.968750
8403,-42.968750
8404,-44.921875
8405,-42.968750
8406,-44.921875
8407,-42.968750
8408,-42.968750
8409,-42.968750
8410,-42.968750
8411,-42.968750
8412,-42.968750
8413,-42.968750
8414,-42.968750
8415,-42.968750
8416,-41.015625
8417,-41.015625
8418,-42.968750
8419,-41.015625
8420,-41.015625
8421,-41.015625
8422,-41.015625
8423,-41.015625
8424,-41.015625
8425,-41.015625
8426,-41.015625
8427,-39.062500
8428,-41.015625
8429,-39.062500
8430,-39.062500
8431,-39.062500
8432,-37.109375
8433,-37.109375
8434,-37.109375
8435,-37.109375
8436,-37.109375
8437,-37.109375
8438,-37.109375
8439,-37.109375
8440,-35.156250
8441,-35.156250
8442,-35.156250
8443,-35.156250
8444,-35.156250
8445,-33.203125
8446,-35.156250
8447,-33.203125
8448,-33.203125
8449,-33.203125
8450,-33.203125
8451,-33.203125
8452,-31.250000
8453,-31.250000
8454,-31.250000
8455,-31.250000
8456,-31.250000
8457,-31.250000
8458,-29.296875
8459,-29.296875
8460,-29.296875
8461,-29.296875
8462,-29.296875
8463,-29.296875
8464,-27.343750
8465,-27.343750
8466,-27.343750
8467,-25.390625
8468,-25.390625
8469,-25.390625
8470,-25.390625
8471,-25.390625
8472,-25.390625
8473,-23.437500
8474,-23.437500
8475,-23.437500
8476,-23.437500
8477,-21.484375
8478,-21.484375
8479,-21.484375
8480,-21.484375
8481,-21.484375
8482,-19.531250
8483,-19.531250
8484,-19.531250
8485,-19.531250
8486,-19.531250
8487,-19.531250
8488,-19.531250
8489,-17.578125
8490,-17.578125
8491,-17.578125
8492,-17.578125
8493,-15.625000
8494,-15.625000
8495,-15.625000
8496,-15.625000
8497,-15.625000
8498,-13.671875
8499,-13.671875
8500,-13.671875
8501,-13.671875
8502,-11.718750
8503,-11.718750
8504,-11.718750
8505,-11.718750
8506,-9.765625
8507,-9.765625
8508,-9.765625
8509,-9.765625
8510,-9.765625
8511,-9.765625
8512,-7.812500
8513,-7.812500
8514,-7.812500
8515,-7.812500
8516,-7.812500
8517,-7.812500
8518,-7.812500
8519,-7.812500
8520,-5.859375
8521,-5.859375
8522,-5.859375
8523,-5.859375
8524,-3.906250
8525,-3.906250
8526,-3.906250
8527,-3.906250
8528,-3.906250
8529,-1.953125
8530,-3.906250
8531,-1.953125
8532,-1.953125
8533,-1.953125
8534,-1.953125
8535,-1.953125
8536,-1.953125
8537,0.000000
8538,0.000000
8539,0.000000
8540,0.000000
8541,0.000000
8542,0.000000
8543,0.000000
8544,1.953125
8545,1.953125
8546,1.953125
8547,1.953125
8548,3.906250
8549,1.953125
8550,1.953125
8551,3.906250
8552,3.906250
8553,3.906250
8554,3.906250
8555,5.859375
8556,5.859375
8557,3.906250
8558,5.859375
8559,5.859375
8560,5.859375
8561,5.859375
8562,5.859375
8563,7.812500
8564,5.859375
8565,7.812500
8566,7.812500
8567,7.812500
8568,7.812500
8569,9.765625
8570,9.765625
8571,7.812500
8572,9.765625
8573,9.765625
8574,9.765625
8575,11.718750
8576,9.765625
8577,11.718750
8578,9.765625
8579,9.765625
8580,11.718750
8581,11.718750
8582,11.718750
8583,11.718750
8584,11.718750
8585,11.718750
8586,11.718750
8587,13.671875
8588,11.718750
8589,13.671875
8590,13.671875
8591,13.671875
8592,13.671875
8593,13.671875
8594,13.671875
8595,13.671875
8596,15.625000
8597,13.671875
8598,13.671875
8599,13.671875
8600,13.671875
8601,15.625000
8602,15.625000
8603,15.625000
8604,15.625000
8605,15.625000
8606,15.625000
8607,15.625000
8608,15.625000
8609,15.625000
8610,15.625000
8611,15.625000
8612,15.625000
8613,15.625000
8614,15.625000
8615,17.578125
8616,17.578125
8617,17.578125
8618,17.578125
8619,17.578125
8620,17.578125
8621,17.578125
8622,17.578125
8623,17.578125
8624,19.531250
8625,19.531250
8626,17.578125
8627,17.578125
8628,19.531250
8629,19.531250
8630,19.531250
8631,19.531250
8632,19.531250
8633,19.531250
8634,19.531250
8635,19.531250
8636,19.531250
8637,19.531250
8638,19.531250
8639,19.531250
8640,19.531250
8641,19.531250
8642,19.531250
8643,19.531250
8644,21.484375
8645,19.531250
8646,19.531250
8647,21.484375
8648,21.484375
8649,21.484375
8650,21.484375
8651,21.484375
8652,21.484375
8653,21.484375
8654,21.484375
8655,21.484375
8656,21.484375
8657,21.484375
8658,21.484375
8659,21.484375
8660,21.484375
8661,21.484375
8662,21.484375
8663,21.484375
8664,21.484375
8665,21.484375
8666,21.484375
8667,21.484375
8668,21.484375
8669,23.437500
8670,23.437500
8671,21.484375
8672,23.437500
8673,21.484375
8674,23.437500
8675,23.437500
8676,21.484375
8677,23.437500
8678,23.437500
8679,23.437500
8680,23.437500
8681,23.437500
8682,23.437500
8683,23.437500
8684,23.437500
8685,23.437500
8686,23.437500
8687,23.437500
8688,23.437500
8689,23.437500
8690,23.437500
8691,23.437500
8692,23.437500
8693,23.437500
8694,23.437500
8695,23.437500
8696,23.437500
8697,23.437500
8698,23.437500
8699,23.437500
8700,23.437500
8701,23.437500
8702,23.437500
8703,23.437500
8704,23.437500
8705,23.437500
8706,25.390625
8707,23.437500
8708,23.437500
8709,23.437500
8710,23.437500
8711,23.437500
8712,23.437500
8713,23.437500
8714,23.437500
8715,23.437500
8716,21.484375
8717,21.484375
8718,23.437500
8719,23.437500
8720,21.484375
8721,21.484375
8722,21.484375
8723,21.484375
8724,21.484375
8725,21.484375
8726,21.484375
8727,21.484375
8728,21.484375
8729,21.484375
8730,19.531250
8731,21.484375
8732,19.531250
8733,19.531250
8734,19.531250
8735,19.531250
8736,19.531250
8737,19.531250
8738,19.531250
8739,19.531250
8740,19.531250
8741,19.531250
8742,17.578125
8743,17.578125
8744,17.578125
8745,17.578125
8746,17.578125
8747,17.578125
8748,17.578125
8749,17.578125
8750,17.578125
8751,15.625000
8752,15.625000
8753,13.671875
8754,15.625000
8755,15.625000
8756,15.625000
8757,13.671875
8758,13.671875
8759,13.671875
8760,13.671875
8761,13.671875
8762,11.718750
8763,13.671875
8764,11.718750
8765,11.718750
8766,11.718750
8767,11.718750
8768,9.765625
8769,11.718750
8770,11.718750
8771,9.765625
8772,9.765625
8773,9.765625
8774,9.765625
8775,7.812500
8776,7.812500
8777,7.812500
8778,7.812500
8779,7.812500
8780,5.859375
8781,5.859375
8782,5.859375
8783,5.859375
8784,3.906250
8785,3.906250
8786,3.906250
8787,3.906250
8788,3.906250
8789,3.906250
8790,1.953125
8791,1.953125
8792,1.953125
8793,1.953125
8794,0.000000
8795,0.000000
8796,0.000000
8797,0.000000
8798,0.000000
8799,-1.953125
8800,-1.953125
8801,-1.953125
8802,-1.953125
8803,-3.906250
8804,-3.906250
8805,-1.953125
8806,-3.906250
8807,-3.906250
8808,-5.859375
8809,-5.859375
8810,-5.859375
8811,-7.812500
8812,-7.812500
8813,-5.859375
8814,-7.812500
8815,-7.812500
8816,-7.812500
8817,-7.812500
8818,-7.812500
8819,-9.765625
8820,-9.765625
8821,-9.765625
8822,-9.765625
8823,-11.718750
8824,-11.718750
8825,-11.718750
8826,-11.718750
8827,-13.671875
8828,-13.671875
8829,-13.671875
8830,-13.671875
8831,-13.671875
8832,-15.625000
8833,-15.625000
8834,-15.625000
8835,-15.625000
8836,-15.625000
8837,-15.625000
8838,-17.578125
8839,-17.578125
8840,-17.578125
8841,-17.578125
8842,-19.531250
8843,-19.531250
8844,-19.531250
8845,-19.531250
8846,-21.484375
8847,-21.484375
8848,-21.484375
8849,-21.484375
8850,-21.484375
8851,-23.437500
8852,-23.437500
8853,-23.437500
8854,-23.437500
8855,-25.390625
8856,-25.390625
8857,-25.390625
8858,-25.390625
8859,-27.343750
8860,-25.390625
8861,-27.343750
8862,-27.343750
8863,-27.343750
8864,-27.343750
8865,-29.296875
8866,-29.296875
8867,-29.296875
8868,-29.296875
8869,-29.296875
8870,-29.296875
8871,-29.296875
8872,-31.250000
8873,-31.250000
8874,-31.250000
8875,-31.250000
8876,-31.250000
8877,-33.203125
8878,-33.203125
8879,-33.203125
8880,-33.203125
8881,-35.156250
8882,-35.156250
8883,-33.203125
8884,-35.156250
8885,-35.156250
8886,-35.156250
8887,-35.156250
8888,-35.156250
8889,-35.156250
8890,-37.109375
8891,-37.109375
8892,-37.109375
8893,-37.109375
8894,-37.109375
8895,-37.109375
8896,-37.109375
8897,-37.109375
8898,-39.062500
8899,-39.062500
8900,-39.062500
8901,-39.062500
8902,-39.062500
8903,-39.062500
8904,-39.062500
8905,-41.015625
8906,-39.062500
8907,-41.015625
8908,-41.015625
8909,-41.015625
8910,-41.015625
8911,-41.015625
8912,-41.015625
8913,-41.015625
8914,-41.015625
8915,-41.015625
8916,-41.015625
8917,-42.968750
8918,-42.968750
8919,-42.968750
8920,-42.968750
8921,-42.968750
8922,-42.968750
8923,-42.968750
8924,-42.968750
8925,-44.921875
8926,-44.921875
8927,-42.968750
8928,-44.921875
8929,-44.921875
8930,-42.968750
8931,-44.921875
8932,-44.921875
8933,-44.921875
8934,-44.921875
8935,-44.921875
8936,-44.921875
8937,-44.921875
8938,-44.921875
8939,-44.921875
8940,-44.921875
8941,-44.921875
8942,-44.921875
8943,-44.921875
8944,-44.921875
8945,-44.921875
8946,-46.875000
8947,-44.921875
8948,-44.921875
8949,-44.921875
8950,-44.921875
8951,-44.921875
8952,-44.921875
8953,-44.921875
8954,-44.921875
8955,-44.921875
8956,-44.921875
8957,-44.921875
8958,-44.921875
8959,-44.921875
8960,-44.921875
8961,-44.921875
8962,-44.921875
8963,-46.875000
8964,-44.921875
8965,-44.921875
8966,-44.921875
8967,-44.921875
8968,-44.921875
8969,-44.921875
8970,-44.921875
8971,-44.921875
8972,-44.921875
8973,-44.921875
8974,-44.921875
8975,-44.921875
8976,-44.921875
8977,-44.921875
8978,-44.921875
8979,-44.921875
8980,-44.921875
8981,-44.921875
8982,-44.921875
8983,-44.921875
8984,-44.921875
8985,-44.921875
8986,-44.921875
8987,-44.921875
8988,-42.968750
8989,-44.921875
8990,-42.968750
8991,-42.968750
8992,-42.968750
8993,-42.968750
8994,-42.968750
8995,-42.968750
8996,-42.968750
8997,-42.968750
8998,-41.015625
8999,-42.968750
9000,-41.015625
9001,-42.968750
9002,-41.015625
9003,-41.015625
9004,-41.015625
9005,-41.015625
9006,-41.015625
9007,-41.015625
9008,-41.015625
9009,-39.062500
9010,-39.062500
9011,-39.062500
9012,-39.062500
9013,-39.062500
9014,-39.062500
9015,-39.062500
9016,-37.109375
9017,-37.109375
9018,-37.109375
9019,-37.109375
9020,-37.109375
9021,-37.109375
9022,-35.156250
9023,-37.109375
9024,-35.156250
9025,-35.156250
9026,-35.156250
9027,-35.156250
9028,-35.156250
9029,-33.203125
9030,-33.203125
9031,-33.203125
9032,-33.203125
9033,-33.203125
9034,-33.203125
9035,-31.250000
9036,-31.250000
9037,-31.250000
9038,-31.250000
9039,-31.250000
9040,-31.250000
9041,-29.296875
9042,-29.296875
9043,-29.296875
9044,-29.296875
9045,-27.343750
9046,-27.343750
9047,-27.343750
9048,-27.343750
9049,-27.343750
9050,-25.390625
9051,-25.390625
9052,-25.390625
9053,-25.390625
9054,-25.390625
9055,-25.390625
9056,-23.437500
9057,-23.437500
9058,-23.437500
9059,-23.437500
9060,-23.437500
9061,-21.484375
9062,-21.484375
9063,-21.484375
9064,-21.484375
9065,-19.531250
9066,-21.484375
9067,-19.531250
9068,-19.531250
9069,-19.531250
9070,-19.531250
9071,-17.578125
9072,-17.578125
9073,-17.578125
9074,-17.578125
9075,-15.625000
9076,-15.625000
9077,-15.625000
9078,-15.625000
9079,-15.625000
9080,-13.671875
9081,-13.671875
9082,-13.671875
9083,-13.671875
9084,-11.718750
9085,-11.718750
9086,-11.718750
9087,-11.718750
9088,-11.718750
9089,-11.718750
9090,-9.765625
9091,-9.765625
9092,-9.765625
9093,-9.765625
9094,-9.765625
9095,-7.812500
9096,-7.812500
9097,-7.812500
9098,-7.812500
9099,-7.812500
9100,-7.812500
9101,-5.859375
9102,-5.859375
9103,-5.859375
9104,-5.859375
9105,-5.859375
9106,-5.859375
9107,-3.906250
9108,-3.906250
9109,-3.906250
9110,-3.906250
9111,-1.953125
9112,-3.906250
9113,-1.953125
9114,-1.953125
9115,-1.953125
9116,-1.953125
9117,-1.953125
9118,-1.953125
9119,0.000000
9120,0.000000
9121,0.000000
9122,0.000000
9123,0.000000
9124,1.953125
9125,1.953125
9126,1.953125
9127,1.953125
9128,1.953125
9129,1.953125
9130,1.953125
9131,1.953125
9132,3.906250
9133,3.906250
9134,3.906250
9135,3.906250
9136,3.906250
9137,5.859375
9138,5.859375
9139,3.906250
9140,5.859375
9141,5.859375
9142,5.859375
9143,5.859375
9144,5.859375
9145,5.859375
9146,7.812500
9147,7.812500
9148,7.812500
9149,7.812500
9150,7.812500
9151,7.812500
9152,9.765625
9153,9.765625
9154,7.812500
9155,9.765625
9156,9.765625
9157,9.765625
9158,9.765625
9159,9.765625
9160,11.718750
9161,11.718750
9162,9.765625
9163,11.718750
9164,11.718750
9165,11.718750
9166,11.718750
9167,11.718750
9168,11.718750
9169,11.718750
9170,13.671875
9171,13.671875
9172,13.671875
9173,13.671875
9174,11.718750
9175,13.671875
9176,13.671875
9177,13.671875
9178,13.671875
9179,13.671875
9180,13.671875
9181,15.625000
9182,15.625000
9183,15.625000
9184,13.671875
9185,15.625000
9186,15.625000
9187,15.625000
9188,15.625000
9189,15.625000
9190,15.625000
9191,15.625000
9192,15.625000
9193,15.625000
9194,15.625000
9195,17.578125
9196,17.578125
9197,17.578125
9198,17.578125
9199,17.578125
9200,17.578125
9201,17.578125
9202,17.578125
9203,17.578125
9204,17.578125
9205,17.578125
9206,17.578125
9207,17.578125
9208,17.578125
9209,17.578125
9210,19.531250
9211,19.531250
9212,19.531250
9213,17.578125
9214,19.531250
9215,19.531250
9216,19.531250
9217,19.531250
9218,19.531250
9219,19.531250
9220,19.531250
9221,19.531250
9222,19.531250
9223,19.531250
9224,19.531250
9225,19.531250
9226,21.484375
9227,21.484375
9228,21.484375
9229,19.531250
9230,21.484375
9231,21.484375
9232,21.484375
9233,21.484375
9234,21.484375
9235,21.484375
9236,21.484375
9237,21.484375
9238,21.484375
9239,21.484375
9240,21.484375
9241,21.484375
9242,21.484375
9243,21.484375
9244,21.484375
9245,21.484375
9246,21.484375
9247,21.484375
9248,21.484375
9249,21.484375
9250,23.437500
9251,21.484375
9252,21.484375
9253,21.484375
9254,23.437500
9255,23.437500
9256,23.437500
9257,23.437500
9258,21.484375
9259,23.437500
9260,23.437500
9261,23.437500
9262,21.484375
9263,23.437500
9264,21.484375
9265,23.437500
9266,23.437500
9267,23.437500
9268,21.484375
9269,23.437500
9270,23.437500
9271,23.437500
9272,23.437500
9273,23.437500
9274,23.437500
9275,23.437500
9276,23.437500
9277,23.437500
9278,23.437500
9279,23.437500
9280,23.437500
9281,23.437500
9282,23.437500
9283,23.437500
9284,23.437500
9285,23.437500
9286,23.437500
9287,23.437500
9288,23.437500
9289,23.437500
9290,23.437500
9291,23.437500
9292,23.437500
9293,25.390625
9294,23.437500
9295,23.437500
9296,21.484375
9297,23.437500
9298,23.437500
9299,21.484375
9300,21.484375
9301,21.484375
9302,23.437500
9303,23.437500
9304,21.484375
9305,21.484375
9306,21.484375
9307,23.437500
9308,21.484375
9309,21.484375
9310,21.484375
9311,21.484375
9312,21.484375
9313,19.531250
9314,19.531250
9315,19.531250
9316,19.531250
9317,19.531250
9318,19.531250
9319,19.531250
9320,19.531250
9321,19.531250
9322,19.531250
9323,19.531250
9324,17.578125
9325,17.578125
9326,17.578125
9327,17.578125
9328,17.578125
9329,15.625000
9330,17.578125
9331,17.578125
9332,17.578125
9333,15.625000
9334,15.625000
9335,15.625000
9336,15.625000
9337,15.625000
9338,13.671875
9339,13.671875
9340,13.671875
9341,13.671875
9342,13.671875
9343,11.718750
9344,13.671875
9345,11.718750
9346,11.718750
9347,11.718750
9348,11.718750
9349,11.718750
9350,11.718750
9351,9.765625
9352,9.765625
9353,9.765625
9354,9.765625
9355,9.765625
9356,9.765625
9357,9.765625
9358,7.812500
9359,7.812500
9360,7.812500
9361,7.812500
9362,5.859375
9363,5.859375
9364,5.859375
9365,5.859375
9366,5.859375
9367,5.859375
9368,3.906250
9369,3.906250
9370,3.906250
9371,3.906250
9372,1.953125
9373,1.953125
9374,1.953125
9375,0.000000
9376,1.953125
9377,0.000000
9378,0.000000
9379,0.000000
9380,0.000000
9381,-1.953125
9382,0.000000
9383,-1.953125
9384,-3.906250
9385,-1.953125
9386,-1.953125
9387,-3.906250
9388,-3.906250
9389,-5.859375
9390,-3.906250
9391,-5.859375
9392,-5.859375
9393,-5.859375
9394,-5.859375
9395,-5.859375
9396,-7.812500
9397,-7.812500
9398,-7.812500
9399,-7.812500
9400,-7.812500
9401,-9.765625
9402,-9.765625
9403,-9.765625
9404,-9.765625
9405,-11.718750
9406,-11.718750
9407,-11.718750
9408,-11.718750
9409,-11.718750
9410,-11.718750
9411,-13.671875
9412,-13.671875
9413,-13.671875
9414,-13.671875
9415,-15.625000
9416,-15.625000
9417,-15.625000
9418,-15.625000
9419,-15.625000
9420,-17.578125
9421,-17.578125
9422,-17.578125
9423,-17.578125
9424,-17.578125
9425,-19.531250
9426,-19.531250
9427,-19.531250
9428,-19.531250
9429,-21.484375
9430,-21.484375
9431,-21.484375
9432,-21.484375
9433,-23.437500
9434,-23.437500
9435,-23.437500
9436,-23.437500
9437,-23.437500
9438,-23.437500
9439,-25.390625
9440,-25.390625
9441,-25.390625
9442,-25.390625
9443,-27.343750
9444,-27.343750
9445,-27.343750
9446,-27.343750
9447,-27.343750
9448,-29.296875
9449,-29.296875
9450,-29.296875
9451,-29.296875
9452,-29.296875
9453,-29.296875
9454,-29.296875
9455,-31.250000
9456,-31.250000
9457,-31.250000
9458,-31.250000
9459,-31.250000
9460,-33.203125
9461,-33.203125
9462,-33.203125
9463,-33.203125
9464,-33.203125
9465,-33.203125
9466,-33.203125
9467,-35.156250
9468,-35.156250
9469,-35.156250
9470,-37.109375
9471,-35.156250
9472,-35.156250
9473,-35.156250
9474,-35.156250
9475,-37.109375
9476,-37.109375
9477,-37.109375
9478,-37.109375
9479,-37.109375
9480,-39.062500
9481,-39.062500
9482,-39.062500
9483,-39.062500
9484,-39.062500
9485,-39.062500
9486,-39.062500
9487,-39.062500
9488,-39.062500
9489,-39.062500
9490,-41.015625
9491,-41.015625
9492,-41.015625
9493,-41.015625
9494,-41.015625
9495,-41.015625
9496,-41.015625
9497,-41.015625
9498,-41.015625
9499,-41.015625
9500,-42.968750
9501,-42.968750
9502,-42.968750
9503,-42.968750
9504,-42.968750
9505,-42.968750
9506,-42.968750
9507,-42.968750
9508,-42.968750
9509,-42.968750
9510,-42.968750
9511,-42.968750
9512,-42.968750
9513,-44.921875
9514,-44.921875
9515,-44.921875
9516,-42.968750
9517,-44.921875
9518,-44.921875
9519,-44.921875
9520,-44.921875
9521,-44.921875
9522,-44.921875
9523,-44.921875
9524,-44.921875
9525,-44.921875
9526,-44.921875
9527,-44.921875
9528,-44.921875
9529,-44.921875
9530,-44.921875
9531,-44.921875
9532,-44.921875
9533,-44.921875
9534,-44.921875
9535,-44.921875
9536,-44.921875
9537,-44.921875
9538,-44.921875
9539,-44.921875
9540,-44.921875
9541,-44.921875
9542,-44.921875
9543,-44.921875
9544,-44.921875
9545,-44.921875
9546,-44.921875
9547,-44.921875
9548,-44.921875
9549,-44.921875
9550,-44.921875
9551,-44.921875
9552,-44.921875
9553,-44.921875
9554,-44.921875
9555,-44.921875
9556,-44.921875
9557,-44.921875
9558,-44.921875
9559,-44.921875
9560,-44.921875
9561,-44.921875
9562,-44.921875
9563,-44.921875
9564,-44.921875
9565,-44.921875
9566,-42.968750
9567,-42.968750
9568,-44.921875
9569,-44.921875
9570,-42.968750
9571,-42.968750
9572,-42.968750
9573,-42.968750
9574,-42.968750
9575,-42.968750
9576,-42.968750
9577,-42.968750
9578,-42.968750
9579,-42.968750
9580,-42.968750
9581,-42.968750
9582,-41.015625
9583,-41.015625
9584,-41.015625
9585,-41.015625
9586,-41.015625
9587,-41.015625
9588,-41.015625
9589,-41.015625
9590,-39.062500
9591,-39.062500
9592,-39.062500
9593,-39.062500
9594,-39.062500
9595,-39.062500
9596,-39.062500
9597,-39.062500
9598,-39.062500
9599,-39.062500
9600,-37.109375
9601,-37.109375
9602,-37.109375
9603,-37.109375
9604,-37.109375
9605,-35.156250
9606,-35.156250
9607,-35.156250
9608,-35.156250
9609,-35.156250
9610,-33.203125
9611,-33.203125
9612,-33.203125
9613,-33.203125
9614,-33.203125
9615,-33.203125
9616,-33.203125
9617,-31.250000
9618,-31.250000
9619,-31.250000
9620,-31.250000
9621,-31.250000
9622,-31.250000
9623,-29.296875
9624,-31.250000
9625,-29.296875
9626,-29.296875
9627,-29.296875
9628,-29.296875
9629,-27.343750
9630,-27.343750
9631,-27.343750
9632,-27.343750
9633,-27.343750
9634,-25.390625
9635,-25.390625
9636,-25.390625
9637,-25.390625
9638,-25.390625
9639,-23.437500
9640,-23.437500
9641,-23.437500
9642,-23.437500
9643,-21.484375
9644,-23.437500
9645,-23.437500
9646,-21.484375
9647,-21.484375
9648,-19.531250
9649,-19.531250
9650,-19.531250
9651,-19.531250
9652,-17.578125
9653,-19.531250
9654,-17.578125
9655,-17.578125
9656,-17.578125
9657,-17.578125
9658,-17.578125
9659,-15.625000
9660,-15.625000
9661,-15.625000
9662,-15.625000
9663,-15.625000
9664,-13.671875
9665,-13.671875
9666,-13.671875
9667,-11.718750
9668,-11.718750
9669,-11.718750
9670,-11.718750
9671,-11.718750
9672,-9.765625
9673,-9.765625
9674,-9.765625
9675,-9.765625
9676,-9.765625
9677,-9.765625
9678,-9.765625
9679,-7.812500
9680,-7.812500
9681,-7.812500
9682,-7.812500
9683,-5.859375
9684,-5.859375
9685,-5.859375
9686,-5.859375
9687,-5.859375
9688,-5.859375
9689,-5.859375
9690,-3.906250
9691,-3.906250
9692,-3.906250
9693,-3.906250
9694,-1.953125
9695,-3.906250
9696,-1.953125
9697,-1.953125
9698,-1.953125
9699,-1.953125
9700,-1.953125
9701,-1.953125
9702,-1.953125
9703,0.000000
9704,0.000000
9705,0.000000
9706,0.000000
9707,0.000000
9708,0.000000
9709,0.000000
9710,1.953125
9711,1.953125
9712,1.953125
9713,1.953125
9714,1.953125
9715,3.906250
9716,1.953125
9717,3.906250
9718,3.906250
9719,3.906250
9720,3.906250
9721,3.906250
9722,3.906250
9723,5.859375
9724,5.859375
9725,3.906250
9726,5.859375
9727,7.812500
9728,5.859375
9729,5.859375
9730,7.812500
9731,7.812500
9732,7.812500
9733,7.812500
9734,7.812500
9735,5.859375
9736,9.765625
9737,7.812500
9738,9.765625
9739,9.765625
9740,9.765625
9741,9.765625
9742,9.765625
9743,9.765625
9744,9.765625
9745,11.718750
9746,9.765625
9747,11.718750
9748,11.718750
9749,11.718750
9750,11.718750
9751,11.718750
9752,11.718750
9753,11.718750
9754,13.671875
9755,13.671875
9756,13.671875
9757,13.671875
9758,13.671875
9759,13.671875
9760,13.671875
9761,13.671875
9762,13.671875
9763,13.671875
9764,13.671875
9765,13.671875
9766,13.671875
9767,13.671875
9768,15.625000
9769,15.625000
9770,15.625000
9771,15.625000
9772,15.625000
9773,15.625000
9774,15.625000
9775,15.625000
9776,15.625000
9777,15.625000
9778,17.578125
9779,15.625000
9780,15.625000
9781,17.578125
9782,17.578125
9783,17.578125
9784,17.578125
9785,17.578125
9786,17.578125
9787,17.578125
9788,17.578125
9789,17.578125
9790,17.578125
9791,17.578125
9792,17.578125
9793,19.531250
9794,17.578125
9795,19.531250
9796,19.531250
9797,19.531250
9798,17.578125
9799,19.531250
9800,19.531250
9801,19.531250
9802,19.531250
9803,19.531250
9804,19.531250
9805,19.531250
9806,19.531250
9807,19.531250
9808,19.531250
9809,19.531250
9810,19.531250
9811,19.531250
9812,21.484375
9813,19.531250
9814,19.531250
9815,21.484375
9816,21.484375
9817,19.531250
9818,21.484375
9819,21.484375
9820,21.484375
9821,21.484375
9822,21.484375
9823,21.484375
9824,21.484375
9825,21.484375
9826,21.484375
9827,21.484375
9828,21.484375
9829,21.484375
9830,21.484375
9831,21.484375
9832,21.484375
9833,21.484375
9834,21.484375
9835,21.484375
9836,23.437500
9837,21.484375
9838,21.484375
9839,23.437500
9840,21.484375
9841,21.484375
9842,21.484375
9843,23.437500
9844,21.484375
9845,23.437500
9846,23.437500
9847,23.437500
9848,23.437500
9849,23.437500
9850,21.484375
9851,23.437500
9852,23.437500
9853,23.437500
9854,23.437500
9855,23.437500
9856,23.437500
9857,23.437500
9858,23.437500
9859,23.437500
9860,23.437500
9861,23.437500
9862,23.437500
9863,23.437500
9864,23.437500
9865,23.437500
9866,23.437500
9867,23.437500
9868,23.437500
9869,23.437500
9870,23.437500
9871,23.437500
9872,23.437500
9873,23.437500
9874,23.437500
9875,23.437500
9876,23.437500
9877,23.437500
9878,23.437500
9879,23.437500
9880,23.437500
9881,23.437500
9882,23.437500
9883,23.437500
9884,21.484375
9885,23.437500
9886,21.484375
9887,23.437500
9888,21.484375
9889,19.531250
9890,21.484375
9891,21.484375
9892,21.484375
9893,21.484375
9894,21.484375
9895,21.484375
9896,19.531250
9897,21.484375
9898,19.531250
9899,19.531250
9900,19.531250
9901,19.531250
9902,19.531250
9903,19.531250
9904,19.531250
9905,19.531250
9906,17.578125
9907,17.578125
9908,17.578125
9909,17.578125
9910,17.578125
9911,17.578125
9912,17.578125
9913,17.578125
9914,15.625000
9915,17.578125
9916,15.625000
9917,15.625000
9918,15.625000
9919,15.625000
9920,13.671875
9921,15.625000
9922,15.625000
9923,13.671875
9924,13.671875
9925,13.671875
9926,13.671875
9927,13.671875
9928,13.671875
9929,13.671875
9930,11.718750
9931,11.718750
9932,11.718750
9933,11.718750
9934,11.718750
9935,11.718750
9936,9.765625
9937,9.765625
9938,9.765625
9939,9.765625
9940,9.765625
9941,7.812500
9942,7.812500
9943,7.812500
9944,7.812500
9945,7.812500
9946,7.812500
9947,5.859375
9948,5.859375
9949,5.859375
9950,5.859375
9951,3.906250
9952,3.906250
9953,3.906250
9954,3.906250
9955,5.859375
9956,1.953125
9957,1.953125
9958,1.953125
9959,1.953125
9960,1.953125
9961,0.000000
9962,0.000000
9963,0.000000
9964,0.000000
9965,-1.953125
9966,-1.953125
9967,-1.953125
9968,-1.953125
9969,-3.906250
9970,-3.906250
9971,-3.906250
9972,-3.906250
9973,-3.906250
9974,-5.859375
9975,-5.859375
9976,-5.859375
9977,-5.859375
9978,-5.859375
9979,-5.859375
9980,-7.812500
9981,-5.859375
9982,-7.812500
9983,-7.812500
9984,-9.765625
9985,-9.765625
9986,-9.765625
9987,-9.765625
9988,-9.765625
9989,-11.718750
9990,-9.765625
9991,-11.718750
9992,-11.718750
9993,-11.718750
9994,-13.671875
9995,-13.671875
9996,-13.671875
9997,-13.671875
9998,-13.671875
9999,-13.671875
10000,-15.625000
