Channel              :,CH1
Frequency            :,857.1Hz
Period               :,1.167ms
PK-PK                :,60.55mV
Probe attenuation    :,1X
Voltage per ADC value:,0.122070mV
Time interval        :,2.00000us

index,CH1_Voltage(mV)
1,9.765625
2,9.765625
3,9.765625
4,9.765625
5,7.812500
6,9.765625
7,9.765625
8,9.765625
9,7.812500
10,7.812500
11,7.812500
12,7.812500
13,9.765625
14,7.812500
15,7.812500
16,7.812500
17,7.812500
18,7.812500
19,7.812500
20,7.812500
21,7.812500
22,7.812500
23,5.859375
24,5.859375
25,7.812500
26,5.859375
27,5.859375
28,5.859375
29,5.859375
30,5.859375
31,5.859375
32,5.859375
33,5.859375
34,5.859375
35,5.859375
36,5.859375
37,5.859375
38,3.906250
39,3.906250
40,3.906250
41,3.906250
42,3.906250
43,3.906250
44,3.906250
45,3.906250
46,1.953125
47,3.906250
48,3.906250
49,1.953125
50,1.953125
51,1.953125
52,1.953125
53,1.953125
54,1.953125
55,1.953125
56,0.000000
57,0.000000
58,0.000000
59,0.000000
60,0.000000
61,0.000000
62,-1.953125
63,0.000000
64,-1.953125
65,-1.953125
66,-1.953125
67,-1.953125
68,-1.953125
69,-1.953125
70,-1.953125
71,-3.906250
72,-3.906250
73,-3.906250
74,-3.906250
75,-3.906250
76,-5.859375
77,-5.859375
78,-5.859375
79,-5.859375
80,-5.859375
81,-5.859375
82,-5.859375
83,-5.859375
84,-7.812500
85,-7.812500
86,-7.812500
87,-7.812500
88,-7.812500
89,-7.812500
90,-7.812500
91,-9.765625
92,-9.765625
93,-9.765625
94,-9.765625
95,-9.765625
96,-9.765625
97,-11.718750
98,-9.765625
99,-9.765625
100,-11.718750
101,-11.718750
102,-11.718750
103,-11.718750
104,-11.718750
105,-11.718750
106,-13.671875
107,-13.671875
108,-13.671875
109,-13.671875
110,-13.671875
111,-15.625000
112,-13.671875
113,-15.625000
114,-15.625000
115,-15.625000
116,-15.625000
117,-15.625000
118,-17.578125
119,-17.578125
120,-17.578125
121,-17.578125
122,-17.578125
123,-17.578125
124,-17.578125
125,-17.578125
126,-19.531250
127,-19.531250
128,-19.531250
129,-19.531250
130,-19.531250
131,-21.484375
132,-21.484375
133,-21.484375
134,-21.484375
135,-23.437500
136,-21.484375
137,-23.437500
138,-23.437500
139,-23.437500
140,-23.437500
141,-23.437500
142,-25.390625
143,-25.390625
144,-25.390625
145,-25.390625
146,-25.390625
147,-27.343750
148,-25.390625
149,-27.343750
150,-27.343750
151,-27.343750
152,-27.343750
153,-27.343750
154,-29.296875
155,-29.296875
156,-29.296875
157,-29.296875
158,-29.296875
159,-31.250000
160,-31.250000
161,-31.250000
162,-31.250000
163,-31.250000
164,-31.250000
165,-31.250000
166,-31.250000
167,-33.203125
168,-33.203125
169,-33.203125
170,-35.156250
171,-33.203125
172,-33.203125
173,-35.156250
174,-35.156250
175,-35.156250
176,-35.156250
177,-35.156250
178,-35.156250
179,-35.156250
180,-37.109375
181,-37.109375
182,-37.109375
183,-37.109375
184,-37.109375
185,-37.109375
186,-37.109375
187,-37.109375
188,-37.109375
189,-39.062500
190,-39.062500
191,-39.062500
192,-39.062500
193,-39.062500
194,-39.062500
195,-39.062500
196,-39.062500
197,-39.062500
198,-39.062500
199,-41.015625
200,-41.015625
201,-41.015625
202,-41.015625
203,-41.015625
204,-41.015625
205,-41.015625
206,-41.015625
207,-41.015625
208,-42.968750
209,-42.968750
210,-42.968750
211,-42.968750
212,-42.968750
213,-41.015625
214,-42.968750
215,-42.968750
216,-42.968750
217,-42.968750
218,-42.968750
219,-42.968750
220,-42.968750
221,-42.968750
222,-42.968750
223,-42.968750
224,-42.968750
225,-42.968750
226,-42.968750
227,-42.968750
228,-42.968750
229,-42.968750
230,-42.968750
231,-42.968750
232,-42.968750
233,-42.968750
234,-42.968750
235,-42.968750
236,-42.968750
237,-42.968750
238,-42.968750
239,-42.968750
240,-42.968750
241,-42.968750
242,-42.968750
243,-42.968750
244,-41.015625
245,-41.015625
246,-42.968750
247,-42.968750
248,-41.015625
249,-41.015625
250,-41.015625
251,-41.015625
252,-41.015625
253,-41.015625
254,-41.015625
255,-41.015625
256,-41.015625
257,-41.015625
258,-41.015625
259,-41.015625
260,-39.062500
261,-39.062500
262,-41.015625
263,-39.062500
264,-39.062500
265,-39.062500
266,-39.062500
267,-39.062500
268,-39.062500
269,-39.062500
270,-39.062500
271,-39.062500
272,-37.109375
273,-37.109375
274,-37.109375
275,-37.109375
276,-37.109375
277,-37.109375
278,-37.109375
279,-37.109375
280,-37.109375
281,-35.156250
282,-35.156250
283,-35.156250
284,-35.156250
285,-35.156250
286,-35.156250
287,-35.156250
288,-33.203125
289,-33.203125
290,-33.203125
291,-33.203125
292,-33.203125
293,-33.203125
294,-33.203125
295,-31.250000
296,-31.250000
297,-31.250000
298,-31.250000
299,-29.296875
300,-29.296875
301,-29.296875
302,-29.296875
303,-29.296875
304,-29.296875
305,-27.343750
306,-27.343750
307,-27.343750
308,-27.343750
309,-27.343750
310,-25.390625
311,-25.390625
312,-25.390625
313,-25.390625
314,-25.390625
315,-23.437500
316,-23.437500
317,-23.437500
318,-23.437500
319,-23.437500
320,-21.484375
321,-21.484375
322,-21.484375
323,-21.484375
324,-21.484375
325,-19.531250
326,-19.531250
327,-19.531250
328,-19.531250
329,-19.531250
330,-17.578125
331,-17.578125
332,-17.578125
333,-17.578125
334,-17.578125
335,-15.625000
336,-17.578125
337,-15.625000
338,-15.625000
339,-15.625000
340,-13.671875
341,-13.671875
342,-13.671875
343,-13.671875
344,-13.671875
345,-11.718750
346,-11.718750
347,-11.718750
348,-11.718750
349,-9.765625
350,-9.765625
351,-9.765625
352,-9.765625
353,-7.812500
354,-7.812500
355,-7.812500
356,-7.812500
357,-7.812500
358,-7.812500
359,-5.859375
360,-5.859375
361,-5.859375
362,-5.859375
363,-5.859375
364,-3.906250
365,-3.906250
366,-3.906250
367,-3.906250
368,-3.906250
369,-1.953125
370,-1.953125
371,-1.953125
372,-1.953125
373,0.000000
374,0.000000
375,0.000000
376,0.000000
377,0.000000
378,1.953125
379,1.953125
380,1.953125
381,1.953125
382,1.953125
383,1.953125
384,1.953125
385,3.906250
386,3.906250
387,3.906250
388,3.906250
389,3.906250
390,5.859375
391,5.859375
392,3.906250
393,5.859375
394,5.859375
395,5.859375
396,5.859375
397,5.859375
398,7.812500
399,5.859375
400,7.812500
401,7.812500
402,7.812500
403,7.812500
404,7.812500
405,7.812500
406,7.812500
407,7.812500
408,9.765625
409,7.812500
410,9.765625
411,9.765625
412,9.765625
413,9.765625
414,9.765625
415,9.765625
416,9.765625
417,11.718750
418,11.718750
419,11.718750
420,11.718750
421,11.718750
422,11.718750
423,11.718750
424,11.718750
425,11.718750
426,11.718750
427,11.718750
428,11.718750
429,13.671875
430,13.671875
431,13.671875
432,13.671875
433,13.671875
434,13.671875
435,13.671875
436,13.671875
437,13.671875
438,13.671875
439,13.671875
440,13.671875
441,13.671875
442,13.671875
443,15.625000
444,13.671875
445,15.625000
446,15.625000
447,13.671875
448,13.671875
449,15.625000
450,13.671875
451,13.671875
452,15.625000
453,15.625000
454,15.625000
455,13.671875
456,15.625000
457,15.625000
458,15.625000
459,15.625000
460,15.625000
461,15.625000
462,15.625000
463,15.625000
464,15.625000
465,15.625000
466,15.625000
467,15.625000
468,15.625000
469,15.625000
470,15.625000
471,15.625000
472,15.625000
473,15.625000
474,15.625000
475,15.625000
476,15.625000
477,15.625000
478,15.625000
479,15.625000
480,15.625000
481,15.625000
482,15.625000
483,15.625000
484,15.625000
485,15.625000
486,15.625000
487,13.671875
488,15.625000
489,15.625000
490,15.625000
491,15.625000
492,15.625000
493,15.625000
494,15.625000
495,15.625000
496,15.625000
497,15.625000
498,15.625000
499,15.625000
500,15.625000
501,15.625000
502,15.625000
503,15.625000
504,15.625000
505,15.625000
506,15.625000
507,15.625000
508,15.625000
509,15.625000
510,15.625000
511,15.625000
512,13.671875
513,15.625000
514,15.625000
515,15.625000
516,15.625000
517,15.625000
518,13.671875
519,15.625000
520,13.671875
521,15.625000
522,15.625000
523,13.671875
524,13.671875
525,13.671875
526,13.671875
527,13.671875
528,13.671875
529,13.671875
530,13.671875
531,13.671875
532,13.671875
533,13.671875
534,13.671875
535,13.671875
536,13.671875
537,13.671875
538,13.671875
539,13.671875
540,13.671875
541,13.671875
542,13.671875
543,11.718750
544,13.671875
545,11.718750
546,13.671875
547,13.671875
548,11.718750
549,13.671875
550,11.718750
551,13.671875
552,11.718750
553,11.718750
554,11.718750
555,11.718750
556,11.718750
557,11.718750
558,11.718750
559,9.765625
560,11.718750
561,11.718750
562,11.718750
563,11.718750
564,11.718750
565,11.718750
566,11.718750
567,11.718750
568,11.718750
569,11.718750
570,11.718750
571,11.718750
572,11.718750
573,11.718750
574,11.718750
575,11.718750
576,11.718750
577,11.718750
578,11.718750
579,9.765625
580,9.765625
581,11.718750
582,9.765625
583,9.765625
584,9.765625
585,9.765625
586,9.765625
587,9.765625
588,9.765625
589,9.765625
590,9.765625
591,9.765625
592,9.765625
593,9.765625
594,7.812500
595,7.812500
596,7.812500
597,7.812500
598,7.812500
599,7.812500
600,7.812500
601,7.812500
602,7.812500
603,7.812500
604,5.859375
605,7.812500
606,7.812500
607,5.859375
608,5.859375
609,7.812500
610,5.859375
611,5.859375
612,5.859375
613,5.859375
614,5.859375
615,5.859375
616,5.859375
617,5.859375
618,3.906250
619,5.859375
620,3.906250
621,3.906250
622,3.906250
623,3.906250
624,3.906250
625,3.906250
626,3.906250
627,3.906250
628,3.906250
629,1.953125
630,1.953125
631,1.953125
632,1.953125
633,1.953125
634,1.953125
635,1.953125
636,1.953125
637,1.953125
638,1.953125
639,1.953125
640,0.000000
641,0.000000
642,0.000000
643,0.000000
644,0.000000
645,0.000000
646,0.000000
647,-1.953125
648,-1.953125
649,-1.953125
650,-1.953125
651,-1.953125
652,-1.953125
653,-1.953125
654,-1.953125
655,-3.906250
656,-3.906250
657,-3.906250
658,-3.906250
659,-3.906250
660,-5.859375
661,-5.859375
662,-5.859375
663,-5.859375
664,-5.859375
665,-5.859375
666,-7.812500
667,-5.859375
668,-7.812500
669,-7.812500
670,-7.812500
671,-7.812500
672,-7.812500
673,-7.812500
674,-9.765625
675,-7.812500
676,-9.765625
677,-9.765625
678,-9.765625
679,-9.765625
680,-9.765625
681,-9.765625
682,-11.718750
683,-11.718750
684,-11.718750
685,-11.718750
686,-11.718750
687,-11.718750
688,-11.718750
689,-13.671875
690,-13.671875
691,-13.671875
692,-13.671875
693,-13.671875
694,-13.671875
695,-15.625000
696,-15.625000
697,-15.625000
698,-15.625000
699,-15.625000
700,-15.625000
701,-17.578125
702,-17.578125
703,-17.578125
704,-17.578125
705,-17.578125
706,-17.578125
707,-19.531250
708,-17.578125
709,-19.531250
710,-19.531250
711,-19.531250
712,-19.531250
713,-19.531250
714,-19.531250
715,-19.531250
716,-21.484375
717,-21.484375
718,-21.484375
719,-21.484375
720,-21.484375
721,-23.437500
722,-23.437500
723,-25.390625
724,-23.437500
725,-23.437500
726,-25.390625
727,-25.390625
728,-25.390625
729,-25.390625
730,-25.390625
731,-27.343750
732,-27.343750
733,-27.343750
734,-27.343750
735,-27.343750
736,-27.343750
737,-29.296875
738,-29.296875
739,-29.296875
740,-29.296875
741,-29.296875
742,-31.250000
743,-31.250000
744,-31.250000
745,-31.250000
746,-31.250000
747,-31.250000
748,-31.250000
749,-31.250000
750,-33.203125
751,-31.250000
752,-33.203125
753,-37.109375
754,-33.203125
755,-33.203125
756,-35.156250
757,-35.156250
758,-35.156250
759,-35.156250
760,-35.156250
761,-35.156250
762,-35.156250
763,-37.109375
764,-37.109375
765,-37.109375
766,-37.109375
767,-37.109375
768,-37.109375
769,-37.109375
770,-37.109375
771,-37.109375
772,-39.062500
773,-39.062500
774,-39.062500
775,-39.062500
776,-39.062500
777,-39.062500
778,-39.062500
779,-39.062500
780,-39.062500
781,-39.062500
782,-41.015625
783,-41.015625
784,-41.015625
785,-41.015625
786,-41.015625
787,-41.015625
788,-42.968750
789,-41.015625
790,-41.015625
791,-42.968750
792,-42.968750
793,-42.968750
794,-41.015625
795,-42.968750
796,-42.968750
797,-42.968750
798,-42.968750
799,-41.015625
800,-42.968750
801,-42.968750
802,-42.968750
803,-42.968750
804,-42.968750
805,-42.968750
806,-42.968750
807,-42.968750
808,-42.968750
809,-42.968750
810,-42.968750
811,-42.968750
812,-42.968750
813,-42.968750
814,-42.968750
815,-42.968750
816,-42.968750
817,-42.968750
818,-42.968750
819,-42.968750
820,-42.968750
821,-42.968750
822,-42.968750
823,-42.968750
824,-42.968750
825,-42.968750
826,-42.968750
827,-42.968750
828,-41.015625
829,-42.968750
830,-41.015625
831,-41.015625
832,-41.015625
833,-41.015625
834,-41.015625
835,-41.015625
836,-41.015625
837,-41.015625
838,-41.015625
839,-41.015625
840,-41.015625
841,-41.015625
842,-41.015625
843,-39.062500
844,-41.015625
845,-39.062500
846,-39.062500
847,-39.062500
848,-39.062500
849,-39.062500
850,-39.062500
851,-39.062500
852,-37.109375
853,-39.062500
854,-39.062500
855,-39.062500
856,-39.062500
857,-37.109375
858,-37.109375
859,-37.109375
860,-37.109375
861,-37.109375
862,-37.109375
863,-37.109375
864,-37.109375
865,-35.156250
866,-35.156250
867,-35.156250
868,-35.156250
869,-35.156250
870,-35.156250
871,-33.203125
872,-33.203125
873,-33.203125
874,-33.203125
875,-33.203125
876,-33.203125
877,-31.250000
878,-31.250000
879,-31.250000
880,-31.250000
881,-31.250000
882,-29.296875
883,-29.296875
884,-29.296875
885,-29.296875
886,-29.296875
887,-27.343750
888,-27.343750
889,-27.343750
890,-25.390625
891,-27.343750
892,-25.390625
893,-25.390625
894,-25.390625
895,-25.390625
896,-25.390625
897,-25.390625
898,-25.390625
899,-23.437500
900,-23.437500
901,-21.484375
902,-23.437500
903,-21.484375
904,-21.484375
905,-21.484375
906,-21.484375
907,-21.484375
908,-19.531250
909,-19.531250
910,-19.531250
911,-19.531250
912,-19.531250
913,-17.578125
914,-17.578125
915,-17.578125
916,-17.578125
917,-17.578125
918,-17.578125
919,-15.625000
920,-15.625000
921,-15.625000
922,-15.625000
923,-15.625000
924,-13.671875
925,-13.671875
926,-13.671875
927,-13.671875
928,-11.718750
929,-11.718750
930,-11.718750
931,-11.718750
932,-9.765625
933,-9.765625
934,-9.765625
935,-9.765625
936,-7.812500
937,-7.812500
938,-9.765625
939,-7.812500
940,-7.812500
941,-5.859375
942,-7.812500
943,-5.859375
944,-5.859375
945,-5.859375
946,-3.906250
947,-3.906250
948,-3.906250
949,-3.906250
950,-3.906250
951,-1.953125
952,-1.953125
953,-1.953125
954,0.000000
955,0.000000
956,-1.953125
957,0.000000
958,0.000000
959,0.000000
960,1.953125
961,1.953125
962,1.953125
963,1.953125
964,1.953125
965,1.953125
966,1.953125
967,1.953125
968,3.906250
969,3.906250
970,3.906250
971,3.906250
972,3.906250
973,5.859375
974,3.906250
975,5.859375
976,5.859375
977,5.859375
978,5.859375
979,5.859375
980,5.859375
981,5.859375
982,7.812500
983,7.812500
984,7.812500
985,7.812500
986,7.812500
987,7.812500
988,7.812500
989,7.812500
990,7.812500
991,7.812500
992,9.765625
993,9.765625
994,9.765625
995,9.765625
996,9.765625
997,9.765625
998,9.765625
999,9.765625
1000,9.765625
1001,11.718750
1002,11.718750
1003,11.718750
1004,11.718750
1005,11.718750
1006,11.718750
1007,11.718750
1008,11.718750
1009,11.718750
1010,11.718750
1011,11.718750
1012,11.718750
1013,11.718750
1014,11.718750
1015,13.671875
1016,13.671875
1017,13.671875
1018,13.671875
1019,13.671875
1020,13.671875
1021,13.671875
1022,15.625000
1023,13.671875
1024,13.671875
1025,13.671875
1026,13.671875
1027,15.625000
1028,13.671875
1029,13.671875
1030,15.625000
1031,15.625000
1032,15.625000
1033,15.625000
1034,13.671875
1035,15.625000
1036,15.625000
1037,15.625000
1038,15.625000
1039,15.625000
1040,15.625000
1041,15.625000
1042,15.625000
1043,15.625000
1044,15.625000
1045,15.625000
1046,15.625000
1047,15.625000
1048,15.625000
1049,15.625000
1050,15.625000
1051,15.625000
1052,15.625000
1053,15.625000
1054,15.625000
1055,15.625000
1056,15.625000
1057,15.625000
1058,15.625000
1059,15.625000
1060,15.625000
1061,15.625000
1062,15.625000
1063,15.625000
1064,15.625000
1065,15.625000
1066,15.625000
1067,15.625000
1068,15.625000
1069,15.625000
1070,15.625000
1071,15.625000
1072,15.625000
1073,15.625000
1074,15.625000
1075,15.625000
1076,15.625000
1077,15.625000
1078,15.625000
1079,15.625000
1080,15.625000
1081,15.625000
1082,15.625000
1083,15.625000
1084,15.625000
1085,15.625000
1086,15.625000
1087,15.625000
1088,15.625000
1089,15.625000
1090,15.625000
1091,15.625000
1092,15.625000
1093,15.625000
1094,15.625000
1095,15.625000
1096,15.625000
1097,15.625000
1098,13.671875
1099,15.625000
1100,15.625000
1101,13.671875
1102,15.625000
1103,13.671875
1104,15.625000
1105,13.671875
1106,13.671875
1107,13.671875
1108,13.671875
1109,13.671875
1110,13.671875
1111,13.671875
1112,13.671875
1113,13.671875
1114,13.671875
1115,13.671875
1116,13.671875
1117,13.671875
1118,13.671875
1119,13.671875
1120,13.671875
1121,13.671875
1122,13.671875
1123,11.718750
1124,13.671875
1125,13.671875
1126,13.671875
1127,13.671875
1128,11.718750
1129,13.671875
1130,11.718750
1131,13.671875
1132,13.671875
1133,11.718750
1134,13.671875
1135,11.718750
1136,11.718750
1137,13.671875
1138,13.671875
1139,11.718750
1140,11.718750
1141,11.718750
1142,13.671875
1143,11.718750
1144,11.718750
1145,11.718750
1146,11.718750
1147,11.718750
1148,11.718750
1149,11.718750
1150,11.718750
1151,11.718750
1152,11.718750
1153,11.718750
1154,11.718750
1155,11.718750
1156,11.718750
1157,9.765625
1158,11.718750
1159,11.718750
1160,11.718750
1161,11.718750
1162,9.765625
1163,9.765625
1164,9.765625
1165,9.765625
1166,9.765625
1167,9.765625
1168,9.765625
1169,9.765625
1170,9.765625
1171,9.765625
1172,7.812500
1173,9.765625
1174,7.812500
1175,9.765625
1176,7.812500
1177,7.812500
1178,7.812500
1179,7.812500
1180,7.812500
1181,7.812500
1182,7.812500
1183,7.812500
1184,7.812500
1185,7.812500
1186,7.812500
1187,7.812500
1188,7.812500
1189,7.812500
1190,5.859375
1191,5.859375
1192,5.859375
1193,5.859375
1194,5.859375
1195,5.859375
1196,5.859375
1197,5.859375
1198,5.859375
1199,5.859375
1200,5.859375
1201,5.859375
1202,3.906250
1203,3.906250
1204,5.859375
1205,3.906250
1206,3.906250
1207,3.906250
1208,3.906250
1209,3.906250
1210,3.906250
1211,3.906250
1212,1.953125
1213,1.953125
1214,3.906250
1215,1.953125
1216,1.953125
1217,1.953125
1218,1.953125
1219,1.953125
1220,1.953125
1221,1.953125
1222,1.953125
1223,0.000000
1224,0.000000
1225,0.000000
1226,0.000000
1227,0.000000
1228,0.000000
1229,-1.953125
1230,-1.953125
1231,-1.953125
1232,-1.953125
1233,-1.953125
1234,-1.953125
1235,-1.953125
1236,-1.953125
1237,-1.953125
1238,-3.906250
1239,-3.906250
1240,-3.906250
1241,-3.906250
1242,-3.906250
1243,-3.906250
1244,-3.906250
1245,-5.859375
1246,-5.859375
1247,-5.859375
1248,-5.859375
1249,-5.859375
1250,-5.859375
1251,-7.812500
1252,-7.812500
1253,-7.812500
1254,-7.812500
1255,-7.812500
1256,-7.812500
1257,-9.765625
1258,-7.812500
1259,-9.765625
1260,-9.765625
1261,-9.765625
1262,-9.765625
1263,-9.765625
1264,-11.718750
1265,-9.765625
1266,-11.718750
1267,-11.718750
1268,-11.718750
1269,-11.718750
1270,-11.718750
1271,-13.671875
1272,-13.671875
1273,-13.671875
1274,-13.671875
1275,-13.671875
1276,-13.671875
1277,-13.671875
1278,-15.625000
1279,-15.625000
1280,-15.625000
1281,-15.625000
1282,-15.625000
1283,-15.625000
1284,-15.625000
1285,-17.578125
1286,-17.578125
1287,-17.578125
1288,-17.578125
1289,-17.578125
1290,-17.578125
1291,-19.531250
1292,-19.531250
1293,-19.531250
1294,-19.531250
1295,-19.531250
1296,-19.531250
1297,-21.484375
1298,-21.484375
1299,-21.484375
1300,-21.484375
1301,-21.484375
1302,-21.484375
1303,-23.437500
1304,-23.437500
1305,-23.437500
1306,-23.437500
1307,-23.437500
1308,-25.390625
1309,-23.437500
1310,-25.390625
1311,-25.390625
1312,-25.390625
1313,-25.390625
1314,-25.390625
1315,-27.343750
1316,-27.343750
1317,-27.343750
1318,-27.343750
1319,-27.343750
1320,-29.296875
1321,-29.296875
1322,-29.296875
1323,-29.296875
1324,-29.296875
1325,-31.250000
1326,-31.250000
1327,-31.250000
1328,-31.250000
1329,-31.250000
1330,-31.250000
1331,-33.203125
1332,-31.250000
1333,-33.203125
1334,-33.203125
1335,-33.203125
1336,-33.203125
1337,-33.203125
1338,-33.203125
1339,-35.156250
1340,-35.156250
1341,-35.156250
1342,-35.156250
1343,-35.156250
1344,-37.109375
1345,-35.156250
1346,-35.156250
1347,-37.109375
1348,-39.062500
1349,-37.109375
1350,-37.109375
1351,-37.109375
1352,-37.109375
1353,-39.062500
1354,-37.109375
1355,-39.062500
1356,-39.062500
1357,-39.062500
1358,-39.062500
1359,-39.062500
1360,-39.062500
1361,-41.015625
1362,-39.062500
1363,-39.062500
1364,-41.015625
1365,-41.015625
1366,-41.015625
1367,-41.015625
1368,-41.015625
1369,-41.015625
1370,-41.015625
1371,-41.015625
1372,-41.015625
1373,-41.015625
1374,-42.968750
1375,-41.015625
1376,-42.968750
1377,-42.968750
1378,-42.968750
1379,-42.968750
1380,-42.968750
1381,-41.015625
1382,-42.968750
1383,-42.968750
1384,-42.968750
1385,-42.968750
1386,-42.968750
1387,-42.968750
1388,-42.968750
1389,-42.968750
1390,-42.968750
1391,-42.968750
1392,-42.968750
1393,-42.968750
1394,-42.968750
1395,-42.968750
1396,-42.968750
1397,-42.968750
1398,-42.968750
1399,-42.968750
1400,-42.968750
1401,-42.968750
1402,-42.968750
1403,-42.968750
1404,-42.968750
1405,-42.968750
1406,-42.968750
1407,-42.968750
1408,-41.015625
1409,-42.968750
1410,-42.968750
1411,-41.015625
1412,-41.015625
1413,-42.968750
1414,-41.015625
1415,-41.015625
1416,-41.015625
1417,-41.015625
1418,-41.015625
1419,-41.015625
1420,-41.015625
1421,-41.015625
1422,-41.015625
1423,-41.015625
1424,-41.015625
1425,-41.015625
1426,-39.062500
1427,-41.015625
1428,-39.062500
1429,-39.062500
1430,-39.062500
1431,-39.062500
1432,-39.062500
1433,-39.062500
1434,-39.062500
1435,-39.062500
1436,-39.062500
1437,-37.109375
1438,-37.109375
1439,-37.109375
1440,-37.109375
1441,-37.109375
1442,-37.109375
1443,-37.109375
1444,-37.109375
1445,-37.109375
1446,-37.109375
1447,-35.156250
1448,-35.156250
1449,-35.156250
1450,-35.156250
1451,-35.156250
1452,-35.156250
1453,-33.203125
1454,-33.203125
1455,-33.203125
1456,-33.203125
1457,-33.203125
1458,-33.203125
1459,-31.250000
1460,-31.250000
1461,-31.250000
1462,-31.250000
1463,-31.250000
1464,-29.296875
1465,-29.296875
1466,-29.296875
1467,-29.296875
1468,-29.296875
1469,-29.296875
1470,-27.343750
1471,-27.343750
1472,-27.343750
1473,-27.343750
1474,-25.390625
1475,-25.390625
1476,-25.390625
1477,-25.390625
1478,-25.390625
1479,-25.390625
1480,-23.437500
1481,-23.437500
1482,-23.437500
1483,-23.437500
1484,-23.437500
1485,-21.484375
1486,-21.484375
1487,-21.484375
1488,-21.484375
1489,-21.484375
1490,-19.531250
1491,-19.531250
1492,-19.531250
1493,-19.531250
1494,-19.531250
1495,-17.578125
1496,-17.578125
1497,-17.578125
1498,-17.578125
1499,-17.578125
1500,-15.625000
1501,-15.625000
1502,-15.625000
1503,-15.625000
1504,-13.671875
1505,-13.671875
1506,-13.671875
1507,-13.671875
1508,-13.671875
1509,-13.671875
1510,-11.718750
1511,-11.718750
1512,-11.718750
1513,-11.718750
1514,-9.765625
1515,-9.765625
1516,-9.765625
1517,-9.765625
1518,-9.765625
1519,-7.812500
1520,-7.812500
1521,-7.812500
1522,-7.812500
1523,-5.859375
1524,-5.859375
1525,-5.859375
1526,-5.859375
1527,-5.859375
1528,-3.906250
1529,-3.906250
1530,-3.906250
1531,-3.906250
1532,-3.906250
1533,-1.953125
1534,-3.906250
1535,-1.953125
1536,-1.953125
1537,-1.953125
1538,0.000000
1539,0.000000
1540,0.000000
1541,0.000000
1542,0.000000
1543,0.000000
1544,1.953125
1545,1.953125
1546,1.953125
1547,1.953125
1548,1.953125
1549,3.906250
1550,3.906250
1551,3.906250
1552,3.906250
1553,3.906250
1554,3.906250
1555,3.906250
1556,5.859375
1557,3.906250
1558,5.859375
1559,5.859375
1560,5.859375
1561,5.859375
1562,5.859375
1563,5.859375
1564,5.859375
1565,7.812500
1566,7.812500
1567,7.812500
1568,7.812500
1569,7.812500
1570,7.812500
1571,7.812500
1572,7.812500
1573,7.812500
1574,9.765625
1575,9.765625
1576,9.765625
1577,9.765625
1578,9.765625
1579,9.765625
1580,9.765625
1581,9.765625
1582,9.765625
1583,9.765625
1584,9.765625
1585,11.718750
1586,11.718750
1587,11.718750
1588,11.718750
1589,11.718750
1590,11.718750
1591,11.718750
1592,11.718750
1593,11.718750
1594,11.718750
1595,11.718750
1596,11.718750
1597,13.671875
1598,13.671875
1599,13.671875
1600,13.671875
1601,13.671875
1602,13.671875
1603,13.671875
1604,13.671875
1605,13.671875
1606,13.671875
1607,13.671875
1608,13.671875
1609,13.671875
1610,13.671875
1611,15.625000
1612,15.625000
1613,13.671875
1614,15.625000
1615,15.625000
1616,15.625000
1617,15.625000
1618,15.625000
1619,15.625000
1620,15.625000
1621,15.625000
1622,15.625000
1623,15.625000
1624,15.625000
1625,15.625000
1626,15.625000
1627,15.625000
1628,15.625000
1629,15.625000
1630,15.625000
1631,15.625000
1632,15.625000
1633,15.625000
1634,15.625000
1635,15.625000
1636,15.625000
1637,15.625000
1638,15.625000
1639,15.625000
1640,15.625000
1641,15.625000
1642,15.625000
1643,15.625000
1644,15.625000
1645,15.625000
1646,15.625000
1647,15.625000
1648,15.625000
1649,15.625000
1650,15.625000
1651,15.625000
1652,15.625000
1653,15.625000
1654,15.625000
1655,15.625000
1656,15.625000
1657,15.625000
1658,15.625000
1659,15.625000
1660,15.625000
1661,15.625000
1662,15.625000
1663,15.625000
1664,15.625000
1665,15.625000
1666,15.625000
1667,15.625000
1668,15.625000
1669,15.625000
1670,15.625000
1671,15.625000
1672,13.671875
1673,15.625000
1674,15.625000
1675,15.625000
1676,15.625000
1677,15.625000
1678,15.625000
1679,15.625000
1680,15.625000
1681,15.625000
1682,13.671875
1683,15.625000
1684,13.671875
1685,15.625000
1686,13.671875
1687,15.625000
1688,15.625000
1689,13.671875
1690,13.671875
1691,13.671875
1692,13.671875
1693,13.671875
1694,13.671875
1695,13.671875
1696,13.671875
1697,13.671875
1698,13.671875
1699,13.671875
1700,13.671875
1701,13.671875
1702,13.671875
1703,11.718750
1704,13.671875
1705,13.671875
1706,13.671875
1707,11.718750
1708,11.718750
1709,13.671875
1710,11.718750
1711,11.718750
1712,11.718750
1713,11.718750
1714,11.718750
1715,11.718750
1716,11.718750
1717,11.718750
1718,11.718750
1719,11.718750
1720,11.718750
1721,11.718750
1722,11.718750
1723,11.718750
1724,11.718750
1725,11.718750
1726,9.765625
1727,11.718750
1728,11.718750
1729,11.718750
1730,11.718750
1731,11.718750
1732,11.718750
1733,11.718750
1734,9.765625
1735,11.718750
1736,11.718750
1737,11.718750
1738,11.718750
1739,9.765625
1740,9.765625
1741,9.765625
1742,9.765625
1743,9.765625
1744,9.765625
1745,9.765625
1746,9.765625
1747,9.765625
1748,11.718750
1749,9.765625
1750,9.765625
1751,9.765625
1752,9.765625
1753,9.765625
1754,9.765625
1755,9.765625
1756,7.812500
1757,9.765625
1758,9.765625
1759,7.812500
1760,7.812500
1761,7.812500
1762,7.812500
1763,7.812500
1764,7.812500
1765,7.812500
1766,7.812500
1767,7.812500
1768,7.812500
1769,7.812500
1770,7.812500
1771,5.859375
1772,5.859375
1773,5.859375
1774,5.859375
1775,5.859375
1776,5.859375
1777,5.859375
1778,5.859375
1779,5.859375
1780,5.859375
1781,5.859375
1782,5.859375
1783,3.906250
1784,3.906250
1785,5.859375
1786,3.906250
1787,3.906250
1788,3.906250
1789,3.906250
1790,3.906250
1791,3.906250
1792,3.906250
1793,3.906250
1794,3.906250
1795,3.906250
1796,1.953125
1797,1.953125
1798,1.953125
1799,1.953125
1800,1.953125
1801,1.953125
1802,0.000000
1803,1.953125
1804,0.000000
1805,0.000000
1806,0.000000
1807,0.000000
1808,0.000000
1809,0.000000
1810,0.000000
1811,0.000000
1812,-1.953125
1813,-1.953125
1814,-1.953125
1815,-1.953125
1816,-1.953125
1817,-1.953125
1818,-1.953125
1819,-3.906250
1820,-3.906250
1821,-3.906250
1822,-3.906250
1823,-3.906250
1824,-3.906250
1825,-5.859375
1826,-3.906250
1827,-5.859375
1828,-5.859375
1829,-5.859375
1830,-5.859375
1831,-7.812500
1832,-5.859375
1833,-7.812500
1834,-7.812500
1835,-7.812500
1836,-7.812500
1837,-7.812500
1838,-7.812500
1839,-7.812500
1840,-9.765625
1841,-9.765625
1842,-9.765625
1843,-9.765625
1844,-9.765625
1845,-9.765625
1846,-11.718750
1847,-9.765625
1848,-11.718750
1849,-11.718750
1850,-11.718750
1851,-11.718750
1852,-13.671875
1853,-11.718750
1854,-13.671875
1855,-13.671875
1856,-13.671875
1857,-13.671875
1858,-13.671875
1859,-13.671875
1860,-13.671875
1861,-15.625000
1862,-15.625000
1863,-15.625000
1864,-15.625000
1865,-15.625000
1866,-15.625000
1867,-15.625000
1868,-17.578125
1869,-17.578125
1870,-17.578125
1871,-17.578125
1872,-17.578125
1873,-17.578125
1874,-19.531250
1875,-19.531250
1876,-19.531250
1877,-19.531250
1878,-19.531250
1879,-21.484375
1880,-21.484375
1881,-21.484375
1882,-21.484375
1883,-21.484375
1884,-21.484375
1885,-21.484375
1886,-23.437500
1887,-23.437500
1888,-23.437500
1889,-23.437500
1890,-23.437500
1891,-25.390625
1892,-25.390625
1893,-25.390625
1894,-25.390625
1895,-25.390625
1896,-27.343750
1897,-27.343750
1898,-27.343750
1899,-27.343750
1900,-27.343750
1901,-27.343750
1902,-29.296875
1903,-29.296875
1904,-29.296875
1905,-29.296875
1906,-29.296875
1907,-29.296875
1908,-31.250000
1909,-29.296875
1910,-31.250000
1911,-31.250000
1912,-31.250000
1913,-31.250000
1914,-31.250000
1915,-33.203125
1916,-33.203125
1917,-33.203125
1918,-33.203125
1919,-33.203125
1920,-35.156250
1921,-35.156250
1922,-35.156250
1923,-35.156250
1924,-35.156250
1925,-35.156250
1926,-35.156250
1927,-35.156250
1928,-37.109375
1929,-35.156250
1930,-37.109375
1931,-37.109375
1932,-37.109375
1933,-37.109375
1934,-37.109375
1935,-37.109375
1936,-39.062500
1937,-39.062500
1938,-39.062500
1939,-37.109375
1940,-39.062500
1941,-39.062500
1942,-39.062500
1943,-39.062500
1944,-39.062500
1945,-41.015625
1946,-41.015625
1947,-39.062500
1948,-41.015625
1949,-41.015625
1950,-41.015625
1951,-41.015625
1952,-41.015625
1953,-41.015625
1954,-41.015625
1955,-41.015625
1956,-42.968750
1957,-41.015625
1958,-42.968750
1959,-42.968750
1960,-42.968750
1961,-42.968750
1962,-42.968750
1963,-42.968750
1964,-42.968750
1965,-42.968750
1966,-42.968750
1967,-42.968750
1968,-42.968750
1969,-42.968750
1970,-42.968750
1971,-42.968750
1972,-42.968750
1973,-42.968750
1974,-42.968750
1975,-42.968750
1976,-42.968750
1977,-42.968750
1978,-42.968750
1979,-42.968750
1980,-42.968750
1981,-42.968750
1982,-42.968750
1983,-42.968750
1984,-42.968750
1985,-42.968750
1986,-42.968750
1987,-42.968750
1988,-42.968750
1989,-41.015625
1990,-42.968750
1991,-42.968750
1992,-41.015625
1993,-41.015625
1994,-41.015625
1995,-41.015625
1996,-42.968750
1997,-41.015625
1998,-41.015625
1999,-41.015625
2000,-41.015625
2001,-41.015625
2002,-41.015625
2003,-41.015625
2004,-41.015625
2005,-41.015625
2006,-41.015625
2007,-41.015625
2008,-39.062500
2009,-41.015625
2010,-39.062500
2011,-39.062500
2012,-39.062500
2013,-39.062500
2014,-39.062500
2015,-39.062500
2016,-39.062500
2017,-39.062500
2018,-39.062500
2019,-39.062500
2020,-37.109375
2021,-37.109375
2022,-37.109375
2023,-37.109375
2024,-37.109375
2025,-37.109375
2026,-35.156250
2027,-37.109375
2028,-35.156250
2029,-37.109375
2030,-35.156250
2031,-35.156250
2032,-35.156250
2033,-35.156250
2034,-35.156250
2035,-33.203125
2036,-33.203125
2037,-33.203125
2038,-33.203125
2039,-33.203125
2040,-33.203125
2041,-33.203125
2042,-31.250000
2043,-31.250000
2044,-31.250000
2045,-31.250000
2046,-31.250000
2047,-29.296875
2048,-29.296875
2049,-29.296875
2050,-29.296875
2051,-29.296875
2052,-27.343750
2053,-29.296875
2054,-27.343750
2055,-27.343750
2056,-27.343750
2057,-25.390625
2058,-25.390625
2059,-25.390625
2060,-25.390625
2061,-25.390625
2062,-25.390625
2063,-23.437500
2064,-23.437500
2065,-23.437500
2066,-23.437500
2067,-23.437500
2068,-21.484375
2069,-21.484375
2070,-21.484375
2071,-19.531250
2072,-21.484375
2073,-21.484375
2074,-19.531250
2075,-19.531250
2076,-19.531250
2077,-17.578125
2078,-19.531250
2079,-17.578125
2080,-17.578125
2081,-15.625000
2082,-17.578125
2083,-17.578125
2084,-15.625000
2085,-15.625000
2086,-15.625000
2087,-13.671875
2088,-13.671875
2089,-13.671875
2090,-13.671875
2091,-13.671875
2092,-13.671875
2093,-13.671875
2094,-11.718750
2095,-11.718750
2096,-11.718750
2097,-11.718750
2098,-9.765625
2099,-9.765625
2100,-9.765625
2101,-9.765625
2102,-7.812500
2103,-7.812500
2104,-7.812500
2105,-5.859375
2106,-7.812500
2107,-5.859375
2108,-5.859375
2109,-5.859375
2110,-5.859375
2111,-3.906250
2112,-3.906250
2113,-3.906250
2114,-3.906250
2115,-3.906250
2116,-1.953125
2117,-1.953125
2118,-1.953125
2119,0.000000
2120,-1.953125
2121,0.000000
2122,0.000000
2123,0.000000
2124,0.000000
2125,0.000000
2126,0.000000
2127,1.953125
2128,1.953125
2129,1.953125
2130,1.953125
2131,1.953125
2132,1.953125
2133,3.906250
2134,3.906250
2135,3.906250
2136,3.906250
2137,5.859375
2138,3.906250
2139,3.906250
2140,5.859375
2141,5.859375
2142,5.859375
2143,5.859375
2144,5.859375
2145,5.859375
2146,7.812500
2147,7.812500
2148,7.812500
2149,7.812500
2150,5.859375
2151,7.812500
2152,7.812500
2153,7.812500
2154,7.812500
2155,11.718750
2156,7.812500
2157,9.765625
2158,9.765625
2159,9.765625
2160,9.765625
2161,9.765625
2162,9.765625
2163,11.718750
2164,9.765625
2165,9.765625
2166,9.765625
2167,9.765625
2168,11.718750
2169,11.718750
2170,11.718750
2171,11.718750
2172,11.718750
2173,11.718750
2174,11.718750
2175,11.718750
2176,11.718750
2177,13.671875
2178,11.718750
2179,11.718750
2180,13.671875
2181,11.718750
2182,13.671875
2183,13.671875
2184,13.671875
2185,13.671875
2186,13.671875
2187,13.671875
2188,13.671875
2189,13.671875
2190,13.671875
2191,13.671875
2192,13.671875
2193,15.625000
2194,13.671875
2195,13.671875
2196,13.671875
2197,15.625000
2198,13.671875
2199,15.625000
2200,13.671875
2201,15.625000
2202,13.671875
2203,15.625000
2204,15.625000
2205,15.625000
2206,15.625000
2207,13.671875
2208,15.625000
2209,15.625000
2210,17.578125
2211,15.625000
2212,15.625000
2213,15.625000
2214,15.625000
2215,15.625000
2216,15.625000
2217,15.625000
2218,15.625000
2219,15.625000
2220,15.625000
2221,15.625000
2222,15.625000
2223,15.625000
2224,15.625000
2225,15.625000
2226,15.625000
2227,15.625000
2228,15.625000
2229,15.625000
2230,15.625000
2231,15.625000
2232,15.625000
2233,15.625000
2234,15.625000
2235,15.625000
2236,15.625000
2237,15.625000
2238,15.625000
2239,13.671875
2240,15.625000
2241,15.625000
2242,15.625000
2243,15.625000
2244,15.625000
2245,15.625000
2246,15.625000
2247,15.625000
2248,15.625000
2249,15.625000
2250,15.625000
2251,15.625000
2252,15.625000
2253,15.625000
2254,15.625000
2255,15.625000
2256,15.625000
2257,15.625000
2258,15.625000
2259,15.625000
2260,13.671875
2261,13.671875
2262,15.625000
2263,13.671875
2264,15.625000
2265,13.671875
2266,15.625000
2267,15.625000
2268,13.671875
2269,13.671875
2270,13.671875
2271,13.671875
2272,13.671875
2273,13.671875
2274,13.671875
2275,13.671875
2276,13.671875
2277,13.671875
2278,13.671875
2279,13.671875
2280,13.671875
2281,15.625000
2282,13.671875
2283,13.671875
2284,13.671875
2285,13.671875
2286,11.718750
2287,11.718750
2288,13.671875
2289,13.671875
2290,11.718750
2291,11.718750
2292,11.718750
2293,11.718750
2294,11.718750
2295,11.718750
2296,11.718750
2297,11.718750
2298,11.718750
2299,11.718750
2300,11.718750
2301,13.671875
2302,11.718750
2303,11.718750
2304,11.718750
2305,13.671875
2306,13.671875
2307,11.718750
2308,11.718750
2309,13.671875
2310,11.718750
2311,11.718750
2312,13.671875
2313,11.718750
2314,11.718750
2315,11.718750
2316,11.718750
2317,11.718750
2318,11.718750
2319,11.718750
2320,9.765625
2321,7.812500
2322,9.765625
2323,11.718750
2324,11.718750
2325,9.765625
2326,9.765625
2327,9.765625
2328,9.765625
2329,9.765625
2330,9.765625
2331,9.765625
2332,9.765625
2333,9.765625
2334,9.765625
2335,9.765625
2336,9.765625
2337,9.765625
2338,9.765625
2339,9.765625
2340,9.765625
2341,7.812500
2342,7.812500
2343,7.812500
2344,7.812500
2345,7.812500
2346,7.812500
2347,7.812500
2348,5.859375
2349,7.812500
2350,7.812500
2351,7.812500
2352,5.859375
2353,7.812500
2354,7.812500
2355,7.812500
2356,5.859375
2357,5.859375
2358,5.859375
2359,5.859375
2360,5.859375
2361,5.859375
2362,5.859375
2363,3.906250
2364,5.859375
2365,3.906250
2366,3.906250
2367,3.906250
2368,3.906250
2369,3.906250
2370,3.906250
2371,3.906250
2372,3.906250
2373,3.906250
2374,1.953125
2375,3.906250
2376,1.953125
2377,1.953125
2378,3.906250
2379,1.953125
2380,1.953125
2381,1.953125
2382,1.953125
2383,1.953125
2384,1.953125
2385,1.953125
2386,0.000000
2387,0.000000
2388,0.000000
2389,0.000000
2390,0.000000
2391,0.000000
2392,0.000000
2393,0.000000
2394,-1.953125
2395,-1.953125
2396,-1.953125
2397,-1.953125
2398,-1.953125
2399,-1.953125
2400,-3.906250
2401,-3.906250
2402,-3.906250
2403,-3.906250
2404,-3.906250
2405,-3.906250
2406,-3.906250
2407,-3.906250
2408,-5.859375
2409,-3.906250
2410,-5.859375
2411,-5.859375
2412,-5.859375
2413,-5.859375
2414,-5.859375
2415,-5.859375
2416,-7.812500
2417,-7.812500
2418,-7.812500
2419,-7.812500
2420,-7.812500
2421,-7.812500
2422,-9.765625
2423,-9.765625
2424,-9.765625
2425,-9.765625
2426,-9.765625
2427,-9.765625
2428,-11.718750
2429,-11.718750
2430,-11.718750
2431,-11.718750
2432,-11.718750
2433,-11.718750
2434,-11.718750
2435,-11.718750
2436,-11.718750
2437,-13.671875
2438,-13.671875
2439,-13.671875
2440,-13.671875
2441,-13.671875
2442,-13.671875
2443,-15.625000
2444,-15.625000
2445,-15.625000
2446,-15.625000
2447,-15.625000
2448,-15.625000
2449,-17.578125
2450,-17.578125
2451,-17.578125
2452,-17.578125
2453,-17.578125
2454,-19.531250
2455,-19.531250
2456,-19.531250
2457,-19.531250
2458,-19.531250
2459,-19.531250
2460,-19.531250
2461,-21.484375
2462,-21.484375
2463,-21.484375
2464,-21.484375
2465,-21.484375
2466,-23.437500
2467,-21.484375
2468,-23.437500
2469,-23.437500
2470,-23.437500
2471,-23.437500
2472,-23.437500
2473,-25.390625
2474,-25.390625
2475,-25.390625
2476,-25.390625
2477,-25.390625
2478,-27.343750
2479,-27.343750
2480,-27.343750
2481,-27.343750
2482,-27.343750
2483,-27.343750
2484,-27.343750
2485,-29.296875
2486,-29.296875
2487,-29.296875
2488,-29.296875
2489,-29.296875
2490,-29.296875
2491,-31.250000
2492,-31.250000
2493,-31.250000
2494,-31.250000
2495,-31.250000
2496,-31.250000
2497,-33.203125
2498,-33.203125
2499,-33.203125
2500,-31.250000
2501,-33.203125
2502,-33.203125
2503,-33.203125
2504,-35.156250
2505,-35.156250
2506,-35.156250
2507,-35.156250
2508,-35.156250
2509,-35.156250
2510,-35.156250
2511,-35.156250
2512,-35.156250
2513,-37.109375
2514,-37.109375
2515,-37.109375
2516,-37.109375
2517,-37.109375
2518,-37.109375
2519,-37.109375
2520,-39.062500
2521,-39.062500
2522,-39.062500
2523,-39.062500
2524,-39.062500
2525,-39.062500
2526,-39.062500
2527,-39.062500
2528,-41.015625
2529,-39.062500
2530,-41.015625
2531,-41.015625
2532,-41.015625
2533,-41.015625
2534,-41.015625
2535,-41.015625
2536,-41.015625
2537,-41.015625
2538,-41.015625
2539,-41.015625
2540,-42.968750
2541,-41.015625
2542,-41.015625
2543,-42.968750
2544,-42.968750
2545,-42.968750
2546,-42.968750
2547,-42.968750
2548,-42.968750
2549,-42.968750
2550,-42.968750
2551,-42.968750
2552,-42.968750
2553,-42.968750
2554,-42.968750
2555,-42.968750
2556,-42.968750
2557,-42.968750
2558,-42.968750
2559,-42.968750
2560,-42.968750
2561,-42.968750
2562,-42.968750
2563,-42.968750
2564,-41.015625
2565,-42.968750
2566,-42.968750
2567,-42.968750
2568,-42.968750
2569,-42.968750
2570,-42.968750
2571,-42.968750
2572,-42.968750
2573,-42.968750
2574,-41.015625
2575,-41.015625
2576,-42.968750
2577,-42.968750
2578,-41.015625
2579,-41.015625
2580,-42.968750
2581,-41.015625
2582,-41.015625
2583,-41.015625
2584,-41.015625
2585,-41.015625
2586,-41.015625
2587,-41.015625
2588,-41.015625
2589,-39.062500
2590,-41.015625
2591,-39.062500
2592,-39.062500
2593,-39.062500
2594,-39.062500
2595,-39.062500
2596,-39.062500
2597,-39.062500
2598,-39.062500
2599,-39.062500
2600,-37.109375
2601,-39.062500
2602,-39.062500
2603,-37.109375
2604,-37.109375
2605,-37.109375
2606,-37.109375
2607,-37.109375
2608,-37.109375
2609,-37.109375
2610,-35.156250
2611,-37.109375
2612,-35.156250
2613,-35.156250
2614,-35.156250
2615,-35.156250
2616,-35.156250
2617,-35.156250
2618,-33.203125
2619,-33.203125
2620,-33.203125
2621,-33.203125
2622,-33.203125
2623,-33.203125
2624,-33.203125
2625,-31.250000
2626,-31.250000
2627,-31.250000
2628,-29.296875
2629,-31.250000
2630,-29.296875
2631,-29.296875
2632,-29.296875
2633,-29.296875
2634,-29.296875
2635,-27.343750
2636,-27.343750
2637,-27.343750
2638,-27.343750
2639,-27.343750
2640,-25.390625
2641,-25.390625
2642,-25.390625
2643,-25.390625
2644,-25.390625
2645,-25.390625
2646,-23.437500
2647,-23.437500
2648,-23.437500
2649,-23.437500
2650,-23.437500
2651,-23.437500
2652,-21.484375
2653,-21.484375
2654,-21.484375
2655,-21.484375
2656,-19.531250
2657,-19.531250
2658,-21.484375
2659,-19.531250
2660,-19.531250
2661,-19.531250
2662,-17.578125
2663,-17.578125
2664,-17.578125
2665,-17.578125
2666,-17.578125
2667,-15.625000
2668,-15.625000
2669,-15.625000
2670,-13.671875
2671,-13.671875
2672,-13.671875
2673,-13.671875
2674,-13.671875
2675,-11.718750
2676,-11.718750
2677,-11.718750
2678,-11.718750
2679,-11.718750
2680,-9.765625
2681,-9.765625
2682,-9.765625
2683,-9.765625
2684,-9.765625
2685,-7.812500
2686,-7.812500
2687,-7.812500
2688,-7.812500
2689,-5.859375
2690,-5.859375
2691,-5.859375
2692,-5.859375
2693,-5.859375
2694,-5.859375
2695,-3.906250
2696,-3.906250
2697,-3.906250
2698,-3.906250
2699,-3.906250
2700,-1.953125
2701,-1.953125
2702,-1.953125
2703,-1.953125
2704,-1.953125
2705,0.000000
2706,0.000000
2707,0.000000
2708,-1.953125
2709,0.000000
2710,0.000000
2711,1.953125
2712,1.953125
2713,1.953125
2714,1.953125
2715,1.953125
2716,1.953125
2717,3.906250
2718,3.906250
2719,3.906250
2720,3.906250
2721,3.906250
2722,5.859375
2723,5.859375
2724,5.859375
2725,3.906250
2726,5.859375
2727,5.859375
2728,5.859375
2729,5.859375
2730,7.812500
2731,7.812500
2732,7.812500
2733,5.859375
2734,7.812500
2735,3.906250
2736,7.812500
2737,7.812500
2738,7.812500
2739,9.765625
2740,9.765625
2741,9.765625
2742,9.765625
2743,7.812500
2744,9.765625
2745,9.765625
2746,9.765625
2747,9.765625
2748,9.765625
2749,9.765625
2750,11.718750
2751,9.765625
2752,11.718750
2753,11.718750
2754,11.718750
2755,11.718750
2756,11.718750
2757,11.718750
2758,11.718750
2759,11.718750
2760,11.718750
2761,11.718750
2762,13.671875
2763,13.671875
2764,13.671875
2765,13.671875
2766,13.671875
2767,13.671875
2768,13.671875
2769,13.671875
2770,13.671875
2771,13.671875
2772,13.671875
2773,13.671875
2774,13.671875
2775,13.671875
2776,13.671875
2777,13.671875
2778,13.671875
2779,13.671875
2780,15.625000
2781,15.625000
2782,15.625000
2783,15.625000
2784,13.671875
2785,15.625000
2786,13.671875
2787,13.671875
2788,13.671875
2789,13.671875
2790,15.625000
2791,15.625000
2792,15.625000
2793,15.625000
2794,15.625000
2795,15.625000
2796,15.625000
2797,15.625000
2798,15.625000
2799,15.625000
2800,15.625000
2801,15.625000
2802,15.625000
2803,15.625000
2804,15.625000
2805,15.625000
2806,15.625000
2807,15.625000
2808,15.625000
2809,15.625000
2810,15.625000
2811,15.625000
2812,15.625000
2813,15.625000
2814,15.625000
2815,15.625000
2816,15.625000
2817,15.625000
2818,15.625000
2819,15.625000
2820,15.625000
2821,15.625000
2822,15.625000
2823,15.625000
2824,15.625000
2825,15.625000
2826,15.625000
2827,15.625000
2828,15.625000
2829,15.625000
2830,15.625000
2831,15.625000
2832,15.625000
2833,15.625000
2834,15.625000
2835,15.625000
2836,15.625000
2837,15.625000
2838,15.625000
2839,15.625000
2840,15.625000
2841,15.625000
2842,15.625000
2843,13.671875
2844,13.671875
2845,13.671875
2846,15.625000
2847,15.625000
2848,13.671875
2849,15.625000
2850,13.671875
2851,13.671875
2852,15.625000
2853,13.671875
2854,13.671875
2855,13.671875
2856,13.671875
2857,13.671875
2858,13.671875
2859,13.671875
2860,13.671875
2861,13.671875
2862,13.671875
2863,13.671875
2864,13.671875
2865,11.718750
2866,11.718750
2867,13.671875
2868,13.671875
2869,13.671875
2870,13.671875
2871,11.718750
2872,13.671875
2873,13.671875
2874,11.718750
2875,11.718750
2876,9.765625
2877,11.718750
2878,11.718750
2879,13.671875
2880,11.718750
2881,11.718750
2882,11.718750
2883,11.718750
2884,11.718750
2885,13.671875
2886,11.718750
2887,11.718750
2888,11.718750
2889,11.718750
2890,11.718750
2891,11.718750
2892,11.718750
2893,11.718750
2894,11.718750
2895,11.718750
2896,11.718750
2897,15.625000
2898,11.718750
2899,11.718750
2900,13.671875
2901,11.718750
2902,11.718750
2903,11.718750
2904,9.765625
2905,11.718750
2906,11.718750
2907,9.765625
2908,11.718750
2909,9.765625
2910,11.718750
2911,9.765625
2912,9.765625
2913,11.718750
2914,9.765625
2915,9.765625
2916,11.718750
2917,9.765625
2918,9.765625
2919,9.765625
2920,9.765625
2921,9.765625
2922,7.812500
2923,7.812500
2924,7.812500
2925,7.812500
2926,7.812500
2927,7.812500
2928,7.812500
2929,9.765625
2930,7.812500
2931,7.812500
2932,7.812500
2933,7.812500
2934,7.812500
2935,7.812500
2936,5.859375
2937,7.812500
2938,7.812500
2939,5.859375
2940,5.859375
2941,5.859375
2942,5.859375
2943,5.859375
2944,5.859375
2945,5.859375
2946,5.859375
2947,5.859375
2948,5.859375
2949,3.906250
2950,3.906250
2951,3.906250
2952,3.906250
2953,3.906250
2954,1.953125
2955,3.906250
2956,3.906250
2957,3.906250
2958,3.906250
2959,1.953125
2960,3.906250
2961,1.953125
2962,1.953125
2963,1.953125
2964,1.953125
2965,1.953125
2966,1.953125
2967,1.953125
2968,0.000000
2969,1.953125
2970,0.000000
2971,0.000000
2972,0.000000
2973,0.000000
2974,0.000000
2975,0.000000
2976,0.000000
2977,0.000000
2978,-1.953125
2979,-1.953125
2980,-1.953125
2981,-1.953125
2982,-1.953125
2983,-1.953125
2984,-1.953125
2985,-3.906250
2986,-3.906250
2987,-3.906250
2988,-3.906250
2989,-3.906250
2990,-3.906250
2991,-5.859375
2992,-5.859375
2993,-5.859375
2994,-5.859375
2995,-5.859375
2996,-5.859375
2997,-5.859375
2998,-7.812500
2999,-5.859375
3000,-7.812500
3001,-7.812500
3002,-7.812500
3003,-7.812500
3004,-9.765625
3005,-7.812500
3006,-9.765625
3007,-9.765625
3008,-9.765625
3009,-9.765625
3010,-9.765625
3011,-9.765625
3012,-11.718750
3013,-11.718750
3014,-11.718750
3015,-11.718750
3016,-11.718750
3017,-11.718750
3018,-11.718750
3019,-11.718750
3020,-13.671875
3021,-13.671875
3022,-13.671875
3023,-13.671875
3024,-13.671875
3025,-13.671875
3026,-13.671875
3027,-15.625000
3028,-15.625000
3029,-15.625000
3030,-17.578125
3031,-15.625000
3032,-15.625000
3033,-17.578125
3034,-17.578125
3035,-17.578125
3036,-17.578125
3037,-17.578125
3038,-17.578125
3039,-17.578125
3040,-19.531250
3041,-19.531250
3042,-19.531250
3043,-19.531250
3044,-21.484375
3045,-21.484375
3046,-21.484375
3047,-21.484375
3048,-21.484375
3049,-21.484375
3050,-23.437500
3051,-23.437500
3052,-23.437500
3053,-25.390625
3054,-23.437500
3055,-25.390625
3056,-23.437500
3057,-25.390625
3058,-25.390625
3059,-25.390625
3060,-25.390625
3061,-27.343750
3062,-27.343750
3063,-27.343750
3064,-27.343750
3065,-27.343750
3066,-27.343750
3067,-27.343750
3068,-29.296875
3069,-29.296875
3070,-29.296875
3071,-29.296875
3072,-29.296875
3073,-29.296875
3074,-31.250000
3075,-31.250000
3076,-31.250000
3077,-31.250000
3078,-31.250000
3079,-33.203125
3080,-31.250000
3081,-33.203125
3082,-33.203125
3083,-33.203125
3084,-33.203125
3085,-33.203125
3086,-33.203125
3087,-35.156250
3088,-35.156250
3089,-35.156250
3090,-35.156250
3091,-35.156250
3092,-35.156250
3093,-35.156250
3094,-37.109375
3095,-37.109375
3096,-37.109375
3097,-37.109375
3098,-37.109375
3099,-37.109375
3100,-37.109375
3101,-39.062500
3102,-37.109375
3103,-37.109375
3104,-39.062500
3105,-39.062500
3106,-39.062500
3107,-39.062500
3108,-39.062500
3109,-39.062500
3110,-39.062500
3111,-39.062500
3112,-41.015625
3113,-41.015625
3114,-41.015625
3115,-41.015625
3116,-41.015625
3117,-41.015625
3118,-41.015625
3119,-41.015625
3120,-41.015625
3121,-42.968750
3122,-42.968750
3123,-41.015625
3124,-42.968750
3125,-42.968750
3126,-42.968750
3127,-42.968750
3128,-42.968750
3129,-44.921875
3130,-42.968750
3131,-42.968750
3132,-44.921875
3133,-42.968750
3134,-42.968750
3135,-42.968750
3136,-42.968750
3137,-42.968750
3138,-42.968750
3139,-42.968750
3140,-42.968750
3141,-42.968750
3142,-42.968750
3143,-42.968750
3144,-42.968750
3145,-42.968750
3146,-42.968750
3147,-42.968750
3148,-42.968750
3149,-42.968750
3150,-42.968750
3151,-42.968750
3152,-42.968750
3153,-42.968750
3154,-42.968750
3155,-42.968750
3156,-41.015625
3157,-42.968750
3158,-42.968750
3159,-41.015625
3160,-42.968750
3161,-41.015625
3162,-41.015625
3163,-41.015625
3164,-41.015625
3165,-41.015625
3166,-41.015625
3167,-41.015625
3168,-41.015625
3169,-41.015625
3170,-41.015625
3171,-41.015625
3172,-39.062500
3173,-41.015625
3174,-39.062500
3175,-41.015625
3176,-39.062500
3177,-39.062500
3178,-39.062500
3179,-39.062500
3180,-39.062500
3181,-39.062500
3182,-39.062500
3183,-39.062500
3184,-37.109375
3185,-39.062500
3186,-37.109375
3187,-37.109375
3188,-37.109375
3189,-37.109375
3190,-37.109375
3191,-37.109375
3192,-35.156250
3193,-37.109375
3194,-35.156250
3195,-35.156250
3196,-35.156250
3197,-35.156250
3198,-35.156250
3199,-35.156250
3200,-33.203125
3201,-35.156250
3202,-33.203125
3203,-33.203125
3204,-33.203125
3205,-33.203125
3206,-33.203125
3207,-31.250000
3208,-31.250000
3209,-31.250000
3210,-31.250000
3211,-31.250000
3212,-31.250000
3213,-29.296875
3214,-29.296875
3215,-29.296875
3216,-29.296875
3217,-29.296875
3218,-29.296875
3219,-27.343750
3220,-27.343750
3221,-27.343750
3222,-27.343750
3223,-27.343750
3224,-25.390625
3225,-25.390625
3226,-25.390625
3227,-25.390625
3228,-25.390625
3229,-23.437500
3230,-23.437500
3231,-23.437500
3232,-21.484375
3233,-23.437500
3234,-21.484375
3235,-21.484375
3236,-21.484375
3237,-21.484375
3238,-21.484375
3239,-19.531250
3240,-19.531250
3241,-19.531250
3242,-19.531250
3243,-19.531250
3244,-17.578125
3245,-17.578125
3246,-17.578125
3247,-15.625000
3248,-15.625000
3249,-15.625000
3250,-15.625000
3251,-15.625000
3252,-15.625000
3253,-15.625000
3254,-13.671875
3255,-13.671875
3256,-13.671875
3257,-13.671875
3258,-11.718750
3259,-11.718750
3260,-11.718750
3261,-11.718750
3262,-11.718750
3263,-9.765625
3264,-9.765625
3265,-9.765625
3266,-9.765625
3267,-7.812500
3268,-9.765625
3269,-7.812500
3270,-7.812500
3271,-5.859375
3272,-7.812500
3273,-5.859375
3274,-5.859375
3275,-5.859375
3276,-5.859375
3277,-3.906250
3278,-3.906250
3279,-3.906250
3280,-3.906250
3281,-1.953125
3282,-3.906250
3283,-1.953125
3284,-1.953125
3285,-1.953125
3286,-1.953125
3287,-1.953125
3288,0.000000
3289,0.000000
3290,0.000000
3291,0.000000
3292,1.953125
3293,1.953125
3294,1.953125
3295,1.953125
3296,1.953125
3297,3.906250
3298,3.906250
3299,3.906250
3300,3.906250
3301,3.906250
3302,3.906250
3303,3.906250
3304,3.906250
3305,3.906250
3306,5.859375
3307,5.859375
3308,5.859375
3309,5.859375
3310,5.859375
3311,5.859375
3312,5.859375
3313,5.859375
3314,7.812500
3315,7.812500
3316,7.812500
3317,7.812500
3318,7.812500
3319,7.812500
3320,7.812500
3321,9.765625
3322,9.765625
3323,9.765625
3324,9.765625
3325,9.765625
3326,9.765625
3327,9.765625
3328,9.765625
3329,9.765625
3330,9.765625
3331,9.765625
3332,9.765625
3333,11.718750
3334,11.718750
3335,11.718750
3336,11.718750
3337,11.718750
3338,11.718750
3339,11.718750
3340,11.718750
3341,11.718750
3342,11.718750
3343,11.718750
3344,11.718750
3345,13.671875
3346,13.671875
3347,13.671875
3348,13.671875
3349,13.671875
3350,13.671875
3351,13.671875
3352,13.671875
3353,13.671875
3354,13.671875
3355,13.671875
3356,13.671875
3357,13.671875
3358,15.625000
3359,13.671875
3360,13.671875
3361,15.625000
3362,15.625000
3363,13.671875
3364,13.671875
3365,15.625000
3366,13.671875
3367,15.625000
3368,15.625000
3369,15.625000
3370,15.625000
3371,15.625000
3372,15.625000
3373,15.625000
3374,15.625000
3375,15.625000
3376,15.625000
3377,15.625000
3378,15.625000
3379,15.625000
3380,15.625000
3381,15.625000
3382,15.625000
3383,15.625000
3384,15.625000
3385,15.625000
3386,15.625000
3387,15.625000
3388,15.625000
3389,15.625000
3390,15.625000
3391,15.625000
3392,15.625000
3393,15.625000
3394,15.625000
3395,15.625000
3396,15.625000
3397,15.625000
3398,15.625000
3399,15.625000
3400,15.625000
3401,15.625000
3402,15.625000
3403,15.625000
3404,15.625000
3405,15.625000
3406,15.625000
3407,15.625000
3408,15.625000
3409,15.625000
3410,15.625000
3411,15.625000
3412,15.625000
3413,15.625000
3414,15.625000
3415,15.625000
3416,15.625000
3417,15.625000
3418,15.625000
3419,15.625000
3420,15.625000
3421,15.625000
3422,13.671875
3423,15.625000
3424,15.625000
3425,15.625000
3426,15.625000
3427,13.671875
3428,15.625000
3429,13.671875
3430,13.671875
3431,13.671875
3432,13.671875
3433,15.625000
3434,13.671875
3435,13.671875
3436,13.671875
3437,13.671875
3438,13.671875
3439,13.671875
3440,13.671875
3441,13.671875
3442,13.671875
3443,13.671875
3444,13.671875
3445,13.671875
3446,13.671875
3447,13.671875
3448,13.671875
3449,13.671875
3450,13.671875
3451,13.671875
3452,13.671875
3453,13.671875
3454,13.671875
3455,11.718750
3456,11.718750
3457,11.718750
3458,11.718750
3459,13.671875
3460,11.718750
3461,11.718750
3462,11.718750
3463,11.718750
3464,11.718750
3465,11.718750
3466,11.718750
3467,11.718750
3468,11.718750
3469,11.718750
3470,11.718750
3471,11.718750
3472,11.718750
3473,11.718750
3474,11.718750
3475,9.765625
3476,11.718750
3477,11.718750
3478,11.718750
3479,11.718750
3480,11.718750
3481,11.718750
3482,11.718750
3483,11.718750
3484,11.718750
3485,9.765625
3486,11.718750
3487,11.718750
3488,9.765625
3489,9.765625
3490,11.718750
3491,9.765625
3492,9.765625
3493,9.765625
3494,9.765625
3495,11.718750
3496,9.765625
3497,9.765625
3498,9.765625
3499,9.765625
3500,9.765625
3501,9.765625
3502,9.765625
3503,9.765625
3504,9.765625
3505,7.812500
3506,9.765625
3507,7.812500
3508,9.765625
3509,7.812500
3510,5.859375
3511,7.812500
3512,7.812500
3513,7.812500
3514,7.812500
3515,7.812500
3516,7.812500
3517,5.859375
3518,7.812500
3519,7.812500
3520,5.859375
3521,5.859375
3522,5.859375
3523,5.859375
3524,5.859375
3525,5.859375
3526,5.859375
3527,5.859375
3528,5.859375
3529,5.859375
3530,3.906250
3531,5.859375
3532,3.906250
3533,3.906250
3534,3.906250
3535,3.906250
3536,3.906250
3537,3.906250
3538,3.906250
3539,3.906250
3540,3.906250
3541,3.906250
3542,1.953125
3543,1.953125
3544,1.953125
3545,1.953125
3546,1.953125
3547,1.953125
3548,1.953125
3549,1.953125
3550,1.953125
3551,1.953125
3552,1.953125
3553,0.000000
3554,0.000000
3555,0.000000
3556,0.000000
3557,0.000000
3558,0.000000
3559,-1.953125
3560,0.000000
3561,-1.953125
3562,-1.953125
3563,-1.953125
3564,-1.953125
3565,-1.953125
3566,-1.953125
3567,-3.906250
3568,-3.906250
3569,-3.906250
3570,-3.906250
3571,-3.906250
3572,-3.906250
3573,-3.906250
3574,-3.906250
3575,-5.859375
3576,-5.859375
3577,-5.859375
3578,-5.859375
3579,-5.859375
3580,-7.812500
3581,-7.812500
3582,-7.812500
3583,-7.812500
3584,-7.812500
3585,-9.765625
3586,-7.812500
3587,-9.765625
3588,-9.765625
3589,-9.765625
3590,-9.765625
3591,-9.765625
3592,-9.765625
3593,-9.765625
3594,-11.718750
3595,-11.718750
3596,-11.718750
3597,-11.718750
3598,-11.718750
3599,-13.671875
3600,-13.671875
3601,-11.718750
3602,-13.671875
3603,-13.671875
3604,-13.671875
3605,-13.671875
3606,-13.671875
3607,-13.671875
3608,-13.671875
3609,-15.625000
3610,-15.625000
3611,-15.625000
3612,-15.625000
3613,-15.625000
3614,-15.625000
3615,-15.625000
3616,-17.578125
3617,-17.578125
3618,-17.578125
3619,-17.578125
3620,-17.578125
3621,-19.531250
3622,-19.531250
3623,-19.531250
3624,-17.578125
3625,-19.531250
3626,-19.531250
3627,-21.484375
3628,-21.484375
3629,-21.484375
3630,-21.484375
3631,-21.484375
3632,-23.437500
3633,-23.437500
3634,-23.437500
3635,-23.437500
3636,-23.437500
3637,-23.437500
3638,-25.390625
3639,-25.390625
3640,-25.390625
3641,-25.390625
3642,-25.390625
3643,-25.390625
3644,-27.343750
3645,-27.343750
3646,-27.343750
3647,-27.343750
3648,-27.343750
3649,-29.296875
3650,-29.296875
3651,-27.343750
3652,-29.296875
3653,-29.296875
3654,-29.296875
3655,-31.250000
3656,-31.250000
3657,-31.250000
3658,-31.250000
3659,-31.250000
3660,-31.250000
3661,-31.250000
3662,-33.203125
3663,-31.250000
3664,-31.250000
3665,-33.203125
3666,-33.203125
3667,-33.203125
3668,-33.203125
3669,-33.203125
3670,-35.156250
3671,-35.156250
3672,-35.156250
3673,-35.156250
3674,-35.156250
3675,-35.156250
3676,-35.156250
3677,-35.156250
3678,-35.156250
3679,-37.109375
3680,-37.109375
3681,-37.109375
3682,-37.109375
3683,-37.109375
3684,-37.109375
3685,-39.062500
3686,-39.062500
3687,-39.062500
3688,-39.062500
3689,-39.062500
3690,-39.062500
3691,-39.062500
3692,-39.062500
3693,-39.062500
3694,-39.062500
3695,-41.015625
3696,-39.062500
3697,-41.015625
3698,-41.015625
3699,-41.015625
3700,-41.015625
3701,-41.015625
3702,-41.015625
3703,-41.015625
3704,-41.015625
3705,-42.968750
3706,-42.968750
3707,-42.968750
3708,-39.062500
3709,-41.015625
3710,-42.968750
3711,-42.968750
3712,-42.968750
3713,-42.968750
3714,-42.968750
3715,-42.968750
3716,-42.968750
3717,-42.968750
3718,-42.968750
3719,-42.968750
3720,-42.968750
3721,-42.968750
3722,-42.968750
3723,-42.968750
3724,-42.968750
3725,-42.968750
3726,-42.968750
3727,-42.968750
3728,-42.968750
3729,-42.968750
3730,-42.968750
3731,-42.968750
3732,-42.968750
3733,-42.968750
3734,-42.968750
3735,-42.968750
3736,-41.015625
3737,-42.968750
3738,-42.968750
3739,-42.968750
3740,-42.968750
3741,-41.015625
3742,-41.015625
3743,-41.015625
3744,-41.015625
3745,-41.015625
3746,-41.015625
3747,-41.015625
3748,-41.015625
3749,-41.015625
3750,-41.015625
3751,-41.015625
3752,-41.015625
3753,-41.015625
3754,-39.062500
3755,-41.015625
3756,-39.062500
3757,-39.062500
3758,-39.062500
3759,-39.062500
3760,-39.062500
3761,-39.062500
3762,-39.062500
3763,-39.062500
3764,-39.062500
3765,-39.062500
3766,-39.062500
3767,-39.062500
3768,-37.109375
3769,-37.109375
3770,-37.109375
3771,-37.109375
3772,-37.109375
3773,-37.109375
3774,-37.109375
3775,-35.156250
3776,-35.156250
3777,-35.156250
3778,-35.156250
3779,-35.156250
3780,-35.156250
3781,-35.156250
3782,-35.156250
3783,-33.203125
3784,-35.156250
3785,-33.203125
3786,-33.203125
3787,-33.203125
3788,-33.203125
3789,-33.203125
3790,-31.250000
3791,-31.250000
3792,-31.250000
3793,-31.250000
3794,-31.250000
3795,-29.296875
3796,-29.296875
3797,-29.296875
3798,-29.296875
3799,-29.296875
3800,-29.296875
3801,-27.343750
3802,-27.343750
3803,-27.343750
3804,-27.343750
3805,-25.390625
3806,-27.343750
3807,-25.390625
3808,-25.390625
3809,-25.390625
3810,-25.390625
3811,-25.390625
3812,-23.437500
3813,-23.437500
3814,-23.437500
3815,-23.437500
3816,-23.437500
3817,-21.484375
3818,-23.437500
3819,-21.484375
3820,-21.484375
3821,-21.484375
3822,-19.531250
3823,-19.531250
3824,-19.531250
3825,-21.484375
3826,-17.578125
3827,-17.578125
3828,-17.578125
3829,-17.578125
3830,-17.578125
3831,-15.625000
3832,-15.625000
3833,-15.625000
3834,-15.625000
3835,-13.671875
3836,-13.671875
3837,-13.671875
3838,-13.671875
3839,-13.671875
3840,-13.671875
3841,-11.718750
3842,-11.718750
3843,-11.718750
3844,-11.718750
3845,-11.718750
3846,-9.765625
3847,-9.765625
3848,-9.765625
3849,-9.765625
3850,-9.765625
3851,-7.812500
3852,-7.812500
3853,-7.812500
3854,-9.765625
3855,-7.812500
3856,-5.859375
3857,-5.859375
3858,-5.859375
3859,-3.906250
3860,-3.906250
3861,-3.906250
3862,-3.906250
3863,-3.906250
3864,-1.953125
3865,-1.953125
3866,-1.953125
3867,-1.953125
3868,-1.953125
3869,0.000000
3870,0.000000
3871,0.000000
3872,0.000000
3873,0.000000
3874,0.000000
3875,1.953125
3876,1.953125
3877,1.953125
3878,1.953125
3879,1.953125
3880,3.906250
3881,3.906250
3882,3.906250
3883,3.906250
3884,3.906250
3885,3.906250
3886,3.906250
3887,3.906250
3888,5.859375
3889,5.859375
3890,3.906250
3891,5.859375
3892,5.859375
3893,5.859375
3894,7.812500
3895,5.859375
3896,5.859375
3897,7.812500
3898,5.859375
3899,7.812500
3900,7.812500
3901,7.812500
3902,7.812500
3903,7.812500
3904,7.812500
3905,7.812500
3906,7.812500
3907,9.765625
3908,9.765625
3909,9.765625
3910,9.765625
3911,9.765625
3912,9.765625
3913,9.765625
3914,11.718750
3915,11.718750
3916,9.765625
3917,11.718750
3918,11.718750
3919,11.718750
3920,11.718750
3921,11.718750
3922,11.718750
3923,11.718750
3924,11.718750
3925,11.718750
3926,11.718750
3927,13.671875
3928,11.718750
3929,13.671875
3930,13.671875
3931,13.671875
3932,13.671875
3933,13.671875
3934,13.671875
3935,13.671875
3936,13.671875
3937,13.671875
3938,13.671875
3939,13.671875
3940,13.671875
3941,13.671875
3942,13.671875
3943,15.625000
3944,15.625000
3945,15.625000
3946,13.671875
3947,13.671875
3948,15.625000
3949,15.625000
3950,15.625000
3951,13.671875
3952,15.625000
3953,15.625000
3954,15.625000
3955,15.625000
3956,15.625000
3957,15.625000
3958,15.625000
3959,15.625000
3960,15.625000
3961,15.625000
3962,15.625000
3963,15.625000
3964,15.625000
3965,15.625000
3966,15.625000
3967,15.625000
3968,15.625000
3969,15.625000
3970,15.625000
3971,15.625000
3972,15.625000
3973,15.625000
3974,15.625000
3975,15.625000
3976,15.625000
3977,15.625000
3978,15.625000
3979,15.625000
3980,15.625000
3981,15.625000
3982,15.625000
3983,15.625000
3984,15.625000
3985,15.625000
3986,15.625000
3987,15.625000
3988,15.625000
3989,15.625000
3990,15.625000
3991,15.625000
3992,15.625000
3993,15.625000
3994,15.625000
3995,13.671875
3996,15.625000
3997,15.625000
3998,15.625000
3999,15.625000
4000,15.625000
4001,15.625000
4002,15.625000
4003,15.625000
4004,15.625000
4005,15.625000
4006,15.625000
4007,15.625000
4008,13.671875
4009,15.625000
4010,15.625000
4011,13.671875
4012,15.625000
4013,13.671875
4014,13.671875
4015,13.671875
4016,15.625000
4017,15.625000
4018,13.671875
4019,13.671875
4020,15.625000
4021,13.671875
4022,13.671875
4023,13.671875
4024,13.671875
4025,13.671875
4026,13.671875
4027,13.671875
4028,13.671875
4029,13.671875
4030,13.671875
4031,13.671875
4032,13.671875
4033,13.671875
4034,13.671875
4035,13.671875
4036,13.671875
4037,13.671875
4038,13.671875
4039,13.671875
4040,11.718750
4041,13.671875
4042,13.671875
4043,11.718750
4044,11.718750
4045,11.718750
4046,13.671875
4047,11.718750
4048,11.718750
4049,11.718750
4050,11.718750
4051,13.671875
4052,11.718750
4053,11.718750
4054,11.718750
4055,11.718750
4056,11.718750
4057,13.671875
4058,11.718750
4059,11.718750
4060,13.671875
4061,11.718750
4062,11.718750
4063,11.718750
4064,11.718750
4065,11.718750
4066,11.718750
4067,11.718750
4068,11.718750
4069,11.718750
4070,11.718750
4071,11.718750
4072,11.718750
4073,11.718750
4074,11.718750
4075,9.765625
4076,9.765625
4077,9.765625
4078,11.718750
4079,9.765625
4080,9.765625
4081,9.765625
4082,9.765625
4083,9.765625
4084,9.765625
4085,9.765625
4086,9.765625
4087,9.765625
4088,9.765625
4089,9.765625
4090,7.812500
4091,7.812500
4092,7.812500
4093,7.812500
4094,7.812500
4095,7.812500
4096,7.812500
4097,7.812500
4098,7.812500
4099,7.812500
4100,7.812500
4101,7.812500
4102,5.859375
4103,5.859375
4104,7.812500
4105,7.812500
4106,5.859375
4107,5.859375
4108,5.859375
4109,5.859375
4110,5.859375
4111,5.859375
4112,5.859375
4113,5.859375
4114,5.859375
4115,3.906250
4116,3.906250
4117,3.906250
4118,3.906250
4119,3.906250
4120,3.906250
4121,3.906250
4122,3.906250
4123,1.953125
4124,3.906250
4125,3.906250
4126,1.953125
4127,1.953125
4128,1.953125
4129,1.953125
4130,1.953125
4131,1.953125
4132,1.953125
4133,1.953125
4134,1.953125
4135,1.953125
4136,0.000000
4137,0.000000
4138,0.000000
4139,0.000000
4140,0.000000
4141,0.000000
4142,-1.953125
4143,-1.953125
4144,-1.953125
4145,-1.953125
4146,-1.953125
4147,-1.953125
4148,-1.953125
4149,-3.906250
4150,-3.906250
4151,-1.953125
4152,-3.906250
4153,-3.906250
4154,-3.906250
4155,-3.906250
4156,-3.906250
4157,-3.906250
4158,-5.859375
4159,-5.859375
4160,-5.859375
4161,-5.859375
4162,-5.859375
4163,-5.859375
4164,-7.812500
4165,-7.812500
4166,-7.812500
4167,-7.812500
4168,-7.812500
4169,-7.812500
4170,-9.765625
4171,-9.765625
4172,-9.765625
4173,-9.765625
4174,-9.765625
4175,-9.765625
4176,-9.765625
4177,-9.765625
4178,-9.765625
4179,-11.718750
4180,-11.718750
4181,-11.718750
4182,-11.718750
4183,-11.718750
4184,-11.718750
4185,-13.671875
4186,-13.671875
4187,-13.671875
4188,-13.671875
4189,-13.671875
4190,-13.671875
4191,-15.625000
4192,-15.625000
4193,-13.671875
4194,-15.625000
4195,-15.625000
4196,-15.625000
4197,-15.625000
4198,-17.578125
4199,-17.578125
4200,-17.578125
4201,-17.578125
4202,-17.578125
4203,-17.578125
4204,-17.578125
4205,-17.578125
4206,-19.531250
4207,-19.531250
4208,-19.531250
4209,-19.531250
4210,-19.531250
4211,-21.484375
4212,-21.484375
4213,-21.484375
4214,-21.484375
4215,-21.484375
4216,-23.437500
4217,-23.437500
4218,-23.437500
4219,-23.437500
4220,-23.437500
4221,-23.437500
4222,-25.390625
4223,-25.390625
4224,-25.390625
4225,-25.390625
4226,-27.343750
4227,-25.390625
4228,-27.343750
4229,-27.343750
4230,-27.343750
4231,-27.343750
4232,-27.343750
4233,-29.296875
4234,-29.296875
4235,-29.296875
4236,-29.296875
4237,-29.296875
4238,-29.296875
4239,-29.296875
4240,-31.250000
4241,-31.250000
4242,-31.250000
4243,-31.250000
4244,-31.250000
4245,-33.203125
4246,-33.203125
4247,-33.203125
4248,-33.203125
4249,-33.203125
4250,-33.203125
4251,-33.203125
4252,-33.203125
4253,-35.156250
4254,-35.156250
4255,-35.156250
4256,-35.156250
4257,-35.156250
4258,-35.156250
4259,-35.156250
4260,-35.156250
4261,-35.156250
4262,-37.109375
4263,-37.109375
4264,-37.109375
4265,-37.109375
4266,-37.109375
4267,-39.062500
4268,-37.109375
4269,-37.109375
4270,-39.062500
4271,-39.062500
4272,-39.062500
4273,-39.062500
4274,-39.062500
4275,-39.062500
4276,-39.062500
4277,-39.062500
4278,-39.062500
4279,-41.015625
4280,-41.015625
4281,-41.015625
4282,-41.015625
4283,-41.015625
4284,-41.015625
4285,-41.015625
4286,-41.015625
4287,-41.015625
4288,-42.968750
4289,-41.015625
4290,-42.968750
4291,-42.968750
4292,-42.968750
4293,-42.968750
4294,-42.968750
4295,-42.968750
4296,-42.968750
4297,-42.968750
4298,-42.968750
4299,-42.968750
4300,-42.968750
4301,-42.968750
4302,-42.968750
4303,-42.968750
4304,-42.968750
4305,-42.968750
4306,-42.968750
4307,-42.968750
4308,-42.968750
4309,-42.968750
4310,-42.968750
4311,-42.968750
4312,-42.968750
4313,-42.968750
4314,-42.968750
4315,-42.968750
4316,-42.968750
4317,-42.968750
4318,-42.968750
4319,-42.968750
4320,-42.968750
4321,-42.968750
4322,-42.968750
4323,-42.968750
4324,-41.015625
4325,-42.968750
4326,-41.015625
4327,-41.015625
4328,-41.015625
4329,-41.015625
4330,-41.015625
4331,-41.015625
4332,-41.015625
4333,-41.015625
4334,-41.015625
4335,-41.015625
4336,-41.015625
4337,-41.015625
4338,-41.015625
4339,-39.062500
4340,-39.062500
4341,-39.062500
4342,-39.062500
4343,-39.062500
4344,-39.062500
4345,-39.062500
4346,-39.062500
4347,-39.062500
4348,-39.062500
4349,-39.062500
4350,-39.062500
4351,-39.062500
4352,-37.109375
4353,-37.109375
4354,-37.109375
4355,-37.109375
4356,-37.109375
4357,-37.109375
4358,-35.156250
4359,-37.109375
4360,-35.156250
4361,-35.156250
4362,-35.156250
4363,-35.156250
4364,-35.156250
4365,-35.156250
4366,-33.203125
4367,-35.156250
4368,-33.203125
4369,-33.203125
4370,-33.203125
4371,-33.203125
4372,-33.203125
4373,-31.250000
4374,-31.250000
4375,-31.250000
4376,-31.250000
4377,-31.250000
4378,-29.296875
4379,-29.296875
4380,-29.296875
4381,-29.296875
4382,-29.296875
4383,-29.296875
4384,-29.296875
4385,-27.343750
4386,-27.343750
4387,-25.390625
4388,-27.343750
4389,-27.343750
4390,-25.390625
4391,-25.390625
4392,-25.390625
4393,-25.390625
4394,-23.437500
4395,-23.437500
4396,-23.437500
4397,-23.437500
4398,-21.484375
4399,-21.484375
4400,-21.484375
4401,-21.484375
4402,-21.484375
4403,-21.484375
4404,-19.531250
4405,-19.531250
4406,-19.531250
4407,-19.531250
4408,-19.531250
4409,-17.578125
4410,-17.578125
4411,-17.578125
4412,-17.578125
4413,-17.578125
4414,-15.625000
4415,-15.625000
4416,-15.625000
4417,-13.671875
4418,-15.625000
4419,-15.625000
4420,-13.671875
4421,-13.671875
4422,-13.671875
4423,-13.671875
4424,-13.671875
4425,-11.718750
4426,-11.718750
4427,-11.718750
4428,-9.765625
4429,-9.765625
4430,-9.765625
4431,-9.765625
4432,-9.765625
4433,-7.812500
4434,-7.812500
4435,-7.812500
4436,-7.812500
4437,-7.812500
4438,-5.859375
4439,-5.859375
4440,-5.859375
4441,-5.859375
4442,-5.859375
4443,-3.906250
4444,-3.906250
4445,-3.906250
4446,-3.906250
4447,-3.906250
4448,-1.953125
4449,-1.953125
4450,-1.953125
4451,-1.953125
4452,0.000000
4453,0.000000
4454,0.000000
4455,0.000000
4456,0.000000
4457,1.953125
4458,1.953125
4459,1.953125
4460,1.953125
4461,1.953125
4462,1.953125
4463,3.906250
4464,3.906250
4465,3.906250
4466,3.906250
4467,3.906250
4468,3.906250
4469,3.906250
4470,5.859375
4471,5.859375
4472,5.859375
4473,5.859375
4474,5.859375
4475,5.859375
4476,5.859375
4477,7.812500
4478,7.812500
4479,7.812500
4480,7.812500
4481,7.812500
4482,7.812500
4483,7.812500
4484,7.812500
4485,7.812500
4486,7.812500
4487,9.765625
4488,9.765625
4489,9.765625
4490,7.812500
4491,9.765625
4492,9.765625
4493,9.765625
4494,9.765625
4495,9.765625
4496,11.718750
4497,11.718750
4498,11.718750
4499,11.718750
4500,11.718750
4501,11.718750
4502,11.718750
4503,11.718750
4504,11.718750
4505,11.718750
4506,11.718750
4507,13.671875
4508,11.718750
4509,13.671875
4510,11.718750
4511,13.671875
4512,13.671875
4513,13.671875
4514,13.671875
4515,13.671875
4516,13.671875
4517,13.671875
4518,13.671875
4519,13.671875
4520,13.671875
4521,13.671875
4522,13.671875
4523,13.671875
4524,13.671875
4525,15.625000
4526,13.671875
4527,15.625000
4528,13.671875
4529,15.625000
4530,15.625000
4531,15.625000
4532,15.625000
4533,15.625000
4534,15.625000
4535,15.625000
4536,15.625000
4537,15.625000
4538,15.625000
4539,15.625000
4540,15.625000
4541,15.625000
4542,15.625000
4543,15.625000
4544,15.625000
4545,15.625000
4546,15.625000
4547,15.625000
4548,15.625000
4549,15.625000
4550,15.625000
4551,15.625000
4552,15.625000
4553,15.625000
4554,15.625000
4555,15.625000
4556,15.625000
4557,15.625000
4558,15.625000
4559,15.625000
4560,15.625000
4561,15.625000
4562,15.625000
4563,15.625000
4564,15.625000
4565,15.625000
4566,15.625000
4567,15.625000
4568,15.625000
4569,15.625000
4570,15.625000
4571,15.625000
4572,15.625000
4573,15.625000
4574,15.625000
4575,15.625000
4576,15.625000
4577,15.625000
4578,13.671875
4579,15.625000
4580,15.625000
4581,15.625000
4582,15.625000
4583,15.625000
4584,15.625000
4585,15.625000
4586,15.625000
4587,15.625000
4588,13.671875
4589,15.625000
4590,15.625000
4591,15.625000
4592,15.625000
4593,15.625000
4594,15.625000
4595,15.625000
4596,13.671875
4597,13.671875
4598,15.625000
4599,15.625000
4600,15.625000
4601,13.671875
4602,13.671875
4603,13.671875
4604,13.671875
4605,13.671875
4606,13.671875
4607,13.671875
4608,13.671875
4609,13.671875
4610,13.671875
4611,13.671875
4612,13.671875
4613,13.671875
4614,13.671875
4615,11.718750
4616,11.718750
4617,13.671875
4618,13.671875
4619,13.671875
4620,11.718750
4621,13.671875
4622,11.718750
4623,11.718750
4624,13.671875
4625,11.718750
4626,13.671875
4627,11.718750
4628,11.718750
4629,11.718750
4630,11.718750
4631,11.718750
4632,11.718750
4633,11.718750
4634,11.718750
4635,11.718750
4636,11.718750
4637,11.718750
4638,11.718750
4639,11.718750
4640,11.718750
4641,11.718750
4642,9.765625
4643,11.718750
4644,11.718750
4645,13.671875
4646,11.718750
4647,11.718750
4648,11.718750
4649,11.718750
4650,11.718750
4651,11.718750
4652,11.718750
4653,11.718750
4654,11.718750
4655,9.765625
4656,9.765625
4657,11.718750
4658,9.765625
4659,9.765625
4660,9.765625
4661,9.765625
4662,9.765625
4663,9.765625
4664,9.765625
4665,9.765625
4666,9.765625
4667,7.812500
4668,9.765625
4669,9.765625
4670,11.718750
4671,9.765625
4672,7.812500
4673,7.812500
4674,7.812500
4675,7.812500
4676,7.812500
4677,7.812500
4678,7.812500
4679,7.812500
4680,7.812500
4681,7.812500
4682,7.812500
4683,7.812500
4684,7.812500
4685,5.859375
4686,5.859375
4687,5.859375
4688,5.859375
4689,5.859375
4690,5.859375
4691,5.859375
4692,5.859375
4693,5.859375
4694,5.859375
4695,5.859375
4696,5.859375
4697,3.906250
4698,3.906250
4699,3.906250
4700,3.906250
4701,3.906250
4702,3.906250
4703,3.906250
4704,3.906250
4705,3.906250
4706,3.906250
4707,3.906250
4708,3.906250
4709,1.953125
4710,1.953125
4711,1.953125
4712,1.953125
4713,1.953125
4714,1.953125
4715,1.953125
4716,1.953125
4717,0.000000
4718,0.000000
4719,0.000000
4720,0.000000
4721,0.000000
4722,0.000000
4723,0.000000
4724,0.000000
4725,-1.953125
4726,-1.953125
4727,-1.953125
4728,-1.953125
4729,-1.953125
4730,-1.953125
4731,-1.953125
4732,-1.953125
4733,-3.906250
4734,-3.906250
4735,-3.906250
4736,-3.906250
4737,-3.906250
4738,-3.906250
4739,-3.906250
4740,-5.859375
4741,-5.859375
4742,-5.859375
4743,-5.859375
4744,-5.859375
4745,-7.812500
4746,-5.859375
4747,-7.812500
4748,-7.812500
4749,-7.812500
4750,-7.812500
4751,-7.812500
4752,-9.765625
4753,-9.765625
4754,-9.765625
4755,-9.765625
4756,-9.765625
4757,-9.765625
4758,-9.765625
4759,-11.718750
4760,-11.718750
4761,-11.718750
4762,-11.718750
4763,-11.718750
4764,-11.718750
4765,-11.718750
4766,-11.718750
4767,-11.718750
4768,-13.671875
4769,-13.671875
4770,-13.671875
4771,-13.671875
4772,-13.671875
4773,-13.671875
4774,-15.625000
4775,-15.625000
4776,-15.625000
4777,-15.625000
4778,-15.625000
4779,-15.625000
4780,-17.578125
4781,-17.578125
4782,-17.578125
4783,-17.578125
4784,-17.578125
4785,-17.578125
4786,-19.531250
4787,-19.531250
4788,-19.531250
4789,-19.531250
4790,-19.531250
4791,-19.531250
4792,-21.484375
4793,-21.484375
4794,-21.484375
4795,-21.484375
4796,-21.484375
4797,-21.484375
4798,-21.484375
4799,-23.437500
4800,-23.437500
4801,-23.437500
4802,-23.437500
4803,-23.437500
4804,-25.390625
4805,-25.390625
4806,-25.390625
4807,-25.390625
4808,-25.390625
4809,-25.390625
4810,-27.343750
4811,-27.343750
4812,-27.343750
4813,-29.296875
4814,-27.343750
4815,-27.343750
4816,-31.250000
4817,-29.296875
4818,-29.296875
4819,-29.296875
4820,-29.296875
4821,-31.250000
4822,-29.296875
4823,-31.250000
4824,-31.250000
4825,-31.250000
4826,-31.250000
4827,-31.250000
4828,-33.203125
4829,-33.203125
4830,-33.203125
4831,-33.203125
4832,-33.203125
4833,-33.203125
4834,-35.156250
4835,-33.203125
4836,-35.156250
4837,-35.156250
4838,-35.156250
4839,-35.156250
4840,-35.156250
4841,-35.156250
4842,-37.109375
4843,-37.109375
4844,-37.109375
4845,-37.109375
4846,-37.109375
4847,-37.109375
4848,-37.109375
4849,-39.062500
4850,-39.062500
4851,-37.109375
4852,-39.062500
4853,-39.062500
4854,-39.062500
4855,-39.062500
4856,-39.062500
4857,-39.062500
4858,-41.015625
4859,-41.015625
4860,-41.015625
4861,-39.062500
4862,-41.015625
4863,-41.015625
4864,-41.015625
4865,-41.015625
4866,-41.015625
4867,-41.015625
4868,-41.015625
4869,-42.968750
4870,-42.968750
4871,-42.968750
4872,-42.968750
4873,-41.015625
4874,-42.968750
4875,-42.968750
4876,-42.968750
4877,-42.968750
4878,-42.968750
4879,-42.968750
4880,-42.968750
4881,-42.968750
4882,-42.968750
4883,-42.968750
4884,-42.968750
4885,-42.968750
4886,-42.968750
4887,-42.968750
4888,-42.968750
4889,-42.968750
4890,-42.968750
4891,-42.968750
4892,-42.968750
4893,-42.968750
4894,-42.968750
4895,-42.968750
4896,-42.968750
4897,-42.968750
4898,-42.968750
4899,-42.968750
4900,-42.968750
4901,-42.968750
4902,-42.968750
4903,-42.968750
4904,-42.968750
4905,-42.968750
4906,-42.968750
4907,-42.968750
4908,-42.968750
4909,-41.015625
4910,-42.968750
4911,-41.015625
4912,-41.015625
4913,-41.015625
4914,-41.015625
4915,-41.015625
4916,-41.015625
4917,-41.015625
4918,-41.015625
4919,-41.015625
4920,-41.015625
4921,-41.015625
4922,-41.015625
4923,-39.062500
4924,-39.062500
4925,-39.062500
4926,-39.062500
4927,-39.062500
4928,-39.062500
4929,-39.062500
4930,-39.062500
4931,-39.062500
4932,-39.062500
4933,-37.109375
4934,-37.109375
4935,-39.062500
4936,-37.109375
4937,-37.109375
4938,-37.109375
4939,-37.109375
4940,-37.109375
4941,-37.109375
4942,-35.156250
4943,-35.156250
4944,-35.156250
4945,-35.156250
4946,-35.156250
4947,-35.156250
4948,-35.156250
4949,-33.203125
4950,-33.203125
4951,-33.203125
4952,-33.203125
4953,-33.203125
4954,-33.203125
4955,-33.203125
4956,-31.250000
4957,-31.250000
4958,-31.250000
4959,-31.250000
4960,-31.250000
4961,-29.296875
4962,-29.296875
4963,-29.296875
4964,-29.296875
4965,-29.296875
4966,-27.343750
4967,-29.296875
4968,-27.343750
4969,-27.343750
4970,-27.343750
4971,-25.390625
4972,-27.343750
4973,-25.390625
4974,-25.390625
4975,-25.390625
4976,-23.437500
4977,-23.437500
4978,-23.437500
4979,-23.437500
4980,-23.437500
4981,-23.437500
4982,-21.484375
4983,-21.484375
4984,-21.484375
4985,-21.484375
4986,-21.484375
4987,-19.531250
4988,-19.531250
4989,-19.531250
4990,-19.531250
4991,-19.531250
4992,-17.578125
4993,-17.578125
4994,-17.578125
4995,-17.578125
4996,-15.625000
4997,-17.578125
4998,-15.625000
4999,-15.625000
5000,-15.625000
5001,-13.671875
5002,-13.671875
5003,-13.671875
5004,-13.671875
5005,-11.718750
5006,-11.718750
5007,-11.718750
5008,-11.718750
5009,-11.718750
5010,-9.765625
5011,-9.765625
5012,-9.765625
5013,-9.765625
5014,-9.765625
5015,-7.812500
5016,-7.812500
5017,-7.812500
5018,-7.812500
5019,-7.812500
5020,-5.859375
5021,-5.859375
5022,-5.859375
5023,-1.953125
5024,-3.906250
5025,-3.906250
5026,-3.906250
5027,-3.906250
5028,-1.953125
5029,-1.953125
5030,-1.953125
5031,-1.953125
5032,-1.953125
5033,-1.953125
5034,0.000000
5035,0.000000
5036,-1.953125
5037,1.953125
5038,1.953125
5039,0.000000
5040,0.000000
5041,1.953125
5042,1.953125
5043,1.953125
5044,1.953125
5045,3.906250
5046,3.906250
5047,3.906250
5048,3.906250
5049,3.906250
5050,3.906250
5051,3.906250
5052,5.859375
5053,5.859375
5054,5.859375
5055,5.859375
5056,5.859375
5057,5.859375
5058,5.859375
5059,5.859375
5060,7.812500
5061,7.812500
5062,7.812500
5063,7.812500
5064,7.812500
5065,7.812500
5066,7.812500
5067,7.812500
5068,9.765625
5069,7.812500
5070,9.765625
5071,9.765625
5072,9.765625
5073,9.765625
5074,9.765625
5075,9.765625
5076,9.765625
5077,9.765625
5078,9.765625
5079,9.765625
5080,9.765625
5081,11.718750
5082,11.718750
5083,11.718750
5084,11.718750
5085,11.718750
5086,11.718750
5087,11.718750
5088,11.718750
5089,11.718750
5090,11.718750
5091,13.671875
5092,13.671875
5093,13.671875
5094,13.671875
5095,13.671875
5096,13.671875
5097,13.671875
5098,13.671875
5099,13.671875
5100,13.671875
5101,13.671875
5102,13.671875
5103,13.671875
5104,13.671875
5105,13.671875
5106,13.671875
5107,13.671875
5108,15.625000
5109,13.671875
5110,13.671875
5111,15.625000
5112,13.671875
5113,15.625000
5114,15.625000
5115,15.625000
5116,15.625000
5117,15.625000
5118,15.625000
5119,15.625000
5120,15.625000
5121,15.625000
5122,15.625000
5123,15.625000
5124,15.625000
5125,15.625000
5126,15.625000
5127,15.625000
5128,15.625000
5129,15.625000
5130,15.625000
5131,15.625000
5132,15.625000
5133,15.625000
5134,15.625000
5135,15.625000
5136,15.625000
5137,15.625000
5138,15.625000
5139,15.625000
5140,15.625000
5141,15.625000
5142,15.625000
5143,15.625000
5144,15.625000
5145,15.625000
5146,15.625000
5147,15.625000
5148,15.625000
5149,15.625000
5150,15.625000
5151,15.625000
5152,15.625000
5153,15.625000
5154,15.625000
5155,15.625000
5156,15.625000
5157,15.625000
5158,15.625000
5159,15.625000
5160,15.625000
5161,15.625000
5162,15.625000
5163,15.625000
5164,15.625000
5165,15.625000
5166,15.625000
5167,15.625000
5168,15.625000
5169,15.625000
5170,13.671875
5171,15.625000
5172,15.625000
5173,15.625000
5174,13.671875
5175,15.625000
5176,13.671875
5177,13.671875
5178,15.625000
5179,13.671875
5180,13.671875
5181,13.671875
5182,13.671875
5183,13.671875
5184,13.671875
5185,15.625000
5186,13.671875
5187,13.671875
5188,13.671875
5189,13.671875
5190,13.671875
5191,13.671875
5192,13.671875
5193,13.671875
5194,13.671875
5195,13.671875
5196,13.671875
5197,13.671875
5198,13.671875
5199,13.671875
5200,13.671875
5201,11.718750
5202,13.671875
5203,13.671875
5204,13.671875
5205,11.718750
5206,11.718750
5207,11.718750
5208,13.671875
5209,11.718750
5210,11.718750
5211,11.718750
5212,11.718750
5213,11.718750
5214,11.718750
5215,11.718750
5216,11.718750
5217,11.718750
5218,11.718750
5219,11.718750
5220,11.718750
5221,11.718750
5222,11.718750
5223,11.718750
5224,11.718750
5225,11.718750
5226,11.718750
5227,11.718750
5228,11.718750
5229,11.718750
5230,11.718750
5231,11.718750
5232,11.718750
5233,11.718750
5234,9.765625
5235,11.718750
5236,11.718750
5237,11.718750
5238,11.718750
5239,9.765625
5240,9.765625
5241,9.765625
5242,9.765625
5243,9.765625
5244,9.765625
5245,9.765625
5246,9.765625
5247,9.765625
5248,9.765625
5249,9.765625
5250,9.765625
5251,9.765625
5252,9.765625
5253,7.812500
5254,9.765625
5255,7.812500
5256,9.765625
5257,7.812500
5258,7.812500
5259,7.812500
5260,7.812500
5261,7.812500
5262,7.812500
5263,7.812500
5264,7.812500
5265,7.812500
5266,5.859375
5267,7.812500
5268,5.859375
5269,5.859375
5270,7.812500
5271,5.859375
5272,5.859375
5273,5.859375
5274,5.859375
5275,5.859375
5276,5.859375
5277,5.859375
5278,3.906250
5279,5.859375
5280,3.906250
5281,5.859375
5282,3.906250
5283,3.906250
5284,3.906250
5285,3.906250
5286,3.906250
5287,3.906250
5288,3.906250
5289,3.906250
5290,1.953125
5291,3.906250
5292,1.953125
5293,1.953125
5294,1.953125
5295,1.953125
5296,1.953125
5297,1.953125
5298,1.953125
5299,0.000000
5300,0.000000
5301,0.000000
5302,0.000000
5303,0.000000
5304,0.000000
5305,0.000000
5306,0.000000
5307,0.000000
5308,0.000000
5309,-1.953125
5310,-1.953125
5311,-1.953125
5312,-1.953125
5313,-1.953125
5314,-1.953125
5315,-1.953125
5316,-3.906250
5317,-3.906250
5318,-3.906250
5319,-3.906250
5320,-3.906250
5321,-5.859375
5322,-5.859375
5323,-5.859375
5324,-5.859375
5325,-5.859375
5326,-5.859375
5327,-5.859375
5328,-5.859375
5329,-7.812500
5330,-7.812500
5331,-7.812500
5332,-7.812500
5333,-7.812500
5334,-7.812500
5335,-7.812500
5336,-9.765625
5337,-9.765625
5338,-9.765625
5339,-9.765625
5340,-9.765625
5341,-9.765625
5342,-11.718750
5343,-11.718750
5344,-11.718750
5345,-11.718750
5346,-11.718750
5347,-11.718750
5348,-13.671875
5349,-11.718750
5350,-13.671875
5351,-13.671875
5352,-13.671875
5353,-13.671875
5354,-13.671875
5355,-13.671875
5356,-13.671875
5357,-13.671875
5358,-15.625000
5359,-15.625000
5360,-15.625000
5361,-15.625000
5362,-15.625000
5363,-17.578125
5364,-17.578125
5365,-17.578125
5366,-17.578125
5367,-17.578125
5368,-17.578125
5369,-19.531250
5370,-19.531250
5371,-19.531250
5372,-19.531250
5373,-19.531250
5374,-21.484375
5375,-19.531250
5376,-19.531250
5377,-21.484375
5378,-21.484375
5379,-21.484375
5380,-23.437500
5381,-23.437500
5382,-23.437500
5383,-25.390625
5384,-23.437500
5385,-23.437500
5386,-23.437500
5387,-25.390625
5388,-25.390625
5389,-25.390625
5390,-25.390625
5391,-25.390625
5392,-25.390625
5393,-27.343750
5394,-27.343750
5395,-27.343750
5396,-27.343750
5397,-27.343750
5398,-27.343750
5399,-29.296875
5400,-29.296875
5401,-29.296875
5402,-29.296875
5403,-29.296875
5404,-29.296875
5405,-31.250000
5406,-31.250000
5407,-31.250000
5408,-31.250000
5409,-31.250000
5410,-31.250000
5411,-33.203125
5412,-33.203125
5413,-33.203125
5414,-33.203125
5415,-33.203125
5416,-35.156250
5417,-33.203125
5418,-35.156250
5419,-35.156250
5420,-35.156250
5421,-35.156250
5422,-35.156250
5423,-35.156250
5424,-35.156250
5425,-37.109375
5426,-35.156250
5427,-37.109375
5428,-37.109375
5429,-37.109375
5430,-37.109375
5431,-37.109375
5432,-37.109375
5433,-39.062500
5434,-39.062500
5435,-39.062500
5436,-39.062500
5437,-39.062500
5438,-39.062500
5439,-41.015625
5440,-39.062500
5441,-39.062500
5442,-39.062500
5443,-41.015625
5444,-41.015625
5445,-41.015625
5446,-41.015625
5447,-42.968750
5448,-41.015625
5449,-41.015625
5450,-42.968750
5451,-41.015625
5452,-41.015625
5453,-42.968750
5454,-42.968750
5455,-42.968750
5456,-42.968750
5457,-42.968750
5458,-42.968750
5459,-42.968750
5460,-42.968750
5461,-42.968750
5462,-42.968750
5463,-42.968750
5464,-42.968750
5465,-42.968750
5466,-42.968750
5467,-42.968750
5468,-42.968750
5469,-42.968750
5470,-42.968750
5471,-42.968750
5472,-42.968750
5473,-42.968750
5474,-42.968750
5475,-42.968750
5476,-42.968750
5477,-42.968750
5478,-42.968750
5479,-42.968750
5480,-42.968750
5481,-42.968750
5482,-42.968750
5483,-42.968750
5484,-42.968750
5485,-42.968750
5486,-42.968750
5487,-42.968750
5488,-42.968750
5489,-42.968750
5490,-42.968750
5491,-42.968750
5492,-42.968750
5493,-41.015625
5494,-41.015625
5495,-41.015625
5496,-42.968750
5497,-41.015625
5498,-41.015625
5499,-41.015625
5500,-41.015625
5501,-41.015625
5502,-41.015625
5503,-41.015625
5504,-41.015625
5505,-41.015625
5506,-39.062500
5507,-39.062500
5508,-39.062500
5509,-39.062500
5510,-39.062500
5511,-39.062500
5512,-39.062500
5513,-39.062500
5514,-39.062500
5515,-39.062500
5516,-37.109375
5517,-39.062500
5518,-37.109375
5519,-37.109375
5520,-37.109375
5521,-37.109375
5522,-37.109375
5523,-37.109375
5524,-35.156250
5525,-35.156250
5526,-35.156250
5527,-35.156250
5528,-35.156250
5529,-35.156250
5530,-35.156250
5531,-33.203125
5532,-35.156250
5533,-33.203125
5534,-33.203125
5535,-33.203125
5536,-33.203125
5537,-31.250000
5538,-31.250000
5539,-31.250000
5540,-31.250000
5541,-31.250000
5542,-31.250000
5543,-31.250000
5544,-29.296875
5545,-29.296875
5546,-29.296875
5547,-29.296875
5548,-29.296875
5549,-27.343750
5550,-27.343750
5551,-27.343750
5552,-27.343750
5553,-25.390625
5554,-25.390625
5555,-25.390625
5556,-25.390625
5557,-25.390625
5558,-23.437500
5559,-23.437500
5560,-25.390625
5561,-23.437500
5562,-23.437500
5563,-23.437500
5564,-23.437500
5565,-21.484375
5566,-21.484375
5567,-21.484375
5568,-21.484375
5569,-19.531250
5570,-19.531250
5571,-19.531250
5572,-19.531250
5573,-19.531250
5574,-19.531250
5575,-17.578125
5576,-17.578125
5577,-17.578125
5578,-15.625000
5579,-17.578125
5580,-15.625000
5581,-15.625000
5582,-13.671875
5583,-15.625000
5584,-13.671875
5585,-13.671875
5586,-13.671875
5587,-13.671875
5588,-13.671875
5589,-11.718750
5590,-11.718750
5591,-11.718750
5592,-11.718750
5593,-9.765625
5594,-9.765625
5595,-9.765625
5596,-9.765625
5597,-9.765625
5598,-9.765625
5599,-7.812500
5600,-7.812500
5601,-7.812500
5602,-5.859375
5603,-5.859375
5604,-5.859375
5605,-5.859375
5606,-5.859375
5607,-3.906250
5608,-3.906250
5609,-3.906250
5610,-3.906250
5611,-1.953125
5612,-3.906250
5613,-1.953125
5614,-1.953125
5615,-1.953125
5616,0.000000
5617,-1.953125
5618,0.000000
5619,0.000000
5620,0.000000
5621,0.000000
5622,1.953125
5623,0.000000
5624,1.953125
5625,1.953125
5626,1.953125
5627,1.953125
5628,1.953125
5629,3.906250
5630,3.906250
5631,3.906250
5632,3.906250
5633,3.906250
5634,3.906250
5635,5.859375
5636,5.859375
5637,5.859375
5638,5.859375
5639,5.859375
5640,5.859375
5641,5.859375
5642,5.859375
5643,5.859375
5644,7.812500
5645,7.812500
5646,7.812500
5647,7.812500
5648,7.812500
5649,7.812500
5650,7.812500
5651,9.765625
5652,9.765625
5653,7.812500
5654,9.765625
5655,9.765625
5656,9.765625
5657,9.765625
5658,9.765625
5659,9.765625
5660,11.718750
5661,11.718750
5662,11.718750
5663,11.718750
5664,11.718750
5665,11.718750
5666,11.718750
5667,11.718750
5668,11.718750
5669,11.718750
5670,11.718750
5671,11.718750
5672,13.671875
5673,13.671875
5674,11.718750
5675,13.671875
5676,13.671875
5677,13.671875
5678,13.671875
5679,13.671875
5680,13.671875
5681,13.671875
5682,13.671875
5683,13.671875
5684,13.671875
5685,13.671875
5686,15.625000
5687,13.671875
5688,13.671875
5689,13.671875
5690,13.671875
5691,13.671875
5692,15.625000
5693,15.625000
5694,15.625000
5695,13.671875
5696,15.625000
5697,15.625000
5698,15.625000
5699,15.625000
5700,15.625000
5701,15.625000
5702,15.625000
5703,15.625000
5704,15.625000
5705,15.625000
5706,15.625000
5707,15.625000
5708,15.625000
5709,15.625000
5710,15.625000
5711,15.625000
5712,15.625000
5713,15.625000
5714,15.625000
5715,15.625000
5716,15.625000
5717,15.625000
5718,15.625000
5719,15.625000
5720,13.671875
5721,15.625000
5722,15.625000
5723,15.625000
5724,15.625000
5725,15.625000
5726,15.625000
5727,15.625000
5728,15.625000
5729,15.625000
5730,15.625000
5731,15.625000
5732,15.625000
5733,13.671875
5734,15.625000
5735,15.625000
5736,15.625000
5737,15.625000
5738,15.625000
5739,15.625000
5740,15.625000
5741,15.625000
5742,15.625000
5743,15.625000
5744,15.625000
5745,15.625000
5746,15.625000
5747,15.625000
5748,15.625000
5749,15.625000
5750,15.625000
5751,17.578125
5752,15.625000
5753,13.671875
5754,13.671875
5755,13.671875
5756,15.625000
5757,15.625000
5758,13.671875
5759,15.625000
5760,13.671875
5761,15.625000
5762,13.671875
5763,13.671875
5764,13.671875
5765,13.671875
5766,13.671875
5767,13.671875
5768,15.625000
5769,13.671875
5770,13.671875
5771,13.671875
5772,13.671875
5773,13.671875
5774,13.671875
5775,13.671875
5776,13.671875
5777,13.671875
5778,13.671875
5779,13.671875
5780,13.671875
5781,13.671875
5782,13.671875
5783,13.671875
5784,13.671875
5785,7.812500
5786,13.671875
5787,13.671875
5788,13.671875
5789,17.578125
5790,11.718750
5791,11.718750
5792,13.671875
5793,11.718750
5794,11.718750
5795,11.718750
5796,11.718750
5797,11.718750
5798,11.718750
5799,11.718750
5800,11.718750
5801,11.718750
5802,15.625000
5803,11.718750
5804,7.812500
5805,15.625000
5806,15.625000
5807,11.718750
5808,11.718750
5809,11.718750
5810,11.718750
5811,11.718750
5812,11.718750
5813,11.718750
5814,11.718750
5815,11.718750
5816,11.718750
5817,11.718750
5818,11.718750
5819,9.765625
5820,11.718750
5821,11.718750
5822,11.718750
5823,9.765625
5824,9.765625
5825,9.765625
5826,9.765625
5827,9.765625
5828,9.765625
5829,9.765625
5830,9.765625
5831,9.765625
5832,9.765625
5833,9.765625
5834,7.812500
5835,5.859375
5836,9.765625
5837,13.671875
5838,7.812500
5839,9.765625
5840,7.812500
5841,7.812500
5842,7.812500
5843,7.812500
5844,7.812500
5845,7.812500
5846,7.812500
5847,7.812500
5848,7.812500
5849,5.859375
5850,5.859375
5851,5.859375
5852,7.812500
5853,7.812500
5854,7.812500
5855,5.859375
5856,3.906250
5857,5.859375
5858,5.859375
5859,5.859375
5860,5.859375
5861,5.859375
5862,5.859375
5863,3.906250
5864,3.906250
5865,3.906250
5866,3.906250
5867,3.906250
5868,3.906250
5869,3.906250
5870,3.906250
5871,3.906250
5872,3.906250
5873,3.906250
5874,3.906250
5875,1.953125
5876,1.953125
5877,1.953125
5878,1.953125
5879,1.953125
5880,1.953125
5881,1.953125
5882,1.953125
5883,0.000000
5884,0.000000
5885,0.000000
5886,0.000000
5887,0.000000
5888,0.000000
5889,0.000000
5890,0.000000
5891,0.000000
5892,-1.953125
5893,-1.953125
5894,-1.953125
5895,-1.953125
5896,-1.953125
5897,-1.953125
5898,-3.906250
5899,-3.906250
5900,-3.906250
5901,-3.906250
5902,-3.906250
5903,-3.906250
5904,-5.859375
5905,-3.906250
5906,-5.859375
5907,-5.859375
5908,-5.859375
5909,-5.859375
5910,-5.859375
5911,-5.859375
5912,-7.812500
5913,-7.812500
5914,-7.812500
5915,-7.812500
5916,-7.812500
5917,-7.812500
5918,-7.812500
5919,-7.812500
5920,-9.765625
5921,-9.765625
5922,-9.765625
5923,-9.765625
5924,-9.765625
5925,-9.765625
5926,-9.765625
5927,-11.718750
5928,-11.718750
5929,-11.718750
5930,-11.718750
5931,-11.718750
5932,-11.718750
5933,-13.671875
5934,-13.671875
5935,-13.671875
5936,-13.671875
5937,-13.671875
5938,-13.671875
5939,-15.625000
5940,-13.671875
5941,-15.625000
5942,-15.625000
5943,-15.625000
5944,-15.625000
5945,-15.625000
5946,-15.625000
5947,-17.578125
5948,-17.578125
5949,-17.578125
5950,-17.578125
5951,-17.578125
5952,-17.578125
5953,-19.531250
5954,-19.531250
5955,-19.531250
5956,-19.531250
5957,-19.531250
5958,-21.484375
5959,-21.484375
5960,-21.484375
5961,-21.484375
5962,-21.484375
5963,-21.484375
5964,-21.484375
5965,-23.437500
5966,-23.437500
5967,-23.437500
5968,-23.437500
5969,-23.437500
5970,-25.390625
5971,-27.343750
5972,-25.390625
5973,-25.390625
5974,-25.390625
5975,-27.343750
5976,-27.343750
5977,-27.343750
5978,-27.343750
5979,-27.343750
5980,-27.343750
5981,-29.296875
5982,-29.296875
5983,-29.296875
5984,-29.296875
5985,-29.296875
5986,-27.343750
5987,-31.250000
5988,-29.296875
5989,-31.250000
5990,-31.250000
5991,-31.250000
5992,-31.250000
5993,-33.203125
5994,-33.203125
5995,-31.250000
5996,-33.203125
5997,-33.203125
5998,-33.203125
5999,-33.203125
6000,-33.203125
6001,-33.203125
6002,-35.156250
6003,-35.156250
6004,-35.156250
6005,-35.156250
6006,-35.156250
6007,-35.156250
6008,-37.109375
6009,-37.109375
6010,-35.156250
6011,-37.109375
6012,-37.109375
6013,-37.109375
6014,-37.109375
6015,-37.109375
6016,-39.062500
6017,-39.062500
6018,-39.062500
6019,-39.062500
6020,-39.062500
6021,-39.062500
6022,-39.062500
6023,-41.015625
6024,-41.015625
6025,-41.015625
6026,-41.015625
6027,-41.015625
6028,-41.015625
6029,-41.015625
6030,-41.015625
6031,-41.015625
6032,-41.015625
6033,-41.015625
6034,-41.015625
6035,-42.968750
6036,-42.968750
6037,-44.921875
6038,-41.015625
6039,-42.968750
6040,-42.968750
6041,-42.968750
6042,-42.968750
6043,-42.968750
6044,-42.968750
6045,-44.921875
6046,-42.968750
6047,-42.968750
6048,-42.968750
6049,-42.968750
6050,-42.968750
6051,-42.968750
6052,-44.921875
6053,-42.968750
6054,-42.968750
6055,-42.968750
6056,-42.968750
6057,-42.968750
6058,-42.968750
6059,-42.968750
6060,-42.968750
6061,-42.968750
6062,-42.968750
6063,-42.968750
6064,-42.968750
6065,-42.968750
6066,-42.968750
6067,-42.968750
6068,-42.968750
6069,-42.968750
6070,-42.968750
6071,-42.968750
6072,-42.968750
6073,-42.968750
6074,-42.968750
6075,-41.015625
6076,-41.015625
6077,-42.968750
6078,-41.015625
6079,-42.968750
6080,-41.015625
6081,-41.015625
6082,-41.015625
6083,-41.015625
6084,-41.015625
6085,-41.015625
6086,-41.015625
6087,-39.062500
6088,-41.015625
6089,-41.015625
6090,-39.062500
6091,-41.015625
6092,-39.062500
6093,-39.062500
6094,-39.062500
6095,-39.062500
6096,-39.062500
6097,-39.062500
6098,-39.062500
6099,-39.062500
6100,-37.109375
6101,-37.109375
6102,-37.109375
6103,-37.109375
6104,-37.109375
6105,-37.109375
6106,-37.109375
6107,-37.109375
6108,-35.156250
6109,-35.156250
6110,-35.156250
6111,-35.156250
6112,-35.156250
6113,-35.156250
6114,-33.203125
6115,-33.203125
6116,-33.203125
6117,-33.203125
6118,-33.203125
6119,-33.203125
6120,-31.250000
6121,-33.203125
6122,-31.250000
6123,-31.250000
6124,-31.250000
6125,-31.250000
6126,-31.250000
6127,-31.250000
6128,-29.296875
6129,-27.343750
6130,-27.343750
6131,-27.343750
6132,-29.296875
6133,-27.343750
6134,-27.343750
6135,-27.343750
6136,-27.343750
6137,-27.343750
6138,-25.390625
6139,-25.390625
6140,-25.390625
6141,-25.390625
6142,-25.390625
6143,-23.437500
6144,-23.437500
6145,-23.437500
6146,-23.437500
6147,-21.484375
6148,-21.484375
6149,-21.484375
6150,-21.484375
6151,-21.484375
6152,-19.531250
6153,-19.531250
6154,-19.531250
6155,-19.531250
6156,-17.578125
6157,-17.578125
6158,-17.578125
6159,-17.578125
6160,-17.578125
6161,-17.578125
6162,-15.625000
6163,-15.625000
6164,-15.625000
6165,-15.625000
6166,-13.671875
6167,-13.671875
6168,-13.671875
6169,-13.671875
6170,-11.718750
6171,-11.718750
6172,-11.718750
6173,-11.718750
6174,-11.718750
6175,-9.765625
6176,-11.718750
6177,-9.765625
6178,-9.765625
6179,-9.765625
6180,-7.812500
6181,-7.812500
6182,-7.812500
6183,-7.812500
6184,-7.812500
6185,-5.859375
6186,-5.859375
6187,-5.859375
6188,-3.906250
6189,-5.859375
6190,-3.906250
6191,-3.906250
6192,-3.906250
6193,-3.906250
6194,-3.906250
6195,-1.953125
6196,-1.953125
6197,-1.953125
6198,-1.953125
6199,0.000000
6200,0.000000
6201,0.000000
6202,0.000000
6203,0.000000
6204,1.953125
6205,0.000000
6206,1.953125
6207,1.953125
6208,1.953125
6209,1.953125
6210,1.953125
6211,3.906250
6212,3.906250
6213,3.906250
6214,3.906250
6215,3.906250
6216,3.906250
6217,3.906250
6218,5.859375
6219,5.859375
6220,5.859375
6221,5.859375
6222,5.859375
6223,5.859375
6224,5.859375
6225,5.859375
6226,7.812500
6227,7.812500
6228,7.812500
6229,7.812500
6230,7.812500
6231,7.812500
6232,9.765625
6233,7.812500
6234,9.765625
6235,9.765625
6236,9.765625
6237,9.765625
6238,9.765625
6239,9.765625
6240,9.765625
6241,9.765625
6242,11.718750
6243,9.765625
6244,9.765625
6245,11.718750
6246,11.718750
6247,11.718750
6248,11.718750
6249,11.718750
6250,11.718750
6251,11.718750
6252,11.718750
6253,13.671875
6254,11.718750
6255,11.718750
6256,11.718750
6257,11.718750
6258,13.671875
6259,13.671875
6260,13.671875
6261,13.671875
6262,13.671875
6263,13.671875
6264,13.671875
6265,13.671875
6266,15.625000
6267,13.671875
6268,13.671875
6269,13.671875
6270,13.671875
6271,13.671875
6272,15.625000
6273,13.671875
6274,13.671875
6275,15.625000
6276,13.671875
6277,15.625000
6278,15.625000
6279,13.671875
6280,15.625000
6281,15.625000
6282,15.625000
6283,15.625000
6284,15.625000
6285,15.625000
6286,15.625000
6287,15.625000
6288,15.625000
6289,15.625000
6290,15.625000
6291,15.625000
6292,15.625000
6293,15.625000
6294,15.625000
6295,15.625000
6296,15.625000
6297,15.625000
6298,15.625000
6299,15.625000
6300,15.625000
6301,15.625000
6302,15.625000
6303,15.625000
6304,15.625000
6305,15.625000
6306,15.625000
6307,15.625000
6308,15.625000
6309,15.625000
6310,15.625000
6311,15.625000
6312,15.625000
6313,15.625000
6314,15.625000
6315,15.625000
6316,15.625000
6317,15.625000
6318,15.625000
6319,15.625000
6320,15.625000
6321,15.625000
6322,15.625000
6323,15.625000
6324,15.625000
6325,15.625000
6326,15.625000
6327,15.625000
6328,15.625000
6329,15.625000
6330,15.625000
6331,15.625000
6332,15.625000
6333,15.625000
6334,15.625000
6335,13.671875
6336,15.625000
6337,15.625000
6338,15.625000
6339,13.671875
6340,13.671875
6341,13.671875
6342,15.625000
6343,13.671875
6344,13.671875
6345,13.671875
6346,13.671875
6347,15.625000
6348,13.671875
6349,13.671875
6350,13.671875
6351,13.671875
6352,13.671875
6353,13.671875
6354,13.671875
6355,13.671875
6356,13.671875
6357,13.671875
6358,11.718750
6359,13.671875
6360,13.671875
6361,13.671875
6362,13.671875
6363,13.671875
6364,13.671875
6365,13.671875
6366,13.671875
6367,13.671875
6368,11.718750
6369,11.718750
6370,11.718750
6371,11.718750
6372,11.718750
6373,9.765625
6374,11.718750
6375,15.625000
6376,11.718750
6377,11.718750
6378,11.718750
6379,11.718750
6380,11.718750
6381,11.718750
6382,11.718750
6383,11.718750
6384,11.718750
6385,11.718750
6386,11.718750
6387,11.718750
6388,11.718750
6389,11.718750
6390,11.718750
6391,11.718750
6392,11.718750
6393,11.718750
6394,11.718750
6395,11.718750
6396,11.718750
6397,11.718750
6398,9.765625
6399,11.718750
6400,11.718750
6401,11.718750
6402,11.718750
6403,11.718750
6404,9.765625
6405,11.718750
6406,9.765625
6407,9.765625
6408,9.765625
6409,9.765625
6410,9.765625
6411,9.765625
6412,9.765625
6413,9.765625
6414,9.765625
6415,9.765625
6416,9.765625
6417,7.812500
6418,9.765625
6419,9.765625
6420,9.765625
6421,9.765625
6422,7.812500
6423,7.812500
6424,5.859375
6425,7.812500
6426,7.812500
6427,7.812500
6428,7.812500
6429,7.812500
6430,7.812500
6431,7.812500
6432,7.812500
6433,5.859375
6434,5.859375
6435,7.812500
6436,7.812500
6437,5.859375
6438,5.859375
6439,5.859375
6440,5.859375
6441,5.859375
6442,5.859375
6443,5.859375
6444,3.906250
6445,5.859375
6446,3.906250
6447,3.906250
6448,5.859375
6449,3.906250
6450,3.906250
6451,3.906250
6452,3.906250
6453,3.906250
6454,3.906250
6455,3.906250
6456,3.906250
6457,3.906250
6458,1.953125
6459,3.906250
6460,1.953125
6461,1.953125
6462,1.953125
6463,1.953125
6464,1.953125
6465,1.953125
6466,1.953125
6467,0.000000
6468,0.000000
6469,0.000000
6470,0.000000
6471,0.000000
6472,0.000000
6473,0.000000
6474,-1.953125
6475,-1.953125
6476,-1.953125
6477,-1.953125
6478,-1.953125
6479,-1.953125
6480,-3.906250
6481,-1.953125
6482,-3.906250
6483,-3.906250
6484,-3.906250
6485,-3.906250
6486,-3.906250
6487,-3.906250
6488,-5.859375
6489,-5.859375
6490,-5.859375
6491,-5.859375
6492,-5.859375
6493,-7.812500
6494,-5.859375
6495,-7.812500
6496,-7.812500
6497,-7.812500
6498,-7.812500
6499,-7.812500
6500,-7.812500
6501,-7.812500
6502,-7.812500
6503,-9.765625
6504,-9.765625
6505,-9.765625
6506,-9.765625
6507,-9.765625
6508,-9.765625
6509,-11.718750
6510,-11.718750
6511,-11.718750
6512,-11.718750
6513,-11.718750
6514,-11.718750
6515,-11.718750
6516,-13.671875
6517,-13.671875
6518,-13.671875
6519,-13.671875
6520,-13.671875
6521,-13.671875
6522,-15.625000
6523,-15.625000
6524,-15.625000
6525,-15.625000
6526,-15.625000
6527,-17.578125
6528,-15.625000
6529,-15.625000
6530,-17.578125
6531,-17.578125
6532,-17.578125
6533,-17.578125
6534,-17.578125
6535,-17.578125
6536,-19.531250
6537,-19.531250
6538,-19.531250
6539,-19.531250
6540,-19.531250
6541,-21.484375
6542,-21.484375
6543,-21.484375
6544,-21.484375
6545,-21.484375
6546,-21.484375
6547,-23.437500
6548,-23.437500
6549,-23.437500
6550,-23.437500
6551,-23.437500
6552,-23.437500
6553,-25.390625
6554,-25.390625
6555,-25.390625
6556,-25.390625
6557,-25.390625
6558,-27.343750
6559,-27.343750
6560,-27.343750
6561,-27.343750
6562,-27.343750
6563,-27.343750
6564,-29.296875
6565,-29.296875
6566,-29.296875
6567,-29.296875
6568,-31.250000
6569,-29.296875
6570,-31.250000
6571,-31.250000
6572,-31.250000
6573,-31.250000
6574,-31.250000
6575,-31.250000
6576,-31.250000
6577,-33.203125
6578,-33.203125
6579,-33.203125
6580,-33.203125
6581,-33.203125
6582,-35.156250
6583,-35.156250
6584,-35.156250
6585,-35.156250
6586,-35.156250
6587,-35.156250
6588,-37.109375
6589,-35.156250
6590,-37.109375
6591,-37.109375
6592,-37.109375
6593,-37.109375
6594,-37.109375
6595,-37.109375
6596,-37.109375
6597,-39.062500
6598,-39.062500
6599,-39.062500
6600,-39.062500
6601,-39.062500
6602,-39.062500
6603,-39.062500
6604,-39.062500
6605,-41.015625
6606,-41.015625
6607,-41.015625
6608,-41.015625
6609,-41.015625
6610,-41.015625
6611,-41.015625
6612,-41.015625
6613,-42.968750
6614,-41.015625
6615,-41.015625
6616,-42.968750
6617,-42.968750
6618,-42.968750
6619,-42.968750
6620,-42.968750
6621,-42.968750
6622,-42.968750
6623,-42.968750
6624,-42.968750
6625,-42.968750
6626,-42.968750
6627,-42.968750
6628,-42.968750
6629,-42.968750
6630,-42.968750
6631,-42.968750
6632,-42.968750
6633,-42.968750
6634,-44.921875
6635,-44.921875
6636,-42.968750
6637,-44.921875
6638,-42.968750
6639,-44.921875
6640,-44.921875
6641,-42.968750
6642,-42.968750
6643,-42.968750
6644,-42.968750
6645,-42.968750
6646,-42.968750
6647,-42.968750
6648,-42.968750
6649,-42.968750
6650,-42.968750
6651,-42.968750
6652,-42.968750
6653,-42.968750
6654,-42.968750
6655,-42.968750
6656,-42.968750
6657,-42.968750
6658,-41.015625
6659,-42.968750
6660,-42.968750
6661,-42.968750
6662,-41.015625
6663,-41.015625
6664,-41.015625
6665,-41.015625
6666,-41.015625
6667,-41.015625
6668,-41.015625
6669,-41.015625
6670,-41.015625
6671,-41.015625
6672,-41.015625
6673,-39.062500
6674,-41.015625
6675,-39.062500
6676,-39.062500
6677,-39.062500
6678,-39.062500
6679,-39.062500
6680,-39.062500
6681,-39.062500
6682,-39.062500
6683,-37.109375
6684,-37.109375
6685,-37.109375
6686,-37.109375
6687,-37.109375
6688,-37.109375
6689,-37.109375
6690,-37.109375
6691,-35.156250
6692,-35.156250
6693,-35.156250
6694,-35.156250
6695,-35.156250
6696,-35.156250
6697,-33.203125
6698,-33.203125
6699,-33.203125
6700,-33.203125
6701,-33.203125
6702,-33.203125
6703,-33.203125
6704,-31.250000
6705,-31.250000
6706,-31.250000
6707,-31.250000
6708,-31.250000
6709,-29.296875
6710,-29.296875
6711,-29.296875
6712,-29.296875
6713,-29.296875
6714,-27.343750
6715,-27.343750
6716,-27.343750
6717,-27.343750
6718,-27.343750
6719,-27.343750
6720,-25.390625
6721,-25.390625
6722,-25.390625
6723,-25.390625
6724,-25.390625
6725,-23.437500
6726,-23.437500
6727,-23.437500
6728,-23.437500
6729,-23.437500
6730,-23.437500
6731,-21.484375
6732,-21.484375
6733,-21.484375
6734,-21.484375
6735,-19.531250
6736,-19.531250
6737,-19.531250
6738,-19.531250
6739,-17.578125
6740,-17.578125
6741,-17.578125
6742,-17.578125
6743,-17.578125
6744,-15.625000
6745,-15.625000
6746,-15.625000
6747,-15.625000
6748,-15.625000
6749,-13.671875
6750,-13.671875
6751,-13.671875
6752,-13.671875
6753,-13.671875
6754,-11.718750
6755,-11.718750
6756,-11.718750
6757,-11.718750
6758,-9.765625
6759,-9.765625
6760,-9.765625
6761,-9.765625
6762,-9.765625
6763,-7.812500
6764,-7.812500
6765,-7.812500
6766,-7.812500
6767,-5.859375
6768,-5.859375
6769,-5.859375
6770,-5.859375
6771,-5.859375
6772,-3.906250
6773,-3.906250
6774,-3.906250
6775,-3.906250
6776,-3.906250
6777,-3.906250
6778,-1.953125
6779,-1.953125
6780,-1.953125
6781,-1.953125
6782,-1.953125
6783,0.000000
6784,0.000000
6785,0.000000
6786,0.000000
6787,1.953125
6788,1.953125
6789,1.953125
6790,1.953125
6791,1.953125
6792,1.953125
6793,3.906250
6794,3.906250
6795,3.906250
6796,3.906250
6797,3.906250
6798,3.906250
6799,3.906250
6800,3.906250
6801,5.859375
6802,5.859375
6803,5.859375
6804,5.859375
6805,5.859375
6806,5.859375
6807,5.859375
6808,7.812500
6809,7.812500
6810,5.859375
6811,7.812500
6812,7.812500
6813,7.812500
6814,7.812500
6815,7.812500
6816,7.812500
6817,9.765625
6818,9.765625
6819,9.765625
6820,9.765625
6821,9.765625
6822,9.765625
6823,9.765625
6824,9.765625
6825,9.765625
6826,9.765625
6827,9.765625
6828,11.718750
6829,11.718750
6830,11.718750
6831,11.718750
6832,11.718750
6833,11.718750
6834,11.718750
6835,11.718750
6836,11.718750
6837,11.718750
6838,11.718750
6839,13.671875
6840,13.671875
6841,13.671875
6842,13.671875
6843,13.671875
6844,13.671875
6845,13.671875
6846,13.671875
6847,13.671875
6848,13.671875
6849,13.671875
6850,13.671875
6851,13.671875
6852,15.625000
6853,13.671875
6854,13.671875
6855,13.671875
6856,15.625000
6857,15.625000
6858,15.625000
6859,15.625000
6860,15.625000
6861,15.625000
6862,15.625000
6863,15.625000
6864,15.625000
6865,13.671875
6866,15.625000
6867,15.625000
6868,15.625000
6869,15.625000
6870,15.625000
6871,15.625000
6872,15.625000
6873,15.625000
6874,15.625000
6875,15.625000
6876,15.625000
6877,15.625000
6878,15.625000
6879,15.625000
6880,15.625000
6881,15.625000
6882,15.625000
6883,15.625000
6884,15.625000
6885,15.625000
6886,15.625000
6887,15.625000
6888,15.625000
6889,15.625000
6890,15.625000
6891,15.625000
6892,15.625000
6893,15.625000
6894,15.625000
6895,15.625000
6896,15.625000
6897,15.625000
6898,15.625000
6899,15.625000
6900,15.625000
6901,15.625000
6902,15.625000
6903,15.625000
6904,15.625000
6905,15.625000
6906,15.625000
6907,15.625000
6908,15.625000
6909,15.625000
6910,15.625000
6911,15.625000
6912,15.625000
6913,15.625000
6914,15.625000
6915,15.625000
6916,15.625000
6917,15.625000
6918,15.625000
6919,15.625000
6920,15.625000
6921,15.625000
6922,15.625000
6923,15.625000
6924,15.625000
6925,15.625000
6926,13.671875
6927,13.671875
6928,15.625000
6929,13.671875
6930,13.671875
6931,13.671875
6932,13.671875
6933,13.671875
6934,13.671875
6935,13.671875
6936,13.671875
6937,13.671875
6938,13.671875
6939,13.671875
6940,13.671875
6941,13.671875
6942,13.671875
6943,13.671875
6944,11.718750
6945,13.671875
6946,13.671875
6947,13.671875
6948,13.671875
6949,11.718750
6950,11.718750
6951,13.671875
6952,11.718750
6953,13.671875
6954,11.718750
6955,11.718750
6956,13.671875
6957,13.671875
6958,11.718750
6959,11.718750
6960,11.718750
6961,11.718750
6962,11.718750
6963,11.718750
6964,11.718750
6965,11.718750
6966,11.718750
6967,11.718750
6968,11.718750
6969,11.718750
6970,11.718750
6971,11.718750
6972,11.718750
6973,11.718750
6974,11.718750
6975,11.718750
6976,11.718750
6977,11.718750
6978,11.718750
6979,11.718750
6980,11.718750
6981,9.765625
6982,11.718750
6983,11.718750
6984,11.718750
6985,11.718750
6986,11.718750
6987,9.765625
6988,9.765625
6989,9.765625
6990,9.765625
6991,9.765625
6992,9.765625
6993,9.765625
6994,9.765625
6995,9.765625
6996,9.765625
6997,9.765625
6998,9.765625
6999,9.765625
7000,9.765625
7001,7.812500
7002,7.812500
7003,9.765625
7004,7.812500
7005,7.812500
7006,7.812500
7007,7.812500
7008,7.812500
7009,7.812500
7010,7.812500
7011,7.812500
7012,7.812500
7013,7.812500
7014,5.859375
7015,7.812500
7016,5.859375
7017,5.859375
7018,5.859375
7019,5.859375
7020,5.859375
7021,5.859375
7022,5.859375
7023,5.859375
7024,5.859375
7025,5.859375
7026,5.859375
7027,3.906250
7028,5.859375
7029,5.859375
7030,3.906250
7031,3.906250
7032,3.906250
7033,3.906250
7034,3.906250
7035,3.906250
7036,3.906250
7037,3.906250
7038,3.906250
7039,3.906250
7040,1.953125
7041,1.953125
7042,1.953125
7043,1.953125
7044,1.953125
7045,1.953125
7046,0.000000
7047,1.953125
7048,1.953125
7049,0.000000
7050,0.000000
7051,0.000000
7052,0.000000
7053,0.000000
7054,0.000000
7055,0.000000
7056,0.000000
7057,-1.953125
7058,-1.953125
7059,-1.953125
7060,-1.953125
7061,-1.953125
7062,-1.953125
7063,-1.953125
7064,-3.906250
7065,-3.906250
7066,-3.906250
7067,-3.906250
7068,-5.859375
7069,-3.906250
7070,-5.859375
7071,-5.859375
7072,-5.859375
7073,-5.859375
7074,-5.859375
7075,-7.812500
7076,-7.812500
7077,-7.812500
7078,-7.812500
7079,-7.812500
7080,-7.812500
7081,-7.812500
7082,-7.812500
7083,-9.765625
7084,-7.812500
7085,-9.765625
7086,-9.765625
7087,-9.765625
7088,-9.765625
7089,-9.765625
7090,-11.718750
7091,-11.718750
7092,-9.765625
7093,-11.718750
7094,-11.718750
7095,-11.718750
7096,-11.718750
7097,-13.671875
7098,-11.718750
7099,-13.671875
7100,-13.671875
7101,-13.671875
7102,-13.671875
7103,-13.671875
7104,-15.625000
7105,-13.671875
7106,-15.625000
7107,-15.625000
7108,-15.625000
7109,-15.625000
7110,-15.625000
7111,-17.578125
7112,-17.578125
7113,-17.578125
7114,-17.578125
7115,-17.578125
7116,-19.531250
7117,-17.578125
7118,-19.531250
7119,-19.531250
7120,-19.531250
7121,-19.531250
7122,-21.484375
7123,-21.484375
7124,-21.484375
7125,-21.484375
7126,-21.484375
7127,-21.484375
7128,-23.437500
7129,-23.437500
7130,-23.437500
7131,-23.437500
7132,-23.437500
7133,-23.437500
7134,-23.437500
7135,-25.390625
7136,-25.390625
7137,-25.390625
7138,-25.390625
7139,-25.390625
7140,-27.343750
7141,-27.343750
7142,-27.343750
7143,-27.343750
7144,-27.343750
7145,-27.343750
7146,-27.343750
7147,-29.296875
7148,-29.296875
7149,-29.296875
7150,-29.296875
7151,-29.296875
7152,-31.250000
7153,-31.250000
7154,-31.250000
7155,-31.250000
7156,-31.250000
7157,-33.203125
7158,-31.250000
7159,-33.203125
7160,-33.203125
7161,-33.203125
7162,-33.203125
7163,-33.203125
7164,-33.203125
7165,-35.156250
7166,-35.156250
7167,-35.156250
7168,-35.156250
7169,-35.156250
7170,-35.156250
7171,-35.156250
7172,-35.156250
7173,-35.156250
7174,-37.109375
7175,-37.109375
7176,-37.109375
7177,-37.109375
7178,-37.109375
7179,-37.109375
7180,-37.109375
7181,-39.062500
7182,-39.062500
7183,-39.062500
7184,-39.062500
7185,-39.062500
7186,-39.062500
7187,-39.062500
7188,-39.062500
7189,-41.015625
7190,-41.015625
7191,-41.015625
7192,-41.015625
7193,-41.015625
7194,-41.015625
7195,-41.015625
7196,-41.015625
7197,-41.015625
7198,-41.015625
7199,-42.968750
7200,-42.968750
7201,-42.968750
7202,-42.968750
7203,-42.968750
7204,-42.968750
7205,-42.968750
7206,-42.968750
7207,-42.968750
7208,-42.968750
7209,-42.968750
7210,-42.968750
7211,-42.968750
7212,-42.968750
7213,-42.968750
7214,-42.968750
7215,-42.968750
7216,-42.968750
7217,-42.968750
7218,-42.968750
7219,-42.968750
7220,-42.968750
7221,-42.968750
7222,-42.968750
7223,-42.968750
7224,-42.968750
7225,-42.968750
7226,-42.968750
7227,-42.968750
7228,-42.968750
7229,-42.968750
7230,-42.968750
7231,-42.968750
7232,-42.968750
7233,-42.968750
7234,-42.968750
7235,-42.968750
7236,-42.968750
7237,-42.968750
7238,-42.968750
7239,-42.968750
7240,-42.968750
7241,-42.968750
7242,-41.015625
7243,-42.968750
7244,-41.015625
7245,-41.015625
7246,-41.015625
7247,-41.015625
7248,-41.015625
7249,-41.015625
7250,-41.015625
7251,-39.062500
7252,-41.015625
7253,-41.015625
7254,-39.062500
7255,-41.015625
7256,-39.062500
7257,-39.062500
7258,-39.062500
7259,-39.062500
7260,-39.062500
7261,-37.109375
7262,-39.062500
7263,-39.062500
7264,-39.062500
7265,-37.109375
7266,-37.109375
7267,-37.109375
7268,-37.109375
7269,-37.109375
7270,-37.109375
7271,-37.109375
7272,-35.156250
7273,-35.156250
7274,-35.156250
7275,-35.156250
7276,-35.156250
7277,-35.156250
7278,-35.156250
7279,-33.203125
7280,-33.203125
7281,-33.203125
7282,-33.203125
7283,-33.203125
7284,-33.203125
7285,-31.250000
7286,-31.250000
7287,-31.250000
7288,-31.250000
7289,-31.250000
7290,-29.296875
7291,-29.296875
7292,-29.296875
7293,-29.296875
7294,-29.296875
7295,-29.296875
7296,-27.343750
7297,-27.343750
7298,-27.343750
7299,-27.343750
7300,-27.343750
7301,-27.343750
7302,-27.343750
7303,-25.390625
7304,-25.390625
7305,-25.390625
7306,-23.437500
7307,-23.437500
7308,-23.437500
7309,-23.437500
7310,-23.437500
7311,-23.437500
7312,-23.437500
7313,-21.484375
7314,-21.484375
7315,-21.484375
7316,-21.484375
7317,-19.531250
7318,-19.531250
7319,-19.531250
7320,-19.531250
7321,-19.531250
7322,-19.531250
7323,-17.578125
7324,-17.578125
7325,-17.578125
7326,-15.625000
7327,-17.578125
7328,-15.625000
7329,-15.625000
7330,-15.625000
7331,-13.671875
7332,-13.671875
7333,-13.671875
7334,-13.671875
7335,-11.718750
7336,-11.718750
7337,-11.718750
7338,-11.718750
7339,-11.718750
7340,-9.765625
7341,-9.765625
7342,-9.765625
7343,-9.765625
7344,-9.765625
7345,-7.812500
7346,-7.812500
7347,-7.812500
7348,-7.812500
7349,-7.812500
7350,-7.812500
7351,-5.859375
7352,-5.859375
7353,-5.859375
7354,-5.859375
7355,-3.906250
7356,-3.906250
7357,-3.906250
7358,-3.906250
7359,-1.953125
7360,-1.953125
7361,-1.953125
7362,-1.953125
7363,-1.953125
7364,0.000000
7365,-1.953125
7366,0.000000
7367,0.000000
7368,0.000000
7369,1.953125
7370,0.000000
7371,1.953125
7372,1.953125
7373,1.953125
7374,1.953125
7375,1.953125
7376,1.953125
7377,3.906250
7378,3.906250
7379,3.906250
7380,3.906250
7381,3.906250
7382,3.906250
7383,5.859375
7384,5.859375
7385,5.859375
7386,5.859375
7387,5.859375
7388,5.859375
7389,5.859375
7390,5.859375
7391,7.812500
7392,7.812500
7393,7.812500
7394,7.812500
7395,7.812500
7396,7.812500
7397,7.812500
7398,7.812500
7399,7.812500
7400,9.765625
7401,7.812500
7402,9.765625
7403,9.765625
7404,9.765625
7405,9.765625
7406,9.765625
7407,9.765625
7408,11.718750
7409,11.718750
7410,11.718750
7411,9.765625
7412,11.718750
7413,11.718750
7414,11.718750
7415,11.718750
7416,11.718750
7417,11.718750
7418,11.718750
7419,11.718750
7420,11.718750
7421,13.671875
7422,13.671875
7423,11.718750
7424,13.671875
7425,13.671875
7426,13.671875
7427,13.671875
7428,13.671875
7429,13.671875
7430,13.671875
7431,13.671875
7432,13.671875
7433,13.671875
7434,13.671875
7435,13.671875
7436,15.625000
7437,13.671875
7438,13.671875
7439,15.625000
7440,15.625000
7441,15.625000
7442,13.671875
7443,13.671875
7444,15.625000
7445,15.625000
7446,15.625000
7447,13.671875
7448,15.625000
7449,15.625000
7450,15.625000
7451,13.671875
7452,13.671875
7453,15.625000
7454,15.625000
7455,15.625000
7456,15.625000
7457,13.671875
7458,15.625000
7459,13.671875
7460,15.625000
7461,15.625000
7462,15.625000
7463,15.625000
7464,15.625000
7465,15.625000
7466,13.671875
7467,15.625000
7468,15.625000
7469,15.625000
7470,15.625000
7471,13.671875
7472,15.625000
7473,15.625000
7474,15.625000
7475,13.671875
7476,15.625000
7477,15.625000
7478,13.671875
7479,15.625000
7480,15.625000
7481,15.625000
7482,15.625000
7483,13.671875
7484,15.625000
7485,15.625000
7486,13.671875
7487,15.625000
7488,15.625000
7489,15.625000
7490,15.625000
7491,15.625000
7492,15.625000
7493,15.625000
7494,15.625000
7495,15.625000
7496,15.625000
7497,15.625000
7498,13.671875
7499,13.671875
7500,13.671875
7501,15.625000
7502,15.625000
7503,15.625000
7504,15.625000
7505,13.671875
7506,15.625000
7507,13.671875
7508,15.625000
7509,13.671875
7510,13.671875
7511,13.671875
7512,15.625000
7513,13.671875
7514,13.671875
7515,13.671875
7516,13.671875
7517,15.625000
7518,13.671875
7519,13.671875
7520,13.671875
7521,13.671875
7522,13.671875
7523,13.671875
7524,13.671875
7525,13.671875
7526,13.671875
7527,13.671875
7528,13.671875
7529,13.671875
7530,13.671875
7531,13.671875
7532,13.671875
7533,11.718750
7534,11.718750
7535,13.671875
7536,13.671875
7537,11.718750
7538,11.718750
7539,11.718750
7540,11.718750
7541,11.718750
7542,5.859375
7543,11.718750
7544,11.718750
7545,11.718750
7546,11.718750
7547,11.718750
7548,13.671875
7549,11.718750
7550,11.718750
7551,11.718750
7552,11.718750
7553,11.718750
7554,11.718750
7555,11.718750
7556,11.718750
7557,9.765625
7558,11.718750
7559,11.718750
7560,11.718750
7561,11.718750
7562,11.718750
7563,9.765625
7564,11.718750
7565,9.765625
7566,11.718750
7567,9.765625
7568,11.718750
7569,9.765625
7570,9.765625
7571,9.765625
7572,9.765625
7573,9.765625
7574,9.765625
7575,7.812500
7576,9.765625
7577,9.765625
7578,7.812500
7579,9.765625
7580,9.765625
7581,9.765625
7582,7.812500
7583,9.765625
7584,7.812500
7585,9.765625
7586,9.765625
7587,7.812500
7588,7.812500
7589,7.812500
7590,7.812500
7591,7.812500
7592,5.859375
7593,7.812500
7594,7.812500
7595,7.812500
7596,7.812500
7597,7.812500
7598,7.812500
7599,5.859375
7600,5.859375
7601,7.812500
7602,5.859375
7603,5.859375
7604,5.859375
7605,5.859375
7606,5.859375
7607,5.859375
7608,5.859375
7609,5.859375
7610,5.859375
7611,5.859375
7612,3.906250
7613,3.906250
7614,3.906250
7615,3.906250
7616,3.906250
7617,3.906250
7618,3.906250
7619,3.906250
7620,3.906250
7621,3.906250
7622,3.906250
7623,1.953125
7624,1.953125
7625,1.953125
7626,1.953125
7627,1.953125
7628,1.953125
7629,0.000000
7630,0.000000
7631,0.000000
7632,0.000000
7633,0.000000
7634,0.000000
7635,0.000000
7636,0.000000
7637,-1.953125
7638,0.000000
7639,0.000000
7640,-1.953125
7641,-1.953125
7642,-1.953125
7643,-1.953125
7644,-1.953125
7645,-1.953125
7646,-3.906250
7647,-3.906250
7648,-3.906250
7649,-3.906250
7650,-3.906250
7651,-3.906250
7652,-3.906250
7653,-5.859375
7654,-5.859375
7655,-5.859375
7656,-5.859375
7657,-5.859375
7658,-7.812500
7659,-5.859375
7660,-7.812500
7661,-7.812500
7662,-7.812500
7663,-7.812500
7664,-7.812500
7665,-9.765625
7666,-9.765625
7667,-9.765625
7668,-9.765625
7669,-9.765625
7670,-9.765625
7671,-9.765625
7672,-9.765625
7673,-11.718750
7674,-11.718750
7675,-11.718750
7676,-11.718750
7677,-11.718750
7678,-11.718750
7679,-11.718750
7680,-11.718750
7681,-11.718750
7682,-13.671875
7683,-13.671875
7684,-13.671875
7685,-13.671875
7686,-15.625000
7687,-13.671875
7688,-15.625000
7689,-15.625000
7690,-15.625000
7691,-15.625000
7692,-15.625000
7693,-17.578125
7694,-15.625000
7695,-17.578125
7696,-17.578125
7697,-17.578125
7698,-17.578125
7699,-17.578125
7700,-17.578125
7701,-19.531250
7702,-21.484375
7703,-19.531250
7704,-19.531250
7705,-19.531250
7706,-21.484375
7707,-21.484375
7708,-21.484375
7709,-21.484375
7710,-19.531250
7711,-21.484375
7712,-23.437500
7713,-23.437500
7714,-23.437500
7715,-23.437500
7716,-25.390625
7717,-23.437500
7718,-25.390625
7719,-23.437500
7720,-25.390625
7721,-25.390625
7722,-25.390625
7723,-27.343750
7724,-27.343750
7725,-27.343750
7726,-25.390625
7727,-27.343750
7728,-29.296875
7729,-29.296875
7730,-29.296875
7731,-29.296875
7732,-29.296875
7733,-31.250000
7734,-29.296875
7735,-27.343750
7736,-29.296875
7737,-31.250000
7738,-31.250000
7739,-31.250000
7740,-29.296875
7741,-31.250000
7742,-33.203125
7743,-33.203125
7744,-33.203125
7745,-31.250000
7746,-33.203125
7747,-33.203125
7748,-35.156250
7749,-35.156250
7750,-35.156250
7751,-35.156250
7752,-35.156250
7753,-37.109375
7754,-35.156250
7755,-35.156250
7756,-37.109375
7757,-37.109375
7758,-37.109375
7759,-37.109375
7760,-37.109375
7761,-39.062500
7762,-37.109375
7763,-39.062500
7764,-39.062500
7765,-39.062500
7766,-39.062500
7767,-39.062500
7768,-39.062500
7769,-39.062500
7770,-39.062500
7771,-41.015625
7772,-39.062500
7773,-41.015625
7774,-42.968750
7775,-41.015625
7776,-41.015625
7777,-41.015625
7778,-42.968750
7779,-41.015625
7780,-41.015625
7781,-41.015625
7782,-41.015625
7783,-41.015625
7784,-42.968750
7785,-42.968750
7786,-42.968750
7787,-42.968750
7788,-42.968750
7789,-42.968750
7790,-42.968750
7791,-41.015625
7792,-42.968750
7793,-42.968750
7794,-42.968750
7795,-42.968750
7796,-42.968750
7797,-42.968750
7798,-42.968750
7799,-42.968750
7800,-42.968750
7801,-42.968750
7802,-42.968750
7803,-42.968750
7804,-42.968750
7805,-42.968750
7806,-42.968750
7807,-42.968750
7808,-42.968750
7809,-42.968750
7810,-42.968750
7811,-42.968750
7812,-42.968750
7813,-42.968750
7814,-42.968750
7815,-42.968750
7816,-42.968750
7817,-42.968750
7818,-42.968750
7819,-41.015625
7820,-42.968750
7821,-41.015625
7822,-42.968750
7823,-41.015625
7824,-41.015625
7825,-41.015625
7826,-42.968750
7827,-41.015625
7828,-41.015625
7829,-41.015625
7830,-41.015625
7831,-41.015625
7832,-41.015625
7833,-41.015625
7834,-41.015625
7835,-41.015625
7836,-41.015625
7837,-39.062500
7838,-39.062500
7839,-39.062500
7840,-39.062500
7841,-39.062500
7842,-39.062500
7843,-39.062500
7844,-39.062500
7845,-39.062500
7846,-39.062500
7847,-39.062500
7848,-37.109375
7849,-37.109375
7850,-37.109375
7851,-37.109375
7852,-37.109375
7853,-37.109375
7854,-35.156250
7855,-37.109375
7856,-35.156250
7857,-35.156250
7858,-35.156250
7859,-35.156250
7860,-35.156250
7861,-35.156250
7862,-35.156250
7863,-33.203125
7864,-33.203125
7865,-33.203125
7866,-33.203125
7867,-33.203125
7868,-31.250000
7869,-31.250000
7870,-31.250000
7871,-31.250000
7872,-31.250000
7873,-31.250000
7874,-29.296875
7875,-29.296875
7876,-29.296875
7877,-29.296875
7878,-29.296875
7879,-27.343750
7880,-27.343750
7881,-27.343750
7882,-27.343750
7883,-27.343750
7884,-25.390625
7885,-25.390625
7886,-25.390625
7887,-25.390625
7888,-23.437500
7889,-25.390625
7890,-23.437500
7891,-23.437500
7892,-23.437500
7893,-21.484375
7894,-21.484375
7895,-21.484375
7896,-21.484375
7897,-21.484375
7898,-21.484375
7899,-21.484375
7900,-19.531250
7901,-21.484375
7902,-19.531250
7903,-19.531250
7904,-19.531250
7905,-17.578125
7906,-17.578125
7907,-17.578125
7908,-17.578125
7909,-17.578125
7910,-15.625000
7911,-15.625000
7912,-15.625000
7913,-15.625000
7914,-15.625000
7915,-13.671875
7916,-13.671875
7917,-13.671875
7918,-13.671875
7919,-11.718750
7920,-11.718750
7921,-11.718750
7922,-11.718750
7923,-11.718750
7924,-9.765625
7925,-9.765625
7926,-9.765625
7927,-9.765625
7928,-7.812500
7929,-7.812500
7930,-7.812500
7931,-7.812500
7932,-7.812500
7933,-5.859375
7934,-5.859375
7935,-5.859375
7936,-5.859375
7937,-5.859375
7938,-3.906250
7939,-3.906250
7940,-3.906250
7941,-3.906250
7942,-3.906250
7943,-3.906250
7944,-1.953125
7945,-1.953125
7946,-1.953125
7947,0.000000
7948,0.000000
7949,0.000000
7950,0.000000
7951,0.000000
7952,0.000000
7953,1.953125
7954,1.953125
7955,1.953125
7956,1.953125
7957,1.953125
7958,1.953125
7959,1.953125
7960,3.906250
7961,3.906250
7962,3.906250
7963,3.906250
7964,3.906250
7965,3.906250
7966,5.859375
7967,5.859375
7968,5.859375
7969,5.859375
7970,5.859375
7971,5.859375
7972,5.859375
7973,5.859375
7974,5.859375
7975,7.812500
7976,7.812500
7977,7.812500
7978,7.812500
7979,7.812500
7980,7.812500
7981,7.812500
7982,9.765625
7983,7.812500
7984,9.765625
7985,9.765625
7986,9.765625
7987,9.765625
7988,9.765625
7989,9.765625
7990,9.765625
7991,9.765625
7992,9.765625
7993,11.718750
7994,11.718750
7995,9.765625
7996,11.718750
7997,11.718750
7998,11.718750
7999,11.718750
8000,11.718750
8001,11.718750
8002,11.718750
8003,13.671875
8004,11.718750
8005,13.671875
8006,11.718750
8007,11.718750
8008,13.671875
8009,13.671875
8010,11.718750
8011,13.671875
8012,13.671875
8013,13.671875
8014,13.671875
8015,13.671875
8016,13.671875
8017,13.671875
8018,13.671875
8019,13.671875
8020,13.671875
8021,13.671875
8022,13.671875
8023,13.671875
8024,13.671875
8025,15.625000
8026,15.625000
8027,13.671875
8028,15.625000
8029,15.625000
8030,15.625000
8031,15.625000
8032,13.671875
8033,15.625000
8034,15.625000
8035,15.625000
8036,15.625000
8037,13.671875
8038,15.625000
8039,15.625000
8040,15.625000
8041,15.625000
8042,15.625000
8043,15.625000
8044,15.625000
8045,15.625000
8046,15.625000
8047,15.625000
8048,15.625000
8049,15.625000
8050,15.625000
8051,15.625000
8052,15.625000
8053,15.625000
8054,15.625000
8055,15.625000
8056,15.625000
8057,15.625000
8058,15.625000
8059,15.625000
8060,15.625000
8061,15.625000
8062,15.625000
8063,15.625000
8064,15.625000
8065,15.625000
8066,15.625000
8067,15.625000
8068,15.625000
8069,15.625000
8070,15.625000
8071,15.625000
8072,15.625000
8073,15.625000
8074,15.625000
8075,15.625000
8076,15.625000
8077,15.625000
8078,15.625000
8079,15.625000
8080,15.625000
8081,15.625000
8082,15.625000
8083,15.625000
8084,13.671875
8085,13.671875
8086,15.625000
8087,13.671875
8088,13.671875
8089,15.625000
8090,15.625000
8091,15.625000
8092,13.671875
8093,13.671875
8094,13.671875
8095,13.671875
8096,13.671875
8097,13.671875
8098,13.671875
8099,15.625000
8100,13.671875
8101,13.671875
8102,13.671875
8103,13.671875
8104,13.671875
8105,13.671875
8106,13.671875
8107,13.671875
8108,13.671875
8109,13.671875
8110,13.671875
8111,13.671875
8112,13.671875
8113,11.718750
8114,11.718750
8115,13.671875
8116,11.718750
8117,11.718750
8118,13.671875
8119,11.718750
8120,11.718750
8121,11.718750
8122,11.718750
8123,11.718750
8124,13.671875
8125,13.671875
8126,11.718750
8127,11.718750
8128,11.718750
8129,11.718750
8130,13.671875
8131,11.718750
8132,11.718750
8133,11.718750
8134,11.718750
8135,11.718750
8136,11.718750
8137,11.718750
8138,9.765625
8139,11.718750
8140,11.718750
8141,11.718750
8142,11.718750
8143,11.718750
8144,11.718750
8145,11.718750
8146,11.718750
8147,11.718750
8148,11.718750
8149,11.718750
8150,9.765625
8151,9.765625
8152,9.765625
8153,9.765625
8154,9.765625
8155,9.765625
8156,9.765625
8157,9.765625
8158,9.765625
8159,9.765625
8160,9.765625
8161,9.765625
8162,9.765625
8163,9.765625
8164,9.765625
8165,9.765625
8166,7.812500
8167,7.812500
8168,9.765625
8169,9.765625
8170,7.812500
8171,7.812500
8172,7.812500
8173,7.812500
8174,7.812500
8175,7.812500
8176,7.812500
8177,7.812500
8178,7.812500
8179,5.859375
8180,7.812500
8181,7.812500
8182,7.812500
8183,7.812500
8184,5.859375
8185,5.859375
8186,5.859375
8187,5.859375
8188,5.859375
8189,5.859375
8190,5.859375
8191,5.859375
8192,5.859375
8193,5.859375
8194,3.906250
8195,3.906250
8196,3.906250
8197,3.906250
8198,3.906250
8199,3.906250
8200,3.906250
8201,3.906250
8202,3.906250
8203,3.906250
8204,3.906250
8205,1.953125
8206,1.953125
8207,3.906250
8208,1.953125
8209,1.953125
8210,1.953125
8211,1.953125
8212,1.953125
8213,0.000000
8214,0.000000
8215,0.000000
8216,0.000000
8217,0.000000
8218,0.000000
8219,0.000000
8220,0.000000
8221,0.000000
8222,-1.953125
8223,-1.953125
8224,-1.953125
8225,-1.953125
8226,-1.953125
8227,-1.953125
8228,-1.953125
8229,-3.906250
8230,-3.906250
8231,-3.906250
8232,-3.906250
8233,-3.906250
8234,-3.906250
8235,-5.859375
8236,-5.859375
8237,-5.859375
8238,-5.859375
8239,-5.859375
8240,-5.859375
8241,-7.812500
8242,-7.812500
8243,-7.812500
8244,-7.812500
8245,-7.812500
8246,-7.812500
8247,-7.812500
8248,-7.812500
8249,-9.765625
8250,-9.765625
8251,-9.765625
8252,-9.765625
8253,-9.765625
8254,-9.765625
8255,-11.718750
8256,-11.718750
8257,-11.718750
8258,-11.718750
8259,-11.718750
8260,-11.718750
8261,-11.718750
8262,-13.671875
8263,-11.718750
8264,-13.671875
8265,-13.671875
8266,-13.671875
8267,-13.671875
8268,-13.671875
8269,-13.671875
8270,-15.625000
8271,-15.625000
8272,-15.625000
8273,-15.625000
8274,-17.578125
8275,-15.625000
8276,-17.578125
8277,-17.578125
8278,-17.578125
8279,-17.578125
8280,-17.578125
8281,-17.578125
8282,-19.531250
8283,-19.531250
8284,-19.531250
8285,-19.531250
8286,-19.531250
8287,-19.531250
8288,-21.484375
8289,-21.484375
8290,-21.484375
8291,-21.484375
8292,-21.484375
8293,-21.484375
8294,-23.437500
8295,-23.437500
8296,-23.437500
8297,-23.437500
8298,-23.437500
8299,-23.437500
8300,-25.390625
8301,-25.390625
8302,-25.390625
8303,-25.390625
8304,-27.343750
8305,-25.390625
8306,-27.343750
8307,-27.343750
8308,-27.343750
8309,-27.343750
8310,-29.296875
8311,-29.296875
8312,-29.296875
8313,-29.296875
8314,-29.296875
8315,-29.296875
8316,-29.296875
8317,-31.250000
8318,-31.250000
8319,-31.250000
8320,-31.250000
8321,-31.250000
8322,-31.250000
8323,-31.250000
8324,-33.203125
8325,-33.203125
8326,-33.203125
8327,-33.203125
8328,-33.203125
8329,-33.203125
8330,-35.156250
8331,-35.156250
8332,-35.156250
8333,-35.156250
8334,-35.156250
8335,-35.156250
8336,-35.156250
8337,-37.109375
8338,-35.156250
8339,-37.109375
8340,-37.109375
8341,-37.109375
8342,-37.109375
8343,-37.109375
8344,-37.109375
8345,-39.062500
8346,-39.062500
8347,-39.062500
8348,-39.062500
8349,-39.062500
8350,-39.062500
8351,-39.062500
8352,-39.062500
8353,-39.062500
8354,-39.062500
8355,-41.015625
8356,-39.062500
8357,-41.015625
8358,-41.015625
8359,-41.015625
8360,-41.015625
8361,-41.015625
8362,-41.015625
8363,-41.015625
8364,-41.015625
8365,-42.968750
8366,-41.015625
8367,-42.968750
8368,-42.968750
8369,-42.968750
8370,-42.968750
8371,-42.968750
8372,-42.968750
8373,-42.968750
8374,-42.968750
8375,-42.968750
8376,-42.968750
8377,-42.968750
8378,-42.968750
8379,-42.968750
8380,-42.968750
8381,-42.968750
8382,-42.968750
8383,-42.968750
8384,-42.968750
8385,-42.968750
8386,-42.968750
8387,-42.968750
8388,-42.968750
8389,-42.968750
8390,-42.968750
8391,-42.968750
8392,-42.968750
8393,-44.921875
8394,-42.968750
8395,-42.968750
8396,-42.968750
8397,-42.968750
8398,-42.968750
8399,-41.015625
8400,-42.968750
8401,-42.968750
8402,-42.968750
8403,-42.968750
8404,-41.015625
8405,-41.015625
8406,-41.015625
8407,-41.015625
8408,-41.015625
8409,-41.015625
8410,-41.015625
8411,-41.015625
8412,-41.015625
8413,-41.015625
8414,-41.015625
8415,-41.015625
8416,-41.015625
8417,-41.015625
8418,-41.015625
8419,-39.062500
8420,-39.062500
8421,-39.062500
8422,-39.062500
8423,-39.062500
8424,-39.062500
8425,-39.062500
8426,-39.062500
8427,-39.062500
8428,-39.062500
8429,-37.109375
8430,-37.109375
8431,-37.109375
8432,-37.109375
8433,-37.109375
8434,-37.109375
8435,-37.109375
8436,-35.156250
8437,-37.109375
8438,-35.156250
8439,-35.156250
8440,-35.156250
8441,-35.156250
8442,-35.156250
8443,-33.203125
8444,-35.156250
8445,-35.156250
8446,-33.203125
8447,-33.203125
8448,-33.203125
8449,-33.203125
8450,-33.203125
8451,-31.250000
8452,-31.250000
8453,-31.250000
8454,-31.250000
8455,-31.250000
8456,-29.296875
8457,-29.296875
8458,-29.296875
8459,-29.296875
8460,-29.296875
8461,-29.296875
8462,-27.343750
8463,-27.343750
8464,-27.343750
8465,-27.343750
8466,-27.343750
8467,-27.343750
8468,-25.390625
8469,-25.390625
8470,-25.390625
8471,-25.390625
8472,-23.437500
8473,-25.390625
8474,-23.437500
8475,-23.437500
8476,-21.484375
8477,-21.484375
8478,-21.484375
8479,-21.484375
8480,-21.484375
8481,-21.484375
8482,-19.531250
8483,-19.531250
8484,-19.531250
8485,-19.531250
8486,-19.531250
8487,-19.531250
8488,-17.578125
8489,-17.578125
8490,-17.578125
8491,-17.578125
8492,-17.578125
8493,-15.625000
8494,-15.625000
8495,-15.625000
8496,-15.625000
8497,-13.671875
8498,-13.671875
8499,-13.671875
8500,-13.671875
8501,-11.718750
8502,-11.718750
8503,-11.718750
8504,-11.718750
8505,-9.765625
8506,-11.718750
8507,-9.765625
8508,-9.765625
8509,-9.765625
8510,-9.765625
8511,-9.765625
8512,-7.812500
8513,-5.859375
8514,-7.812500
8515,-7.812500
8516,-5.859375
8517,-5.859375
8518,-5.859375
8519,-5.859375
8520,-5.859375
8521,-3.906250
8522,-3.906250
8523,-3.906250
8524,-3.906250
8525,-3.906250
8526,-1.953125
8527,-1.953125
8528,-1.953125
8529,0.000000
8530,-1.953125
8531,0.000000
8532,0.000000
8533,0.000000
8534,0.000000
8535,1.953125
8536,1.953125
8537,1.953125
8538,1.953125
8539,1.953125
8540,1.953125
8541,1.953125
8542,1.953125
8543,3.906250
8544,3.906250
8545,3.906250
8546,3.906250
8547,3.906250
8548,3.906250
8549,5.859375
8550,5.859375
8551,5.859375
8552,5.859375
8553,5.859375
8554,5.859375
8555,5.859375
8556,5.859375
8557,7.812500
8558,7.812500
8559,7.812500
8560,7.812500
8561,7.812500
8562,7.812500
8563,7.812500
8564,7.812500
8565,7.812500
8566,7.812500
8567,9.765625
8568,9.765625
8569,9.765625
8570,9.765625
8571,9.765625
8572,9.765625
8573,9.765625
8574,9.765625
8575,11.718750
8576,11.718750
8577,11.718750
8578,11.718750
8579,11.718750
8580,11.718750
8581,11.718750
8582,11.718750
8583,11.718750
8584,11.718750
8585,13.671875
8586,13.671875
8587,11.718750
8588,13.671875
8589,13.671875
8590,13.671875
8591,13.671875
8592,13.671875
8593,13.671875
8594,13.671875
8595,13.671875
8596,13.671875
8597,13.671875
8598,13.671875
8599,13.671875
8600,13.671875
8601,15.625000
8602,13.671875
8603,13.671875
8604,13.671875
8605,13.671875
8606,13.671875
8607,13.671875
8608,15.625000
8609,13.671875
8610,15.625000
8611,13.671875
8612,15.625000
8613,15.625000
8614,15.625000
8615,13.671875
8616,15.625000
8617,13.671875
8618,15.625000
8619,13.671875
8620,15.625000
8621,13.671875
8622,15.625000
8623,15.625000
8624,13.671875
8625,15.625000
8626,15.625000
8627,15.625000
8628,15.625000
8629,15.625000
8630,15.625000
8631,15.625000
8632,15.625000
8633,15.625000
8634,15.625000
8635,15.625000
8636,15.625000
8637,15.625000
8638,15.625000
8639,15.625000
8640,15.625000
8641,15.625000
8642,15.625000
8643,15.625000
8644,15.625000
8645,15.625000
8646,15.625000
8647,15.625000
8648,15.625000
8649,15.625000
8650,15.625000
8651,15.625000
8652,15.625000
8653,15.625000
8654,15.625000
8655,15.625000
8656,15.625000
8657,15.625000
8658,15.625000
8659,15.625000
8660,15.625000
8661,13.671875
8662,13.671875
8663,13.671875
8664,15.625000
8665,15.625000
8666,13.671875
8667,15.625000
8668,15.625000
8669,15.625000
8670,13.671875
8671,13.671875
8672,13.671875
8673,13.671875
8674,13.671875
8675,13.671875
8676,13.671875
8677,13.671875
8678,13.671875
8679,13.671875
8680,13.671875
8681,13.671875
8682,13.671875
8683,13.671875
8684,13.671875
8685,13.671875
8686,13.671875
8687,13.671875
8688,13.671875
8689,11.718750
8690,13.671875
8691,13.671875
8692,13.671875
8693,11.718750
8694,11.718750
8695,13.671875
8696,11.718750
8697,11.718750
8698,13.671875
8699,13.671875
8700,11.718750
8701,11.718750
8702,11.718750
8703,13.671875
8704,13.671875
8705,11.718750
8706,11.718750
8707,11.718750
8708,11.718750
8709,11.718750
8710,11.718750
8711,11.718750
8712,11.718750
8713,11.718750
8714,11.718750
8715,11.718750
8716,11.718750
8717,11.718750
8718,11.718750
8719,11.718750
8720,11.718750
8721,9.765625
8722,11.718750
8723,11.718750
8724,11.718750
8725,11.718750
8726,11.718750
8727,11.718750
8728,11.718750
8729,11.718750
8730,11.718750
8731,11.718750
8732,11.718750
8733,11.718750
8734,9.765625
8735,9.765625
8736,11.718750
8737,9.765625
8738,9.765625
8739,9.765625
8740,9.765625
8741,9.765625
8742,9.765625
8743,9.765625
8744,9.765625
8745,9.765625
8746,9.765625
8747,9.765625
8748,9.765625
8749,9.765625
8750,9.765625
8751,7.812500
8752,9.765625
8753,7.812500
8754,7.812500
8755,7.812500
8756,7.812500
8757,7.812500
8758,7.812500
8759,7.812500
8760,7.812500
8761,7.812500
8762,7.812500
8763,7.812500
8764,5.859375
8765,5.859375
8766,7.812500
8767,5.859375
8768,5.859375
8769,5.859375
8770,5.859375
8771,5.859375
8772,5.859375
8773,5.859375
8774,5.859375
8775,3.906250
8776,5.859375
8777,5.859375
8778,3.906250
8779,3.906250
8780,3.906250
8781,3.906250
8782,3.906250
8783,3.906250
8784,3.906250
8785,3.906250
8786,1.953125
8787,3.906250
8788,1.953125
8789,1.953125
8790,1.953125
8791,1.953125
8792,1.953125
8793,1.953125
8794,1.953125
8795,1.953125
8796,0.000000
8797,1.953125
8798,1.953125
8799,0.000000
8800,0.000000
8801,0.000000
8802,0.000000
8803,0.000000
8804,-1.953125
8805,-1.953125
8806,-1.953125
8807,-1.953125
8808,-1.953125
8809,-1.953125
8810,-1.953125
8811,-3.906250
8812,-3.906250
8813,-3.906250
8814,-3.906250
8815,-3.906250
8816,-3.906250
8817,-5.859375
8818,-5.859375
8819,-5.859375
8820,-5.859375
8821,-5.859375
8822,-5.859375
8823,-5.859375
8824,-5.859375
8825,-7.812500
8826,-7.812500
8827,-7.812500
8828,-7.812500
8829,-7.812500
8830,-7.812500
8831,-7.812500
8832,-9.765625
8833,-9.765625
8834,-9.765625
8835,-9.765625
8836,-9.765625
8837,-9.765625
8838,-9.765625
8839,-9.765625
8840,-11.718750
8841,-11.718750
8842,-11.718750
8843,-11.718750
8844,-11.718750
8845,-11.718750
8846,-11.718750
8847,-11.718750
8848,-13.671875
8849,-13.671875
8850,-13.671875
8851,-13.671875
8852,-15.625000
8853,-15.625000
8854,-15.625000
8855,-15.625000
8856,-15.625000
8857,-15.625000
8858,-15.625000
8859,-17.578125
8860,-17.578125
8861,-17.578125
8862,-17.578125
8863,-17.578125
8864,-17.578125
8865,-17.578125
8866,-19.531250
8867,-19.531250
8868,-19.531250
8869,-19.531250
8870,-19.531250
8871,-19.531250
8872,-21.484375
8873,-21.484375
8874,-21.484375
8875,-21.484375
8876,-23.437500
8877,-23.437500
8878,-23.437500
8879,-23.437500
8880,-23.437500
8881,-23.437500
8882,-23.437500
8883,-25.390625
8884,-25.390625
8885,-25.390625
8886,-25.390625
8887,-25.390625
8888,-27.343750
8889,-25.390625
8890,-27.343750
8891,-27.343750
8892,-27.343750
8893,-29.296875
8894,-27.343750
8895,-29.296875
8896,-29.296875
8897,-29.296875
8898,-29.296875
8899,-29.296875
8900,-29.296875
8901,-31.250000
8902,-29.296875
8903,-31.250000
8904,-31.250000
8905,-31.250000
8906,-31.250000
8907,-33.203125
8908,-31.250000
8909,-33.203125
8910,-33.203125
8911,-33.203125
8912,-33.203125
8913,-33.203125
8914,-35.156250
8915,-35.156250
8916,-35.156250
8917,-35.156250
8918,-35.156250
8919,-35.156250
8920,-35.156250
8921,-37.109375
8922,-37.109375
8923,-35.156250
8924,-37.109375
8925,-37.109375
8926,-37.109375
8927,-37.109375
8928,-37.109375
8929,-39.062500
8930,-39.062500
8931,-39.062500
8932,-39.062500
8933,-39.062500
8934,-39.062500
8935,-39.062500
8936,-39.062500
8937,-41.015625
8938,-39.062500
8939,-41.015625
8940,-42.968750
8941,-41.015625
8942,-41.015625
8943,-41.015625
8944,-41.015625
8945,-41.015625
8946,-41.015625
8947,-42.968750
8948,-42.968750
8949,-42.968750
8950,-42.968750
8951,-42.968750
8952,-42.968750
8953,-42.968750
8954,-42.968750
8955,-42.968750
8956,-42.968750
8957,-42.968750
8958,-42.968750
8959,-42.968750
8960,-42.968750
8961,-42.968750
8962,-42.968750
8963,-42.968750
8964,-42.968750
8965,-42.968750
8966,-42.968750
8967,-42.968750
8968,-42.968750
8969,-42.968750
8970,-42.968750
8971,-42.968750
8972,-42.968750
8973,-42.968750
8974,-42.968750
8975,-42.968750
8976,-42.968750
8977,-42.968750
8978,-42.968750
8979,-42.968750
8980,-42.968750
8981,-42.968750
8982,-42.968750
8983,-42.968750
8984,-42.968750
8985,-41.015625
8986,-42.968750
8987,-42.968750
8988,-42.968750
8989,-42.968750
8990,-41.015625
8991,-42.968750
8992,-41.015625
8993,-41.015625
8994,-41.015625
8995,-41.015625
8996,-41.015625
8997,-41.015625
8998,-41.015625
8999,-41.015625
9000,-41.015625
9001,-41.015625
9002,-41.015625
9003,-39.062500
9004,-39.062500
9005,-39.062500
9006,-39.062500
9007,-39.062500
9008,-39.062500
9009,-39.062500
9010,-37.109375
9011,-37.109375
9012,-39.062500
9013,-37.109375
9014,-37.109375
9015,-37.109375
9016,-37.109375
9017,-37.109375
9018,-35.156250
9019,-37.109375
9020,-37.109375
9021,-35.156250
9022,-35.156250
9023,-35.156250
9024,-35.156250
9025,-35.156250
9026,-35.156250
9027,-35.156250
9028,-33.203125
9029,-33.203125
9030,-33.203125
9031,-33.203125
9032,-33.203125
9033,-31.250000
9034,-31.250000
9035,-31.250000
9036,-31.250000
9037,-31.250000
9038,-29.296875
9039,-29.296875
9040,-29.296875
9041,-29.296875
9042,-29.296875
9043,-27.343750
9044,-29.296875
9045,-27.343750
9046,-27.343750
9047,-27.343750
9048,-27.343750
9049,-25.390625
9050,-25.390625
9051,-25.390625
9052,-25.390625
9053,-25.390625
9054,-23.437500
9055,-25.390625
9056,-23.437500
9057,-23.437500
9058,-23.437500
9059,-23.437500
9060,-23.437500
9061,-21.484375
9062,-21.484375
9063,-21.484375
9064,-19.531250
9065,-21.484375
9066,-19.531250
9067,-19.531250
9068,-19.531250
9069,-17.578125
9070,-19.531250
9071,-17.578125
9072,-17.578125
9073,-17.578125
9074,-17.578125
9075,-17.578125
9076,-15.625000
9077,-15.625000
9078,-15.625000
9079,-15.625000
9080,-13.671875
9081,-13.671875
9082,-13.671875
9083,-13.671875
9084,-13.671875
9085,-11.718750
9086,-11.718750
9087,-11.718750
9088,-11.718750
9089,-11.718750
9090,-9.765625
9091,-9.765625
9092,-9.765625
9093,-7.812500
9094,-7.812500
9095,-7.812500
9096,-7.812500
9097,-7.812500
9098,-5.859375
9099,-5.859375
9100,-5.859375
9101,-5.859375
9102,-5.859375
9103,-3.906250
9104,-3.906250
9105,-3.906250
9106,-1.953125
9107,-3.906250
9108,-3.906250
9109,-1.953125
9110,-1.953125
9111,-1.953125
9112,-1.953125
9113,-1.953125
9114,0.000000
9115,0.000000
9116,0.000000
9117,0.000000
9118,0.000000
9119,1.953125
9120,1.953125
9121,1.953125
9122,1.953125
9123,1.953125
9124,1.953125
9125,3.906250
9126,1.953125
9127,3.906250
9128,3.906250
9129,3.906250
9130,3.906250
9131,5.859375
9132,3.906250
9133,5.859375
9134,5.859375
9135,5.859375
9136,5.859375
9137,5.859375
9138,5.859375
9139,5.859375
9140,5.859375
9141,7.812500
9142,7.812500
9143,7.812500
9144,7.812500
9145,7.812500
9146,7.812500
9147,7.812500
9148,7.812500
9149,7.812500
9150,7.812500
9151,9.765625
9152,9.765625
9153,9.765625
9154,9.765625
9155,9.765625
9156,9.765625
9157,11.718750
9158,11.718750
9159,9.765625
9160,9.765625
9161,11.718750
9162,11.718750
9163,11.718750
9164,11.718750
9165,11.718750
9166,11.718750
9167,11.718750
9168,11.718750
9169,11.718750
9170,11.718750
9171,11.718750
9172,13.671875
9173,13.671875
9174,13.671875
9175,13.671875
9176,13.671875
9177,13.671875
9178,13.671875
9179,13.671875
9180,13.671875
9181,13.671875
9182,13.671875
9183,13.671875
9184,13.671875
9185,13.671875
9186,13.671875
9187,15.625000
9188,13.671875
9189,13.671875
9190,13.671875
9191,13.671875
9192,15.625000
9193,13.671875
9194,15.625000
9195,15.625000
9196,15.625000
9197,13.671875
9198,15.625000
9199,15.625000
9200,15.625000
9201,13.671875
9202,15.625000
9203,15.625000
9204,15.625000
9205,13.671875
9206,15.625000
9207,15.625000
9208,15.625000
9209,15.625000
9210,15.625000
9211,15.625000
9212,15.625000
9213,15.625000
9214,15.625000
9215,15.625000
9216,15.625000
9217,15.625000
9218,15.625000
9219,15.625000
9220,15.625000
9221,15.625000
9222,15.625000
9223,13.671875
9224,15.625000
9225,15.625000
9226,15.625000
9227,15.625000
9228,15.625000
9229,15.625000
9230,15.625000
9231,15.625000
9232,15.625000
9233,15.625000
9234,15.625000
9235,15.625000
9236,15.625000
9237,15.625000
9238,15.625000
9239,13.671875
9240,15.625000
9241,15.625000
9242,15.625000
9243,15.625000
9244,15.625000
9245,15.625000
9246,13.671875
9247,15.625000
9248,13.671875
9249,13.671875
9250,13.671875
9251,13.671875
9252,13.671875
9253,15.625000
9254,13.671875
9255,13.671875
9256,13.671875
9257,13.671875
9258,13.671875
9259,13.671875
9260,13.671875
9261,13.671875
9262,13.671875
9263,13.671875
9264,13.671875
9265,13.671875
9266,13.671875
9267,13.671875
9268,13.671875
9269,13.671875
9270,13.671875
9271,13.671875
9272,13.671875
9273,13.671875
9274,13.671875
9275,13.671875
9276,11.718750
9277,13.671875
9278,13.671875
9279,11.718750
9280,11.718750
9281,11.718750
9282,11.718750
9283,11.718750
9284,11.718750
9285,11.718750
9286,11.718750
9287,11.718750
9288,11.718750
9289,11.718750
9290,11.718750
9291,13.671875
9292,11.718750
9293,11.718750
9294,11.718750
9295,11.718750
9296,11.718750
9297,11.718750
9298,11.718750
9299,11.718750
9300,13.671875
9301,11.718750
9302,11.718750
9303,11.718750
9304,11.718750
9305,11.718750
9306,11.718750
9307,11.718750
9308,11.718750
9309,11.718750
9310,9.765625
9311,11.718750
9312,11.718750
9313,11.718750
9314,9.765625
9315,9.765625
9316,11.718750
9317,11.718750
9318,9.765625
9319,9.765625
9320,9.765625
9321,9.765625
9322,9.765625
9323,9.765625
9324,9.765625
9325,9.765625
9326,9.765625
9327,9.765625
9328,9.765625
9329,7.812500
9330,9.765625
9331,9.765625
9332,9.765625
9333,7.812500
9334,7.812500
9335,7.812500
9336,7.812500
9337,9.765625
9338,7.812500
9339,7.812500
9340,7.812500
9341,7.812500
9342,7.812500
9343,5.859375
9344,7.812500
9345,5.859375
9346,5.859375
9347,5.859375
9348,7.812500
9349,5.859375
9350,5.859375
9351,5.859375
9352,5.859375
9353,5.859375
9354,5.859375
9355,5.859375
9356,5.859375
9357,5.859375
9358,5.859375
9359,3.906250
9360,3.906250
9361,5.859375
9362,3.906250
9363,3.906250
9364,3.906250
9365,3.906250
9366,3.906250
9367,3.906250
9368,3.906250
9369,3.906250
9370,3.906250
9371,1.953125
9372,1.953125
9373,1.953125
9374,1.953125
9375,1.953125
9376,1.953125
9377,1.953125
9378,1.953125
9379,0.000000
9380,0.000000
9381,0.000000
9382,0.000000
9383,0.000000
9384,0.000000
9385,0.000000
9386,0.000000
9387,-1.953125
9388,-1.953125
9389,-1.953125
9390,-1.953125
9391,-1.953125
9392,-3.906250
9393,-3.906250
9394,-3.906250
9395,-3.906250
9396,-3.906250
9397,-3.906250
9398,-3.906250
9399,-5.859375
9400,-5.859375
9401,-5.859375
9402,-5.859375
9403,-5.859375
9404,-5.859375
9405,-5.859375
9406,-5.859375
9407,-7.812500
9408,-7.812500
9409,-7.812500
9410,-7.812500
9411,-7.812500
9412,-7.812500
9413,-7.812500
9414,-7.812500
9415,-9.765625
9416,-9.765625
9417,-9.765625
9418,-9.765625
9419,-9.765625
9420,-9.765625
9421,-11.718750
9422,-9.765625
9423,-11.718750
9424,-11.718750
9425,-11.718750
9426,-11.718750
9427,-11.718750
9428,-11.718750
9429,-13.671875
9430,-13.671875
9431,-13.671875
9432,-13.671875
9433,-13.671875
9434,-13.671875
9435,-13.671875
9436,-15.625000
9437,-15.625000
9438,-15.625000
9439,-15.625000
9440,-15.625000
9441,-15.625000
9442,-17.578125
9443,-17.578125
9444,-17.578125
9445,-17.578125
9446,-17.578125
9447,-17.578125
9448,-19.531250
9449,-19.531250
9450,-19.531250
9451,-19.531250
9452,-19.531250
9453,-21.484375
9454,-19.531250
9455,-21.484375
9456,-21.484375
9457,-21.484375
9458,-21.484375
9459,-21.484375
9460,-23.437500
9461,-23.437500
9462,-23.437500
9463,-23.437500
9464,-23.437500
9465,-25.390625
9466,-25.390625
9467,-25.390625
9468,-25.390625
9469,-25.390625
9470,-27.343750
9471,-25.390625
9472,-27.343750
9473,-27.343750
9474,-27.343750
9475,-29.296875
9476,-27.343750
9477,-29.296875
9478,-29.296875
9479,-29.296875
9480,-29.296875
9481,-29.296875
9482,-31.250000
9483,-31.250000
9484,-31.250000
9485,-31.250000
9486,-31.250000
9487,-31.250000
9488,-31.250000
9489,-33.203125
9490,-33.203125
9491,-31.250000
9492,-33.203125
9493,-33.203125
9494,-33.203125
9495,-33.203125
9496,-33.203125
9497,-35.156250
9498,-35.156250
9499,-35.156250
9500,-35.156250
9501,-35.156250
9502,-35.156250
9503,-37.109375
9504,-37.109375
9505,-37.109375
9506,-37.109375
9507,-37.109375
9508,-37.109375
9509,-37.109375
9510,-37.109375
9511,-37.109375
9512,-39.062500
9513,-39.062500
9514,-39.062500
9515,-39.062500
9516,-39.062500
9517,-37.109375
9518,-39.062500
9519,-39.062500
9520,-41.015625
9521,-39.062500
9522,-41.015625
9523,-41.015625
9524,-41.015625
9525,-41.015625
9526,-41.015625
9527,-41.015625
9528,-41.015625
9529,-41.015625
9530,-41.015625
9531,-42.968750
9532,-42.968750
9533,-42.968750
9534,-42.968750
9535,-42.968750
9536,-41.015625
9537,-42.968750
9538,-42.968750
9539,-42.968750
9540,-42.968750
9541,-42.968750
9542,-42.968750
9543,-42.968750
9544,-42.968750
9545,-42.968750
9546,-42.968750
9547,-42.968750
9548,-42.968750
9549,-42.968750
9550,-42.968750
9551,-42.968750
9552,-42.968750
9553,-42.968750
9554,-42.968750
9555,-42.968750
9556,-42.968750
9557,-42.968750
9558,-42.968750
9559,-42.968750
9560,-42.968750
9561,-42.968750
9562,-42.968750
9563,-42.968750
9564,-42.968750
9565,-41.015625
9566,-42.968750
9567,-42.968750
9568,-41.015625
9569,-41.015625
9570,-41.015625
9571,-41.015625
9572,-41.015625
9573,-41.015625
9574,-41.015625
9575,-41.015625
9576,-41.015625
9577,-41.015625
9578,-41.015625
9579,-41.015625
9580,-41.015625
9581,-41.015625
9582,-41.015625
9583,-41.015625
9584,-41.015625
9585,-41.015625
9586,-41.015625
9587,-39.062500
9588,-39.062500
9589,-39.062500
9590,-39.062500
9591,-39.062500
9592,-39.062500
9593,-39.062500
9594,-39.062500
9595,-37.109375
9596,-37.109375
9597,-37.109375
9598,-37.109375
9599,-37.109375
9600,-37.109375
9601,-37.109375
9602,-35.156250
9603,-35.156250
9604,-35.156250
9605,-35.156250
9606,-35.156250
9607,-35.156250
9608,-33.203125
9609,-35.156250
9610,-33.203125
9611,-33.203125
9612,-35.156250
9613,-33.203125
9614,-33.203125
9615,-31.250000
9616,-31.250000
9617,-33.203125
9618,-31.250000
9619,-31.250000
9620,-31.250000
9621,-29.296875
9622,-29.296875
9623,-29.296875
9624,-29.296875
9625,-29.296875
9626,-27.343750
9627,-27.343750
9628,-27.343750
9629,-27.343750
9630,-27.343750
9631,-27.343750
9632,-27.343750
9633,-25.390625
9634,-25.390625
9635,-25.390625
9636,-25.390625
9637,-25.390625
9638,-23.437500
9639,-23.437500
9640,-23.437500
9641,-23.437500
9642,-23.437500
9643,-21.484375
9644,-21.484375
9645,-21.484375
9646,-21.484375
9647,-21.484375
9648,-21.484375
9649,-19.531250
9650,-19.531250
9651,-17.578125
9652,-19.531250
9653,-17.578125
9654,-17.578125
9655,-17.578125
9656,-17.578125
9657,-17.578125
9658,-15.625000
9659,-15.625000
9660,-15.625000
9661,-13.671875
9662,-13.671875
9663,-13.671875
9664,-13.671875
9665,-13.671875
9666,-13.671875
9667,-13.671875
9668,-11.718750
9669,-11.718750
9670,-11.718750
9671,-11.718750
9672,-11.718750
9673,-9.765625
9674,-9.765625
9675,-9.765625
9676,-9.765625
9677,-7.812500
9678,-7.812500
9679,-5.859375
9680,-7.812500
9681,-7.812500
9682,-5.859375
9683,-5.859375
9684,-5.859375
9685,-5.859375
9686,-3.906250
9687,-3.906250
9688,-3.906250
9689,-3.906250
9690,-3.906250
9691,-3.906250
9692,-1.953125
9693,-1.953125
9694,-1.953125
9695,-1.953125
9696,0.000000
9697,-1.953125
9698,0.000000
9699,0.000000
9700,0.000000
9701,0.000000
9702,0.000000
9703,1.953125
9704,1.953125
9705,1.953125
9706,1.953125
9707,3.906250
9708,3.906250
9709,1.953125
9710,3.906250
9711,3.906250
9712,3.906250
9713,3.906250
9714,3.906250
9715,3.906250
9716,5.859375
9717,5.859375
9718,5.859375
9719,5.859375
9720,5.859375
9721,5.859375
9722,5.859375
9723,5.859375
9724,7.812500
9725,7.812500
9726,7.812500
9727,7.812500
9728,7.812500
9729,7.812500
9730,7.812500
9731,7.812500
9732,7.812500
9733,7.812500
9734,9.765625
9735,9.765625
9736,9.765625
9737,9.765625
9738,9.765625
9739,9.765625
9740,9.765625
9741,9.765625
9742,9.765625
9743,9.765625
9744,11.718750
9745,11.718750
9746,11.718750
9747,11.718750
9748,11.718750
9749,11.718750
9750,11.718750
9751,11.718750
9752,11.718750
9753,13.671875
9754,13.671875
9755,11.718750
9756,13.671875
9757,13.671875
9758,13.671875
9759,13.671875
9760,13.671875
9761,13.671875
9762,13.671875
9763,13.671875
9764,13.671875
9765,13.671875
9766,13.671875
9767,13.671875
9768,13.671875
9769,13.671875
9770,13.671875
9771,15.625000
9772,15.625000
9773,15.625000
9774,15.625000
9775,13.671875
9776,15.625000
9777,15.625000
9778,15.625000
9779,15.625000
9780,15.625000
9781,15.625000
9782,15.625000
9783,15.625000
9784,15.625000
9785,15.625000
9786,15.625000
9787,15.625000
9788,15.625000
9789,15.625000
9790,15.625000
9791,15.625000
9792,13.671875
9793,15.625000
9794,15.625000
9795,15.625000
9796,15.625000
9797,15.625000
9798,15.625000
9799,15.625000
9800,15.625000
9801,15.625000
9802,15.625000
9803,15.625000
9804,15.625000
9805,15.625000
9806,15.625000
9807,15.625000
9808,15.625000
9809,15.625000
9810,15.625000
9811,15.625000
9812,15.625000
9813,15.625000
9814,15.625000
9815,15.625000
9816,15.625000
9817,15.625000
9818,15.625000
9819,15.625000
9820,15.625000
9821,15.625000
9822,15.625000
9823,15.625000
9824,15.625000
9825,15.625000
9826,15.625000
9827,15.625000
9828,15.625000
9829,15.625000
9830,15.625000
9831,15.625000
9832,15.625000
9833,15.625000
9834,15.625000
9835,15.625000
9836,15.625000
9837,13.671875
9838,15.625000
9839,13.671875
9840,13.671875
9841,15.625000
9842,13.671875
9843,13.671875
9844,13.671875
9845,13.671875
9846,13.671875
9847,13.671875
9848,13.671875
9849,13.671875
9850,13.671875
9851,13.671875
9852,13.671875
9853,13.671875
9854,13.671875
9855,13.671875
9856,13.671875
9857,13.671875
9858,13.671875
9859,13.671875
9860,13.671875
9861,13.671875
9862,13.671875
9863,11.718750
9864,13.671875
9865,11.718750
9866,13.671875
9867,13.671875
9868,13.671875
9869,13.671875
9870,11.718750
9871,13.671875
9872,11.718750
9873,13.671875
9874,11.718750
9875,11.718750
9876,13.671875
9877,11.718750
9878,11.718750
9879,11.718750
9880,11.718750
9881,13.671875
9882,11.718750
9883,11.718750
9884,11.718750
9885,11.718750
9886,11.718750
9887,11.718750
9888,11.718750
9889,11.718750
9890,11.718750
9891,11.718750
9892,11.718750
9893,11.718750
9894,11.718750
9895,9.765625
9896,9.765625
9897,11.718750
9898,11.718750
9899,11.718750
9900,9.765625
9901,9.765625
9902,9.765625
9903,9.765625
9904,9.765625
9905,9.765625
9906,9.765625
9907,9.765625
9908,9.765625
9909,9.765625
9910,9.765625
9911,9.765625
9912,9.765625
9913,9.765625
9914,7.812500
9915,7.812500
9916,9.765625
9917,7.812500
9918,7.812500
9919,7.812500
9920,7.812500
9921,7.812500
9922,7.812500
9923,7.812500
9924,7.812500
9925,7.812500
9926,7.812500
9927,7.812500
9928,7.812500
9929,7.812500
9930,5.859375
9931,5.859375
9932,7.812500
9933,5.859375
9934,5.859375
9935,5.859375
9936,5.859375
9937,5.859375
9938,5.859375
9939,5.859375
9940,5.859375
9941,5.859375
9942,5.859375
9943,3.906250
9944,3.906250
9945,3.906250
9946,3.906250
9947,3.906250
9948,3.906250
9949,3.906250
9950,3.906250
9951,3.906250
9952,1.953125
9953,1.953125
9954,1.953125
9955,1.953125
9956,1.953125
9957,1.953125
9958,1.953125
9959,1.953125
9960,1.953125
9961,1.953125
9962,1.953125
9963,0.000000
9964,0.000000
9965,0.000000
9966,0.000000
9967,0.000000
9968,0.000000
9969,0.000000
9970,-1.953125
9971,-1.953125
9972,-1.953125
9973,-1.953125
9974,-1.953125
9975,-3.906250
9976,-3.906250
9977,-3.906250
9978,-3.906250
9979,-3.906250
9980,-3.906250
9981,-3.906250
9982,-3.906250
9983,-3.906250
9984,-5.859375
9985,-5.859375
9986,-5.859375
9987,-5.859375
9988,-5.859375
9989,-5.859375
9990,-7.812500
9991,-7.812500
9992,-7.812500
9993,-7.812500
9994,-7.812500
9995,-7.812500
9996,-9.765625
9997,-7.812500
9998,-9.765625
9999,-9.765625
10000,-9.765625
