Channel              :,CH1
Frequency            :,858.4Hz
Period               :,1.165ms
PK-PK                :,185.5mV
Probe attenuation    :,1X
Voltage per ADC value:,0.122070mV
Time interval        :,2.00000us

index,CH1_Voltage(mV)
1,39.062500
2,39.062500
3,39.062500
4,37.109375
5,37.109375
6,35.156250
7,35.156250
8,35.156250
9,33.203125
10,33.203125
11,31.250000
12,31.250000
13,29.296875
14,29.296875
15,27.343750
16,27.343750
17,27.343750
18,25.390625
19,25.390625
20,23.437500
21,23.437500
22,21.484375
23,21.484375
24,19.531250
25,19.531250
26,19.531250
27,17.578125
28,15.625000
29,15.625000
30,15.625000
31,13.671875
32,13.671875
33,11.718750
34,9.765625
35,9.765625
36,7.812500
37,7.812500
38,5.859375
39,5.859375
40,5.859375
41,3.906250
42,3.906250
43,1.953125
44,1.953125
45,0.000000
46,0.000000
47,-1.953125
48,-3.906250
49,-3.906250
50,-3.906250
51,-5.859375
52,-5.859375
53,-7.812500
54,-7.812500
55,-9.765625
56,-9.765625
57,-11.718750
58,-13.671875
59,-13.671875
60,-13.671875
61,-15.625000
62,-15.625000
63,-17.578125
64,-17.578125
65,-19.531250
66,-21.484375
67,-21.484375
68,-21.484375
69,-21.484375
70,-23.437500
71,-25.390625
72,-25.390625
73,-27.343750
74,-25.390625
75,-27.343750
76,-29.296875
77,-29.296875
78,-31.250000
79,-31.250000
80,-33.203125
81,-33.203125
82,-33.203125
83,-35.156250
84,-35.156250
85,-37.109375
86,-37.109375
87,-39.062500
88,-39.062500
89,-41.015625
90,-41.015625
91,-41.015625
92,-42.968750
93,-42.968750
94,-44.921875
95,-44.921875
96,-46.875000
97,-46.875000
98,-46.875000
99,-48.828125
100,-48.828125
101,-50.781250
102,-50.781250
103,-50.781250
104,-52.734375
105,-52.734375
106,-54.687500
107,-54.687500
108,-56.640625
109,-56.640625
110,-56.640625
111,-58.593750
112,-58.593750
113,-60.546875
114,-60.546875
115,-60.546875
116,-62.500000
117,-62.500000
118,-64.453125
119,-64.453125
120,-64.453125
121,-66.406250
122,-66.406250
123,-66.406250
124,-68.359375
125,-68.359375
126,-68.359375
127,-70.312500
128,-70.312500
129,-72.265625
130,-72.265625
131,-72.265625
132,-74.218750
133,-74.218750
134,-74.218750
135,-74.218750
136,-76.171875
137,-76.171875
138,-76.171875
139,-76.171875
140,-78.125000
141,-78.125000
142,-80.078125
143,-80.078125
144,-80.078125
145,-80.078125
146,-82.031250
147,-82.031250
148,-82.031250
149,-83.984375
150,-82.031250
151,-83.984375
152,-83.984375
153,-83.984375
154,-83.984375
155,-85.937500
156,-85.937500
157,-85.937500
158,-85.937500
159,-87.890625
160,-87.890625
161,-87.890625
162,-87.890625
163,-87.890625
164,-89.843750
165,-89.843750
166,-89.843750
167,-89.843750
168,-89.843750
169,-91.796875
170,-91.796875
171,-91.796875
172,-91.796875
173,-91.796875
174,-91.796875
175,-93.750000
176,-93.750000
177,-93.750000
178,-93.750000
179,-93.750000
180,-93.750000
181,-95.703125
182,-95.703125
183,-95.703125
184,-95.703125
185,-95.703125
186,-95.703125
187,-95.703125
188,-95.703125
189,-95.703125
190,-95.703125
191,-95.703125
192,-95.703125
193,-95.703125
194,-95.703125
195,-97.656250
196,-97.656250
197,-95.703125
198,-95.703125
199,-97.656250
200,-97.656250
201,-95.703125
202,-95.703125
203,-95.703125
204,-95.703125
205,-97.656250
206,-97.656250
207,-95.703125
208,-97.656250
209,-95.703125
210,-95.703125
211,-95.703125
212,-95.703125
213,-95.703125
214,-95.703125
215,-95.703125
216,-95.703125
217,-93.750000
218,-95.703125
219,-95.703125
220,-95.703125
221,-93.750000
222,-93.750000
223,-93.750000
224,-93.750000
225,-93.750000
226,-93.750000
227,-91.796875
228,-91.796875
229,-91.796875
230,-91.796875
231,-91.796875
232,-91.796875
233,-91.796875
234,-91.796875
235,-91.796875
236,-91.796875
237,-89.843750
238,-89.843750
239,-89.843750
240,-89.843750
241,-87.890625
242,-87.890625
243,-87.890625
244,-87.890625
245,-87.890625
246,-87.890625
247,-85.937500
248,-85.937500
249,-85.937500
250,-85.937500
251,-83.984375
252,-83.984375
253,-83.984375
254,-83.984375
255,-82.031250
256,-83.984375
257,-82.031250
258,-82.031250
259,-80.078125
260,-80.078125
261,-80.078125
262,-80.078125
263,-78.125000
264,-78.125000
265,-78.125000
266,-78.125000
267,-76.171875
268,-76.171875
269,-76.171875
270,-76.171875
271,-74.218750
272,-72.265625
273,-72.265625
274,-72.265625
275,-72.265625
276,-70.312500
277,-70.312500
278,-70.312500
279,-68.359375
280,-68.359375
281,-68.359375
282,-66.406250
283,-66.406250
284,-64.453125
285,-64.453125
286,-64.453125
287,-62.500000
288,-62.500000
289,-60.546875
290,-60.546875
291,-60.546875
292,-58.593750
293,-58.593750
294,-58.593750
295,-56.640625
296,-56.640625
297,-54.687500
298,-54.687500
299,-52.734375
300,-52.734375
301,-52.734375
302,-50.781250
303,-50.781250
304,-50.781250
305,-48.828125
306,-48.828125
307,-46.875000
308,-46.875000
309,-46.875000
310,-44.921875
311,-42.968750
312,-42.968750
313,-42.968750
314,-41.015625
315,-41.015625
316,-39.062500
317,-39.062500
318,-39.062500
319,-37.109375
320,-37.109375
321,-35.156250
322,-35.156250
323,-35.156250
324,-33.203125
325,-31.250000
326,-31.250000
327,-29.296875
328,-29.296875
329,-29.296875
330,-25.390625
331,-27.343750
332,-25.390625
333,-25.390625
334,-23.437500
335,-23.437500
336,-21.484375
337,-21.484375
338,-21.484375
339,-19.531250
340,-17.578125
341,-17.578125
342,-15.625000
343,-15.625000
344,-13.671875
345,-13.671875
346,-13.671875
347,-11.718750
348,-9.765625
349,-9.765625
350,-7.812500
351,-7.812500
352,-5.859375
353,-5.859375
354,-5.859375
355,-3.906250
356,-1.953125
357,-1.953125
358,-1.953125
359,0.000000
360,0.000000
361,1.953125
362,1.953125
363,3.906250
364,3.906250
365,5.859375
366,5.859375
367,7.812500
368,7.812500
369,7.812500
370,9.765625
371,11.718750
372,11.718750
373,13.671875
374,13.671875
375,15.625000
376,15.625000
377,15.625000
378,17.578125
379,19.531250
380,19.531250
381,19.531250
382,21.484375
383,21.484375
384,23.437500
385,23.437500
386,23.437500
387,25.390625
388,27.343750
389,27.343750
390,27.343750
391,29.296875
392,29.296875
393,31.250000
394,31.250000
395,33.203125
396,33.203125
397,35.156250
398,35.156250
399,35.156250
400,37.109375
401,37.109375
402,39.062500
403,41.015625
404,41.015625
405,41.015625
406,41.015625
407,42.968750
408,44.921875
409,44.921875
410,44.921875
411,46.875000
412,46.875000
413,48.828125
414,48.828125
415,50.781250
416,50.781250
417,50.781250
418,52.734375
419,52.734375
420,52.734375
421,54.687500
422,54.687500
423,56.640625
424,56.640625
425,56.640625
426,56.640625
427,60.546875
428,58.593750
429,58.593750
430,60.546875
431,62.500000
432,62.500000
433,62.500000
434,62.500000
435,64.453125
436,64.453125
437,64.453125
438,64.453125
439,66.406250
440,68.359375
441,66.406250
442,68.359375
443,68.359375
444,70.312500
445,70.312500
446,70.312500
447,70.312500
448,70.312500
449,72.265625
450,72.265625
451,72.265625
452,72.265625
453,74.218750
454,74.218750
455,74.218750
456,74.218750
457,76.171875
458,76.171875
459,76.171875
460,76.171875
461,76.171875
462,78.125000
463,78.125000
464,78.125000
465,78.125000
466,78.125000
467,78.125000
468,80.078125
469,80.078125
470,80.078125
471,80.078125
472,82.031250
473,82.031250
474,82.031250
475,82.031250
476,82.031250
477,82.031250
478,82.031250
479,82.031250
480,82.031250
481,83.984375
482,83.984375
483,83.984375
484,83.984375
485,83.984375
486,83.984375
487,83.984375
488,83.984375
489,83.984375
490,83.984375
491,83.984375
492,83.984375
493,83.984375
494,83.984375
495,83.984375
496,83.984375
497,83.984375
498,83.984375
499,83.984375
500,83.984375
501,83.984375
502,83.984375
503,83.984375
504,83.984375
505,83.984375
506,82.031250
507,83.984375
508,83.984375
509,82.031250
510,82.031250
511,82.031250
512,82.031250
513,82.031250
514,82.031250
515,82.031250
516,80.078125
517,80.078125
518,80.078125
519,80.078125
520,80.078125
521,80.078125
522,80.078125
523,80.078125
524,78.125000
525,78.125000
526,78.125000
527,78.125000
528,76.171875
529,76.171875
530,76.171875
531,76.171875
532,76.171875
533,74.218750
534,74.218750
535,74.218750
536,74.218750
537,74.218750
538,70.312500
539,72.265625
540,72.265625
541,72.265625
542,70.312500
543,70.312500
544,70.312500
545,70.312500
546,68.359375
547,68.359375
548,68.359375
549,66.406250
550,66.406250
551,66.406250
552,64.453125
553,64.453125
554,64.453125
555,64.453125
556,62.500000
557,60.546875
558,62.500000
559,60.546875
560,60.546875
561,58.593750
562,58.593750
563,56.640625
564,56.640625
565,56.640625
566,54.687500
567,54.687500
568,54.687500
569,52.734375
570,50.781250
571,50.781250
572,50.781250
573,50.781250
574,48.828125
575,46.875000
576,46.875000
577,46.875000
578,44.921875
579,44.921875
580,42.968750
581,42.968750
582,42.968750
583,41.015625
584,39.062500
585,39.062500
586,39.062500
587,39.062500
588,37.109375
589,35.156250
590,35.156250
591,35.156250
592,33.203125
593,33.203125
594,31.250000
595,31.250000
596,29.296875
597,29.296875
598,27.343750
599,27.343750
600,25.390625
601,25.390625
602,25.390625
603,23.437500
604,23.437500
605,21.484375
606,21.484375
607,21.484375
608,19.531250
609,17.578125
610,17.578125
611,15.625000
612,15.625000
613,13.671875
614,13.671875
615,11.718750
616,11.718750
617,9.765625
618,9.765625
619,7.812500
620,5.859375
621,5.859375
622,5.859375
623,3.906250
624,3.906250
625,1.953125
626,1.953125
627,0.000000
628,0.000000
629,-1.953125
630,-1.953125
631,-3.906250
632,-3.906250
633,-5.859375
634,-5.859375
635,-7.812500
636,-7.812500
637,-9.765625
638,-9.765625
639,-11.718750
640,-11.718750
641,-13.671875
642,-13.671875
643,-13.671875
644,-15.625000
645,-15.625000
646,-17.578125
647,-19.531250
648,-19.531250
649,-21.484375
650,-21.484375
651,-21.484375
652,-23.437500
653,-23.437500
654,-25.390625
655,-25.390625
656,-27.343750
657,-27.343750
658,-29.296875
659,-29.296875
660,-29.296875
661,-31.250000
662,-31.250000
663,-33.203125
664,-35.156250
665,-35.156250
666,-35.156250
667,-35.156250
668,-37.109375
669,-37.109375
670,-39.062500
671,-39.062500
672,-41.015625
673,-41.015625
674,-42.968750
675,-42.968750
676,-42.968750
677,-44.921875
678,-46.875000
679,-46.875000
680,-46.875000
681,-46.875000
682,-48.828125
683,-50.781250
684,-50.781250
685,-50.781250
686,-50.781250
687,-52.734375
688,-52.734375
689,-54.687500
690,-54.687500
691,-56.640625
692,-56.640625
693,-56.640625
694,-58.593750
695,-58.593750
696,-58.593750
697,-60.546875
698,-62.500000
699,-62.500000
700,-62.500000
701,-62.500000
702,-64.453125
703,-64.453125
704,-66.406250
705,-66.406250
706,-66.406250
707,-68.359375
708,-68.359375
709,-70.312500
710,-70.312500
711,-70.312500
712,-70.312500
713,-72.265625
714,-72.265625
715,-72.265625
716,-74.218750
717,-74.218750
718,-76.171875
719,-76.171875
720,-76.171875
721,-76.171875
722,-78.125000
723,-76.171875
724,-80.078125
725,-80.078125
726,-80.078125
727,-80.078125
728,-80.078125
729,-82.031250
730,-82.031250
731,-82.031250
732,-82.031250
733,-83.984375
734,-83.984375
735,-83.984375
736,-83.984375
737,-85.937500
738,-85.937500
739,-85.937500
740,-85.937500
741,-87.890625
742,-85.937500
743,-87.890625
744,-87.890625
745,-87.890625
746,-87.890625
747,-89.843750
748,-89.843750
749,-89.843750
750,-89.843750
751,-91.796875
752,-89.843750
753,-91.796875
754,-91.796875
755,-91.796875
756,-93.750000
757,-93.750000
758,-93.750000
759,-91.796875
760,-93.750000
761,-93.750000
762,-93.750000
763,-93.750000
764,-93.750000
765,-93.750000
766,-95.703125
767,-95.703125
768,-95.703125
769,-95.703125
770,-95.703125
771,-95.703125
772,-95.703125
773,-95.703125
774,-95.703125
775,-95.703125
776,-95.703125
777,-95.703125
778,-97.656250
779,-95.703125
780,-97.656250
781,-95.703125
782,-95.703125
783,-97.656250
784,-97.656250
785,-95.703125
786,-95.703125
787,-95.703125
788,-97.656250
789,-97.656250
790,-97.656250
791,-95.703125
792,-95.703125
793,-95.703125
794,-97.656250
795,-95.703125
796,-95.703125
797,-95.703125
798,-95.703125
799,-95.703125
800,-95.703125
801,-95.703125
802,-95.703125
803,-93.750000
804,-93.750000
805,-95.703125
806,-93.750000
807,-93.750000
808,-93.750000
809,-93.750000
810,-93.750000
811,-91.796875
812,-91.796875
813,-91.796875
814,-91.796875
815,-91.796875
816,-91.796875
817,-91.796875
818,-89.843750
819,-89.843750
820,-89.843750
821,-89.843750
822,-89.843750
823,-89.843750
824,-89.843750
825,-87.890625
826,-87.890625
827,-87.890625
828,-85.937500
829,-85.937500
830,-87.890625
831,-85.937500
832,-85.937500
833,-83.984375
834,-83.984375
835,-83.984375
836,-83.984375
837,-83.984375
838,-82.031250
839,-82.031250
840,-82.031250
841,-80.078125
842,-80.078125
843,-80.078125
844,-80.078125
845,-78.125000
846,-78.125000
847,-78.125000
848,-76.171875
849,-76.171875
850,-76.171875
851,-76.171875
852,-74.218750
853,-74.218750
854,-74.218750
855,-74.218750
856,-72.265625
857,-72.265625
858,-70.312500
859,-70.312500
860,-70.312500
861,-68.359375
862,-68.359375
863,-68.359375
864,-66.406250
865,-66.406250
866,-64.453125
867,-64.453125
868,-64.453125
869,-62.500000
870,-62.500000
871,-62.500000
872,-62.500000
873,-60.546875
874,-60.546875
875,-58.593750
876,-58.593750
877,-56.640625
878,-56.640625
879,-54.687500
880,-54.687500
881,-54.687500
882,-54.687500
883,-52.734375
884,-50.781250
885,-50.781250
886,-50.781250
887,-50.781250
888,-48.828125
889,-48.828125
890,-46.875000
891,-46.875000
892,-44.921875
893,-44.921875
894,-42.968750
895,-42.968750
896,-42.968750
897,-41.015625
898,-41.015625
899,-39.062500
900,-39.062500
901,-39.062500
902,-37.109375
903,-37.109375
904,-35.156250
905,-35.156250
906,-33.203125
907,-33.203125
908,-33.203125
909,-31.250000
910,-29.296875
911,-29.296875
912,-27.343750
913,-27.343750
914,-27.343750
915,-25.390625
916,-25.390625
917,-23.437500
918,-21.484375
919,-21.484375
920,-21.484375
921,-19.531250
922,-19.531250
923,-17.578125
924,-17.578125
925,-15.625000
926,-15.625000
927,-13.671875
928,-13.671875
929,-11.718750
930,-11.718750
931,-9.765625
932,-9.765625
933,-7.812500
934,-7.812500
935,-5.859375
936,-5.859375
937,-3.906250
938,-3.906250
939,-1.953125
940,-1.953125
941,-1.953125
942,0.000000
943,1.953125
944,1.953125
945,1.953125
946,3.906250
947,3.906250
948,5.859375
949,5.859375
950,7.812500
951,7.812500
952,9.765625
953,9.765625
954,11.718750
955,11.718750
956,13.671875
957,13.671875
958,15.625000
959,15.625000
960,15.625000
961,17.578125
962,17.578125
963,19.531250
964,19.531250
965,21.484375
966,21.484375
967,23.437500
968,23.437500
969,23.437500
970,25.390625
971,27.343750
972,27.343750
973,27.343750
974,29.296875
975,29.296875
976,29.296875
977,31.250000
978,33.203125
979,33.203125
980,35.156250
981,35.156250
982,37.109375
983,37.109375
984,37.109375
985,39.062500
986,39.062500
987,41.015625
988,42.968750
989,42.968750
990,42.968750
991,44.921875
992,44.921875
993,44.921875
994,46.875000
995,46.875000
996,48.828125
997,48.828125
998,50.781250
999,50.781250
1000,52.734375
1001,52.734375
1002,52.734375
1003,54.687500
1004,54.687500
1005,54.687500
1006,56.640625
1007,56.640625
1008,58.593750
1009,58.593750
1010,58.593750
1011,60.546875
1012,60.546875
1013,60.546875
1014,62.500000
1015,62.500000
1016,62.500000
1017,64.453125
1018,64.453125
1019,64.453125
1020,64.453125
1021,64.453125
1022,66.406250
1023,66.406250
1024,68.359375
1025,68.359375
1026,68.359375
1027,70.312500
1028,70.312500
1029,70.312500
1030,70.312500
1031,70.312500
1032,72.265625
1033,72.265625
1034,74.218750
1035,72.265625
1036,74.218750
1037,74.218750
1038,74.218750
1039,76.171875
1040,76.171875
1041,76.171875
1042,76.171875
1043,78.125000
1044,78.125000
1045,78.125000
1046,78.125000
1047,78.125000
1048,80.078125
1049,80.078125
1050,80.078125
1051,80.078125
1052,80.078125
1053,80.078125
1054,82.031250
1055,82.031250
1056,82.031250
1057,82.031250
1058,82.031250
1059,82.031250
1060,82.031250
1061,82.031250
1062,82.031250
1063,83.984375
1064,83.984375
1065,83.984375
1066,83.984375
1067,83.984375
1068,83.984375
1069,83.984375
1070,83.984375
1071,83.984375
1072,83.984375
1073,83.984375
1074,83.984375
1075,83.984375
1076,83.984375
1077,83.984375
1078,83.984375
1079,83.984375
1080,83.984375
1081,83.984375
1082,83.984375
1083,83.984375
1084,83.984375
1085,83.984375
1086,83.984375
1087,83.984375
1088,83.984375
1089,83.984375
1090,83.984375
1091,83.984375
1092,83.984375
1093,82.031250
1094,82.031250
1095,82.031250
1096,82.031250
1097,82.031250
1098,82.031250
1099,80.078125
1100,82.031250
1101,80.078125
1102,80.078125
1103,80.078125
1104,80.078125
1105,80.078125
1106,80.078125
1107,78.125000
1108,78.125000
1109,78.125000
1110,78.125000
1111,78.125000
1112,78.125000
1113,76.171875
1114,76.171875
1115,76.171875
1116,76.171875
1117,74.218750
1118,74.218750
1119,74.218750
1120,74.218750
1121,72.265625
1122,72.265625
1123,72.265625
1124,72.265625
1125,70.312500
1126,70.312500
1127,70.312500
1128,70.312500
1129,68.359375
1130,68.359375
1131,68.359375
1132,66.406250
1133,66.406250
1134,66.406250
1135,64.453125
1136,64.453125
1137,64.453125
1138,62.500000
1139,62.500000
1140,60.546875
1141,60.546875
1142,60.546875
1143,60.546875
1144,58.593750
1145,58.593750
1146,56.640625
1147,56.640625
1148,56.640625
1149,56.640625
1150,54.687500
1151,52.734375
1152,56.640625
1153,52.734375
1154,50.781250
1155,50.781250
1156,48.828125
1157,48.828125
1158,48.828125
1159,46.875000
1160,46.875000
1161,44.921875
1162,44.921875
1163,42.968750
1164,42.968750
1165,42.968750
1166,41.015625
1167,41.015625
1168,39.062500
1169,39.062500
1170,37.109375
1171,37.109375
1172,35.156250
1173,35.156250
1174,33.203125
1175,33.203125
1176,33.203125
1177,31.250000
1178,29.296875
1179,29.296875
1180,29.296875
1181,29.296875
1182,27.343750
1183,25.390625
1184,25.390625
1185,23.437500
1186,23.437500
1187,21.484375
1188,21.484375
1189,19.531250
1190,19.531250
1191,17.578125
1192,17.578125
1193,17.578125
1194,15.625000
1195,15.625000
1196,13.671875
1197,13.671875
1198,11.718750
1199,11.718750
1200,9.765625
1201,7.812500
1202,7.812500
1203,7.812500
1204,5.859375
1205,5.859375
1206,3.906250
1207,3.906250
1208,3.906250
1209,1.953125
1210,0.000000
1211,-1.953125
1212,-1.953125
1213,-1.953125
1214,-3.906250
1215,-3.906250
1216,-5.859375
1217,-5.859375
1218,-7.812500
1219,-7.812500
1220,-9.765625
1221,-9.765625
1222,-11.718750
1223,-11.718750
1224,-13.671875
1225,-13.671875
1226,-15.625000
1227,-15.625000
1228,-15.625000
1229,-17.578125
1230,-17.578125
1231,-19.531250
1232,-21.484375
1233,-21.484375
1234,-23.437500
1235,-23.437500
1236,-23.437500
1237,-25.390625
1238,-25.390625
1239,-27.343750
1240,-29.296875
1241,-29.296875
1242,-29.296875
1243,-29.296875
1244,-31.250000
1245,-33.203125
1246,-33.203125
1247,-33.203125
1248,-35.156250
1249,-35.156250
1250,-37.109375
1251,-37.109375
1252,-37.109375
1253,-39.062500
1254,-39.062500
1255,-41.015625
1256,-41.015625
1257,-41.015625
1258,-42.968750
1259,-44.921875
1260,-44.921875
1261,-46.875000
1262,-44.921875
1263,-46.875000
1264,-46.875000
1265,-48.828125
1266,-48.828125
1267,-48.828125
1268,-50.781250
1269,-52.734375
1270,-54.687500
1271,-54.687500
1272,-54.687500
1273,-54.687500
1274,-56.640625
1275,-56.640625
1276,-58.593750
1277,-56.640625
1278,-58.593750
1279,-60.546875
1280,-60.546875
1281,-62.500000
1282,-62.500000
1283,-62.500000
1284,-64.453125
1285,-66.406250
1286,-66.406250
1287,-66.406250
1288,-66.406250
1289,-68.359375
1290,-68.359375
1291,-68.359375
1292,-70.312500
1293,-70.312500
1294,-70.312500
1295,-72.265625
1296,-72.265625
1297,-72.265625
1298,-74.218750
1299,-74.218750
1300,-76.171875
1301,-76.171875
1302,-80.078125
1303,-76.171875
1304,-78.125000
1305,-78.125000
1306,-78.125000
1307,-78.125000
1308,-80.078125
1309,-80.078125
1310,-80.078125
1311,-82.031250
1312,-82.031250
1313,-82.031250
1314,-82.031250
1315,-83.984375
1316,-83.984375
1317,-83.984375
1318,-83.984375
1319,-83.984375
1320,-82.031250
1321,-85.937500
1322,-85.937500
1323,-85.937500
1324,-85.937500
1325,-87.890625
1326,-87.890625
1327,-87.890625
1328,-89.843750
1329,-87.890625
1330,-89.843750
1331,-89.843750
1332,-89.843750
1333,-89.843750
1334,-91.796875
1335,-89.843750
1336,-89.843750
1337,-91.796875
1338,-91.796875
1339,-93.750000
1340,-91.796875
1341,-93.750000
1342,-93.750000
1343,-93.750000
1344,-91.796875
1345,-93.750000
1346,-93.750000
1347,-93.750000
1348,-95.703125
1349,-95.703125
1350,-95.703125
1351,-95.703125
1352,-95.703125
1353,-95.703125
1354,-95.703125
1355,-95.703125
1356,-95.703125
1357,-95.703125
1358,-97.656250
1359,-95.703125
1360,-95.703125
1361,-95.703125
1362,-95.703125
1363,-97.656250
1364,-97.656250
1365,-97.656250
1366,-95.703125
1367,-95.703125
1368,-95.703125
1369,-97.656250
1370,-97.656250
1371,-97.656250
1372,-95.703125
1373,-95.703125
1374,-95.703125
1375,-95.703125
1376,-95.703125
1377,-95.703125
1378,-95.703125
1379,-95.703125
1380,-95.703125
1381,-95.703125
1382,-95.703125
1383,-93.750000
1384,-95.703125
1385,-95.703125
1386,-95.703125
1387,-93.750000
1388,-93.750000
1389,-93.750000
1390,-93.750000
1391,-93.750000
1392,-93.750000
1393,-93.750000
1394,-91.796875
1395,-91.796875
1396,-91.796875
1397,-91.796875
1398,-91.796875
1399,-91.796875
1400,-91.796875
1401,-89.843750
1402,-89.843750
1403,-91.796875
1404,-89.843750
1405,-87.890625
1406,-89.843750
1407,-87.890625
1408,-87.890625
1409,-87.890625
1410,-85.937500
1411,-85.937500
1412,-85.937500
1413,-87.890625
1414,-85.937500
1415,-85.937500
1416,-83.984375
1417,-83.984375
1418,-83.984375
1419,-83.984375
1420,-83.984375
1421,-83.984375
1422,-82.031250
1423,-82.031250
1424,-82.031250
1425,-80.078125
1426,-80.078125
1427,-80.078125
1428,-78.125000
1429,-78.125000
1430,-78.125000
1431,-78.125000
1432,-76.171875
1433,-76.171875
1434,-74.218750
1435,-74.218750
1436,-74.218750
1437,-74.218750
1438,-72.265625
1439,-72.265625
1440,-72.265625
1441,-70.312500
1442,-70.312500
1443,-70.312500
1444,-68.359375
1445,-68.359375
1446,-66.406250
1447,-68.359375
1448,-66.406250
1449,-66.406250
1450,-64.453125
1451,-64.453125
1452,-64.453125
1453,-62.500000
1454,-62.500000
1455,-60.546875
1456,-60.546875
1457,-60.546875
1458,-58.593750
1459,-58.593750
1460,-56.640625
1461,-56.640625
1462,-56.640625
1463,-54.687500
1464,-54.687500
1465,-52.734375
1466,-52.734375
1467,-52.734375
1468,-50.781250
1469,-50.781250
1470,-48.828125
1471,-48.828125
1472,-46.875000
1473,-46.875000
1474,-46.875000
1475,-46.875000
1476,-44.921875
1477,-44.921875
1478,-42.968750
1479,-42.968750
1480,-41.015625
1481,-41.015625
1482,-39.062500
1483,-39.062500
1484,-39.062500
1485,-37.109375
1486,-37.109375
1487,-35.156250
1488,-33.203125
1489,-33.203125
1490,-33.203125
1491,-31.250000
1492,-31.250000
1493,-29.296875
1494,-29.296875
1495,-29.296875
1496,-27.343750
1497,-25.390625
1498,-25.390625
1499,-23.437500
1500,-23.437500
1501,-21.484375
1502,-21.484375
1503,-23.437500
1504,-19.531250
1505,-17.578125
1506,-17.578125
1507,-17.578125
1508,-15.625000
1509,-13.671875
1510,-13.671875
1511,-13.671875
1512,-11.718750
1513,-9.765625
1514,-9.765625
1515,-9.765625
1516,-9.765625
1517,-7.812500
1518,-5.859375
1519,-5.859375
1520,-3.906250
1521,-3.906250
1522,-1.953125
1523,-1.953125
1524,0.000000
1525,0.000000
1526,1.953125
1527,1.953125
1528,3.906250
1529,3.906250
1530,3.906250
1531,5.859375
1532,5.859375
1533,7.812500
1534,7.812500
1535,9.765625
1536,9.765625
1537,11.718750
1538,13.671875
1539,13.671875
1540,13.671875
1541,15.625000
1542,15.625000
1543,17.578125
1544,17.578125
1545,19.531250
1546,23.437500
1547,21.484375
1548,21.484375
1549,23.437500
1550,23.437500
1551,25.390625
1552,25.390625
1553,25.390625
1554,27.343750
1555,27.343750
1556,29.296875
1557,29.296875
1558,29.296875
1559,31.250000
1560,33.203125
1561,33.203125
1562,35.156250
1563,35.156250
1564,37.109375
1565,37.109375
1566,37.109375
1567,39.062500
1568,41.015625
1569,41.015625
1570,41.015625
1571,41.015625
1572,42.968750
1573,44.921875
1574,44.921875
1575,44.921875
1576,44.921875
1577,46.875000
1578,48.828125
1579,48.828125
1580,48.828125
1581,50.781250
1582,50.781250
1583,52.734375
1584,52.734375
1585,54.687500
1586,54.687500
1587,54.687500
1588,54.687500
1589,56.640625
1590,56.640625
1591,58.593750
1592,58.593750
1593,58.593750
1594,60.546875
1595,60.546875
1596,62.500000
1597,62.500000
1598,62.500000
1599,64.453125
1600,64.453125
1601,64.453125
1602,64.453125
1603,64.453125
1604,66.406250
1605,68.359375
1606,68.359375
1607,68.359375
1608,68.359375
1609,70.312500
1610,70.312500
1611,70.312500
1612,70.312500
1613,72.265625
1614,72.265625
1615,72.265625
1616,72.265625
1617,74.218750
1618,74.218750
1619,74.218750
1620,74.218750
1621,76.171875
1622,76.171875
1623,76.171875
1624,76.171875
1625,78.125000
1626,78.125000
1627,78.125000
1628,78.125000
1629,78.125000
1630,80.078125
1631,80.078125
1632,80.078125
1633,80.078125
1634,80.078125
1635,80.078125
1636,82.031250
1637,82.031250
1638,82.031250
1639,82.031250
1640,82.031250
1641,82.031250
1642,82.031250
1643,82.031250
1644,83.984375
1645,83.984375
1646,83.984375
1647,83.984375
1648,83.984375
1649,83.984375
1650,83.984375
1651,83.984375
1652,83.984375
1653,83.984375
1654,83.984375
1655,85.937500
1656,83.984375
1657,83.984375
1658,83.984375
1659,85.937500
1660,83.984375
1661,83.984375
1662,83.984375
1663,85.937500
1664,83.984375
1665,83.984375
1666,83.984375
1667,83.984375
1668,83.984375
1669,83.984375
1670,83.984375
1671,83.984375
1672,83.984375
1673,83.984375
1674,82.031250
1675,83.984375
1676,82.031250
1677,82.031250
1678,82.031250
1679,82.031250
1680,82.031250
1681,82.031250
1682,80.078125
1683,82.031250
1684,80.078125
1685,80.078125
1686,80.078125
1687,80.078125
1688,80.078125
1689,78.125000
1690,78.125000
1691,80.078125
1692,78.125000
1693,78.125000
1694,76.171875
1695,78.125000
1696,76.171875
1697,72.265625
1698,76.171875
1699,76.171875
1700,74.218750
1701,74.218750
1702,74.218750
1703,74.218750
1704,74.218750
1705,72.265625
1706,72.265625
1707,72.265625
1708,70.312500
1709,70.312500
1710,70.312500
1711,70.312500
1712,68.359375
1713,68.359375
1714,66.406250
1715,68.359375
1716,66.406250
1717,66.406250
1718,64.453125
1719,64.453125
1720,64.453125
1721,62.500000
1722,62.500000
1723,62.500000
1724,62.500000
1725,60.546875
1726,58.593750
1727,58.593750
1728,58.593750
1729,56.640625
1730,56.640625
1731,54.687500
1732,54.687500
1733,54.687500
1734,52.734375
1735,52.734375
1736,50.781250
1737,50.781250
1738,50.781250
1739,48.828125
1740,48.828125
1741,46.875000
1742,46.875000
1743,46.875000
1744,44.921875
1745,44.921875
1746,42.968750
1747,42.968750
1748,41.015625
1749,41.015625
1750,41.015625
1751,41.015625
1752,39.062500
1753,37.109375
1754,37.109375
1755,35.156250
1756,35.156250
1757,33.203125
1758,33.203125
1759,31.250000
1760,31.250000
1761,29.296875
1762,29.296875
1763,27.343750
1764,27.343750
1765,27.343750
1766,25.390625
1767,25.390625
1768,23.437500
1769,23.437500
1770,21.484375
1771,21.484375
1772,19.531250
1773,19.531250
1774,17.578125
1775,17.578125
1776,15.625000
1777,15.625000
1778,13.671875
1779,13.671875
1780,11.718750
1781,11.718750
1782,9.765625
1783,9.765625
1784,7.812500
1785,7.812500
1786,7.812500
1787,5.859375
1788,3.906250
1789,3.906250
1790,1.953125
1791,1.953125
1792,1.953125
1793,0.000000
1794,-1.953125
1795,-1.953125
1796,-1.953125
1797,-3.906250
1798,-5.859375
1799,-5.859375
1800,-5.859375
1801,-7.812500
1802,-9.765625
1803,-9.765625
1804,-11.718750
1805,-11.718750
1806,-11.718750
1807,-13.671875
1808,-13.671875
1809,-13.671875
1810,-15.625000
1811,-17.578125
1812,-17.578125
1813,-19.531250
1814,-19.531250
1815,-19.531250
1816,-23.437500
1817,-23.437500
1818,-23.437500
1819,-25.390625
1820,-25.390625
1821,-27.343750
1822,-27.343750
1823,-29.296875
1824,-29.296875
1825,-29.296875
1826,-31.250000
1827,-31.250000
1828,-33.203125
1829,-33.203125
1830,-33.203125
1831,-35.156250
1832,-37.109375
1833,-37.109375
1834,-37.109375
1835,-39.062500
1836,-39.062500
1837,-41.015625
1838,-41.015625
1839,-41.015625
1840,-42.968750
1841,-44.921875
1842,-44.921875
1843,-44.921875
1844,-46.875000
1845,-46.875000
1846,-46.875000
1847,-48.828125
1848,-48.828125
1849,-50.781250
1850,-50.781250
1851,-52.734375
1852,-52.734375
1853,-52.734375
1854,-54.687500
1855,-54.687500
1856,-54.687500
1857,-56.640625
1858,-56.640625
1859,-58.593750
1860,-58.593750
1861,-60.546875
1862,-60.546875
1863,-62.500000
1864,-62.500000
1865,-62.500000
1866,-62.500000
1867,-64.453125
1868,-64.453125
1869,-66.406250
1870,-66.406250
1871,-66.406250
1872,-68.359375
1873,-68.359375
1874,-70.312500
1875,-70.312500
1876,-70.312500
1877,-72.265625
1878,-72.265625
1879,-72.265625
1880,-74.218750
1881,-74.218750
1882,-74.218750
1883,-74.218750
1884,-76.171875
1885,-76.171875
1886,-78.125000
1887,-78.125000
1888,-78.125000
1889,-78.125000
1890,-80.078125
1891,-80.078125
1892,-80.078125
1893,-80.078125
1894,-82.031250
1895,-83.984375
1896,-82.031250
1897,-83.984375
1898,-83.984375
1899,-83.984375
1900,-85.937500
1901,-85.937500
1902,-85.937500
1903,-85.937500
1904,-85.937500
1905,-87.890625
1906,-87.890625
1907,-87.890625
1908,-87.890625
1909,-89.843750
1910,-89.843750
1911,-87.890625
1912,-89.843750
1913,-89.843750
1914,-91.796875
1915,-89.843750
1916,-91.796875
1917,-91.796875
1918,-91.796875
1919,-91.796875
1920,-91.796875
1921,-91.796875
1922,-93.750000
1923,-93.750000
1924,-93.750000
1925,-93.750000
1926,-93.750000
1927,-95.703125
1928,-93.750000
1929,-93.750000
1930,-93.750000
1931,-95.703125
1932,-95.703125
1933,-95.703125
1934,-95.703125
1935,-95.703125
1936,-95.703125
1937,-95.703125
1938,-95.703125
1939,-95.703125
1940,-97.656250
1941,-97.656250
1942,-97.656250
1943,-97.656250
1944,-95.703125
1945,-95.703125
1946,-95.703125
1947,-97.656250
1948,-95.703125
1949,-97.656250
1950,-95.703125
1951,-97.656250
1952,-97.656250
1953,-97.656250
1954,-95.703125
1955,-97.656250
1956,-95.703125
1957,-97.656250
1958,-95.703125
1959,-95.703125
1960,-95.703125
1961,-95.703125
1962,-95.703125
1963,-95.703125
1964,-95.703125
1965,-95.703125
1966,-95.703125
1967,-95.703125
1968,-95.703125
1969,-95.703125
1970,-93.750000
1971,-93.750000
1972,-93.750000
1973,-93.750000
1974,-93.750000
1975,-93.750000
1976,-91.796875
1977,-91.796875
1978,-91.796875
1979,-91.796875
1980,-91.796875
1981,-91.796875
1982,-91.796875
1983,-91.796875
1984,-91.796875
1985,-89.843750
1986,-89.843750
1987,-89.843750
1988,-89.843750
1989,-89.843750
1990,-87.890625
1991,-87.890625
1992,-87.890625
1993,-87.890625
1994,-87.890625
1995,-87.890625
1996,-85.937500
1997,-85.937500
1998,-85.937500
1999,-85.937500
2000,-83.984375
2001,-83.984375
2002,-83.984375
2003,-83.984375
2004,-82.031250
2005,-82.031250
2006,-82.031250
2007,-82.031250
2008,-82.031250
2009,-80.078125
2010,-80.078125
2011,-78.125000
2012,-78.125000
2013,-78.125000
2014,-78.125000
2015,-76.171875
2016,-76.171875
2017,-76.171875
2018,-76.171875
2019,-74.218750
2020,-74.218750
2021,-72.265625
2022,-72.265625
2023,-72.265625
2024,-72.265625
2025,-70.312500
2026,-70.312500
2027,-68.359375
2028,-68.359375
2029,-66.406250
2030,-66.406250
2031,-66.406250
2032,-66.406250
2033,-64.453125
2034,-64.453125
2035,-62.500000
2036,-62.500000
2037,-62.500000
2038,-60.546875
2039,-60.546875
2040,-58.593750
2041,-58.593750
2042,-58.593750
2043,-56.640625
2044,-56.640625
2045,-54.687500
2046,-54.687500
2047,-54.687500
2048,-52.734375
2049,-52.734375
2050,-48.828125
2051,-50.781250
2052,-50.781250
2053,-48.828125
2054,-48.828125
2055,-46.875000
2056,-46.875000
2057,-44.921875
2058,-44.921875
2059,-46.875000
2060,-42.968750
2061,-42.968750
2062,-41.015625
2063,-41.015625
2064,-41.015625
2065,-39.062500
2066,-39.062500
2067,-37.109375
2068,-37.109375
2069,-37.109375
2070,-35.156250
2071,-33.203125
2072,-33.203125
2073,-33.203125
2074,-33.203125
2075,-33.203125
2076,-29.296875
2077,-27.343750
2078,-27.343750
2079,-27.343750
2080,-25.390625
2081,-23.437500
2082,-23.437500
2083,-21.484375
2084,-19.531250
2085,-21.484375
2086,-19.531250
2087,-19.531250
2088,-17.578125
2089,-17.578125
2090,-15.625000
2091,-15.625000
2092,-13.671875
2093,-13.671875
2094,-15.625000
2095,-11.718750
2096,-9.765625
2097,-11.718750
2098,-7.812500
2099,-7.812500
2100,-5.859375
2101,-5.859375
2102,-3.906250
2103,-3.906250
2104,-3.906250
2105,-1.953125
2106,0.000000
2107,0.000000
2108,0.000000
2109,1.953125
2110,3.906250
2111,3.906250
2112,5.859375
2113,5.859375
2114,5.859375
2115,7.812500
2116,7.812500
2117,9.765625
2118,9.765625
2119,11.718750
2120,11.718750
2121,13.671875
2122,13.671875
2123,15.625000
2124,15.625000
2125,17.578125
2126,17.578125
2127,21.484375
2128,19.531250
2129,21.484375
2130,21.484375
2131,21.484375
2132,23.437500
2133,23.437500
2134,25.390625
2135,25.390625
2136,27.343750
2137,27.343750
2138,29.296875
2139,29.296875
2140,31.250000
2141,31.250000
2142,33.203125
2143,33.203125
2144,35.156250
2145,35.156250
2146,35.156250
2147,37.109375
2148,39.062500
2149,39.062500
2150,39.062500
2151,39.062500
2152,41.015625
2153,42.968750
2154,42.968750
2155,42.968750
2156,44.921875
2157,44.921875
2158,46.875000
2159,46.875000
2160,46.875000
2161,48.828125
2162,48.828125
2163,50.781250
2164,50.781250
2165,50.781250
2166,52.734375
2167,52.734375
2168,54.687500
2169,54.687500
2170,54.687500
2171,56.640625
2172,56.640625
2173,58.593750
2174,58.593750
2175,58.593750
2176,60.546875
2177,60.546875
2178,62.500000
2179,62.500000
2180,62.500000
2181,62.500000
2182,64.453125
2183,64.453125
2184,66.406250
2185,66.406250
2186,66.406250
2187,66.406250
2188,68.359375
2189,68.359375
2190,68.359375
2191,68.359375
2192,70.312500
2193,70.312500
2194,72.265625
2195,70.312500
2196,72.265625
2197,72.265625
2198,74.218750
2199,74.218750
2200,74.218750
2201,74.218750
2202,74.218750
2203,76.171875
2204,76.171875
2205,76.171875
2206,76.171875
2207,76.171875
2208,78.125000
2209,76.171875
2210,78.125000
2211,78.125000
2212,78.125000
2213,80.078125
2214,80.078125
2215,80.078125
2216,80.078125
2217,82.031250
2218,82.031250
2219,82.031250
2220,82.031250
2221,82.031250
2222,82.031250
2223,82.031250
2224,82.031250
2225,82.031250
2226,82.031250
2227,82.031250
2228,83.984375
2229,83.984375
2230,83.984375
2231,83.984375
2232,83.984375
2233,83.984375
2234,83.984375
2235,83.984375
2236,83.984375
2237,83.984375
2238,85.937500
2239,83.984375
2240,83.984375
2241,83.984375
2242,83.984375
2243,83.984375
2244,83.984375
2245,83.984375
2246,83.984375
2247,83.984375
2248,83.984375
2249,83.984375
2250,83.984375
2251,83.984375
2252,83.984375
2253,83.984375
2254,83.984375
2255,82.031250
2256,82.031250
2257,83.984375
2258,82.031250
2259,82.031250
2260,82.031250
2261,82.031250
2262,82.031250
2263,82.031250
2264,80.078125
2265,80.078125
2266,80.078125
2267,80.078125
2268,80.078125
2269,80.078125
2270,80.078125
2271,80.078125
2272,78.125000
2273,78.125000
2274,78.125000
2275,78.125000
2276,78.125000
2277,76.171875
2278,76.171875
2279,76.171875
2280,76.171875
2281,76.171875
2282,74.218750
2283,74.218750
2284,74.218750
2285,74.218750
2286,74.218750
2287,72.265625
2288,72.265625
2289,70.312500
2290,72.265625
2291,70.312500
2292,70.312500
2293,70.312500
2294,70.312500
2295,68.359375
2296,68.359375
2297,68.359375
2298,66.406250
2299,66.406250
2300,66.406250
2301,64.453125
2302,62.500000
2303,62.500000
2304,62.500000
2305,62.500000
2306,60.546875
2307,60.546875
2308,58.593750
2309,58.593750
2310,58.593750
2311,56.640625
2312,56.640625
2313,56.640625
2314,54.687500
2315,54.687500
2316,52.734375
2317,52.734375
2318,52.734375
2319,50.781250
2320,48.828125
2321,48.828125
2322,48.828125
2323,46.875000
2324,46.875000
2325,46.875000
2326,44.921875
2327,44.921875
2328,42.968750
2329,42.968750
2330,42.968750
2331,41.015625
2332,41.015625
2333,39.062500
2334,37.109375
2335,37.109375
2336,37.109375
2337,35.156250
2338,35.156250
2339,33.203125
2340,33.203125
2341,31.250000
2342,31.250000
2343,31.250000
2344,29.296875
2345,27.343750
2346,27.343750
2347,25.390625
2348,25.390625
2349,25.390625
2350,23.437500
2351,23.437500
2352,21.484375
2353,21.484375
2354,19.531250
2355,19.531250
2356,17.578125
2357,17.578125
2358,17.578125
2359,15.625000
2360,15.625000
2361,13.671875
2362,11.718750
2363,11.718750
2364,11.718750
2365,9.765625
2366,7.812500
2367,7.812500
2368,7.812500
2369,5.859375
2370,5.859375
2371,3.906250
2372,3.906250
2373,1.953125
2374,1.953125
2375,0.000000
2376,-1.953125
2377,-1.953125
2378,-1.953125
2379,-3.906250
2380,-3.906250
2381,-5.859375
2382,-5.859375
2383,-7.812500
2384,-7.812500
2385,-9.765625
2386,-9.765625
2387,-11.718750
2388,-11.718750
2389,-13.671875
2390,-13.671875
2391,-15.625000
2392,-15.625000
2393,-17.578125
2394,-17.578125
2395,-19.531250
2396,-19.531250
2397,-21.484375
2398,-21.484375
2399,-23.437500
2400,-23.437500
2401,-23.437500
2402,-25.390625
2403,-25.390625
2404,-27.343750
2405,-27.343750
2406,-29.296875
2407,-29.296875
2408,-31.250000
2409,-31.250000
2410,-33.203125
2411,-33.203125
2412,-33.203125
2413,-35.156250
2414,-35.156250
2415,-37.109375
2416,-37.109375
2417,-37.109375
2418,-39.062500
2419,-41.015625
2420,-41.015625
2421,-42.968750
2422,-42.968750
2423,-42.968750
2424,-44.921875
2425,-44.921875
2426,-46.875000
2427,-46.875000
2428,-46.875000
2429,-48.828125
2430,-48.828125
2431,-50.781250
2432,-50.781250
2433,-50.781250
2434,-52.734375
2435,-52.734375
2436,-54.687500
2437,-54.687500
2438,-54.687500
2439,-56.640625
2440,-58.593750
2441,-58.593750
2442,-58.593750
2443,-60.546875
2444,-60.546875
2445,-60.546875
2446,-62.500000
2447,-62.500000
2448,-64.453125
2449,-64.453125
2450,-64.453125
2451,-66.406250
2452,-66.406250
2453,-66.406250
2454,-68.359375
2455,-68.359375
2456,-68.359375
2457,-70.312500
2458,-70.312500
2459,-70.312500
2460,-72.265625
2461,-72.265625
2462,-72.265625
2463,-74.218750
2464,-74.218750
2465,-74.218750
2466,-76.171875
2467,-76.171875
2468,-76.171875
2469,-76.171875
2470,-78.125000
2471,-78.125000
2472,-80.078125
2473,-78.125000
2474,-80.078125
2475,-80.078125
2476,-82.031250
2477,-82.031250
2478,-82.031250
2479,-82.031250
2480,-83.984375
2481,-83.984375
2482,-83.984375
2483,-83.984375
2484,-83.984375
2485,-85.937500
2486,-85.937500
2487,-85.937500
2488,-85.937500
2489,-85.937500
2490,-87.890625
2491,-87.890625
2492,-87.890625
2493,-87.890625
2494,-89.843750
2495,-87.890625
2496,-89.843750
2497,-89.843750
2498,-89.843750
2499,-89.843750
2500,-89.843750
2501,-91.796875
2502,-91.796875
2503,-91.796875
2504,-91.796875
2505,-91.796875
2506,-93.750000
2507,-93.750000
2508,-93.750000
2509,-93.750000
2510,-95.703125
2511,-93.750000
2512,-93.750000
2513,-93.750000
2514,-95.703125
2515,-95.703125
2516,-95.703125
2517,-95.703125
2518,-95.703125
2519,-95.703125
2520,-95.703125
2521,-95.703125
2522,-95.703125
2523,-95.703125
2524,-95.703125
2525,-95.703125
2526,-97.656250
2527,-95.703125
2528,-95.703125
2529,-95.703125
2530,-97.656250
2531,-95.703125
2532,-95.703125
2533,-97.656250
2534,-95.703125
2535,-95.703125
2536,-97.656250
2537,-95.703125
2538,-95.703125
2539,-95.703125
2540,-95.703125
2541,-95.703125
2542,-95.703125
2543,-95.703125
2544,-95.703125
2545,-95.703125
2546,-93.750000
2547,-95.703125
2548,-93.750000
2549,-93.750000
2550,-93.750000
2551,-93.750000
2552,-93.750000
2553,-93.750000
2554,-93.750000
2555,-93.750000
2556,-93.750000
2557,-93.750000
2558,-91.796875
2559,-91.796875
2560,-93.750000
2561,-91.796875
2562,-91.796875
2563,-91.796875
2564,-91.796875
2565,-91.796875
2566,-91.796875
2567,-89.843750
2568,-89.843750
2569,-89.843750
2570,-89.843750
2571,-87.890625
2572,-87.890625
2573,-87.890625
2574,-87.890625
2575,-87.890625
2576,-87.890625
2577,-85.937500
2578,-85.937500
2579,-85.937500
2580,-85.937500
2581,-83.984375
2582,-83.984375
2583,-83.984375
2584,-83.984375
2585,-83.984375
2586,-82.031250
2587,-82.031250
2588,-80.078125
2589,-82.031250
2590,-80.078125
2591,-80.078125
2592,-80.078125
2593,-78.125000
2594,-78.125000
2595,-78.125000
2596,-78.125000
2597,-76.171875
2598,-76.171875
2599,-74.218750
2600,-74.218750
2601,-74.218750
2602,-74.218750
2603,-72.265625
2604,-72.265625
2605,-72.265625
2606,-72.265625
2607,-70.312500
2608,-68.359375
2609,-68.359375
2610,-68.359375
2611,-68.359375
2612,-64.453125
2613,-66.406250
2614,-64.453125
2615,-64.453125
2616,-64.453125
2617,-62.500000
2618,-62.500000
2619,-62.500000
2620,-60.546875
2621,-60.546875
2622,-60.546875
2623,-58.593750
2624,-58.593750
2625,-56.640625
2626,-56.640625
2627,-54.687500
2628,-54.687500
2629,-54.687500
2630,-52.734375
2631,-52.734375
2632,-50.781250
2633,-50.781250
2634,-50.781250
2635,-48.828125
2636,-48.828125
2637,-46.875000
2638,-46.875000
2639,-44.921875
2640,-44.921875
2641,-42.968750
2642,-42.968750
2643,-42.968750
2644,-41.015625
2645,-41.015625
2646,-41.015625
2647,-39.062500
2648,-39.062500
2649,-37.109375
2650,-37.109375
2651,-35.156250
2652,-35.156250
2653,-33.203125
2654,-33.203125
2655,-31.250000
2656,-31.250000
2657,-29.296875
2658,-29.296875
2659,-27.343750
2660,-27.343750
2661,-27.343750
2662,-25.390625
2663,-25.390625
2664,-23.437500
2665,-23.437500
2666,-23.437500
2667,-21.484375
2668,-19.531250
2669,-19.531250
2670,-19.531250
2671,-17.578125
2672,-15.625000
2673,-13.671875
2674,-15.625000
2675,-13.671875
2676,-13.671875
2677,-11.718750
2678,-11.718750
2679,-9.765625
2680,-9.765625
2681,-7.812500
2682,-7.812500
2683,-5.859375
2684,-5.859375
2685,-3.906250
2686,-3.906250
2687,-1.953125
2688,0.000000
2689,0.000000
2690,0.000000
2691,1.953125
2692,1.953125
2693,3.906250
2694,3.906250
2695,5.859375
2696,7.812500
2697,7.812500
2698,7.812500
2699,9.765625
2700,9.765625
2701,11.718750
2702,11.718750
2703,13.671875
2704,13.671875
2705,13.671875
2706,15.625000
2707,19.531250
2708,17.578125
2709,17.578125
2710,19.531250
2711,19.531250
2712,21.484375
2713,21.484375
2714,21.484375
2715,23.437500
2716,25.390625
2717,25.390625
2718,27.343750
2719,27.343750
2720,29.296875
2721,29.296875
2722,29.296875
2723,31.250000
2724,31.250000
2725,33.203125
2726,33.203125
2727,35.156250
2728,35.156250
2729,35.156250
2730,37.109375
2731,37.109375
2732,39.062500
2733,41.015625
2734,41.015625
2735,41.015625
2736,41.015625
2737,42.968750
2738,44.921875
2739,44.921875
2740,44.921875
2741,44.921875
2742,46.875000
2743,48.828125
2744,48.828125
2745,48.828125
2746,50.781250
2747,50.781250
2748,50.781250
2749,52.734375
2750,52.734375
2751,54.687500
2752,54.687500
2753,56.640625
2754,56.640625
2755,56.640625
2756,58.593750
2757,58.593750
2758,58.593750
2759,60.546875
2760,60.546875
2761,60.546875
2762,62.500000
2763,62.500000
2764,62.500000
2765,64.453125
2766,64.453125
2767,64.453125
2768,64.453125
2769,66.406250
2770,66.406250
2771,68.359375
2772,68.359375
2773,68.359375
2774,70.312500
2775,70.312500
2776,70.312500
2777,70.312500
2778,72.265625
2779,72.265625
2780,72.265625
2781,72.265625
2782,72.265625
2783,74.218750
2784,74.218750
2785,74.218750
2786,74.218750
2787,76.171875
2788,76.171875
2789,76.171875
2790,78.125000
2791,78.125000
2792,78.125000
2793,78.125000
2794,78.125000
2795,80.078125
2796,80.078125
2797,80.078125
2798,80.078125
2799,80.078125
2800,80.078125
2801,82.031250
2802,80.078125
2803,82.031250
2804,82.031250
2805,82.031250
2806,82.031250
2807,82.031250
2808,82.031250
2809,82.031250
2810,82.031250
2811,83.984375
2812,82.031250
2813,83.984375
2814,83.984375
2815,83.984375
2816,83.984375
2817,83.984375
2818,83.984375
2819,83.984375
2820,83.984375
2821,83.984375
2822,83.984375
2823,83.984375
2824,83.984375
2825,83.984375
2826,83.984375
2827,83.984375
2828,83.984375
2829,83.984375
2830,83.984375
2831,83.984375
2832,83.984375
2833,83.984375
2834,83.984375
2835,82.031250
2836,82.031250
2837,82.031250
2838,82.031250
2839,82.031250
2840,82.031250
2841,82.031250
2842,82.031250
2843,82.031250
2844,82.031250
2845,82.031250
2846,80.078125
2847,80.078125
2848,80.078125
2849,78.125000
2850,80.078125
2851,80.078125
2852,78.125000
2853,80.078125
2854,78.125000
2855,78.125000
2856,78.125000
2857,78.125000
2858,78.125000
2859,78.125000
2860,76.171875
2861,76.171875
2862,76.171875
2863,76.171875
2864,74.218750
2865,74.218750
2866,74.218750
2867,74.218750
2868,74.218750
2869,72.265625
2870,72.265625
2871,72.265625
2872,70.312500
2873,66.406250
2874,70.312500
2875,70.312500
2876,70.312500
2877,68.359375
2878,68.359375
2879,66.406250
2880,66.406250
2881,66.406250
2882,66.406250
2883,64.453125
2884,64.453125
2885,64.453125
2886,62.500000
2887,60.546875
2888,62.500000
2889,60.546875
2890,60.546875
2891,58.593750
2892,58.593750
2893,56.640625
2894,56.640625
2895,56.640625
2896,54.687500
2897,54.687500
2898,52.734375
2899,54.687500
2900,52.734375
2901,48.828125
2902,50.781250
2903,50.781250
2904,52.734375
2905,48.828125
2906,46.875000
2907,46.875000
2908,46.875000
2909,44.921875
2910,44.921875
2911,42.968750
2912,42.968750
2913,41.015625
2914,41.015625
2915,39.062500
2916,39.062500
2917,41.015625
2918,37.109375
2919,37.109375
2920,35.156250
2921,35.156250
2922,35.156250
2923,33.203125
2924,31.250000
2925,33.203125
2926,31.250000
2927,29.296875
2928,29.296875
2929,27.343750
2930,25.390625
2931,25.390625
2932,25.390625
2933,23.437500
2934,23.437500
2935,21.484375
2936,21.484375
2937,19.531250
2938,19.531250
2939,19.531250
2940,17.578125
2941,17.578125
2942,13.671875
2943,13.671875
2944,13.671875
2945,13.671875
2946,11.718750
2947,11.718750
2948,9.765625
2949,9.765625
2950,7.812500
2951,7.812500
2952,5.859375
2953,5.859375
2954,3.906250
2955,3.906250
2956,1.953125
2957,1.953125
2958,0.000000
2959,0.000000
2960,-1.953125
2961,-1.953125
2962,-3.906250
2963,-3.906250
2964,-5.859375
2965,-7.812500
2966,-7.812500
2967,-7.812500
2968,-9.765625
2969,-9.765625
2970,-11.718750
2971,-11.718750
2972,-11.718750
2973,-13.671875
2974,-13.671875
2975,-15.625000
2976,-17.578125
2977,-17.578125
2978,-17.578125
2979,-19.531250
2980,-21.484375
2981,-21.484375
2982,-21.484375
2983,-23.437500
2984,-23.437500
2985,-25.390625
2986,-25.390625
2987,-27.343750
2988,-27.343750
2989,-29.296875
2990,-29.296875
2991,-29.296875
2992,-31.250000
2993,-31.250000
2994,-33.203125
2995,-33.203125
2996,-35.156250
2997,-35.156250
2998,-37.109375
2999,-37.109375
3000,-37.109375
3001,-39.062500
3002,-39.062500
3003,-41.015625
3004,-41.015625
3005,-42.968750
3006,-42.968750
3007,-42.968750
3008,-44.921875
3009,-44.921875
3010,-46.875000
3011,-46.875000
3012,-48.828125
3013,-48.828125
3014,-48.828125
3015,-50.781250
3016,-50.781250
3017,-52.734375
3018,-52.734375
3019,-54.687500
3020,-54.687500
3021,-54.687500
3022,-54.687500
3023,-56.640625
3024,-58.593750
3025,-58.593750
3026,-58.593750
3027,-58.593750
3028,-60.546875
3029,-60.546875
3030,-62.500000
3031,-62.500000
3032,-64.453125
3033,-64.453125
3034,-64.453125
3035,-64.453125
3036,-66.406250
3037,-68.359375
3038,-68.359375
3039,-68.359375
3040,-68.359375
3041,-70.312500
3042,-70.312500
3043,-70.312500
3044,-72.265625
3045,-72.265625
3046,-74.218750
3047,-74.218750
3048,-74.218750
3049,-72.265625
3050,-76.171875
3051,-76.171875
3052,-76.171875
3053,-76.171875
3054,-78.125000
3055,-78.125000
3056,-78.125000
3057,-80.078125
3058,-80.078125
3059,-80.078125
3060,-82.031250
3061,-82.031250
3062,-82.031250
3063,-82.031250
3064,-83.984375
3065,-83.984375
3066,-83.984375
3067,-83.984375
3068,-85.937500
3069,-85.937500
3070,-85.937500
3071,-85.937500
3072,-85.937500
3073,-87.890625
3074,-87.890625
3075,-87.890625
3076,-87.890625
3077,-87.890625
3078,-89.843750
3079,-89.843750
3080,-89.843750
3081,-89.843750
3082,-89.843750
3083,-91.796875
3084,-89.843750
3085,-91.796875
3086,-91.796875
3087,-91.796875
3088,-91.796875
3089,-91.796875
3090,-91.796875
3091,-93.750000
3092,-91.796875
3093,-93.750000
3094,-93.750000
3095,-93.750000
3096,-93.750000
3097,-95.703125
3098,-93.750000
3099,-93.750000
3100,-95.703125
3101,-95.703125
3102,-95.703125
3103,-95.703125
3104,-95.703125
3105,-95.703125
3106,-95.703125
3107,-95.703125
3108,-95.703125
3109,-93.750000
3110,-95.703125
3111,-95.703125
3112,-95.703125
3113,-95.703125
3114,-95.703125
3115,-95.703125
3116,-95.703125
3117,-97.656250
3118,-95.703125
3119,-95.703125
3120,-95.703125
3121,-95.703125
3122,-95.703125
3123,-95.703125
3124,-95.703125
3125,-95.703125
3126,-95.703125
3127,-95.703125
3128,-93.750000
3129,-95.703125
3130,-93.750000
3131,-95.703125
3132,-93.750000
3133,-93.750000
3134,-93.750000
3135,-93.750000
3136,-93.750000
3137,-93.750000
3138,-93.750000
3139,-93.750000
3140,-93.750000
3141,-91.796875
3142,-91.796875
3143,-91.796875
3144,-91.796875
3145,-89.843750
3146,-91.796875
3147,-89.843750
3148,-89.843750
3149,-89.843750
3150,-89.843750
3151,-89.843750
3152,-89.843750
3153,-87.890625
3154,-89.843750
3155,-87.890625
3156,-87.890625
3157,-87.890625
3158,-85.937500
3159,-85.937500
3160,-85.937500
3161,-85.937500
3162,-85.937500
3163,-83.984375
3164,-85.937500
3165,-83.984375
3166,-83.984375
3167,-83.984375
3168,-82.031250
3169,-82.031250
3170,-82.031250
3171,-80.078125
3172,-80.078125
3173,-80.078125
3174,-80.078125
3175,-78.125000
3176,-78.125000
3177,-78.125000
3178,-78.125000
3179,-76.171875
3180,-76.171875
3181,-76.171875
3182,-74.218750
3183,-74.218750
3184,-74.218750
3185,-72.265625
3186,-72.265625
3187,-72.265625
3188,-72.265625
3189,-70.312500
3190,-70.312500
3191,-68.359375
3192,-68.359375
3193,-68.359375
3194,-68.359375
3195,-66.406250
3196,-66.406250
3197,-64.453125
3198,-64.453125
3199,-64.453125
3200,-62.500000
3201,-62.500000
3202,-60.546875
3203,-60.546875
3204,-60.546875
3205,-58.593750
3206,-58.593750
3207,-56.640625
3208,-56.640625
3209,-56.640625
3210,-54.687500
3211,-54.687500
3212,-54.687500
3213,-52.734375
3214,-52.734375
3215,-50.781250
3216,-50.781250
3217,-50.781250
3218,-48.828125
3219,-48.828125
3220,-46.875000
3221,-46.875000
3222,-46.875000
3223,-44.921875
3224,-44.921875
3225,-42.968750
3226,-42.968750
3227,-42.968750
3228,-41.015625
3229,-41.015625
3230,-39.062500
3231,-39.062500
3232,-39.062500
3233,-37.109375
3234,-35.156250
3235,-35.156250
3236,-33.203125
3237,-33.203125
3238,-33.203125
3239,-31.250000
3240,-31.250000
3241,-29.296875
3242,-29.296875
3243,-27.343750
3244,-27.343750
3245,-23.437500
3246,-25.390625
3247,-25.390625
3248,-23.437500
3249,-21.484375
3250,-21.484375
3251,-19.531250
3252,-19.531250
3253,-17.578125
3254,-17.578125
3255,-17.578125
3256,-15.625000
3257,-13.671875
3258,-13.671875
3259,-13.671875
3260,-11.718750
3261,-9.765625
3262,-9.765625
3263,-9.765625
3264,-7.812500
3265,-7.812500
3266,-5.859375
3267,-5.859375
3268,-3.906250
3269,-3.906250
3270,-1.953125
3271,-1.953125
3272,0.000000
3273,0.000000
3274,0.000000
3275,1.953125
3276,3.906250
3277,3.906250
3278,5.859375
3279,7.812500
3280,7.812500
3281,7.812500
3282,7.812500
3283,9.765625
3284,11.718750
3285,11.718750
3286,11.718750
3287,13.671875
3288,13.671875
3289,15.625000
3290,15.625000
3291,17.578125
3292,17.578125
3293,19.531250
3294,19.531250
3295,21.484375
3296,21.484375
3297,21.484375
3298,23.437500
3299,23.437500
3300,25.390625
3301,25.390625
3302,27.343750
3303,27.343750
3304,29.296875
3305,29.296875
3306,29.296875
3307,31.250000
3308,33.203125
3309,33.203125
3310,33.203125
3311,35.156250
3312,37.109375
3313,37.109375
3314,37.109375
3315,37.109375
3316,39.062500
3317,41.015625
3318,41.015625
3319,42.968750
3320,42.968750
3321,42.968750
3322,44.921875
3323,44.921875
3324,46.875000
3325,46.875000
3326,46.875000
3327,48.828125
3328,48.828125
3329,50.781250
3330,50.781250
3331,50.781250
3332,52.734375
3333,52.734375
3334,52.734375
3335,54.687500
3336,54.687500
3337,56.640625
3338,56.640625
3339,58.593750
3340,58.593750
3341,58.593750
3342,60.546875
3343,60.546875
3344,62.500000
3345,62.500000
3346,62.500000
3347,62.500000
3348,64.453125
3349,64.453125
3350,64.453125
3351,64.453125
3352,66.406250
3353,66.406250
3354,68.359375
3355,68.359375
3356,68.359375
3357,68.359375
3358,70.312500
3359,70.312500
3360,70.312500
3361,72.265625
3362,72.265625
3363,72.265625
3364,72.265625
3365,72.265625
3366,74.218750
3367,74.218750
3368,74.218750
3369,76.171875
3370,76.171875
3371,76.171875
3372,76.171875
3373,76.171875
3374,78.125000
3375,78.125000
3376,78.125000
3377,78.125000
3378,80.078125
3379,80.078125
3380,78.125000
3381,80.078125
3382,80.078125
3383,80.078125
3384,80.078125
3385,80.078125
3386,82.031250
3387,82.031250
3388,82.031250
3389,82.031250
3390,82.031250
3391,83.984375
3392,82.031250
3393,83.984375
3394,83.984375
3395,83.984375
3396,83.984375
3397,83.984375
3398,83.984375
3399,83.984375
3400,83.984375
3401,83.984375
3402,83.984375
3403,83.984375
3404,83.984375
3405,83.984375
3406,83.984375
3407,83.984375
3408,83.984375
3409,83.984375
3410,83.984375
3411,83.984375
3412,83.984375
3413,83.984375
3414,83.984375
3415,83.984375
3416,83.984375
3417,83.984375
3418,83.984375
3419,83.984375
3420,82.031250
3421,83.984375
3422,83.984375
3423,82.031250
3424,82.031250
3425,82.031250
3426,82.031250
3427,82.031250
3428,80.078125
3429,82.031250
3430,82.031250
3431,82.031250
3432,80.078125
3433,80.078125
3434,80.078125
3435,80.078125
3436,80.078125
3437,78.125000
3438,78.125000
3439,78.125000
3440,78.125000
3441,78.125000
3442,78.125000
3443,78.125000
3444,76.171875
3445,76.171875
3446,76.171875
3447,74.218750
3448,74.218750
3449,74.218750
3450,74.218750
3451,74.218750
3452,74.218750
3453,72.265625
3454,72.265625
3455,72.265625
3456,72.265625
3457,70.312500
3458,70.312500
3459,68.359375
3460,68.359375
3461,68.359375
3462,66.406250
3463,66.406250
3464,66.406250
3465,66.406250
3466,64.453125
3467,64.453125
3468,64.453125
3469,62.500000
3470,62.500000
3471,62.500000
3472,60.546875
3473,60.546875
3474,60.546875
3475,60.546875
3476,58.593750
3477,56.640625
3478,56.640625
3479,56.640625
3480,54.687500
3481,54.687500
3482,52.734375
3483,52.734375
3484,52.734375
3485,50.781250
3486,50.781250
3487,50.781250
3488,48.828125
3489,48.828125
3490,46.875000
3491,44.921875
3492,46.875000
3493,44.921875
3494,42.968750
3495,42.968750
3496,41.015625
3497,41.015625
3498,41.015625
3499,39.062500
3500,39.062500
3501,37.109375
3502,37.109375
3503,37.109375
3504,35.156250
3505,35.156250
3506,33.203125
3507,33.203125
3508,31.250000
3509,31.250000
3510,29.296875
3511,29.296875
3512,27.343750
3513,27.343750
3514,27.343750
3515,25.390625
3516,23.437500
3517,23.437500
3518,21.484375
3519,21.484375
3520,21.484375
3521,19.531250
3522,19.531250
3523,17.578125
3524,17.578125
3525,15.625000
3526,15.625000
3527,13.671875
3528,13.671875
3529,11.718750
3530,11.718750
3531,9.765625
3532,9.765625
3533,7.812500
3534,7.812500
3535,5.859375
3536,5.859375
3537,3.906250
3538,3.906250
3539,1.953125
3540,1.953125
3541,0.000000
3542,0.000000
3543,-1.953125
3544,-1.953125
3545,-3.906250
3546,-3.906250
3547,-5.859375
3548,-5.859375
3549,-7.812500
3550,-7.812500
3551,-9.765625
3552,-9.765625
3553,-11.718750
3554,-11.718750
3555,-13.671875
3556,-13.671875
3557,-13.671875
3558,-15.625000
3559,-15.625000
3560,-17.578125
3561,-19.531250
3562,-19.531250
3563,-19.531250
3564,-19.531250
3565,-21.484375
3566,-23.437500
3567,-23.437500
3568,-25.390625
3569,-25.390625
3570,-25.390625
3571,-27.343750
3572,-29.296875
3573,-29.296875
3574,-29.296875
3575,-31.250000
3576,-31.250000
3577,-33.203125
3578,-33.203125
3579,-35.156250
3580,-35.156250
3581,-37.109375
3582,-37.109375
3583,-37.109375
3584,-39.062500
3585,-39.062500
3586,-41.015625
3587,-42.968750
3588,-42.968750
3589,-42.968750
3590,-42.968750
3591,-44.921875
3592,-44.921875
3593,-46.875000
3594,-46.875000
3595,-46.875000
3596,-46.875000
3597,-50.781250
3598,-50.781250
3599,-50.781250
3600,-52.734375
3601,-52.734375
3602,-52.734375
3603,-54.687500
3604,-52.734375
3605,-56.640625
3606,-56.640625
3607,-56.640625
3608,-58.593750
3609,-58.593750
3610,-60.546875
3611,-60.546875
3612,-60.546875
3613,-62.500000
3614,-62.500000
3615,-64.453125
3616,-64.453125
3617,-66.406250
3618,-66.406250
3619,-66.406250
3620,-66.406250
3621,-68.359375
3622,-70.312500
3623,-70.312500
3624,-70.312500
3625,-70.312500
3626,-72.265625
3627,-72.265625
3628,-72.265625
3629,-74.218750
3630,-74.218750
3631,-74.218750
3632,-74.218750
3633,-76.171875
3634,-76.171875
3635,-78.125000
3636,-78.125000
3637,-78.125000
3638,-78.125000
3639,-80.078125
3640,-80.078125
3641,-80.078125
3642,-80.078125
3643,-82.031250
3644,-82.031250
3645,-82.031250
3646,-83.984375
3647,-83.984375
3648,-83.984375
3649,-83.984375
3650,-83.984375
3651,-83.984375
3652,-85.937500
3653,-85.937500
3654,-87.890625
3655,-87.890625
3656,-87.890625
3657,-87.890625
3658,-89.843750
3659,-87.890625
3660,-89.843750
3661,-89.843750
3662,-89.843750
3663,-89.843750
3664,-91.796875
3665,-91.796875
3666,-91.796875
3667,-91.796875
3668,-91.796875
3669,-91.796875
3670,-93.750000
3671,-93.750000
3672,-93.750000
3673,-93.750000
3674,-93.750000
3675,-93.750000
3676,-93.750000
3677,-91.796875
3678,-95.703125
3679,-95.703125
3680,-93.750000
3681,-95.703125
3682,-95.703125
3683,-95.703125
3684,-95.703125
3685,-95.703125
3686,-95.703125
3687,-95.703125
3688,-95.703125
3689,-97.656250
3690,-95.703125
3691,-95.703125
3692,-95.703125
3693,-95.703125
3694,-97.656250
3695,-95.703125
3696,-95.703125
3697,-97.656250
3698,-97.656250
3699,-95.703125
3700,-97.656250
3701,-95.703125
3702,-95.703125
3703,-97.656250
3704,-95.703125
3705,-95.703125
3706,-95.703125
3707,-97.656250
3708,-95.703125
3709,-95.703125
3710,-95.703125
3711,-95.703125
3712,-95.703125
3713,-95.703125
3714,-95.703125
3715,-93.750000
3716,-93.750000
3717,-93.750000
3718,-93.750000
3719,-93.750000
3720,-93.750000
3721,-93.750000
3722,-93.750000
3723,-93.750000
3724,-93.750000
3725,-93.750000
3726,-93.750000
3727,-91.796875
3728,-93.750000
3729,-91.796875
3730,-91.796875
3731,-91.796875
3732,-89.843750
3733,-89.843750
3734,-89.843750
3735,-89.843750
3736,-89.843750
3737,-89.843750
3738,-89.843750
3739,-89.843750
3740,-87.890625
3741,-87.890625
3742,-85.937500
3743,-85.937500
3744,-87.890625
3745,-85.937500
3746,-85.937500
3747,-85.937500
3748,-83.984375
3749,-83.984375
3750,-83.984375
3751,-83.984375
3752,-82.031250
3753,-82.031250
3754,-82.031250
3755,-82.031250
3756,-80.078125
3757,-80.078125
3758,-80.078125
3759,-78.125000
3760,-78.125000
3761,-78.125000
3762,-78.125000
3763,-78.125000
3764,-76.171875
3765,-76.171875
3766,-76.171875
3767,-74.218750
3768,-74.218750
3769,-74.218750
3770,-72.265625
3771,-72.265625
3772,-70.312500
3773,-70.312500
3774,-70.312500
3775,-70.312500
3776,-68.359375
3777,-66.406250
3778,-66.406250
3779,-66.406250
3780,-66.406250
3781,-64.453125
3782,-64.453125
3783,-62.500000
3784,-62.500000
3785,-62.500000
3786,-60.546875
3787,-60.546875
3788,-60.546875
3789,-58.593750
3790,-58.593750
3791,-56.640625
3792,-56.640625
3793,-56.640625
3794,-54.687500
3795,-54.687500
3796,-52.734375
3797,-52.734375
3798,-52.734375
3799,-52.734375
3800,-50.781250
3801,-50.781250
3802,-48.828125
3803,-48.828125
3804,-46.875000
3805,-46.875000
3806,-46.875000
3807,-44.921875
3808,-42.968750
3809,-42.968750
3810,-42.968750
3811,-41.015625
3812,-41.015625
3813,-39.062500
3814,-39.062500
3815,-37.109375
3816,-37.109375
3817,-35.156250
3818,-35.156250
3819,-35.156250
3820,-33.203125
3821,-33.203125
3822,-31.250000
3823,-31.250000
3824,-31.250000
3825,-29.296875
3826,-27.343750
3827,-27.343750
3828,-27.343750
3829,-25.390625
3830,-25.390625
3831,-23.437500
3832,-23.437500
3833,-21.484375
3834,-19.531250
3835,-19.531250
3836,-17.578125
3837,-17.578125
3838,-17.578125
3839,-15.625000
3840,-13.671875
3841,-11.718750
3842,-11.718750
3843,-11.718750
3844,-9.765625
3845,-9.765625
3846,-7.812500
3847,-5.859375
3848,-7.812500
3849,-5.859375
3850,-5.859375
3851,-3.906250
3852,-3.906250
3853,-1.953125
3854,0.000000
3855,0.000000
3856,1.953125
3857,1.953125
3858,1.953125
3859,3.906250
3860,5.859375
3861,5.859375
3862,5.859375
3863,7.812500
3864,7.812500
3865,7.812500
3866,9.765625
3867,11.718750
3868,11.718750
3869,13.671875
3870,13.671875
3871,13.671875
3872,15.625000
3873,17.578125
3874,17.578125
3875,17.578125
3876,19.531250
3877,19.531250
3878,21.484375
3879,21.484375
3880,23.437500
3881,23.437500
3882,25.390625
3883,25.390625
3884,27.343750
3885,27.343750
3886,29.296875
3887,29.296875
3888,31.250000
3889,31.250000
3890,31.250000
3891,33.203125
3892,33.203125
3893,35.156250
3894,35.156250
3895,37.109375
3896,37.109375
3897,39.062500
3898,39.062500
3899,39.062500
3900,41.015625
3901,41.015625
3902,42.968750
3903,42.968750
3904,44.921875
3905,44.921875
3906,46.875000
3907,46.875000
3908,46.875000
3909,48.828125
3910,48.828125
3911,50.781250
3912,50.781250
3913,50.781250
3914,52.734375
3915,52.734375
3916,54.687500
3917,54.687500
3918,56.640625
3919,56.640625
3920,58.593750
3921,56.640625
3922,58.593750
3923,60.546875
3924,60.546875
3925,60.546875
3926,60.546875
3927,60.546875
3928,62.500000
3929,62.500000
3930,62.500000
3931,64.453125
3932,64.453125
3933,66.406250
3934,66.406250
3935,66.406250
3936,66.406250
3937,68.359375
3938,68.359375
3939,68.359375
3940,70.312500
3941,70.312500
3942,70.312500
3943,70.312500
3944,72.265625
3945,72.265625
3946,72.265625
3947,74.218750
3948,74.218750
3949,74.218750
3950,76.171875
3951,76.171875
3952,76.171875
3953,76.171875
3954,76.171875
3955,78.125000
3956,78.125000
3957,78.125000
3958,78.125000
3959,78.125000
3960,78.125000
3961,80.078125
3962,80.078125
3963,80.078125
3964,80.078125
3965,80.078125
3966,82.031250
3967,82.031250
3968,82.031250
3969,82.031250
3970,82.031250
3971,82.031250
3972,82.031250
3973,83.984375
3974,83.984375
3975,83.984375
3976,83.984375
3977,83.984375
3978,83.984375
3979,83.984375
3980,83.984375
3981,83.984375
3982,85.937500
3983,85.937500
3984,83.984375
3985,83.984375
3986,83.984375
3987,83.984375
3988,83.984375
3989,85.937500
3990,85.937500
3991,83.984375
3992,85.937500
3993,83.984375
3994,83.984375
3995,83.984375
3996,83.984375
3997,83.984375
3998,83.984375
3999,83.984375
4000,83.984375
4001,83.984375
4002,83.984375
4003,83.984375
4004,83.984375
4005,83.984375
4006,82.031250
4007,83.984375
4008,82.031250
4009,82.031250
4010,82.031250
4011,82.031250
4012,82.031250
4013,82.031250
4014,80.078125
4015,80.078125
4016,80.078125
4017,80.078125
4018,80.078125
4019,80.078125
4020,80.078125
4021,80.078125
4022,78.125000
4023,78.125000
4024,78.125000
4025,78.125000
4026,78.125000
4027,78.125000
4028,76.171875
4029,76.171875
4030,76.171875
4031,74.218750
4032,74.218750
4033,74.218750
4034,74.218750
4035,72.265625
4036,72.265625
4037,72.265625
4038,72.265625
4039,72.265625
4040,70.312500
4041,70.312500
4042,70.312500
4043,68.359375
4044,68.359375
4045,68.359375
4046,66.406250
4047,66.406250
4048,66.406250
4049,64.453125
4050,64.453125
4051,64.453125
4052,62.500000
4053,62.500000
4054,62.500000
4055,60.546875
4056,60.546875
4057,60.546875
4058,58.593750
4059,58.593750
4060,56.640625
4061,56.640625
4062,56.640625
4063,56.640625
4064,54.687500
4065,54.687500
4066,52.734375
4067,50.781250
4068,50.781250
4069,50.781250
4070,50.781250
4071,48.828125
4072,46.875000
4073,46.875000
4074,46.875000
4075,46.875000
4076,44.921875
4077,44.921875
4078,42.968750
4079,42.968750
4080,41.015625
4081,41.015625
4082,39.062500
4083,39.062500
4084,37.109375
4085,37.109375
4086,37.109375
4087,35.156250
4088,35.156250
4089,33.203125
4090,33.203125
4091,31.250000
4092,31.250000
4093,29.296875
4094,29.296875
4095,29.296875
4096,27.343750
4097,25.390625
4098,25.390625
4099,23.437500
4100,23.437500
4101,21.484375
4102,21.484375
4103,19.531250
4104,19.531250
4105,19.531250
4106,17.578125
4107,15.625000
4108,15.625000
4109,15.625000
4110,13.671875
4111,11.718750
4112,11.718750
4113,9.765625
4114,9.765625
4115,9.765625
4116,7.812500
4117,7.812500
4118,5.859375
4119,5.859375
4120,3.906250
4121,3.906250
4122,1.953125
4123,1.953125
4124,0.000000
4125,0.000000
4126,-1.953125
4127,-1.953125
4128,-3.906250
4129,-3.906250
4130,-5.859375
4131,-7.812500
4132,-7.812500
4133,-7.812500
4134,-9.765625
4135,-11.718750
4136,-11.718750
4137,-13.671875
4138,-13.671875
4139,-13.671875
4140,-15.625000
4141,-17.578125
4142,-17.578125
4143,-17.578125
4144,-19.531250
4145,-19.531250
4146,-21.484375
4147,-21.484375
4148,-23.437500
4149,-23.437500
4150,-23.437500
4151,-25.390625
4152,-27.343750
4153,-27.343750
4154,-27.343750
4155,-27.343750
4156,-29.296875
4157,-31.250000
4158,-31.250000
4159,-31.250000
4160,-33.203125
4161,-33.203125
4162,-35.156250
4163,-37.109375
4164,-37.109375
4165,-37.109375
4166,-39.062500
4167,-39.062500
4168,-39.062500
4169,-41.015625
4170,-41.015625
4171,-42.968750
4172,-42.968750
4173,-44.921875
4174,-44.921875
4175,-44.921875
4176,-46.875000
4177,-48.828125
4178,-48.828125
4179,-48.828125
4180,-50.781250
4181,-50.781250
4182,-50.781250
4183,-52.734375
4184,-54.687500
4185,-54.687500
4186,-54.687500
4187,-54.687500
4188,-56.640625
4189,-56.640625
4190,-58.593750
4191,-58.593750
4192,-58.593750
4193,-60.546875
4194,-62.500000
4195,-62.500000
4196,-64.453125
4197,-64.453125
4198,-64.453125
4199,-64.453125
4200,-64.453125
4201,-66.406250
4202,-66.406250
4203,-68.359375
4204,-68.359375
4205,-70.312500
4206,-70.312500
4207,-70.312500
4208,-72.265625
4209,-72.265625
4210,-74.218750
4211,-74.218750
4212,-74.218750
4213,-74.218750
4214,-76.171875
4215,-76.171875
4216,-76.171875
4217,-76.171875
4218,-78.125000
4219,-78.125000
4220,-80.078125
4221,-80.078125
4222,-80.078125
4223,-80.078125
4224,-82.031250
4225,-82.031250
4226,-82.031250
4227,-82.031250
4228,-82.031250
4229,-83.984375
4230,-83.984375
4231,-83.984375
4232,-83.984375
4233,-85.937500
4234,-85.937500
4235,-85.937500
4236,-85.937500
4237,-87.890625
4238,-87.890625
4239,-87.890625
4240,-87.890625
4241,-87.890625
4242,-89.843750
4243,-89.843750
4244,-89.843750
4245,-89.843750
4246,-89.843750
4247,-91.796875
4248,-91.796875
4249,-91.796875
4250,-91.796875
4251,-91.796875
4252,-91.796875
4253,-91.796875
4254,-93.750000
4255,-93.750000
4256,-93.750000
4257,-93.750000
4258,-95.703125
4259,-93.750000
4260,-93.750000
4261,-93.750000
4262,-95.703125
4263,-95.703125
4264,-95.703125
4265,-95.703125
4266,-95.703125
4267,-95.703125
4268,-95.703125
4269,-95.703125
4270,-97.656250
4271,-97.656250
4272,-97.656250
4273,-95.703125
4274,-97.656250
4275,-97.656250
4276,-97.656250
4277,-97.656250
4278,-95.703125
4279,-97.656250
4280,-97.656250
4281,-97.656250
4282,-95.703125
4283,-95.703125
4284,-97.656250
4285,-95.703125
4286,-95.703125
4287,-95.703125
4288,-95.703125
4289,-95.703125
4290,-95.703125
4291,-95.703125
4292,-95.703125
4293,-95.703125
4294,-95.703125
4295,-95.703125
4296,-95.703125
4297,-93.750000
4298,-93.750000
4299,-93.750000
4300,-95.703125
4301,-95.703125
4302,-93.750000
4303,-93.750000
4304,-93.750000
4305,-93.750000
4306,-93.750000
4307,-93.750000
4308,-93.750000
4309,-93.750000
4310,-91.796875
4311,-91.796875
4312,-91.796875
4313,-91.796875
4314,-91.796875
4315,-89.843750
4316,-89.843750
4317,-89.843750
4318,-89.843750
4319,-89.843750
4320,-89.843750
4321,-89.843750
4322,-87.890625
4323,-87.890625
4324,-87.890625
4325,-87.890625
4326,-87.890625
4327,-85.937500
4328,-85.937500
4329,-85.937500
4330,-85.937500
4331,-83.984375
4332,-83.984375
4333,-83.984375
4334,-83.984375
4335,-82.031250
4336,-82.031250
4337,-82.031250
4338,-80.078125
4339,-80.078125
4340,-80.078125
4341,-80.078125
4342,-78.125000
4343,-78.125000
4344,-78.125000
4345,-76.171875
4346,-76.171875
4347,-76.171875
4348,-76.171875
4349,-74.218750
4350,-74.218750
4351,-74.218750
4352,-72.265625
4353,-72.265625
4354,-70.312500
4355,-70.312500
4356,-70.312500
4357,-70.312500
4358,-68.359375
4359,-68.359375
4360,-66.406250
4361,-66.406250
4362,-66.406250
4363,-64.453125
4364,-64.453125
4365,-64.453125
4366,-62.500000
4367,-62.500000
4368,-62.500000
4369,-60.546875
4370,-58.593750
4371,-60.546875
4372,-58.593750
4373,-58.593750
4374,-56.640625
4375,-56.640625
4376,-54.687500
4377,-54.687500
4378,-54.687500
4379,-52.734375
4380,-52.734375
4381,-50.781250
4382,-50.781250
4383,-50.781250
4384,-48.828125
4385,-48.828125
4386,-44.921875
4387,-46.875000
4388,-46.875000
4389,-44.921875
4390,-42.968750
4391,-42.968750
4392,-42.968750
4393,-41.015625
4394,-41.015625
4395,-39.062500
4396,-39.062500
4397,-39.062500
4398,-37.109375
4399,-35.156250
4400,-35.156250
4401,-35.156250
4402,-33.203125
4403,-33.203125
4404,-31.250000
4405,-31.250000
4406,-29.296875
4407,-29.296875
4408,-27.343750
4409,-27.343750
4410,-27.343750
4411,-25.390625
4412,-23.437500
4413,-23.437500
4414,-23.437500
4415,-21.484375
4416,-21.484375
4417,-19.531250
4418,-19.531250
4419,-17.578125
4420,-17.578125
4421,-15.625000
4422,-15.625000
4423,-13.671875
4424,-13.671875
4425,-11.718750
4426,-11.718750
4427,-9.765625
4428,-9.765625
4429,-7.812500
4430,-7.812500
4431,-5.859375
4432,-5.859375
4433,-3.906250
4434,-3.906250
4435,-1.953125
4436,-1.953125
4437,0.000000
4438,0.000000
4439,1.953125
4440,1.953125
4441,3.906250
4442,3.906250
4443,5.859375
4444,3.906250
4445,7.812500
4446,7.812500
4447,7.812500
4448,9.765625
4449,9.765625
4450,11.718750
4451,13.671875
4452,13.671875
4453,13.671875
4454,15.625000
4455,17.578125
4456,17.578125
4457,17.578125
4458,19.531250
4459,19.531250
4460,21.484375
4461,21.484375
4462,23.437500
4463,23.437500
4464,25.390625
4465,25.390625
4466,27.343750
4467,27.343750
4468,27.343750
4469,29.296875
4470,29.296875
4471,31.250000
4472,33.203125
4473,33.203125
4474,33.203125
4475,35.156250
4476,35.156250
4477,37.109375
4478,37.109375
4479,37.109375
4480,39.062500
4481,39.062500
4482,41.015625
4483,41.015625
4484,42.968750
4485,44.921875
4486,42.968750
4487,44.921875
4488,44.921875
4489,46.875000
4490,48.828125
4491,48.828125
4492,48.828125
4493,50.781250
4494,50.781250
4495,52.734375
4496,52.734375
4497,52.734375
4498,54.687500
4499,54.687500
4500,54.687500
4501,56.640625
4502,56.640625
4503,56.640625
4504,58.593750
4505,58.593750
4506,58.593750
4507,60.546875
4508,62.500000
4509,60.546875
4510,62.500000
4511,62.500000
4512,62.500000
4513,64.453125
4514,64.453125
4515,64.453125
4516,66.406250
4517,66.406250
4518,68.359375
4519,68.359375
4520,68.359375
4521,68.359375
4522,70.312500
4523,70.312500
4524,70.312500
4525,70.312500
4526,72.265625
4527,72.265625
4528,72.265625
4529,74.218750
4530,74.218750
4531,74.218750
4532,76.171875
4533,76.171875
4534,74.218750
4535,76.171875
4536,76.171875
4537,78.125000
4538,78.125000
4539,78.125000
4540,78.125000
4541,78.125000
4542,78.125000
4543,80.078125
4544,80.078125
4545,80.078125
4546,80.078125
4547,82.031250
4548,82.031250
4549,80.078125
4550,82.031250
4551,82.031250
4552,82.031250
4553,82.031250
4554,82.031250
4555,83.984375
4556,83.984375
4557,83.984375
4558,83.984375
4559,83.984375
4560,83.984375
4561,83.984375
4562,83.984375
4563,85.937500
4564,83.984375
4565,83.984375
4566,85.937500
4567,85.937500
4568,83.984375
4569,85.937500
4570,83.984375
4571,83.984375
4572,85.937500
4573,83.984375
4574,85.937500
4575,85.937500
4576,83.984375
4577,85.937500
4578,83.984375
4579,83.984375
4580,85.937500
4581,83.984375
4582,83.984375
4583,83.984375
4584,83.984375
4585,83.984375
4586,83.984375
4587,83.984375
4588,83.984375
4589,83.984375
4590,83.984375
4591,82.031250
4592,82.031250
4593,82.031250
4594,82.031250
4595,82.031250
4596,82.031250
4597,80.078125
4598,82.031250
4599,82.031250
4600,80.078125
4601,80.078125
4602,80.078125
4603,80.078125
4604,78.125000
4605,76.171875
4606,78.125000
4607,78.125000
4608,78.125000
4609,76.171875
4610,78.125000
4611,76.171875
4612,76.171875
4613,76.171875
4614,76.171875
4615,74.218750
4616,74.218750
4617,74.218750
4618,74.218750
4619,74.218750
4620,72.265625
4621,72.265625
4622,70.312500
4623,70.312500
4624,70.312500
4625,70.312500
4626,68.359375
4627,68.359375
4628,68.359375
4629,66.406250
4630,66.406250
4631,64.453125
4632,64.453125
4633,64.453125
4634,64.453125
4635,64.453125
4636,62.500000
4637,60.546875
4638,60.546875
4639,60.546875
4640,58.593750
4641,58.593750
4642,58.593750
4643,56.640625
4644,56.640625
4645,54.687500
4646,54.687500
4647,54.687500
4648,52.734375
4649,52.734375
4650,52.734375
4651,50.781250
4652,48.828125
4653,50.781250
4654,48.828125
4655,46.875000
4656,46.875000
4657,44.921875
4658,46.875000
4659,44.921875
4660,42.968750
4661,42.968750
4662,41.015625
4663,41.015625
4664,39.062500
4665,39.062500
4666,37.109375
4667,37.109375
4668,37.109375
4669,35.156250
4670,35.156250
4671,33.203125
4672,33.203125
4673,31.250000
4674,31.250000
4675,29.296875
4676,29.296875
4677,29.296875
4678,27.343750
4679,27.343750
4680,25.390625
4681,25.390625
4682,23.437500
4683,23.437500
4684,21.484375
4685,21.484375
4686,19.531250
4687,17.578125
4688,17.578125
4689,17.578125
4690,15.625000
4691,15.625000
4692,13.671875
4693,13.671875
4694,11.718750
4695,11.718750
4696,11.718750
4697,9.765625
4698,7.812500
4699,7.812500
4700,5.859375
4701,5.859375
4702,3.906250
4703,1.953125
4704,1.953125
4705,1.953125
4706,0.000000
4707,0.000000
4708,0.000000
4709,-1.953125
4710,-3.906250
4711,-3.906250
4712,-3.906250
4713,-5.859375
4714,-7.812500
4715,-7.812500
4716,-9.765625
4717,-9.765625
4718,-11.718750
4719,-11.718750
4720,-11.718750
4721,-13.671875
4722,-15.625000
4723,-15.625000
4724,-15.625000
4725,-17.578125
4726,-19.531250
4727,-19.531250
4728,-19.531250
4729,-21.484375
4730,-21.484375
4731,-23.437500
4732,-25.390625
4733,-25.390625
4734,-25.390625
4735,-27.343750
4736,-29.296875
4737,-29.296875
4738,-29.296875
4739,-31.250000
4740,-31.250000
4741,-33.203125
4742,-33.203125
4743,-33.203125
4744,-35.156250
4745,-35.156250
4746,-37.109375
4747,-37.109375
4748,-39.062500
4749,-39.062500
4750,-39.062500
4751,-41.015625
4752,-42.968750
4753,-42.968750
4754,-42.968750
4755,-44.921875
4756,-44.921875
4757,-46.875000
4758,-46.875000
4759,-46.875000
4760,-48.828125
4761,-48.828125
4762,-48.828125
4763,-50.781250
4764,-52.734375
4765,-52.734375
4766,-52.734375
4767,-54.687500
4768,-54.687500
4769,-56.640625
4770,-56.640625
4771,-56.640625
4772,-58.593750
4773,-58.593750
4774,-60.546875
4775,-60.546875
4776,-60.546875
4777,-62.500000
4778,-62.500000
4779,-62.500000
4780,-64.453125
4781,-64.453125
4782,-66.406250
4783,-66.406250
4784,-66.406250
4785,-68.359375
4786,-68.359375
4787,-68.359375
4788,-70.312500
4789,-70.312500
4790,-72.265625
4791,-72.265625
4792,-72.265625
4793,-74.218750
4794,-74.218750
4795,-74.218750
4796,-74.218750
4797,-76.171875
4798,-76.171875
4799,-78.125000
4800,-78.125000
4801,-78.125000
4802,-78.125000
4803,-78.125000
4804,-80.078125
4805,-80.078125
4806,-80.078125
4807,-82.031250
4808,-82.031250
4809,-82.031250
4810,-83.984375
4811,-83.984375
4812,-83.984375
4813,-85.937500
4814,-83.984375
4815,-83.984375
4816,-85.937500
4817,-87.890625
4818,-85.937500
4819,-85.937500
4820,-87.890625
4821,-87.890625
4822,-87.890625
4823,-87.890625
4824,-89.843750
4825,-89.843750
4826,-89.843750
4827,-89.843750
4828,-91.796875
4829,-91.796875
4830,-91.796875
4831,-91.796875
4832,-91.796875
4833,-93.750000
4834,-91.796875
4835,-91.796875
4836,-93.750000
4837,-93.750000
4838,-93.750000
4839,-93.750000
4840,-93.750000
4841,-93.750000
4842,-95.703125
4843,-95.703125
4844,-93.750000
4845,-95.703125
4846,-95.703125
4847,-95.703125
4848,-95.703125
4849,-95.703125
4850,-95.703125
4851,-97.656250
4852,-97.656250
4853,-95.703125
4854,-97.656250
4855,-95.703125
4856,-97.656250
4857,-97.656250
4858,-97.656250
4859,-97.656250
4860,-97.656250
4861,-97.656250
4862,-97.656250
4863,-97.656250
4864,-97.656250
4865,-97.656250
4866,-97.656250
4867,-97.656250
4868,-95.703125
4869,-95.703125
4870,-97.656250
4871,-95.703125
4872,-95.703125
4873,-95.703125
4874,-95.703125
4875,-95.703125
4876,-95.703125
4877,-95.703125
4878,-95.703125
4879,-95.703125
4880,-95.703125
4881,-95.703125
4882,-95.703125
4883,-93.750000
4884,-93.750000
4885,-93.750000
4886,-93.750000
4887,-93.750000
4888,-93.750000
4889,-91.796875
4890,-93.750000
4891,-91.796875
4892,-91.796875
4893,-91.796875
4894,-91.796875
4895,-91.796875
4896,-91.796875
4897,-91.796875
4898,-89.843750
4899,-89.843750
4900,-89.843750
4901,-89.843750
4902,-89.843750
4903,-87.890625
4904,-87.890625
4905,-87.890625
4906,-87.890625
4907,-87.890625
4908,-85.937500
4909,-85.937500
4910,-85.937500
4911,-85.937500
4912,-83.984375
4913,-83.984375
4914,-83.984375
4915,-83.984375
4916,-83.984375
4917,-83.984375
4918,-82.031250
4919,-82.031250
4920,-82.031250
4921,-80.078125
4922,-80.078125
4923,-80.078125
4924,-80.078125
4925,-78.125000
4926,-78.125000
4927,-78.125000
4928,-76.171875
4929,-76.171875
4930,-76.171875
4931,-74.218750
4932,-74.218750
4933,-74.218750
4934,-72.265625
4935,-72.265625
4936,-72.265625
4937,-70.312500
4938,-70.312500
4939,-70.312500
4940,-68.359375
4941,-68.359375
4942,-68.359375
4943,-66.406250
4944,-66.406250
4945,-64.453125
4946,-64.453125
4947,-64.453125
4948,-62.500000
4949,-62.500000
4950,-62.500000
4951,-60.546875
4952,-60.546875
4953,-58.593750
4954,-58.593750
4955,-58.593750
4956,-56.640625
4957,-54.687500
4958,-54.687500
4959,-54.687500
4960,-54.687500
4961,-52.734375
4962,-52.734375
4963,-50.781250
4964,-50.781250
4965,-50.781250
4966,-48.828125
4967,-48.828125
4968,-46.875000
4969,-46.875000
4970,-46.875000
4971,-44.921875
4972,-44.921875
4973,-44.921875
4974,-42.968750
4975,-41.015625
4976,-41.015625
4977,-41.015625
4978,-39.062500
4979,-37.109375
4980,-37.109375
4981,-37.109375
4982,-35.156250
4983,-35.156250
4984,-35.156250
4985,-33.203125
4986,-31.250000
4987,-31.250000
4988,-31.250000
4989,-29.296875
4990,-27.343750
4991,-27.343750
4992,-25.390625
4993,-25.390625
4994,-25.390625
4995,-23.437500
4996,-23.437500
4997,-21.484375
4998,-19.531250
4999,-19.531250
5000,-19.531250
5001,-17.578125
5002,-17.578125
5003,-15.625000
5004,-15.625000
5005,-13.671875
5006,-13.671875
5007,-11.718750
5008,-11.718750
5009,-9.765625
5010,-9.765625
5011,-5.859375
5012,-7.812500
5013,-5.859375
5014,-5.859375
5015,-3.906250
5016,-3.906250
5017,-1.953125
5018,-1.953125
5019,0.000000
5020,0.000000
5021,1.953125
5022,1.953125
5023,3.906250
5024,3.906250
5025,3.906250
5026,5.859375
5027,5.859375
5028,7.812500
5029,9.765625
5030,9.765625
5031,9.765625
5032,11.718750
5033,13.671875
5034,11.718750
5035,13.671875
5036,13.671875
5037,17.578125
5038,17.578125
5039,17.578125
5040,19.531250
5041,19.531250
5042,21.484375
5043,21.484375
5044,21.484375
5045,23.437500
5046,25.390625
5047,25.390625
5048,25.390625
5049,27.343750
5050,27.343750
5051,29.296875
5052,29.296875
5053,29.296875
5054,31.250000
5055,33.203125
5056,33.203125
5057,35.156250
5058,35.156250
5059,37.109375
5060,37.109375
5061,39.062500
5062,39.062500
5063,39.062500
5064,41.015625
5065,41.015625
5066,42.968750
5067,42.968750
5068,42.968750
5069,44.921875
5070,46.875000
5071,46.875000
5072,46.875000
5073,48.828125
5074,48.828125
5075,50.781250
5076,52.734375
5077,50.781250
5078,52.734375
5079,52.734375
5080,54.687500
5081,54.687500
5082,54.687500
5083,56.640625
5084,56.640625
5085,58.593750
5086,58.593750
5087,58.593750
5088,60.546875
5089,60.546875
5090,60.546875
5091,60.546875
5092,62.500000
5093,62.500000
5094,64.453125
5095,64.453125
5096,64.453125
5097,64.453125
5098,66.406250
5099,66.406250
5100,68.359375
5101,68.359375
5102,68.359375
5103,68.359375
5104,70.312500
5105,70.312500
5106,70.312500
5107,72.265625
5108,72.265625
5109,72.265625
5110,72.265625
5111,74.218750
5112,74.218750
5113,74.218750
5114,74.218750
5115,74.218750
5116,76.171875
5117,76.171875
5118,76.171875
5119,78.125000
5120,78.125000
5121,78.125000
5122,78.125000
5123,78.125000
5124,80.078125
5125,80.078125
5126,80.078125
5127,80.078125
5128,80.078125
5129,82.031250
5130,82.031250
5131,80.078125
5132,82.031250
5133,82.031250
5134,82.031250
5135,82.031250
5136,82.031250
5137,83.984375
5138,83.984375
5139,83.984375
5140,83.984375
5141,83.984375
5142,83.984375
5143,83.984375
5144,83.984375
5145,83.984375
5146,83.984375
5147,83.984375
5148,83.984375
5149,83.984375
5150,85.937500
5151,85.937500
5152,83.984375
5153,83.984375
5154,83.984375
5155,85.937500
5156,83.984375
5157,83.984375
5158,83.984375
5159,85.937500
5160,85.937500
5161,83.984375
5162,83.984375
5163,83.984375
5164,83.984375
5165,83.984375
5166,83.984375
5167,83.984375
5168,83.984375
5169,83.984375
5170,83.984375
5171,83.984375
5172,82.031250
5173,83.984375
5174,82.031250
5175,82.031250
5176,82.031250
5177,82.031250
5178,82.031250
5179,82.031250
5180,80.078125
5181,80.078125
5182,80.078125
5183,80.078125
5184,80.078125
5185,80.078125
5186,78.125000
5187,78.125000
5188,78.125000
5189,78.125000
5190,78.125000
5191,78.125000
5192,76.171875
5193,76.171875
5194,76.171875
5195,76.171875
5196,74.218750
5197,74.218750
5198,74.218750
5199,74.218750
5200,72.265625
5201,72.265625
5202,72.265625
5203,72.265625
5204,70.312500
5205,70.312500
5206,70.312500
5207,68.359375
5208,68.359375
5209,68.359375
5210,66.406250
5211,66.406250
5212,66.406250
5213,64.453125
5214,64.453125
5215,64.453125
5216,64.453125
5217,62.500000
5218,62.500000
5219,60.546875
5220,60.546875
5221,60.546875
5222,58.593750
5223,58.593750
5224,58.593750
5225,56.640625
5226,56.640625
5227,54.687500
5228,54.687500
5229,52.734375
5230,52.734375
5231,52.734375
5232,50.781250
5233,50.781250
5234,48.828125
5235,48.828125
5236,48.828125
5237,46.875000
5238,46.875000
5239,44.921875
5240,44.921875
5241,44.921875
5242,44.921875
5243,42.968750
5244,41.015625
5245,41.015625
5246,39.062500
5247,39.062500
5248,39.062500
5249,37.109375
5250,35.156250
5251,35.156250
5252,35.156250
5253,33.203125
5254,33.203125
5255,31.250000
5256,31.250000
5257,29.296875
5258,29.296875
5259,29.296875
5260,27.343750
5261,25.390625
5262,25.390625
5263,25.390625
5264,23.437500
5265,21.484375
5266,21.484375
5267,19.531250
5268,19.531250
5269,19.531250
5270,17.578125
5271,15.625000
5272,15.625000
5273,15.625000
5274,13.671875
5275,13.671875
5276,11.718750
5277,11.718750
5278,9.765625
5279,9.765625
5280,7.812500
5281,7.812500
5282,5.859375
5283,5.859375
5284,3.906250
5285,3.906250
5286,1.953125
5287,1.953125
5288,0.000000
5289,0.000000
5290,-1.953125
5291,-1.953125
5292,-3.906250
5293,-3.906250
5294,-3.906250
5295,-5.859375
5296,-7.812500
5297,-7.812500
5298,-9.765625
5299,-9.765625
5300,-9.765625
5301,-11.718750
5302,-13.671875
5303,-13.671875
5304,-15.625000
5305,-15.625000
5306,-17.578125
5307,-17.578125
5308,-19.531250
5309,-19.531250
5310,-19.531250
5311,-21.484375
5312,-21.484375
5313,-23.437500
5314,-25.390625
5315,-25.390625
5316,-25.390625
5317,-27.343750
5318,-27.343750
5319,-29.296875
5320,-29.296875
5321,-29.296875
5322,-31.250000
5323,-31.250000
5324,-33.203125
5325,-33.203125
5326,-35.156250
5327,-35.156250
5328,-37.109375
5329,-37.109375
5330,-39.062500
5331,-39.062500
5332,-39.062500
5333,-41.015625
5334,-41.015625
5335,-42.968750
5336,-42.968750
5337,-44.921875
5338,-44.921875
5339,-44.921875
5340,-46.875000
5341,-46.875000
5342,-48.828125
5343,-48.828125
5344,-48.828125
5345,-50.781250
5346,-50.781250
5347,-52.734375
5348,-52.734375
5349,-54.687500
5350,-54.687500
5351,-54.687500
5352,-56.640625
5353,-56.640625
5354,-58.593750
5355,-58.593750
5356,-58.593750
5357,-60.546875
5358,-60.546875
5359,-62.500000
5360,-62.500000
5361,-62.500000
5362,-64.453125
5363,-64.453125
5364,-64.453125
5365,-66.406250
5366,-66.406250
5367,-68.359375
5368,-68.359375
5369,-68.359375
5370,-70.312500
5371,-70.312500
5372,-70.312500
5373,-72.265625
5374,-72.265625
5375,-72.265625
5376,-74.218750
5377,-74.218750
5378,-76.171875
5379,-76.171875
5380,-76.171875
5381,-76.171875
5382,-76.171875
5383,-78.125000
5384,-78.125000
5385,-80.078125
5386,-80.078125
5387,-80.078125
5388,-80.078125
5389,-80.078125
5390,-82.031250
5391,-82.031250
5392,-82.031250
5393,-83.984375
5394,-83.984375
5395,-83.984375
5396,-83.984375
5397,-83.984375
5398,-85.937500
5399,-85.937500
5400,-85.937500
5401,-87.890625
5402,-85.937500
5403,-87.890625
5404,-87.890625
5405,-87.890625
5406,-87.890625
5407,-89.843750
5408,-89.843750
5409,-89.843750
5410,-89.843750
5411,-89.843750
5412,-91.796875
5413,-91.796875
5414,-91.796875
5415,-91.796875
5416,-91.796875
5417,-91.796875
5418,-93.750000
5419,-93.750000
5420,-91.796875
5421,-93.750000
5422,-93.750000
5423,-95.703125
5424,-93.750000
5425,-93.750000
5426,-93.750000
5427,-93.750000
5428,-95.703125
5429,-95.703125
5430,-95.703125
5431,-95.703125
5432,-95.703125
5433,-95.703125
5434,-95.703125
5435,-95.703125
5436,-95.703125
5437,-95.703125
5438,-97.656250
5439,-95.703125
5440,-95.703125
5441,-95.703125
5442,-95.703125
5443,-97.656250
5444,-95.703125
5445,-95.703125
5446,-95.703125
5447,-95.703125
5448,-95.703125
5449,-95.703125
5450,-95.703125
5451,-95.703125
5452,-95.703125
5453,-95.703125
5454,-95.703125
5455,-95.703125
5456,-93.750000
5457,-95.703125
5458,-95.703125
5459,-93.750000
5460,-95.703125
5461,-93.750000
5462,-93.750000
5463,-93.750000
5464,-93.750000
5465,-93.750000
5466,-93.750000
5467,-93.750000
5468,-93.750000
5469,-93.750000
5470,-93.750000
5471,-91.796875
5472,-91.796875
5473,-91.796875
5474,-91.796875
5475,-91.796875
5476,-91.796875
5477,-91.796875
5478,-89.843750
5479,-89.843750
5480,-89.843750
5481,-89.843750
5482,-87.890625
5483,-87.890625
5484,-87.890625
5485,-87.890625
5486,-87.890625
5487,-87.890625
5488,-87.890625
5489,-85.937500
5490,-85.937500
5491,-85.937500
5492,-85.937500
5493,-85.937500
5494,-83.984375
5495,-83.984375
5496,-83.984375
5497,-82.031250
5498,-82.031250
5499,-82.031250
5500,-82.031250
5501,-80.078125
5502,-80.078125
5503,-80.078125
5504,-80.078125
5505,-78.125000
5506,-78.125000
5507,-78.125000
5508,-76.171875
5509,-78.125000
5510,-76.171875
5511,-76.171875
5512,-76.171875
5513,-74.218750
5514,-74.218750
5515,-74.218750
5516,-72.265625
5517,-72.265625
5518,-70.312500
5519,-70.312500
5520,-70.312500
5521,-70.312500
5522,-68.359375
5523,-68.359375
5524,-66.406250
5525,-66.406250
5526,-66.406250
5527,-64.453125
5528,-64.453125
5529,-64.453125
5530,-62.500000
5531,-60.546875
5532,-60.546875
5533,-60.546875
5534,-60.546875
5535,-58.593750
5536,-58.593750
5537,-58.593750
5538,-56.640625
5539,-56.640625
5540,-54.687500
5541,-54.687500
5542,-54.687500
5543,-52.734375
5544,-52.734375
5545,-50.781250
5546,-50.781250
5547,-48.828125
5548,-48.828125
5549,-46.875000
5550,-46.875000
5551,-46.875000
5552,-46.875000
5553,-44.921875
5554,-42.968750
5555,-42.968750
5556,-42.968750
5557,-41.015625
5558,-41.015625
5559,-39.062500
5560,-39.062500
5561,-37.109375
5562,-37.109375
5563,-37.109375
5564,-35.156250
5565,-35.156250
5566,-33.203125
5567,-33.203125
5568,-31.250000
5569,-31.250000
5570,-29.296875
5571,-29.296875
5572,-29.296875
5573,-27.343750
5574,-25.390625
5575,-25.390625
5576,-25.390625
5577,-23.437500
5578,-23.437500
5579,-21.484375
5580,-21.484375
5581,-19.531250
5582,-19.531250
5583,-17.578125
5584,-17.578125
5585,-15.625000
5586,-15.625000
5587,-13.671875
5588,-13.671875
5589,-11.718750
5590,-11.718750
5591,-11.718750
5592,-9.765625
5593,-7.812500
5594,-7.812500
5595,-5.859375
5596,-5.859375
5597,-3.906250
5598,-3.906250
5599,-1.953125
5600,-1.953125
5601,-1.953125
5602,0.000000
5603,0.000000
5604,1.953125
5605,1.953125
5606,3.906250
5607,3.906250
5608,5.859375
5609,5.859375
5610,7.812500
5611,7.812500
5612,7.812500
5613,9.765625
5614,11.718750
5615,11.718750
5616,13.671875
5617,13.671875
5618,15.625000
5619,15.625000
5620,15.625000
5621,17.578125
5622,17.578125
5623,19.531250
5624,21.484375
5625,19.531250
5626,21.484375
5627,23.437500
5628,23.437500
5629,23.437500
5630,25.390625
5631,25.390625
5632,27.343750
5633,27.343750
5634,29.296875
5635,31.250000
5636,31.250000
5637,31.250000
5638,31.250000
5639,33.203125
5640,33.203125
5641,35.156250
5642,37.109375
5643,37.109375
5644,39.062500
5645,39.062500
5646,39.062500
5647,41.015625
5648,41.015625
5649,42.968750
5650,42.968750
5651,42.968750
5652,44.921875
5653,44.921875
5654,46.875000
5655,46.875000
5656,46.875000
5657,48.828125
5658,50.781250
5659,50.781250
5660,50.781250
5661,52.734375
5662,52.734375
5663,52.734375
5664,54.687500
5665,54.687500
5666,54.687500
5667,56.640625
5668,56.640625
5669,58.593750
5670,58.593750
5671,58.593750
5672,60.546875
5673,60.546875
5674,62.500000
5675,62.500000
5676,62.500000
5677,62.500000
5678,64.453125
5679,64.453125
5680,64.453125
5681,66.406250
5682,66.406250
5683,66.406250
5684,68.359375
5685,68.359375
5686,68.359375
5687,70.312500
5688,68.359375
5689,70.312500
5690,70.312500
5691,72.265625
5692,72.265625
5693,72.265625
5694,72.265625
5695,74.218750
5696,74.218750
5697,74.218750
5698,74.218750
5699,76.171875
5700,76.171875
5701,76.171875
5702,76.171875
5703,78.125000
5704,78.125000
5705,76.171875
5706,78.125000
5707,78.125000
5708,80.078125
5709,78.125000
5710,80.078125
5711,80.078125
5712,80.078125
5713,80.078125
5714,80.078125
5715,82.031250
5716,82.031250
5717,82.031250
5718,82.031250
5719,82.031250
5720,82.031250
5721,82.031250
5722,80.078125
5723,83.984375
5724,83.984375
5725,83.984375
5726,82.031250
5727,83.984375
5728,83.984375
5729,83.984375
5730,83.984375
5731,83.984375
5732,83.984375
5733,83.984375
5734,83.984375
5735,83.984375
5736,83.984375
5737,83.984375
5738,83.984375
5739,83.984375
5740,83.984375
5741,82.031250
5742,83.984375
5743,85.937500
5744,83.984375
5745,83.984375
5746,83.984375
5747,83.984375
5748,83.984375
5749,82.031250
5750,83.984375
5751,83.984375
5752,83.984375
5753,82.031250
5754,82.031250
5755,82.031250
5756,82.031250
5757,82.031250
5758,82.031250
5759,82.031250
5760,80.078125
5761,82.031250
5762,80.078125
5763,80.078125
5764,80.078125
5765,80.078125
5766,80.078125
5767,78.125000
5768,78.125000
5769,78.125000
5770,78.125000
5771,76.171875
5772,76.171875
5773,76.171875
5774,76.171875
5775,76.171875
5776,76.171875
5777,76.171875
5778,74.218750
5779,74.218750
5780,74.218750
5781,74.218750
5782,72.265625
5783,72.265625
5784,72.265625
5785,70.312500
5786,70.312500
5787,70.312500
5788,70.312500
5789,68.359375
5790,70.312500
5791,68.359375
5792,66.406250
5793,68.359375
5794,66.406250
5795,64.453125
5796,64.453125
5797,64.453125
5798,62.500000
5799,62.500000
5800,62.500000
5801,62.500000
5802,60.546875
5803,60.546875
5804,58.593750
5805,58.593750
5806,58.593750
5807,58.593750
5808,56.640625
5809,54.687500
5810,54.687500
5811,54.687500
5812,52.734375
5813,52.734375
5814,50.781250
5815,50.781250
5816,48.828125
5817,48.828125
5818,48.828125
5819,48.828125
5820,46.875000
5821,44.921875
5822,44.921875
5823,44.921875
5824,42.968750
5825,42.968750
5826,42.968750
5827,41.015625
5828,41.015625
5829,39.062500
5830,39.062500
5831,37.109375
5832,37.109375
5833,37.109375
5834,35.156250
5835,33.203125
5836,33.203125
5837,33.203125
5838,31.250000
5839,31.250000
5840,29.296875
5841,27.343750
5842,27.343750
5843,27.343750
5844,25.390625
5845,25.390625
5846,23.437500
5847,23.437500
5848,21.484375
5849,21.484375
5850,19.531250
5851,19.531250
5852,19.531250
5853,17.578125
5854,15.625000
5855,15.625000
5856,15.625000
5857,13.671875
5858,11.718750
5859,11.718750
5860,11.718750
5861,9.765625
5862,9.765625
5863,7.812500
5864,5.859375
5865,5.859375
5866,5.859375
5867,3.906250
5868,3.906250
5869,1.953125
5870,1.953125
5871,0.000000
5872,0.000000
5873,-1.953125
5874,-1.953125
5875,-3.906250
5876,-3.906250
5877,-5.859375
5878,-5.859375
5879,-7.812500
5880,-7.812500
5881,-7.812500
5882,-9.765625
5883,-11.718750
5884,-11.718750
5885,-13.671875
5886,-13.671875
5887,-13.671875
5888,-15.625000
5889,-17.578125
5890,-17.578125
5891,-17.578125
5892,-19.531250
5893,-19.531250
5894,-21.484375
5895,-23.437500
5896,-23.437500
5897,-23.437500
5898,-25.390625
5899,-25.390625
5900,-27.343750
5901,-27.343750
5902,-29.296875
5903,-29.296875
5904,-29.296875
5905,-31.250000
5906,-31.250000
5907,-33.203125
5908,-33.203125
5909,-33.203125
5910,-35.156250
5911,-37.109375
5912,-37.109375
5913,-37.109375
5914,-37.109375
5915,-39.062500
5916,-41.015625
5917,-41.015625
5918,-41.015625
5919,-42.968750
5920,-42.968750
5921,-44.921875
5922,-44.921875
5923,-44.921875
5924,-46.875000
5925,-46.875000
5926,-48.828125
5927,-48.828125
5928,-48.828125
5929,-50.781250
5930,-52.734375
5931,-52.734375
5932,-52.734375
5933,-54.687500
5934,-54.687500
5935,-54.687500
5936,-56.640625
5937,-56.640625
5938,-58.593750
5939,-58.593750
5940,-60.546875
5941,-60.546875
5942,-60.546875
5943,-62.500000
5944,-62.500000
5945,-64.453125
5946,-64.453125
5947,-66.406250
5948,-66.406250
5949,-66.406250
5950,-66.406250
5951,-68.359375
5952,-68.359375
5953,-68.359375
5954,-70.312500
5955,-70.312500
5956,-70.312500
5957,-72.265625
5958,-72.265625
5959,-72.265625
5960,-74.218750
5961,-72.265625
5962,-74.218750
5963,-76.171875
5964,-76.171875
5965,-76.171875
5966,-76.171875
5967,-76.171875
5968,-78.125000
5969,-78.125000
5970,-80.078125
5971,-80.078125
5972,-80.078125
5973,-80.078125
5974,-80.078125
5975,-82.031250
5976,-83.984375
5977,-82.031250
5978,-83.984375
5979,-83.984375
5980,-83.984375
5981,-83.984375
5982,-85.937500
5983,-85.937500
5984,-85.937500
5985,-85.937500
5986,-85.937500
5987,-87.890625
5988,-87.890625
5989,-87.890625
5990,-87.890625
5991,-87.890625
5992,-87.890625
5993,-89.843750
5994,-89.843750
5995,-89.843750
5996,-89.843750
5997,-89.843750
5998,-91.796875
5999,-91.796875
6000,-91.796875
6001,-91.796875
6002,-91.796875
6003,-91.796875
6004,-93.750000
6005,-93.750000
6006,-93.750000
6007,-93.750000
6008,-93.750000
6009,-93.750000
6010,-93.750000
6011,-93.750000
6012,-93.750000
6013,-93.750000
6014,-95.703125
6015,-95.703125
6016,-95.703125
6017,-95.703125
6018,-93.750000
6019,-95.703125
6020,-95.703125
6021,-95.703125
6022,-95.703125
6023,-95.703125
6024,-95.703125
6025,-97.656250
6026,-95.703125
6027,-95.703125
6028,-95.703125
6029,-95.703125
6030,-95.703125
6031,-95.703125
6032,-95.703125
6033,-95.703125
6034,-95.703125
6035,-95.703125
6036,-95.703125
6037,-95.703125
6038,-95.703125
6039,-93.750000
6040,-95.703125
6041,-95.703125
6042,-93.750000
6043,-95.703125
6044,-93.750000
6045,-93.750000
6046,-93.750000
6047,-93.750000
6048,-91.796875
6049,-93.750000
6050,-91.796875
6051,-91.796875
6052,-93.750000
6053,-91.796875
6054,-91.796875
6055,-91.796875
6056,-91.796875
6057,-91.796875
6058,-91.796875
6059,-89.843750
6060,-89.843750
6061,-89.843750
6062,-89.843750
6063,-87.890625
6064,-89.843750
6065,-87.890625
6066,-87.890625
6067,-87.890625
6068,-87.890625
6069,-85.937500
6070,-87.890625
6071,-87.890625
6072,-85.937500
6073,-85.937500
6074,-85.937500
6075,-85.937500
6076,-83.984375
6077,-83.984375
6078,-83.984375
6079,-82.031250
6080,-82.031250
6081,-82.031250
6082,-82.031250
6083,-80.078125
6084,-80.078125
6085,-80.078125
6086,-80.078125
6087,-80.078125
6088,-78.125000
6089,-78.125000
6090,-78.125000
6091,-76.171875
6092,-76.171875
6093,-76.171875
6094,-76.171875
6095,-74.218750
6096,-74.218750
6097,-74.218750
6098,-72.265625
6099,-72.265625
6100,-72.265625
6101,-70.312500
6102,-70.312500
6103,-70.312500
6104,-70.312500
6105,-68.359375
6106,-68.359375
6107,-66.406250
6108,-66.406250
6109,-66.406250
6110,-64.453125
6111,-64.453125
6112,-62.500000
6113,-62.500000
6114,-62.500000
6115,-60.546875
6116,-60.546875
6117,-60.546875
6118,-58.593750
6119,-58.593750
6120,-56.640625
6121,-56.640625
6122,-56.640625
6123,-56.640625
6124,-54.687500
6125,-52.734375
6126,-52.734375
6127,-52.734375
6128,-50.781250
6129,-50.781250
6130,-50.781250
6131,-48.828125
6132,-48.828125
6133,-46.875000
6134,-46.875000
6135,-44.921875
6136,-44.921875
6137,-44.921875
6138,-42.968750
6139,-42.968750
6140,-41.015625
6141,-41.015625
6142,-39.062500
6143,-39.062500
6144,-39.062500
6145,-37.109375
6146,-37.109375
6147,-35.156250
6148,-35.156250
6149,-33.203125
6150,-33.203125
6151,-33.203125
6152,-31.250000
6153,-31.250000
6154,-29.296875
6155,-29.296875
6156,-27.343750
6157,-27.343750
6158,-27.343750
6159,-25.390625
6160,-23.437500
6161,-23.437500
6162,-23.437500
6163,-21.484375
6164,-19.531250
6165,-19.531250
6166,-17.578125
6167,-17.578125
6168,-17.578125
6169,-15.625000
6170,-13.671875
6171,-13.671875
6172,-13.671875
6173,-11.718750
6174,-9.765625
6175,-9.765625
6176,-9.765625
6177,-7.812500
6178,-7.812500
6179,-5.859375
6180,-5.859375
6181,-5.859375
6182,-3.906250
6183,-1.953125
6184,-1.953125
6185,-1.953125
6186,0.000000
6187,1.953125
6188,1.953125
6189,3.906250
6190,3.906250
6191,3.906250
6192,5.859375
6193,5.859375
6194,7.812500
6195,7.812500
6196,9.765625
6197,9.765625
6198,11.718750
6199,11.718750
6200,13.671875
6201,13.671875
6202,15.625000
6203,15.625000
6204,17.578125
6205,17.578125
6206,17.578125
6207,19.531250
6208,19.531250
6209,21.484375
6210,23.437500
6211,23.437500
6212,23.437500
6213,25.390625
6214,25.390625
6215,27.343750
6216,27.343750
6217,29.296875
6218,29.296875
6219,29.296875
6220,31.250000
6221,31.250000
6222,33.203125
6223,33.203125
6224,35.156250
6225,35.156250
6226,37.109375
6227,37.109375
6228,37.109375
6229,39.062500
6230,39.062500
6231,41.015625
6232,41.015625
6233,41.015625
6234,42.968750
6235,44.921875
6236,44.921875
6237,44.921875
6238,46.875000
6239,46.875000
6240,48.828125
6241,48.828125
6242,48.828125
6243,50.781250
6244,50.781250
6245,52.734375
6246,52.734375
6247,52.734375
6248,54.687500
6249,54.687500
6250,54.687500
6251,56.640625
6252,56.640625
6253,56.640625
6254,58.593750
6255,60.546875
6256,60.546875
6257,60.546875
6258,62.500000
6259,62.500000
6260,62.500000
6261,62.500000
6262,64.453125
6263,64.453125
6264,64.453125
6265,66.406250
6266,66.406250
6267,66.406250
6268,68.359375
6269,68.359375
6270,68.359375
6271,70.312500
6272,70.312500
6273,70.312500
6274,72.265625
6275,70.312500
6276,72.265625
6277,72.265625
6278,72.265625
6279,74.218750
6280,74.218750
6281,74.218750
6282,74.218750
6283,76.171875
6284,76.171875
6285,76.171875
6286,76.171875
6287,76.171875
6288,78.125000
6289,78.125000
6290,78.125000
6291,78.125000
6292,78.125000
6293,80.078125
6294,78.125000
6295,80.078125
6296,80.078125
6297,80.078125
6298,80.078125
6299,82.031250
6300,80.078125
6301,80.078125
6302,82.031250
6303,82.031250
6304,82.031250
6305,82.031250
6306,82.031250
6307,82.031250
6308,83.984375
6309,83.984375
6310,83.984375
6311,83.984375
6312,83.984375
6313,83.984375
6314,83.984375
6315,83.984375
6316,83.984375
6317,83.984375
6318,83.984375
6319,83.984375
6320,83.984375
6321,83.984375
6322,83.984375
6323,83.984375
6324,83.984375
6325,83.984375
6326,83.984375
6327,83.984375
6328,83.984375
6329,83.984375
6330,83.984375
6331,83.984375
6332,83.984375
6333,83.984375
6334,83.984375
6335,82.031250
6336,82.031250
6337,82.031250
6338,82.031250
6339,82.031250
6340,82.031250
6341,80.078125
6342,80.078125
6343,82.031250
6344,82.031250
6345,80.078125
6346,80.078125
6347,80.078125
6348,80.078125
6349,78.125000
6350,78.125000
6351,78.125000
6352,78.125000
6353,78.125000
6354,76.171875
6355,76.171875
6356,76.171875
6357,76.171875
6358,76.171875
6359,76.171875
6360,76.171875
6361,72.265625
6362,74.218750
6363,76.171875
6364,74.218750
6365,72.265625
6366,72.265625
6367,72.265625
6368,70.312500
6369,70.312500
6370,70.312500
6371,70.312500
6372,70.312500
6373,68.359375
6374,68.359375
6375,68.359375
6376,66.406250
6377,66.406250
6378,64.453125
6379,64.453125
6380,64.453125
6381,64.453125
6382,64.453125
6383,62.500000
6384,62.500000
6385,60.546875
6386,60.546875
6387,60.546875
6388,58.593750
6389,56.640625
6390,58.593750
6391,56.640625
6392,56.640625
6393,54.687500
6394,54.687500
6395,52.734375
6396,52.734375
6397,52.734375
6398,50.781250
6399,50.781250
6400,48.828125
6401,48.828125
6402,48.828125
6403,46.875000
6404,46.875000
6405,44.921875
6406,44.921875
6407,42.968750
6408,42.968750
6409,42.968750
6410,41.015625
6411,41.015625
6412,39.062500
6413,37.109375
6414,37.109375
6415,37.109375
6416,37.109375
6417,35.156250
6418,33.203125
6419,33.203125
6420,33.203125
6421,31.250000
6422,31.250000
6423,29.296875
6424,29.296875
6425,27.343750
6426,27.343750
6427,27.343750
6428,25.390625
6429,23.437500
6430,23.437500
6431,23.437500
6432,21.484375
6433,21.484375
6434,19.531250
6435,17.578125
6436,17.578125
6437,17.578125
6438,15.625000
6439,15.625000
6440,13.671875
6441,13.671875
6442,11.718750
6443,11.718750
6444,9.765625
6445,9.765625
6446,7.812500
6447,7.812500
6448,5.859375
6449,5.859375
6450,5.859375
6451,3.906250
6452,1.953125
6453,1.953125
6454,0.000000
6455,0.000000
6456,0.000000
6457,-1.953125
6458,-3.906250
6459,-3.906250
6460,-5.859375
6461,-5.859375
6462,-7.812500
6463,-7.812500
6464,-9.765625
6465,-9.765625
6466,-9.765625
6467,-11.718750
6468,-11.718750
6469,-13.671875
6470,-15.625000
6471,-15.625000
6472,-15.625000
6473,-17.578125
6474,-17.578125
6475,-19.531250
6476,-19.531250
6477,-21.484375
6478,-21.484375
6479,-23.437500
6480,-23.437500
6481,-25.390625
6482,-25.390625
6483,-27.343750
6484,-27.343750
6485,-29.296875
6486,-29.296875
6487,-29.296875
6488,-31.250000
6489,-31.250000
6490,-33.203125
6491,-33.203125
6492,-35.156250
6493,-35.156250
6494,-37.109375
6495,-37.109375
6496,-37.109375
6497,-39.062500
6498,-39.062500
6499,-39.062500
6500,-41.015625
6501,-41.015625
6502,-41.015625
6503,-42.968750
6504,-44.921875
6505,-44.921875
6506,-44.921875
6507,-46.875000
6508,-46.875000
6509,-48.828125
6510,-50.781250
6511,-50.781250
6512,-50.781250
6513,-50.781250
6514,-52.734375
6515,-52.734375
6516,-54.687500
6517,-54.687500
6518,-54.687500
6519,-56.640625
6520,-58.593750
6521,-58.593750
6522,-58.593750
6523,-58.593750
6524,-60.546875
6525,-62.500000
6526,-62.500000
6527,-62.500000
6528,-62.500000
6529,-64.453125
6530,-64.453125
6531,-66.406250
6532,-66.406250
6533,-66.406250
6534,-68.359375
6535,-68.359375
6536,-70.312500
6537,-68.359375
6538,-70.312500
6539,-70.312500
6540,-72.265625
6541,-72.265625
6542,-72.265625
6543,-74.218750
6544,-74.218750
6545,-74.218750
6546,-76.171875
6547,-76.171875
6548,-76.171875
6549,-78.125000
6550,-78.125000
6551,-78.125000
6552,-78.125000
6553,-78.125000
6554,-80.078125
6555,-82.031250
6556,-80.078125
6557,-82.031250
6558,-82.031250
6559,-82.031250
6560,-83.984375
6561,-83.984375
6562,-83.984375
6563,-83.984375
6564,-85.937500
6565,-85.937500
6566,-85.937500
6567,-85.937500
6568,-85.937500
6569,-85.937500
6570,-87.890625
6571,-87.890625
6572,-87.890625
6573,-87.890625
6574,-89.843750
6575,-89.843750
6576,-89.843750
6577,-89.843750
6578,-89.843750
6579,-91.796875
6580,-91.796875
6581,-91.796875
6582,-91.796875
6583,-91.796875
6584,-91.796875
6585,-93.750000
6586,-91.796875
6587,-93.750000
6588,-93.750000
6589,-93.750000
6590,-93.750000
6591,-93.750000
6592,-93.750000
6593,-95.703125
6594,-93.750000
6595,-95.703125
6596,-95.703125
6597,-95.703125
6598,-95.703125
6599,-95.703125
6600,-95.703125
6601,-95.703125
6602,-95.703125
6603,-95.703125
6604,-95.703125
6605,-95.703125
6606,-95.703125
6607,-95.703125
6608,-95.703125
6609,-95.703125
6610,-95.703125
6611,-95.703125
6612,-95.703125
6613,-95.703125
6614,-95.703125
6615,-95.703125
6616,-95.703125
6617,-95.703125
6618,-95.703125
6619,-95.703125
6620,-95.703125
6621,-95.703125
6622,-95.703125
6623,-95.703125
6624,-95.703125
6625,-93.750000
6626,-93.750000
6627,-95.703125
6628,-93.750000
6629,-93.750000
6630,-93.750000
6631,-93.750000
6632,-93.750000
6633,-93.750000
6634,-93.750000
6635,-93.750000
6636,-93.750000
6637,-91.796875
6638,-91.796875
6639,-91.796875
6640,-91.796875
6641,-91.796875
6642,-91.796875
6643,-91.796875
6644,-91.796875
6645,-89.843750
6646,-89.843750
6647,-89.843750
6648,-89.843750
6649,-89.843750
6650,-89.843750
6651,-87.890625
6652,-87.890625
6653,-87.890625
6654,-85.937500
6655,-85.937500
6656,-85.937500
6657,-85.937500
6658,-85.937500
6659,-83.984375
6660,-83.984375
6661,-83.984375
6662,-83.984375
6663,-83.984375
6664,-82.031250
6665,-82.031250
6666,-82.031250
6667,-82.031250
6668,-80.078125
6669,-80.078125
6670,-80.078125
6671,-80.078125
6672,-80.078125
6673,-78.125000
6674,-78.125000
6675,-76.171875
6676,-76.171875
6677,-76.171875
6678,-76.171875
6679,-74.218750
6680,-74.218750
6681,-72.265625
6682,-72.265625
6683,-72.265625
6684,-72.265625
6685,-72.265625
6686,-70.312500
6687,-68.359375
6688,-68.359375
6689,-68.359375
6690,-68.359375
6691,-66.406250
6692,-66.406250
6693,-66.406250
6694,-64.453125
6695,-64.453125
6696,-62.500000
6697,-62.500000
6698,-62.500000
6699,-60.546875
6700,-60.546875
6701,-60.546875
6702,-58.593750
6703,-58.593750
6704,-56.640625
6705,-56.640625
6706,-56.640625
6707,-54.687500
6708,-54.687500
6709,-52.734375
6710,-52.734375
6711,-52.734375
6712,-50.781250
6713,-50.781250
6714,-48.828125
6715,-48.828125
6716,-48.828125
6717,-46.875000
6718,-46.875000
6719,-44.921875
6720,-44.921875
6721,-44.921875
6722,-42.968750
6723,-42.968750
6724,-41.015625
6725,-41.015625
6726,-39.062500
6727,-39.062500
6728,-39.062500
6729,-37.109375
6730,-37.109375
6731,-35.156250
6732,-35.156250
6733,-33.203125
6734,-33.203125
6735,-31.250000
6736,-31.250000
6737,-29.296875
6738,-29.296875
6739,-27.343750
6740,-27.343750
6741,-25.390625
6742,-25.390625
6743,-23.437500
6744,-23.437500
6745,-23.437500
6746,-21.484375
6747,-21.484375
6748,-19.531250
6749,-19.531250
6750,-17.578125
6751,-17.578125
6752,-15.625000
6753,-15.625000
6754,-13.671875
6755,-13.671875
6756,-11.718750
6757,-11.718750
6758,-9.765625
6759,-9.765625
6760,-7.812500
6761,-7.812500
6762,-5.859375
6763,-5.859375
6764,-3.906250
6765,-3.906250
6766,-3.906250
6767,-1.953125
6768,0.000000
6769,0.000000
6770,0.000000
6771,1.953125
6772,3.906250
6773,3.906250
6774,3.906250
6775,5.859375
6776,5.859375
6777,7.812500
6778,7.812500
6779,9.765625
6780,9.765625
6781,9.765625
6782,11.718750
6783,13.671875
6784,13.671875
6785,15.625000
6786,15.625000
6787,15.625000
6788,17.578125
6789,19.531250
6790,19.531250
6791,19.531250
6792,21.484375
6793,21.484375
6794,23.437500
6795,23.437500
6796,25.390625
6797,25.390625
6798,27.343750
6799,27.343750
6800,27.343750
6801,29.296875
6802,29.296875
6803,31.250000
6804,33.203125
6805,33.203125
6806,33.203125
6807,33.203125
6808,35.156250
6809,37.109375
6810,37.109375
6811,39.062500
6812,39.062500
6813,39.062500
6814,41.015625
6815,41.015625
6816,42.968750
6817,42.968750
6818,44.921875
6819,44.921875
6820,46.875000
6821,46.875000
6822,46.875000
6823,48.828125
6824,50.781250
6825,50.781250
6826,48.828125
6827,50.781250
6828,52.734375
6829,52.734375
6830,54.687500
6831,54.687500
6832,54.687500
6833,56.640625
6834,56.640625
6835,56.640625
6836,58.593750
6837,58.593750
6838,58.593750
6839,60.546875
6840,60.546875
6841,62.500000
6842,62.500000
6843,62.500000
6844,64.453125
6845,64.453125
6846,64.453125
6847,64.453125
6848,66.406250
6849,66.406250
6850,66.406250
6851,68.359375
6852,68.359375
6853,68.359375
6854,70.312500
6855,70.312500
6856,70.312500
6857,72.265625
6858,72.265625
6859,72.265625
6860,72.265625
6861,72.265625
6862,74.218750
6863,74.218750
6864,74.218750
6865,74.218750
6866,74.218750
6867,76.171875
6868,78.125000
6869,76.171875
6870,76.171875
6871,78.125000
6872,78.125000
6873,78.125000
6874,78.125000
6875,80.078125
6876,80.078125
6877,80.078125
6878,80.078125
6879,80.078125
6880,80.078125
6881,82.031250
6882,82.031250
6883,82.031250
6884,82.031250
6885,82.031250
6886,82.031250
6887,82.031250
6888,83.984375
6889,83.984375
6890,83.984375
6891,83.984375
6892,83.984375
6893,83.984375
6894,83.984375
6895,83.984375
6896,83.984375
6897,83.984375
6898,83.984375
6899,83.984375
6900,83.984375
6901,83.984375
6902,83.984375
6903,85.937500
6904,83.984375
6905,83.984375
6906,85.937500
6907,83.984375
6908,83.984375
6909,83.984375
6910,83.984375
6911,83.984375
6912,83.984375
6913,83.984375
6914,83.984375
6915,83.984375
6916,83.984375
6917,82.031250
6918,83.984375
6919,82.031250
6920,83.984375
6921,82.031250
6922,82.031250
6923,82.031250
6924,82.031250
6925,82.031250
6926,82.031250
6927,80.078125
6928,80.078125
6929,80.078125
6930,80.078125
6931,80.078125
6932,80.078125
6933,80.078125
6934,80.078125
6935,80.078125
6936,78.125000
6937,78.125000
6938,78.125000
6939,78.125000
6940,78.125000
6941,76.171875
6942,76.171875
6943,76.171875
6944,74.218750
6945,74.218750
6946,74.218750
6947,74.218750
6948,72.265625
6949,72.265625
6950,72.265625
6951,72.265625
6952,70.312500
6953,70.312500
6954,70.312500
6955,68.359375
6956,68.359375
6957,68.359375
6958,68.359375
6959,66.406250
6960,66.406250
6961,66.406250
6962,64.453125
6963,64.453125
6964,64.453125
6965,64.453125
6966,62.500000
6967,62.500000
6968,60.546875
6969,60.546875
6970,60.546875
6971,58.593750
6972,58.593750
6973,56.640625
6974,56.640625
6975,56.640625
6976,54.687500
6977,54.687500
6978,52.734375
6979,52.734375
6980,52.734375
6981,50.781250
6982,50.781250
6983,48.828125
6984,48.828125
6985,48.828125
6986,46.875000
6987,46.875000
6988,44.921875
6989,44.921875
6990,42.968750
6991,42.968750
6992,42.968750
6993,41.015625
6994,41.015625
6995,41.015625
6996,39.062500
6997,37.109375
6998,37.109375
6999,37.109375
7000,35.156250
7001,35.156250
7002,33.203125
7003,33.203125
7004,31.250000
7005,31.250000
7006,29.296875
7007,29.296875
7008,27.343750
7009,27.343750
7010,25.390625
7011,25.390625
7012,25.390625
7013,23.437500
7014,21.484375
7015,21.484375
7016,19.531250
7017,19.531250
7018,19.531250
7019,17.578125
7020,17.578125
7021,15.625000
7022,15.625000
7023,13.671875
7024,13.671875
7025,11.718750
7026,11.718750
7027,9.765625
7028,9.765625
7029,7.812500
7030,7.812500
7031,7.812500
7032,5.859375
7033,3.906250
7034,1.953125
7035,1.953125
7036,1.953125
7037,0.000000
7038,0.000000
7039,-1.953125
7040,-1.953125
7041,-3.906250
7042,-3.906250
7043,-5.859375
7044,-7.812500
7045,-7.812500
7046,-7.812500
7047,-9.765625
7048,-9.765625
7049,-11.718750
7050,-11.718750
7051,-11.718750
7052,-13.671875
7053,-15.625000
7054,-15.625000
7055,-15.625000
7056,-17.578125
7057,-19.531250
7058,-19.531250
7059,-19.531250
7060,-21.484375
7061,-23.437500
7062,-23.437500
7063,-23.437500
7064,-25.390625
7065,-25.390625
7066,-27.343750
7067,-27.343750
7068,-29.296875
7069,-29.296875
7070,-29.296875
7071,-31.250000
7072,-33.203125
7073,-33.203125
7074,-33.203125
7075,-33.203125
7076,-35.156250
7077,-37.109375
7078,-37.109375
7079,-37.109375
7080,-39.062500
7081,-41.015625
7082,-41.015625
7083,-41.015625
7084,-42.968750
7085,-42.968750
7086,-44.921875
7087,-44.921875
7088,-44.921875
7089,-46.875000
7090,-46.875000
7091,-48.828125
7092,-48.828125
7093,-50.781250
7094,-50.781250
7095,-50.781250
7096,-52.734375
7097,-52.734375
7098,-54.687500
7099,-54.687500
7100,-54.687500
7101,-56.640625
7102,-56.640625
7103,-58.593750
7104,-58.593750
7105,-60.546875
7106,-60.546875
7107,-60.546875
7108,-62.500000
7109,-62.500000
7110,-62.500000
7111,-64.453125
7112,-64.453125
7113,-66.406250
7114,-66.406250
7115,-66.406250
7116,-68.359375
7117,-68.359375
7118,-68.359375
7119,-70.312500
7120,-70.312500
7121,-70.312500
7122,-72.265625
7123,-72.265625
7124,-74.218750
7125,-74.218750
7126,-74.218750
7127,-76.171875
7128,-76.171875
7129,-76.171875
7130,-76.171875
7131,-78.125000
7132,-78.125000
7133,-78.125000
7134,-78.125000
7135,-80.078125
7136,-80.078125
7137,-80.078125
7138,-82.031250
7139,-82.031250
7140,-82.031250
7141,-83.984375
7142,-83.984375
7143,-83.984375
7144,-83.984375
7145,-85.937500
7146,-83.984375
7147,-85.937500
7148,-85.937500
7149,-85.937500
7150,-87.890625
7151,-87.890625
7152,-87.890625
7153,-87.890625
7154,-89.843750
7155,-89.843750
7156,-89.843750
7157,-89.843750
7158,-89.843750
7159,-89.843750
7160,-91.796875
7161,-91.796875
7162,-91.796875
7163,-91.796875
7164,-91.796875
7165,-91.796875
7166,-93.750000
7167,-93.750000
7168,-93.750000
7169,-93.750000
7170,-93.750000
7171,-93.750000
7172,-93.750000
7173,-93.750000
7174,-93.750000
7175,-95.703125
7176,-95.703125
7177,-95.703125
7178,-95.703125
7179,-95.703125
7180,-95.703125
7181,-95.703125
7182,-95.703125
7183,-95.703125
7184,-97.656250
7185,-95.703125
7186,-95.703125
7187,-97.656250
7188,-97.656250
7189,-95.703125
7190,-97.656250
7191,-97.656250
7192,-97.656250
7193,-97.656250
7194,-95.703125
7195,-97.656250
7196,-97.656250
7197,-95.703125
7198,-95.703125
7199,-97.656250
7200,-95.703125
7201,-97.656250
7202,-95.703125
7203,-95.703125
7204,-95.703125
7205,-97.656250
7206,-95.703125
7207,-95.703125
7208,-95.703125
7209,-95.703125
7210,-95.703125
7211,-95.703125
7212,-93.750000
7213,-93.750000
7214,-95.703125
7215,-93.750000
7216,-93.750000
7217,-93.750000
7218,-93.750000
7219,-93.750000
7220,-93.750000
7221,-91.796875
7222,-91.796875
7223,-91.796875
7224,-91.796875
7225,-91.796875
7226,-91.796875
7227,-91.796875
7228,-91.796875
7229,-89.843750
7230,-89.843750
7231,-89.843750
7232,-89.843750
7233,-87.890625
7234,-87.890625
7235,-89.843750
7236,-87.890625
7237,-87.890625
7238,-85.937500
7239,-85.937500
7240,-85.937500
7241,-85.937500
7242,-83.984375
7243,-83.984375
7244,-85.937500
7245,-83.984375
7246,-83.984375
7247,-83.984375
7248,-82.031250
7249,-82.031250
7250,-82.031250
7251,-80.078125
7252,-80.078125
7253,-80.078125
7254,-80.078125
7255,-80.078125
7256,-78.125000
7257,-78.125000
7258,-76.171875
7259,-78.125000
7260,-76.171875
7261,-76.171875
7262,-74.218750
7263,-74.218750
7264,-74.218750
7265,-74.218750
7266,-72.265625
7267,-72.265625
7268,-72.265625
7269,-70.312500
7270,-68.359375
7271,-68.359375
7272,-68.359375
7273,-68.359375
7274,-66.406250
7275,-66.406250
7276,-66.406250
7277,-64.453125
7278,-64.453125
7279,-62.500000
7280,-62.500000
7281,-62.500000
7282,-60.546875
7283,-60.546875
7284,-58.593750
7285,-58.593750
7286,-56.640625
7287,-58.593750
7288,-56.640625
7289,-54.687500
7290,-54.687500
7291,-54.687500
7292,-52.734375
7293,-52.734375
7294,-52.734375
7295,-50.781250
7296,-50.781250
7297,-48.828125
7298,-48.828125
7299,-46.875000
7300,-46.875000
7301,-46.875000
7302,-44.921875
7303,-44.921875
7304,-42.968750
7305,-42.968750
7306,-42.968750
7307,-41.015625
7308,-41.015625
7309,-39.062500
7310,-39.062500
7311,-39.062500
7312,-37.109375
7313,-35.156250
7314,-35.156250
7315,-33.203125
7316,-33.203125
7317,-33.203125
7318,-31.250000
7319,-31.250000
7320,-29.296875
7321,-29.296875
7322,-27.343750
7323,-27.343750
7324,-25.390625
7325,-25.390625
7326,-23.437500
7327,-23.437500
7328,-21.484375
7329,-21.484375
7330,-19.531250
7331,-19.531250
7332,-17.578125
7333,-17.578125
7334,-15.625000
7335,-15.625000
7336,-13.671875
7337,-13.671875
7338,-11.718750
7339,-11.718750
7340,-11.718750
7341,-9.765625
7342,-9.765625
7343,-7.812500
7344,-5.859375
7345,-5.859375
7346,-3.906250
7347,-3.906250
7348,-3.906250
7349,-1.953125
7350,-1.953125
7351,0.000000
7352,1.953125
7353,3.906250
7354,1.953125
7355,3.906250
7356,3.906250
7357,5.859375
7358,5.859375
7359,7.812500
7360,7.812500
7361,9.765625
7362,9.765625
7363,11.718750
7364,11.718750
7365,13.671875
7366,13.671875
7367,15.625000
7368,15.625000
7369,15.625000
7370,15.625000
7371,17.578125
7372,19.531250
7373,19.531250
7374,21.484375
7375,21.484375
7376,23.437500
7377,23.437500
7378,21.484375
7379,25.390625
7380,27.343750
7381,27.343750
7382,27.343750
7383,29.296875
7384,29.296875
7385,31.250000
7386,31.250000
7387,33.203125
7388,33.203125
7389,35.156250
7390,35.156250
7391,35.156250
7392,37.109375
7393,39.062500
7394,39.062500
7395,39.062500
7396,41.015625
7397,42.968750
7398,42.968750
7399,44.921875
7400,44.921875
7401,44.921875
7402,46.875000
7403,46.875000
7404,46.875000
7405,48.828125
7406,48.828125
7407,50.781250
7408,50.781250
7409,50.781250
7410,52.734375
7411,54.687500
7412,54.687500
7413,54.687500
7414,54.687500
7415,54.687500
7416,56.640625
7417,58.593750
7418,58.593750
7419,58.593750
7420,60.546875
7421,58.593750
7422,62.500000
7423,62.500000
7424,60.546875
7425,62.500000
7426,62.500000
7427,64.453125
7428,64.453125
7429,64.453125
7430,66.406250
7431,66.406250
7432,68.359375
7433,68.359375
7434,68.359375
7435,68.359375
7436,70.312500
7437,70.312500
7438,70.312500
7439,70.312500
7440,72.265625
7441,72.265625
7442,72.265625
7443,74.218750
7444,74.218750
7445,74.218750
7446,72.265625
7447,76.171875
7448,76.171875
7449,76.171875
7450,76.171875
7451,78.125000
7452,78.125000
7453,78.125000
7454,78.125000
7455,78.125000
7456,78.125000
7457,80.078125
7458,80.078125
7459,80.078125
7460,80.078125
7461,80.078125
7462,82.031250
7463,82.031250
7464,82.031250
7465,82.031250
7466,82.031250
7467,83.984375
7468,83.984375
7469,83.984375
7470,83.984375
7471,83.984375
7472,83.984375
7473,83.984375
7474,83.984375
7475,83.984375
7476,83.984375
7477,85.937500
7478,83.984375
7479,85.937500
7480,83.984375
7481,83.984375
7482,83.984375
7483,85.937500
7484,85.937500
7485,83.984375
7486,85.937500
7487,83.984375
7488,83.984375
7489,85.937500
7490,85.937500
7491,83.984375
7492,83.984375
7493,85.937500
7494,85.937500
7495,83.984375
7496,85.937500
7497,83.984375
7498,83.984375
7499,83.984375
7500,83.984375
7501,83.984375
7502,83.984375
7503,82.031250
7504,82.031250
7505,82.031250
7506,80.078125
7507,82.031250
7508,82.031250
7509,82.031250
7510,80.078125
7511,80.078125
7512,82.031250
7513,80.078125
7514,80.078125
7515,80.078125
7516,80.078125
7517,80.078125
7518,78.125000
7519,78.125000
7520,78.125000
7521,76.171875
7522,78.125000
7523,76.171875
7524,76.171875
7525,76.171875
7526,76.171875
7527,74.218750
7528,74.218750
7529,74.218750
7530,74.218750
7531,72.265625
7532,72.265625
7533,72.265625
7534,72.265625
7535,72.265625
7536,70.312500
7537,70.312500
7538,70.312500
7539,70.312500
7540,68.359375
7541,66.406250
7542,66.406250
7543,66.406250
7544,66.406250
7545,64.453125
7546,64.453125
7547,64.453125
7548,62.500000
7549,62.500000
7550,60.546875
7551,60.546875
7552,60.546875
7553,60.546875
7554,58.593750
7555,56.640625
7556,56.640625
7557,56.640625
7558,54.687500
7559,54.687500
7560,54.687500
7561,52.734375
7562,52.734375
7563,52.734375
7564,50.781250
7565,50.781250
7566,48.828125
7567,48.828125
7568,48.828125
7569,46.875000
7570,44.921875
7571,44.921875
7572,44.921875
7573,42.968750
7574,42.968750
7575,41.015625
7576,41.015625
7577,39.062500
7578,39.062500
7579,37.109375
7580,37.109375
7581,37.109375
7582,35.156250
7583,35.156250
7584,33.203125
7585,31.250000
7586,31.250000
7587,31.250000
7588,31.250000
7589,29.296875
7590,29.296875
7591,27.343750
7592,27.343750
7593,25.390625
7594,25.390625
7595,23.437500
7596,23.437500
7597,21.484375
7598,21.484375
7599,19.531250
7600,19.531250
7601,17.578125
7602,17.578125
7603,15.625000
7604,15.625000
7605,13.671875
7606,13.671875
7607,11.718750
7608,11.718750
7609,9.765625
7610,9.765625
7611,7.812500
7612,7.812500
7613,5.859375
7614,5.859375
7615,3.906250
7616,3.906250
7617,1.953125
7618,1.953125
7619,0.000000
7620,0.000000
7621,-1.953125
7622,-1.953125
7623,-3.906250
7624,-3.906250
7625,-5.859375
7626,-5.859375
7627,-5.859375
7628,-7.812500
7629,-9.765625
7630,-9.765625
7631,-11.718750
7632,-11.718750
7633,-13.671875
7634,-13.671875
7635,-15.625000
7636,-15.625000
7637,-15.625000
7638,-17.578125
7639,-19.531250
7640,-19.531250
7641,-21.484375
7642,-21.484375
7643,-21.484375
7644,-23.437500
7645,-23.437500
7646,-25.390625
7647,-25.390625
7648,-27.343750
7649,-27.343750
7650,-29.296875
7651,-29.296875
7652,-31.250000
7653,-31.250000
7654,-33.203125
7655,-33.203125
7656,-33.203125
7657,-35.156250
7658,-35.156250
7659,-37.109375
7660,-37.109375
7661,-37.109375
7662,-39.062500
7663,-39.062500
7664,-41.015625
7665,-41.015625
7666,-42.968750
7667,-42.968750
7668,-44.921875
7669,-44.921875
7670,-46.875000
7671,-46.875000
7672,-46.875000
7673,-48.828125
7674,-48.828125
7675,-50.781250
7676,-50.781250
7677,-50.781250
7678,-52.734375
7679,-52.734375
7680,-54.687500
7681,-54.687500
7682,-54.687500
7683,-56.640625
7684,-56.640625
7685,-58.593750
7686,-58.593750
7687,-60.546875
7688,-60.546875
7689,-60.546875
7690,-62.500000
7691,-62.500000
7692,-64.453125
7693,-64.453125
7694,-64.453125
7695,-66.406250
7696,-66.406250
7697,-68.359375
7698,-68.359375
7699,-68.359375
7700,-68.359375
7701,-70.312500
7702,-70.312500
7703,-70.312500
7704,-72.265625
7705,-72.265625
7706,-74.218750
7707,-74.218750
7708,-74.218750
7709,-74.218750
7710,-76.171875
7711,-76.171875
7712,-78.125000
7713,-78.125000
7714,-76.171875
7715,-80.078125
7716,-80.078125
7717,-80.078125
7718,-80.078125
7719,-80.078125
7720,-82.031250
7721,-82.031250
7722,-82.031250
7723,-80.078125
7724,-83.984375
7725,-83.984375
7726,-83.984375
7727,-83.984375
7728,-85.937500
7729,-85.937500
7730,-85.937500
7731,-85.937500
7732,-85.937500
7733,-87.890625
7734,-87.890625
7735,-87.890625
7736,-87.890625
7737,-87.890625
7738,-89.843750
7739,-89.843750
7740,-89.843750
7741,-89.843750
7742,-91.796875
7743,-91.796875
7744,-91.796875
7745,-91.796875
7746,-91.796875
7747,-91.796875
7748,-93.750000
7749,-93.750000
7750,-93.750000
7751,-93.750000
7752,-93.750000
7753,-93.750000
7754,-95.703125
7755,-95.703125
7756,-95.703125
7757,-93.750000
7758,-95.703125
7759,-95.703125
7760,-95.703125
7761,-95.703125
7762,-99.609375
7763,-95.703125
7764,-95.703125
7765,-95.703125
7766,-97.656250
7767,-97.656250
7768,-95.703125
7769,-95.703125
7770,-97.656250
7771,-97.656250
7772,-95.703125
7773,-95.703125
7774,-95.703125
7775,-97.656250
7776,-97.656250
7777,-95.703125
7778,-95.703125
7779,-95.703125
7780,-97.656250
7781,-97.656250
7782,-95.703125
7783,-95.703125
7784,-95.703125
7785,-95.703125
7786,-95.703125
7787,-95.703125
7788,-95.703125
7789,-95.703125
7790,-95.703125
7791,-95.703125
7792,-95.703125
7793,-93.750000
7794,-93.750000
7795,-95.703125
7796,-93.750000
7797,-93.750000
7798,-93.750000
7799,-93.750000
7800,-93.750000
7801,-93.750000
7802,-93.750000
7803,-91.796875
7804,-93.750000
7805,-91.796875
7806,-91.796875
7807,-91.796875
7808,-91.796875
7809,-91.796875
7810,-89.843750
7811,-89.843750
7812,-89.843750
7813,-89.843750
7814,-89.843750
7815,-89.843750
7816,-89.843750
7817,-87.890625
7818,-87.890625
7819,-85.937500
7820,-87.890625
7821,-87.890625
7822,-85.937500
7823,-85.937500
7824,-83.984375
7825,-85.937500
7826,-83.984375
7827,-83.984375
7828,-83.984375
7829,-82.031250
7830,-82.031250
7831,-82.031250
7832,-82.031250
7833,-80.078125
7834,-80.078125
7835,-80.078125
7836,-80.078125
7837,-78.125000
7838,-78.125000
7839,-78.125000
7840,-76.171875
7841,-76.171875
7842,-76.171875
7843,-74.218750
7844,-74.218750
7845,-74.218750
7846,-74.218750
7847,-72.265625
7848,-72.265625
7849,-72.265625
7850,-70.312500
7851,-70.312500
7852,-70.312500
7853,-68.359375
7854,-68.359375
7855,-68.359375
7856,-66.406250
7857,-66.406250
7858,-66.406250
7859,-64.453125
7860,-64.453125
7861,-62.500000
7862,-62.500000
7863,-62.500000
7864,-60.546875
7865,-60.546875
7866,-58.593750
7867,-58.593750
7868,-58.593750
7869,-56.640625
7870,-56.640625
7871,-54.687500
7872,-54.687500
7873,-52.734375
7874,-52.734375
7875,-52.734375
7876,-50.781250
7877,-50.781250
7878,-50.781250
7879,-48.828125
7880,-48.828125
7881,-46.875000
7882,-46.875000
7883,-46.875000
7884,-44.921875
7885,-44.921875
7886,-42.968750
7887,-42.968750
7888,-42.968750
7889,-41.015625
7890,-39.062500
7891,-39.062500
7892,-39.062500
7893,-37.109375
7894,-37.109375
7895,-35.156250
7896,-35.156250
7897,-33.203125
7898,-33.203125
7899,-33.203125
7900,-31.250000
7901,-29.296875
7902,-29.296875
7903,-29.296875
7904,-27.343750
7905,-25.390625
7906,-25.390625
7907,-23.437500
7908,-23.437500
7909,-23.437500
7910,-21.484375
7911,-19.531250
7912,-21.484375
7913,-19.531250
7914,-17.578125
7915,-17.578125
7916,-15.625000
7917,-15.625000
7918,-13.671875
7919,-13.671875
7920,-11.718750
7921,-9.765625
7922,-11.718750
7923,-9.765625
7924,-7.812500
7925,-7.812500
7926,-7.812500
7927,-5.859375
7928,-3.906250
7929,-3.906250
7930,-1.953125
7931,-1.953125
7932,-1.953125
7933,0.000000
7934,0.000000
7935,1.953125
7936,3.906250
7937,3.906250
7938,3.906250
7939,5.859375
7940,5.859375
7941,7.812500
7942,7.812500
7943,9.765625
7944,9.765625
7945,11.718750
7946,11.718750
7947,11.718750
7948,13.671875
7949,13.671875
7950,15.625000
7951,17.578125
7952,17.578125
7953,19.531250
7954,19.531250
7955,19.531250
7956,21.484375
7957,21.484375
7958,21.484375
7959,23.437500
7960,25.390625
7961,25.390625
7962,25.390625
7963,27.343750
7964,29.296875
7965,29.296875
7966,29.296875
7967,31.250000
7968,33.203125
7969,33.203125
7970,33.203125
7971,35.156250
7972,35.156250
7973,35.156250
7974,37.109375
7975,39.062500
7976,39.062500
7977,39.062500
7978,41.015625
7979,41.015625
7980,42.968750
7981,42.968750
7982,44.921875
7983,44.921875
7984,46.875000
7985,46.875000
7986,46.875000
7987,48.828125
7988,48.828125
7989,48.828125
7990,50.781250
7991,50.781250
7992,52.734375
7993,52.734375
7994,54.687500
7995,54.687500
7996,54.687500
7997,56.640625
7998,56.640625
7999,56.640625
8000,58.593750
8001,58.593750
8002,60.546875
8003,60.546875
8004,60.546875
8005,60.546875
8006,62.500000
8007,62.500000
8008,64.453125
8009,64.453125
8010,64.453125
8011,66.406250
8012,66.406250
8013,66.406250
8014,66.406250
8015,68.359375
8016,68.359375
8017,68.359375
8018,70.312500
8019,70.312500
8020,70.312500
8021,70.312500
8022,72.265625
8023,72.265625
8024,72.265625
8025,72.265625
8026,74.218750
8027,74.218750
8028,74.218750
8029,76.171875
8030,76.171875
8031,76.171875
8032,76.171875
8033,76.171875
8034,76.171875
8035,78.125000
8036,78.125000
8037,78.125000
8038,80.078125
8039,80.078125
8040,80.078125
8041,80.078125
8042,80.078125
8043,80.078125
8044,80.078125
8045,82.031250
8046,82.031250
8047,82.031250
8048,82.031250
8049,82.031250
8050,82.031250
8051,82.031250
8052,83.984375
8053,83.984375
8054,83.984375
8055,83.984375
8056,83.984375
8057,83.984375
8058,83.984375
8059,83.984375
8060,83.984375
8061,83.984375
8062,83.984375
8063,83.984375
8064,83.984375
8065,85.937500
8066,83.984375
8067,83.984375
8068,83.984375
8069,83.984375
8070,83.984375
8071,83.984375
8072,83.984375
8073,83.984375
8074,83.984375
8075,83.984375
8076,83.984375
8077,83.984375
8078,83.984375
8079,83.984375
8080,83.984375
8081,83.984375
8082,83.984375
8083,83.984375
8084,82.031250
8085,82.031250
8086,82.031250
8087,82.031250
8088,82.031250
8089,82.031250
8090,82.031250
8091,82.031250
8092,80.078125
8093,80.078125
8094,80.078125
8095,80.078125
8096,80.078125
8097,80.078125
8098,78.125000
8099,78.125000
8100,78.125000
8101,78.125000
8102,78.125000
8103,78.125000
8104,76.171875
8105,76.171875
8106,76.171875
8107,76.171875
8108,74.218750
8109,74.218750
8110,74.218750
8111,74.218750
8112,74.218750
8113,74.218750
8114,72.265625
8115,72.265625
8116,70.312500
8117,70.312500
8118,70.312500
8119,70.312500
8120,68.359375
8121,68.359375
8122,68.359375
8123,68.359375
8124,66.406250
8125,66.406250
8126,64.453125
8127,64.453125
8128,64.453125
8129,62.500000
8130,62.500000
8131,62.500000
8132,62.500000
8133,60.546875
8134,60.546875
8135,58.593750
8136,58.593750
8137,58.593750
8138,56.640625
8139,56.640625
8140,54.687500
8141,54.687500
8142,54.687500
8143,52.734375
8144,52.734375
8145,50.781250
8146,50.781250
8147,50.781250
8148,48.828125
8149,48.828125
8150,46.875000
8151,46.875000
8152,44.921875
8153,44.921875
8154,44.921875
8155,42.968750
8156,41.015625
8157,41.015625
8158,41.015625
8159,39.062500
8160,39.062500
8161,37.109375
8162,37.109375
8163,37.109375
8164,35.156250
8165,35.156250
8166,33.203125
8167,33.203125
8168,31.250000
8169,31.250000
8170,29.296875
8171,29.296875
8172,27.343750
8173,27.343750
8174,27.343750
8175,25.390625
8176,23.437500
8177,23.437500
8178,23.437500
8179,21.484375
8180,21.484375
8181,19.531250
8182,17.578125
8183,17.578125
8184,17.578125
8185,15.625000
8186,15.625000
8187,13.671875
8188,13.671875
8189,11.718750
8190,11.718750
8191,11.718750
8192,9.765625
8193,7.812500
8194,7.812500
8195,5.859375
8196,5.859375
8197,3.906250
8198,3.906250
8199,3.906250
8200,1.953125
8201,0.000000
8202,0.000000
8203,-1.953125
8204,-1.953125
8205,-3.906250
8206,-3.906250
8207,-5.859375
8208,-5.859375
8209,-7.812500
8210,-7.812500
8211,-9.765625
8212,-9.765625
8213,-11.718750
8214,-11.718750
8215,-11.718750
8216,-13.671875
8217,-15.625000
8218,-15.625000
8219,-17.578125
8220,-17.578125
8221,-17.578125
8222,-19.531250
8223,-19.531250
8224,-21.484375
8225,-21.484375
8226,-21.484375
8227,-23.437500
8228,-25.390625
8229,-25.390625
8230,-25.390625
8231,-27.343750
8232,-27.343750
8233,-29.296875
8234,-31.250000
8235,-31.250000
8236,-31.250000
8237,-33.203125
8238,-33.203125
8239,-35.156250
8240,-35.156250
8241,-35.156250
8242,-37.109375
8243,-37.109375
8244,-39.062500
8245,-39.062500
8246,-39.062500
8247,-41.015625
8248,-41.015625
8249,-42.968750
8250,-42.968750
8251,-44.921875
8252,-44.921875
8253,-44.921875
8254,-46.875000
8255,-48.828125
8256,-48.828125
8257,-48.828125
8258,-50.781250
8259,-50.781250
8260,-50.781250
8261,-52.734375
8262,-52.734375
8263,-54.687500
8264,-54.687500
8265,-56.640625
8266,-56.640625
8267,-56.640625
8268,-58.593750
8269,-58.593750
8270,-58.593750
8271,-60.546875
8272,-60.546875
8273,-62.500000
8274,-62.500000
8275,-62.500000
8276,-64.453125
8277,-64.453125
8278,-66.406250
8279,-66.406250
8280,-66.406250
8281,-68.359375
8282,-68.359375
8283,-68.359375
8284,-70.312500
8285,-70.312500
8286,-70.312500
8287,-72.265625
8288,-72.265625
8289,-72.265625
8290,-74.218750
8291,-74.218750
8292,-74.218750
8293,-76.171875
8294,-76.171875
8295,-76.171875
8296,-76.171875
8297,-78.125000
8298,-78.125000
8299,-78.125000
8300,-80.078125
8301,-80.078125
8302,-80.078125
8303,-80.078125
8304,-80.078125
8305,-82.031250
8306,-82.031250
8307,-82.031250
8308,-82.031250
8309,-83.984375
8310,-83.984375
8311,-85.937500
8312,-85.937500
8313,-85.937500
8314,-85.937500
8315,-85.937500
8316,-87.890625
8317,-87.890625
8318,-87.890625
8319,-87.890625
8320,-87.890625
8321,-87.890625
8322,-89.843750
8323,-91.796875
8324,-89.843750
8325,-89.843750
8326,-89.843750
8327,-89.843750
8328,-91.796875
8329,-89.843750
8330,-91.796875
8331,-91.796875
8332,-93.750000
8333,-93.750000
8334,-91.796875
8335,-93.750000
8336,-93.750000
8337,-93.750000
8338,-93.750000
8339,-93.750000
8340,-93.750000
8341,-93.750000
8342,-95.703125
8343,-95.703125
8344,-95.703125
8345,-95.703125
8346,-95.703125
8347,-95.703125
8348,-95.703125
8349,-95.703125
8350,-95.703125
8351,-95.703125
8352,-95.703125
8353,-95.703125
8354,-95.703125
8355,-95.703125
8356,-95.703125
8357,-95.703125
8358,-95.703125
8359,-95.703125
8360,-95.703125
8361,-95.703125
8362,-95.703125
8363,-95.703125
8364,-95.703125
8365,-95.703125
8366,-95.703125
8367,-95.703125
8368,-95.703125
8369,-93.750000
8370,-95.703125
8371,-95.703125
8372,-95.703125
8373,-95.703125
8374,-93.750000
8375,-93.750000
8376,-93.750000
8377,-93.750000
8378,-93.750000
8379,-93.750000
8380,-93.750000
8381,-93.750000
8382,-93.750000
8383,-91.796875
8384,-91.796875
8385,-91.796875
8386,-91.796875
8387,-91.796875
8388,-91.796875
8389,-91.796875
8390,-89.843750
8391,-89.843750
8392,-89.843750
8393,-89.843750
8394,-89.843750
8395,-89.843750
8396,-87.890625
8397,-87.890625
8398,-87.890625
8399,-87.890625
8400,-87.890625
8401,-85.937500
8402,-85.937500
8403,-85.937500
8404,-85.937500
8405,-85.937500
8406,-85.937500
8407,-83.984375
8408,-83.984375
8409,-83.984375
8410,-83.984375
8411,-82.031250
8412,-82.031250
8413,-82.031250
8414,-82.031250
8415,-80.078125
8416,-80.078125
8417,-80.078125
8418,-80.078125
8419,-78.125000
8420,-78.125000
8421,-78.125000
8422,-78.125000
8423,-76.171875
8424,-76.171875
8425,-76.171875
8426,-74.218750
8427,-74.218750
8428,-72.265625
8429,-72.265625
8430,-72.265625
8431,-72.265625
8432,-70.312500
8433,-70.312500
8434,-70.312500
8435,-68.359375
8436,-68.359375
8437,-66.406250
8438,-66.406250
8439,-66.406250
8440,-66.406250
8441,-64.453125
8442,-64.453125
8443,-62.500000
8444,-62.500000
8445,-62.500000
8446,-60.546875
8447,-60.546875
8448,-58.593750
8449,-58.593750
8450,-58.593750
8451,-56.640625
8452,-56.640625
8453,-56.640625
8454,-54.687500
8455,-54.687500
8456,-54.687500
8457,-52.734375
8458,-52.734375
8459,-50.781250
8460,-50.781250
8461,-48.828125
8462,-48.828125
8463,-48.828125
8464,-48.828125
8465,-44.921875
8466,-44.921875
8467,-44.921875
8468,-42.968750
8469,-42.968750
8470,-42.968750
8471,-41.015625
8472,-41.015625
8473,-41.015625
8474,-39.062500
8475,-39.062500
8476,-37.109375
8477,-35.156250
8478,-37.109375
8479,-33.203125
8480,-33.203125
8481,-33.203125
8482,-31.250000
8483,-31.250000
8484,-29.296875
8485,-29.296875
8486,-27.343750
8487,-27.343750
8488,-25.390625
8489,-25.390625
8490,-25.390625
8491,-23.437500
8492,-23.437500
8493,-21.484375
8494,-21.484375
8495,-19.531250
8496,-19.531250
8497,-17.578125
8498,-17.578125
8499,-15.625000
8500,-15.625000
8501,-13.671875
8502,-13.671875
8503,-11.718750
8504,-11.718750
8505,-9.765625
8506,-9.765625
8507,-7.812500
8508,-7.812500
8509,-5.859375
8510,-5.859375
8511,-5.859375
8512,-3.906250
8513,-3.906250
8514,-1.953125
8515,-1.953125
8516,0.000000
8517,0.000000
8518,1.953125
8519,1.953125
8520,3.906250
8521,3.906250
8522,5.859375
8523,5.859375
8524,7.812500
8525,7.812500
8526,9.765625
8527,9.765625
8528,9.765625
8529,11.718750
8530,13.671875
8531,13.671875
8532,13.671875
8533,15.625000
8534,15.625000
8535,17.578125
8536,17.578125
8537,17.578125
8538,19.531250
8539,21.484375
8540,21.484375
8541,21.484375
8542,23.437500
8543,25.390625
8544,25.390625
8545,27.343750
8546,27.343750
8547,27.343750
8548,29.296875
8549,29.296875
8550,31.250000
8551,31.250000
8552,33.203125
8553,33.203125
8554,35.156250
8555,37.109375
8556,37.109375
8557,37.109375
8558,37.109375
8559,39.062500
8560,41.015625
8561,41.015625
8562,41.015625
8563,42.968750
8564,42.968750
8565,42.968750
8566,44.921875
8567,44.921875
8568,46.875000
8569,46.875000
8570,48.828125
8571,48.828125
8572,48.828125
8573,50.781250
8574,50.781250
8575,50.781250
8576,52.734375
8577,54.687500
8578,54.687500
8579,54.687500
8580,54.687500
8581,56.640625
8582,56.640625
8583,58.593750
8584,58.593750
8585,58.593750
8586,58.593750
8587,60.546875
8588,60.546875
8589,62.500000
8590,62.500000
8591,62.500000
8592,64.453125
8593,64.453125
8594,64.453125
8595,66.406250
8596,66.406250
8597,66.406250
8598,66.406250
8599,68.359375
8600,68.359375
8601,68.359375
8602,68.359375
8603,70.312500
8604,70.312500
8605,70.312500
8606,72.265625
8607,72.265625
8608,72.265625
8609,74.218750
8610,74.218750
8611,74.218750
8612,74.218750
8613,74.218750
8614,76.171875
8615,76.171875
8616,76.171875
8617,76.171875
8618,76.171875
8619,78.125000
8620,78.125000
8621,80.078125
8622,78.125000
8623,78.125000
8624,80.078125
8625,80.078125
8626,80.078125
8627,80.078125
8628,80.078125
8629,82.031250
8630,82.031250
8631,82.031250
8632,82.031250
8633,82.031250
8634,82.031250
8635,82.031250
8636,82.031250
8637,83.984375
8638,82.031250
8639,83.984375
8640,83.984375
8641,83.984375
8642,83.984375
8643,83.984375
8644,83.984375
8645,83.984375
8646,83.984375
8647,83.984375
8648,83.984375
8649,83.984375
8650,83.984375
8651,83.984375
8652,83.984375
8653,83.984375
8654,83.984375
8655,83.984375
8656,83.984375
8657,83.984375
8658,83.984375
8659,83.984375
8660,83.984375
8661,83.984375
8662,82.031250
8663,83.984375
8664,83.984375
8665,82.031250
8666,82.031250
8667,82.031250
8668,82.031250
8669,82.031250
8670,82.031250
8671,82.031250
8672,82.031250
8673,82.031250
8674,80.078125
8675,80.078125
8676,80.078125
8677,80.078125
8678,80.078125
8679,80.078125
8680,80.078125
8681,78.125000
8682,78.125000
8683,78.125000
8684,78.125000
8685,78.125000
8686,76.171875
8687,76.171875
8688,76.171875
8689,76.171875
8690,76.171875
8691,74.218750
8692,74.218750
8693,74.218750
8694,74.218750
8695,72.265625
8696,72.265625
8697,72.265625
8698,72.265625
8699,70.312500
8700,70.312500
8701,70.312500
8702,68.359375
8703,68.359375
8704,68.359375
8705,68.359375
8706,66.406250
8707,66.406250
8708,66.406250
8709,64.453125
8710,64.453125
8711,64.453125
8712,62.500000
8713,62.500000
8714,62.500000
8715,62.500000
8716,60.546875
8717,60.546875
8718,60.546875
8719,58.593750
8720,56.640625
8721,56.640625
8722,54.687500
8723,56.640625
8724,54.687500
8725,52.734375
8726,52.734375
8727,52.734375
8728,50.781250
8729,50.781250
8730,48.828125
8731,48.828125
8732,48.828125
8733,46.875000
8734,46.875000
8735,44.921875
8736,44.921875
8737,44.921875
8738,42.968750
8739,42.968750
8740,41.015625
8741,41.015625
8742,39.062500
8743,39.062500
8744,37.109375
8745,37.109375
8746,37.109375
8747,35.156250
8748,35.156250
8749,33.203125
8750,33.203125
8751,33.203125
8752,31.250000
8753,31.250000
8754,29.296875
8755,29.296875
8756,27.343750
8757,27.343750
8758,25.390625
8759,23.437500
8760,23.437500
8761,23.437500
8762,21.484375
8763,21.484375
8764,19.531250
8765,19.531250
8766,19.531250
8767,17.578125
8768,15.625000
8769,15.625000
8770,13.671875
8771,13.671875
8772,13.671875
8773,11.718750
8774,9.765625
8775,9.765625
8776,9.765625
8777,7.812500
8778,5.859375
8779,5.859375
8780,3.906250
8781,3.906250
8782,1.953125
8783,1.953125
8784,0.000000
8785,0.000000
8786,-1.953125
8787,-1.953125
8788,-1.953125
8789,-3.906250
8790,-3.906250
8791,-5.859375
8792,-5.859375
8793,-7.812500
8794,-9.765625
8795,-9.765625
8796,-9.765625
8797,-11.718750
8798,-13.671875
8799,-13.671875
8800,-15.625000
8801,-15.625000
8802,-15.625000
8803,-15.625000
8804,-17.578125
8805,-19.531250
8806,-21.484375
8807,-21.484375
8808,-21.484375
8809,-23.437500
8810,-23.437500
8811,-23.437500
8812,-25.390625
8813,-25.390625
8814,-27.343750
8815,-27.343750
8816,-29.296875
8817,-29.296875
8818,-31.250000
8819,-31.250000
8820,-33.203125
8821,-33.203125
8822,-33.203125
8823,-35.156250
8824,-37.109375
8825,-37.109375
8826,-37.109375
8827,-39.062500
8828,-39.062500
8829,-41.015625
8830,-41.015625
8831,-41.015625
8832,-42.968750
8833,-42.968750
8834,-42.968750
8835,-44.921875
8836,-46.875000
8837,-46.875000
8838,-46.875000
8839,-48.828125
8840,-48.828125
8841,-50.781250
8842,-50.781250
8843,-50.781250
8844,-52.734375
8845,-52.734375
8846,-54.687500
8847,-54.687500
8848,-54.687500
8849,-56.640625
8850,-56.640625
8851,-56.640625
8852,-58.593750
8853,-60.546875
8854,-60.546875
8855,-60.546875
8856,-62.500000
8857,-62.500000
8858,-62.500000
8859,-64.453125
8860,-64.453125
8861,-66.406250
8862,-64.453125
8863,-66.406250
8864,-68.359375
8865,-68.359375
8866,-70.312500
8867,-70.312500
8868,-70.312500
8869,-70.312500
8870,-72.265625
8871,-72.265625
8872,-72.265625
8873,-74.218750
8874,-74.218750
8875,-74.218750
8876,-76.171875
8877,-76.171875
8878,-76.171875
8879,-76.171875
8880,-78.125000
8881,-78.125000
8882,-80.078125
8883,-80.078125
8884,-80.078125
8885,-80.078125
8886,-80.078125
8887,-82.031250
8888,-82.031250
8889,-82.031250
8890,-82.031250
8891,-83.984375
8892,-83.984375
8893,-83.984375
8894,-83.984375
8895,-85.937500
8896,-85.937500
8897,-85.937500
8898,-85.937500
8899,-85.937500
8900,-87.890625
8901,-87.890625
8902,-87.890625
8903,-87.890625
8904,-89.843750
8905,-87.890625
8906,-89.843750
8907,-89.843750
8908,-89.843750
8909,-91.796875
8910,-89.843750
8911,-91.796875
8912,-91.796875
8913,-91.796875
8914,-91.796875
8915,-91.796875
8916,-93.750000
8917,-93.750000
8918,-93.750000
8919,-93.750000
8920,-93.750000
8921,-93.750000
8922,-93.750000
8923,-93.750000
8924,-95.703125
8925,-95.703125
8926,-95.703125
8927,-93.750000
8928,-97.656250
8929,-95.703125
8930,-95.703125
8931,-95.703125
8932,-95.703125
8933,-95.703125
8934,-95.703125
8935,-97.656250
8936,-97.656250
8937,-95.703125
8938,-95.703125
8939,-95.703125
8940,-97.656250
8941,-97.656250
8942,-95.703125
8943,-95.703125
8944,-95.703125
8945,-95.703125
8946,-95.703125
8947,-95.703125
8948,-95.703125
8949,-95.703125
8950,-95.703125
8951,-95.703125
8952,-95.703125
8953,-95.703125
8954,-95.703125
8955,-95.703125
8956,-93.750000
8957,-95.703125
8958,-95.703125
8959,-93.750000
8960,-93.750000
8961,-93.750000
8962,-93.750000
8963,-93.750000
8964,-93.750000
8965,-93.750000
8966,-93.750000
8967,-91.796875
8968,-91.796875
8969,-91.796875
8970,-91.796875
8971,-91.796875
8972,-91.796875
8973,-91.796875
8974,-89.843750
8975,-91.796875
8976,-89.843750
8977,-89.843750
8978,-89.843750
8979,-87.890625
8980,-89.843750
8981,-87.890625
8982,-89.843750
8983,-87.890625
8984,-87.890625
8985,-85.937500
8986,-87.890625
8987,-85.937500
8988,-85.937500
8989,-83.984375
8990,-83.984375
8991,-85.937500
8992,-83.984375
8993,-83.984375
8994,-82.031250
8995,-83.984375
8996,-82.031250
8997,-82.031250
8998,-80.078125
8999,-80.078125
9000,-80.078125
9001,-80.078125
9002,-78.125000
9003,-78.125000
9004,-78.125000
9005,-76.171875
9006,-76.171875
9007,-76.171875
9008,-76.171875
9009,-74.218750
9010,-74.218750
9011,-74.218750
9012,-74.218750
9013,-72.265625
9014,-72.265625
9015,-70.312500
9016,-70.312500
9017,-70.312500
9018,-70.312500
9019,-68.359375
9020,-66.406250
9021,-66.406250
9022,-66.406250
9023,-66.406250
9024,-64.453125
9025,-64.453125
9026,-62.500000
9027,-62.500000
9028,-62.500000
9029,-60.546875
9030,-60.546875
9031,-60.546875
9032,-58.593750
9033,-58.593750
9034,-58.593750
9035,-56.640625
9036,-56.640625
9037,-54.687500
9038,-54.687500
9039,-54.687500
9040,-52.734375
9041,-52.734375
9042,-50.781250
9043,-50.781250
9044,-50.781250
9045,-48.828125
9046,-48.828125
9047,-48.828125
9048,-46.875000
9049,-46.875000
9050,-44.921875
9051,-44.921875
9052,-42.968750
9053,-42.968750
9054,-41.015625
9055,-41.015625
9056,-41.015625
9057,-39.062500
9058,-39.062500
9059,-37.109375
9060,-37.109375
9061,-35.156250
9062,-35.156250
9063,-33.203125
9064,-33.203125
9065,-33.203125
9066,-31.250000
9067,-29.296875
9068,-29.296875
9069,-27.343750
9070,-27.343750
9071,-27.343750
9072,-25.390625
9073,-25.390625
9074,-23.437500
9075,-21.484375
9076,-21.484375
9077,-21.484375
9078,-19.531250
9079,-19.531250
9080,-17.578125
9081,-17.578125
9082,-15.625000
9083,-15.625000
9084,-13.671875
9085,-13.671875
9086,-13.671875
9087,-11.718750
9088,-9.765625
9089,-9.765625
9090,-7.812500
9091,-7.812500
9092,-5.859375
9093,-5.859375
9094,-3.906250
9095,-3.906250
9096,-3.906250
9097,-1.953125
9098,-1.953125
9099,0.000000
9100,1.953125
9101,1.953125
9102,1.953125
9103,3.906250
9104,3.906250
9105,5.859375
9106,5.859375
9107,7.812500
9108,7.812500
9109,9.765625
9110,9.765625
9111,11.718750
9112,11.718750
9113,11.718750
9114,13.671875
9115,15.625000
9116,15.625000
9117,15.625000
9118,17.578125
9119,17.578125
9120,19.531250
9121,19.531250
9122,21.484375
9123,21.484375
9124,23.437500
9125,23.437500
9126,25.390625
9127,25.390625
9128,27.343750
9129,27.343750
9130,29.296875
9131,29.296875
9132,29.296875
9133,31.250000
9134,31.250000
9135,33.203125
9136,33.203125
9137,35.156250
9138,35.156250
9139,35.156250
9140,37.109375
9141,39.062500
9142,39.062500
9143,41.015625
9144,41.015625
9145,42.968750
9146,42.968750
9147,42.968750
9148,44.921875
9149,44.921875
9150,46.875000
9151,46.875000
9152,46.875000
9153,48.828125
9154,48.828125
9155,48.828125
9156,50.781250
9157,52.734375
9158,52.734375
9159,52.734375
9160,54.687500
9161,54.687500
9162,54.687500
9163,56.640625
9164,56.640625
9165,58.593750
9166,58.593750
9167,58.593750
9168,58.593750
9169,60.546875
9170,60.546875
9171,62.500000
9172,62.500000
9173,62.500000
9174,64.453125
9175,64.453125
9176,64.453125
9177,64.453125
9178,66.406250
9179,66.406250
9180,66.406250
9181,66.406250
9182,68.359375
9183,68.359375
9184,68.359375
9185,70.312500
9186,70.312500
9187,72.265625
9188,70.312500
9189,72.265625
9190,72.265625
9191,72.265625
9192,72.265625
9193,74.218750
9194,74.218750
9195,74.218750
9196,76.171875
9197,76.171875
9198,76.171875
9199,76.171875
9200,76.171875
9201,78.125000
9202,78.125000
9203,78.125000
9204,78.125000
9205,80.078125
9206,80.078125
9207,80.078125
9208,80.078125
9209,80.078125
9210,82.031250
9211,80.078125
9212,82.031250
9213,82.031250
9214,82.031250
9215,82.031250
9216,82.031250
9217,82.031250
9218,83.984375
9219,82.031250
9220,83.984375
9221,83.984375
9222,83.984375
9223,83.984375
9224,83.984375
9225,83.984375
9226,83.984375
9227,82.031250
9228,83.984375
9229,83.984375
9230,83.984375
9231,83.984375
9232,83.984375
9233,83.984375
9234,83.984375
9235,83.984375
9236,83.984375
9237,83.984375
9238,83.984375
9239,83.984375
9240,83.984375
9241,83.984375
9242,83.984375
9243,83.984375
9244,83.984375
9245,83.984375
9246,83.984375
9247,82.031250
9248,83.984375
9249,83.984375
9250,82.031250
9251,82.031250
9252,82.031250
9253,82.031250
9254,82.031250
9255,82.031250
9256,80.078125
9257,82.031250
9258,82.031250
9259,80.078125
9260,80.078125
9261,80.078125
9262,80.078125
9263,78.125000
9264,80.078125
9265,78.125000
9266,78.125000
9267,78.125000
9268,78.125000
9269,78.125000
9270,76.171875
9271,76.171875
9272,76.171875
9273,76.171875
9274,76.171875
9275,74.218750
9276,74.218750
9277,74.218750
9278,74.218750
9279,74.218750
9280,72.265625
9281,72.265625
9282,70.312500
9283,70.312500
9284,70.312500
9285,70.312500
9286,70.312500
9287,68.359375
9288,68.359375
9289,66.406250
9290,66.406250
9291,66.406250
9292,64.453125
9293,64.453125
9294,64.453125
9295,64.453125
9296,62.500000
9297,62.500000
9298,60.546875
9299,60.546875
9300,60.546875
9301,60.546875
9302,58.593750
9303,56.640625
9304,56.640625
9305,56.640625
9306,54.687500
9307,54.687500
9308,54.687500
9309,52.734375
9310,52.734375
9311,50.781250
9312,50.781250
9313,50.781250
9314,48.828125
9315,46.875000
9316,46.875000
9317,46.875000
9318,44.921875
9319,44.921875
9320,42.968750
9321,42.968750
9322,42.968750
9323,41.015625
9324,41.015625
9325,39.062500
9326,39.062500
9327,37.109375
9328,37.109375
9329,35.156250
9330,35.156250
9331,35.156250
9332,33.203125
9333,33.203125
9334,31.250000
9335,31.250000
9336,29.296875
9337,29.296875
9338,29.296875
9339,27.343750
9340,27.343750
9341,25.390625
9342,23.437500
9343,23.437500
9344,23.437500
9345,21.484375
9346,21.484375
9347,19.531250
9348,19.531250
9349,17.578125
9350,15.625000
9351,15.625000
9352,15.625000
9353,13.671875
9354,13.671875
9355,11.718750
9356,11.718750
9357,9.765625
9358,9.765625
9359,7.812500
9360,7.812500
9361,5.859375
9362,5.859375
9363,3.906250
9364,3.906250
9365,1.953125
9366,1.953125
9367,0.000000
9368,0.000000
9369,-1.953125
9370,-3.906250
9371,-3.906250
9372,-3.906250
9373,-5.859375
9374,-5.859375
9375,-7.812500
9376,-7.812500
9377,-9.765625
9378,-9.765625
9379,-11.718750
9380,-11.718750
9381,-13.671875
9382,-13.671875
9383,-15.625000
9384,-15.625000
9385,-17.578125
9386,-17.578125
9387,-17.578125
9388,-19.531250
9389,-19.531250
9390,-21.484375
9391,-21.484375
9392,-23.437500
9393,-23.437500
9394,-25.390625
9395,-25.390625
9396,-27.343750
9397,-27.343750
9398,-27.343750
9399,-29.296875
9400,-29.296875
9401,-31.250000
9402,-31.250000
9403,-33.203125
9404,-33.203125
9405,-35.156250
9406,-35.156250
9407,-37.109375
9408,-37.109375
9409,-37.109375
9410,-39.062500
9411,-39.062500
9412,-41.015625
9413,-41.015625
9414,-41.015625
9415,-42.968750
9416,-42.968750
9417,-44.921875
9418,-46.875000
9419,-46.875000
9420,-46.875000
9421,-46.875000
9422,-48.828125
9423,-50.781250
9424,-50.781250
9425,-50.781250
9426,-52.734375
9427,-52.734375
9428,-54.687500
9429,-54.687500
9430,-54.687500
9431,-56.640625
9432,-56.640625
9433,-56.640625
9434,-58.593750
9435,-58.593750
9436,-60.546875
9437,-60.546875
9438,-62.500000
9439,-62.500000
9440,-62.500000
9441,-64.453125
9442,-64.453125
9443,-66.406250
9444,-66.406250
9445,-66.406250
9446,-66.406250
9447,-68.359375
9448,-68.359375
9449,-70.312500
9450,-70.312500
9451,-70.312500
9452,-72.265625
9453,-72.265625
9454,-72.265625
9455,-74.218750
9456,-74.218750
9457,-74.218750
9458,-76.171875
9459,-76.171875
9460,-76.171875
9461,-76.171875
9462,-78.125000
9463,-78.125000
9464,-78.125000
9465,-78.125000
9466,-80.078125
9467,-80.078125
9468,-82.031250
9469,-82.031250
9470,-82.031250
9471,-82.031250
9472,-83.984375
9473,-83.984375
9474,-83.984375
9475,-83.984375
9476,-83.984375
9477,-83.984375
9478,-85.937500
9479,-85.937500
9480,-85.937500
9481,-85.937500
9482,-87.890625
9483,-87.890625
9484,-87.890625
9485,-87.890625
9486,-89.843750
9487,-89.843750
9488,-89.843750
9489,-89.843750
9490,-89.843750
9491,-91.796875
9492,-91.796875
9493,-91.796875
9494,-91.796875
9495,-91.796875
9496,-91.796875
9497,-93.750000
9498,-93.750000
9499,-93.750000
9500,-93.750000
9501,-93.750000
9502,-93.750000
9503,-93.750000
9504,-93.750000
9505,-93.750000
9506,-95.703125
9507,-95.703125
9508,-95.703125
9509,-95.703125
9510,-95.703125
9511,-95.703125
9512,-95.703125
9513,-95.703125
9514,-95.703125
9515,-95.703125
9516,-95.703125
9517,-97.656250
9518,-95.703125
9519,-95.703125
9520,-95.703125
9521,-97.656250
9522,-95.703125
9523,-97.656250
9524,-97.656250
9525,-95.703125
9526,-95.703125
9527,-95.703125
9528,-97.656250
9529,-95.703125
9530,-95.703125
9531,-95.703125
9532,-95.703125
9533,-95.703125
9534,-95.703125
9535,-95.703125
9536,-95.703125
9537,-95.703125
9538,-95.703125
9539,-95.703125
9540,-93.750000
9541,-95.703125
9542,-95.703125
9543,-93.750000
9544,-93.750000
9545,-93.750000
9546,-93.750000
9547,-93.750000
9548,-91.796875
9549,-93.750000
9550,-93.750000
9551,-91.796875
9552,-91.796875
9553,-91.796875
9554,-91.796875
9555,-91.796875
9556,-91.796875
9557,-91.796875
9558,-89.843750
9559,-89.843750
9560,-89.843750
9561,-89.843750
9562,-89.843750
9563,-87.890625
9564,-87.890625
9565,-87.890625
9566,-87.890625
9567,-87.890625
9568,-87.890625
9569,-85.937500
9570,-87.890625
9571,-85.937500
9572,-85.937500
9573,-85.937500
9574,-83.984375
9575,-83.984375
9576,-83.984375
9577,-83.984375
9578,-82.031250
9579,-82.031250
9580,-82.031250
9581,-82.031250
9582,-80.078125
9583,-80.078125
9584,-78.125000
9585,-80.078125
9586,-78.125000
9587,-78.125000
9588,-76.171875
9589,-76.171875
9590,-76.171875
9591,-76.171875
9592,-74.218750
9593,-74.218750
9594,-74.218750
9595,-72.265625
9596,-72.265625
9597,-72.265625
9598,-70.312500
9599,-70.312500
9600,-70.312500
9601,-70.312500
9602,-68.359375
9603,-68.359375
9604,-66.406250
9605,-66.406250
9606,-66.406250
9607,-66.406250
9608,-64.453125
9609,-62.500000
9610,-62.500000
9611,-62.500000
9612,-62.500000
9613,-60.546875
9614,-60.546875
9615,-60.546875
9616,-58.593750
9617,-56.640625
9618,-56.640625
9619,-56.640625
9620,-54.687500
9621,-54.687500
9622,-52.734375
9623,-52.734375
9624,-52.734375
9625,-50.781250
9626,-50.781250
9627,-48.828125
9628,-48.828125
9629,-48.828125
9630,-46.875000
9631,-46.875000
9632,-44.921875
9633,-44.921875
9634,-42.968750
9635,-42.968750
9636,-41.015625
9637,-41.015625
9638,-41.015625
9639,-39.062500
9640,-39.062500
9641,-37.109375
9642,-37.109375
9643,-37.109375
9644,-35.156250
9645,-33.203125
9646,-33.203125
9647,-33.203125
9648,-31.250000
9649,-29.296875
9650,-29.296875
9651,-27.343750
9652,-27.343750
9653,-27.343750
9654,-25.390625
9655,-25.390625
9656,-23.437500
9657,-23.437500
9658,-21.484375
9659,-21.484375
9660,-21.484375
9661,-19.531250
9662,-17.578125
9663,-17.578125
9664,-17.578125
9665,-17.578125
9666,-13.671875
9667,-13.671875
9668,-11.718750
9669,-11.718750
9670,-11.718750
9671,-9.765625
9672,-9.765625
9673,-7.812500
9674,-7.812500
9675,-5.859375
9676,-5.859375
9677,-3.906250
9678,-3.906250
9679,-1.953125
9680,-1.953125
9681,0.000000
9682,0.000000
9683,1.953125
9684,1.953125
9685,3.906250
9686,3.906250
9687,5.859375
9688,5.859375
9689,5.859375
9690,7.812500
9691,9.765625
9692,9.765625
9693,11.718750
9694,11.718750
9695,11.718750
9696,13.671875
9697,13.671875
9698,15.625000
9699,15.625000
9700,17.578125
9701,15.625000
9702,19.531250
9703,19.531250
9704,19.531250
9705,21.484375
9706,21.484375
9707,23.437500
9708,23.437500
9709,25.390625
9710,25.390625
9711,25.390625
9712,27.343750
9713,29.296875
9714,29.296875
9715,31.250000
9716,29.296875
9717,33.203125
9718,33.203125
9719,35.156250
9720,35.156250
9721,35.156250
9722,37.109375
9723,37.109375
9724,39.062500
9725,39.062500
9726,41.015625
9727,41.015625
9728,41.015625
9729,42.968750
9730,44.921875
9731,44.921875
9732,44.921875
9733,46.875000
9734,46.875000
9735,46.875000
9736,48.828125
9737,48.828125
9738,50.781250
9739,50.781250
9740,52.734375
9741,52.734375
9742,52.734375
9743,54.687500
9744,54.687500
9745,54.687500
9746,56.640625
9747,56.640625
9748,58.593750
9749,58.593750
9750,58.593750
9751,60.546875
9752,60.546875
9753,60.546875
9754,60.546875
9755,62.500000
9756,64.453125
9757,64.453125
9758,64.453125
9759,64.453125
9760,66.406250
9761,66.406250
9762,66.406250
9763,68.359375
9764,68.359375
9765,68.359375
9766,68.359375
9767,70.312500
9768,70.312500
9769,70.312500
9770,70.312500
9771,72.265625
9772,72.265625
9773,72.265625
9774,72.265625
9775,74.218750
9776,74.218750
9777,74.218750
9778,74.218750
9779,76.171875
9780,76.171875
9781,76.171875
9782,76.171875
9783,78.125000
9784,78.125000
9785,78.125000
9786,78.125000
9787,78.125000
9788,78.125000
9789,78.125000
9790,80.078125
9791,80.078125
9792,80.078125
9793,80.078125
9794,82.031250
9795,82.031250
9796,82.031250
9797,82.031250
9798,82.031250
9799,82.031250
9800,82.031250
9801,82.031250
9802,82.031250
9803,83.984375
9804,83.984375
9805,83.984375
9806,83.984375
9807,83.984375
9808,83.984375
9809,83.984375
9810,83.984375
9811,83.984375
9812,83.984375
9813,83.984375
9814,83.984375
9815,83.984375
9816,83.984375
9817,83.984375
9818,83.984375
9819,83.984375
9820,83.984375
9821,83.984375
9822,83.984375
9823,83.984375
9824,83.984375
9825,83.984375
9826,83.984375
9827,83.984375
9828,83.984375
9829,83.984375
9830,82.031250
9831,82.031250
9832,82.031250
9833,82.031250
9834,82.031250
9835,82.031250
9836,82.031250
9837,82.031250
9838,82.031250
9839,82.031250
9840,80.078125
9841,82.031250
9842,80.078125
9843,80.078125
9844,80.078125
9845,80.078125
9846,80.078125
9847,78.125000
9848,78.125000
9849,78.125000
9850,78.125000
9851,76.171875
9852,76.171875
9853,76.171875
9854,76.171875
9855,76.171875
9856,74.218750
9857,74.218750
9858,74.218750
9859,74.218750
9860,74.218750
9861,74.218750
9862,72.265625
9863,72.265625
9864,70.312500
9865,70.312500
9866,70.312500
9867,70.312500
9868,68.359375
9869,68.359375
9870,68.359375
9871,68.359375
9872,66.406250
9873,66.406250
9874,64.453125
9875,64.453125
9876,64.453125
9877,62.500000
9878,62.500000
9879,62.500000
9880,62.500000
9881,60.546875
9882,60.546875
9883,58.593750
9884,58.593750
9885,58.593750
9886,56.640625
9887,56.640625
9888,54.687500
9889,54.687500
9890,54.687500
9891,52.734375
9892,52.734375
9893,50.781250
9894,50.781250
9895,50.781250
9896,48.828125
9897,48.828125
9898,48.828125
9899,46.875000
9900,46.875000
9901,44.921875
9902,48.828125
9903,42.968750
9904,42.968750
9905,41.015625
9906,41.015625
9907,41.015625
9908,39.062500
9909,39.062500
9910,37.109375
9911,37.109375
9912,35.156250
9913,35.156250
9914,33.203125
9915,33.203125
9916,33.203125
9917,31.250000
9918,31.250000
9919,29.296875
9920,29.296875
9921,27.343750
9922,27.343750
9923,25.390625
9924,25.390625
9925,23.437500
9926,23.437500
9927,21.484375
9928,21.484375
9929,19.531250
9930,19.531250
9931,17.578125
9932,17.578125
9933,15.625000
9934,15.625000
9935,13.671875
9936,13.671875
9937,13.671875
9938,11.718750
9939,9.765625
9940,9.765625
9941,9.765625
9942,7.812500
9943,5.859375
9944,5.859375
9945,3.906250
9946,3.906250
9947,1.953125
9948,1.953125
9949,1.953125
9950,0.000000
9951,0.000000
9952,-1.953125
9953,-1.953125
9954,-3.906250
9955,-3.906250
9956,-5.859375
9957,-5.859375
9958,-7.812500
9959,-7.812500
9960,-9.765625
9961,-9.765625
9962,-11.718750
9963,-11.718750
9964,-13.671875
9965,-15.625000
9966,-15.625000
9967,-15.625000
9968,-17.578125
9969,-17.578125
9970,-19.531250
9971,-19.531250
9972,-21.484375
9973,-21.484375
9974,-23.437500
9975,-23.437500
9976,-23.437500
9977,-25.390625
9978,-25.390625
9979,-27.343750
9980,-27.343750
9981,-29.296875
9982,-29.296875
9983,-31.250000
9984,-31.250000
9985,-33.203125
9986,-33.203125
9987,-33.203125
9988,-35.156250
9989,-35.156250
9990,-37.109375
9991,-37.109375
9992,-37.109375
9993,-39.062500
9994,-39.062500
9995,-41.015625
9996,-41.015625
9997,-42.968750
9998,-42.968750
9999,-44.921875
10000,-44.921875
