Channel              :,CH1
Frequency            :,857.1Hz
Period               :,1.167ms
PK-PK                :,41.02mV
Probe attenuation    :,1X
Voltage per ADC value:,0.122070mV
Time interval        :,2.00000us

index,CH1_Voltage(mV)
1,0.000000
2,0.000000
3,0.000000
4,0.000000
5,0.000000
6,0.000000
7,0.000000
8,0.000000
9,0.000000
10,0.000000
11,0.000000
12,0.000000
13,0.000000
14,0.000000
15,0.000000
16,0.000000
17,0.000000
18,0.000000
19,0.000000
20,0.000000
21,0.000000
22,0.000000
23,-1.953125
24,0.000000
25,0.000000
26,0.000000
27,0.000000
28,-1.953125
29,-1.953125
30,-1.953125
31,-1.953125
32,-1.953125
33,-1.953125
34,-1.953125
35,-1.953125
36,-1.953125
37,-1.953125
38,-1.953125
39,-1.953125
40,-1.953125
41,-1.953125
42,-1.953125
43,-1.953125
44,-1.953125
45,-3.906250
46,-1.953125
47,-1.953125
48,-1.953125
49,-1.953125
50,-3.906250
51,-3.906250
52,-1.953125
53,-3.906250
54,-3.906250
55,-1.953125
56,-1.953125
57,-1.953125
58,-3.906250
59,-3.906250
60,-1.953125
61,-3.906250
62,-3.906250
63,-3.906250
64,-3.906250
65,-3.906250
66,-3.906250
67,-3.906250
68,-3.906250
69,-3.906250
70,-3.906250
71,-3.906250
72,-3.906250
73,-3.906250
74,-3.906250
75,-3.906250
76,-5.859375
77,-5.859375
78,-5.859375
79,-5.859375
80,-5.859375
81,-3.906250
82,-5.859375
83,-5.859375
84,-5.859375
85,-5.859375
86,-5.859375
87,-5.859375
88,-5.859375
89,-7.812500
90,-5.859375
91,-5.859375
92,-7.812500
93,-7.812500
94,-7.812500
95,-7.812500
96,-7.812500
97,-7.812500
98,-7.812500
99,-7.812500
100,-7.812500
101,-7.812500
102,-7.812500
103,-9.765625
104,-7.812500
105,-7.812500
106,-9.765625
107,-9.765625
108,-9.765625
109,-9.765625
110,-9.765625
111,-9.765625
112,-9.765625
113,-9.765625
114,-11.718750
115,-9.765625
116,-11.718750
117,-9.765625
118,-9.765625
119,-9.765625
120,-11.718750
121,-11.718750
122,-11.718750
123,-11.718750
124,-11.718750
125,-11.718750
126,-11.718750
127,-11.718750
128,-11.718750
129,-13.671875
130,-13.671875
131,-11.718750
132,-13.671875
133,-13.671875
134,-13.671875
135,-13.671875
136,-13.671875
137,-13.671875
138,-13.671875
139,-15.625000
140,-13.671875
141,-13.671875
142,-13.671875
143,-13.671875
144,-15.625000
145,-15.625000
146,-15.625000
147,-15.625000
148,-15.625000
149,-15.625000
150,-15.625000
151,-17.578125
152,-17.578125
153,-17.578125
154,-17.578125
155,-17.578125
156,-17.578125
157,-17.578125
158,-17.578125
159,-19.531250
160,-19.531250
161,-17.578125
162,-19.531250
163,-19.531250
164,-19.531250
165,-19.531250
166,-19.531250
167,-19.531250
168,-19.531250
169,-19.531250
170,-21.484375
171,-21.484375
172,-21.484375
173,-21.484375
174,-21.484375
175,-21.484375
176,-21.484375
177,-21.484375
178,-23.437500
179,-21.484375
180,-21.484375
181,-21.484375
182,-23.437500
183,-23.437500
184,-23.437500
185,-23.437500
186,-23.437500
187,-23.437500
188,-23.437500
189,-23.437500
190,-25.390625
191,-23.437500
192,-23.437500
193,-23.437500
194,-25.390625
195,-25.390625
196,-25.390625
197,-25.390625
198,-25.390625
199,-25.390625
200,-25.390625
201,-25.390625
202,-25.390625
203,-25.390625
204,-25.390625
205,-27.343750
206,-27.343750
207,-27.343750
208,-27.343750
209,-27.343750
210,-27.343750
211,-27.343750
212,-27.343750
213,-27.343750
214,-27.343750
215,-27.343750
216,-27.343750
217,-27.343750
218,-27.343750
219,-27.343750
220,-27.343750
221,-27.343750
222,-29.296875
223,-27.343750
224,-27.343750
225,-27.343750
226,-29.296875
227,-29.296875
228,-29.296875
229,-29.296875
230,-29.296875
231,-29.296875
232,-29.296875
233,-29.296875
234,-29.296875
235,-29.296875
236,-29.296875
237,-29.296875
238,-29.296875
239,-29.296875
240,-29.296875
241,-29.296875
242,-29.296875
243,-29.296875
244,-29.296875
245,-29.296875
246,-29.296875
247,-29.296875
248,-29.296875
249,-29.296875
250,-29.296875
251,-29.296875
252,-29.296875
253,-29.296875
254,-29.296875
255,-29.296875
256,-29.296875
257,-29.296875
258,-29.296875
259,-29.296875
260,-27.343750
261,-27.343750
262,-29.296875
263,-27.343750
264,-27.343750
265,-27.343750
266,-27.343750
267,-27.343750
268,-27.343750
269,-27.343750
270,-27.343750
271,-27.343750
272,-27.343750
273,-27.343750
274,-27.343750
275,-27.343750
276,-27.343750
277,-27.343750
278,-27.343750
279,-27.343750
280,-25.390625
281,-25.390625
282,-25.390625
283,-27.343750
284,-25.390625
285,-25.390625
286,-25.390625
287,-25.390625
288,-25.390625
289,-25.390625
290,-25.390625
291,-25.390625
292,-25.390625
293,-23.437500
294,-25.390625
295,-25.390625
296,-23.437500
297,-23.437500
298,-23.437500
299,-23.437500
300,-23.437500
301,-23.437500
302,-23.437500
303,-21.484375
304,-21.484375
305,-21.484375
306,-21.484375
307,-21.484375
308,-21.484375
309,-21.484375
310,-21.484375
311,-21.484375
312,-19.531250
313,-19.531250
314,-19.531250
315,-19.531250
316,-19.531250
317,-19.531250
318,-19.531250
319,-19.531250
320,-17.578125
321,-17.578125
322,-17.578125
323,-17.578125
324,-17.578125
325,-17.578125
326,-15.625000
327,-15.625000
328,-15.625000
329,-15.625000
330,-15.625000
331,-15.625000
332,-15.625000
333,-13.671875
334,-15.625000
335,-13.671875
336,-13.671875
337,-13.671875
338,-13.671875
339,-13.671875
340,-11.718750
341,-11.718750
342,-11.718750
343,-13.671875
344,-11.718750
345,-11.718750
346,-11.718750
347,-11.718750
348,-11.718750
349,-11.718750
350,-9.765625
351,-11.718750
352,-11.718750
353,-9.765625
354,-9.765625
355,-9.765625
356,-9.765625
357,-9.765625
358,-7.812500
359,-7.812500
360,-7.812500
361,-7.812500
362,-7.812500
363,-7.812500
364,-7.812500
365,-7.812500
366,-5.859375
367,-5.859375
368,-5.859375
369,-5.859375
370,-5.859375
371,-5.859375
372,-3.906250
373,-3.906250
374,-3.906250
375,-3.906250
376,-3.906250
377,-3.906250
378,-3.906250
379,-3.906250
380,-3.906250
381,-1.953125
382,-1.953125
383,-1.953125
384,-1.953125
385,-1.953125
386,-1.953125
387,-1.953125
388,-1.953125
389,0.000000
390,-1.953125
391,-1.953125
392,0.000000
393,0.000000
394,0.000000
395,0.000000
396,0.000000
397,0.000000
398,0.000000
399,1.953125
400,0.000000
401,0.000000
402,0.000000
403,0.000000
404,0.000000
405,1.953125
406,1.953125
407,1.953125
408,1.953125
409,1.953125
410,1.953125
411,1.953125
412,1.953125
413,1.953125
414,3.906250
415,1.953125
416,3.906250
417,1.953125
418,1.953125
419,1.953125
420,1.953125
421,3.906250
422,3.906250
423,3.906250
424,3.906250
425,1.953125
426,3.906250
427,3.906250
428,3.906250
429,3.906250
430,3.906250
431,3.906250
432,3.906250
433,3.906250
434,3.906250
435,3.906250
436,3.906250
437,3.906250
438,3.906250
439,5.859375
440,3.906250
441,5.859375
442,5.859375
443,3.906250
444,5.859375
445,3.906250
446,5.859375
447,5.859375
448,5.859375
449,5.859375
450,5.859375
451,5.859375
452,5.859375
453,5.859375
454,5.859375
455,3.906250
456,5.859375
457,5.859375
458,5.859375
459,5.859375
460,5.859375
461,5.859375
462,5.859375
463,5.859375
464,5.859375
465,5.859375
466,5.859375
467,3.906250
468,3.906250
469,5.859375
470,3.906250
471,5.859375
472,5.859375
473,5.859375
474,5.859375
475,3.906250
476,3.906250
477,5.859375
478,3.906250
479,5.859375
480,3.906250
481,3.906250
482,3.906250
483,3.906250
484,3.906250
485,3.906250
486,5.859375
487,3.906250
488,3.906250
489,3.906250
490,3.906250
491,3.906250
492,3.906250
493,3.906250
494,3.906250
495,3.906250
496,3.906250
497,3.906250
498,3.906250
499,3.906250
500,3.906250
501,3.906250
502,3.906250
503,3.906250
504,1.953125
505,3.906250
506,3.906250
507,3.906250
508,3.906250
509,3.906250
510,1.953125
511,3.906250
512,3.906250
513,3.906250
514,1.953125
515,1.953125
516,3.906250
517,1.953125
518,1.953125
519,1.953125
520,1.953125
521,3.906250
522,1.953125
523,1.953125
524,1.953125
525,1.953125
526,1.953125
527,1.953125
528,1.953125
529,1.953125
530,1.953125
531,1.953125
532,1.953125
533,1.953125
534,1.953125
535,1.953125
536,1.953125
537,1.953125
538,1.953125
539,0.000000
540,1.953125
541,0.000000
542,0.000000
543,0.000000
544,0.000000
545,0.000000
546,0.000000
547,0.000000
548,0.000000
549,0.000000
550,0.000000
551,0.000000
552,0.000000
553,0.000000
554,1.953125
555,0.000000
556,0.000000
557,0.000000
558,0.000000
559,0.000000
560,0.000000
561,0.000000
562,0.000000
563,0.000000
564,0.000000
565,0.000000
566,0.000000
567,0.000000
568,0.000000
569,-1.953125
570,0.000000
571,0.000000
572,0.000000
573,0.000000
574,0.000000
575,0.000000
576,0.000000
577,0.000000
578,0.000000
579,0.000000
580,0.000000
581,0.000000
582,0.000000
583,0.000000
584,0.000000
585,0.000000
586,0.000000
587,0.000000
588,0.000000
589,0.000000
590,0.000000
591,0.000000
592,0.000000
593,0.000000
594,0.000000
595,0.000000
596,0.000000
597,0.000000
598,0.000000
599,0.000000
600,0.000000
601,-1.953125
602,0.000000
603,0.000000
604,0.000000
605,-1.953125
606,-1.953125
607,0.000000
608,0.000000
609,-1.953125
610,-1.953125
611,-1.953125
612,0.000000
613,0.000000
614,-1.953125
615,-1.953125
616,-1.953125
617,-1.953125
618,-1.953125
619,-1.953125
620,-1.953125
621,-1.953125
622,-1.953125
623,-1.953125
624,-1.953125
625,-1.953125
626,-1.953125
627,-1.953125
628,-1.953125
629,-1.953125
630,-1.953125
631,-1.953125
632,-1.953125
633,-1.953125
634,-3.906250
635,-1.953125
636,-1.953125
637,-1.953125
638,-1.953125
639,-3.906250
640,-3.906250
641,-1.953125
642,-1.953125
643,-3.906250
644,-3.906250
645,-3.906250
646,-3.906250
647,-3.906250
648,-3.906250
649,-3.906250
650,-3.906250
651,-3.906250
652,-3.906250
653,-3.906250
654,-3.906250
655,-3.906250
656,-3.906250
657,-3.906250
658,-3.906250
659,-3.906250
660,-5.859375
661,-5.859375
662,-5.859375
663,-5.859375
664,-5.859375
665,-5.859375
666,-5.859375
667,-5.859375
668,-5.859375
669,-5.859375
670,-5.859375
671,-5.859375
672,-5.859375
673,-5.859375
674,-5.859375
675,-5.859375
676,-7.812500
677,-7.812500
678,-7.812500
679,-7.812500
680,-7.812500
681,-7.812500
682,-7.812500
683,-7.812500
684,-7.812500
685,-7.812500
686,-7.812500
687,-7.812500
688,-7.812500
689,-9.765625
690,-9.765625
691,-9.765625
692,-9.765625
693,-9.765625
694,-9.765625
695,-9.765625
696,-9.765625
697,-9.765625
698,-9.765625
699,-9.765625
700,-9.765625
701,-9.765625
702,-9.765625
703,-9.765625
704,-11.718750
705,-9.765625
706,-11.718750
707,-11.718750
708,-11.718750
709,-11.718750
710,-11.718750
711,-11.718750
712,-11.718750
713,-11.718750
714,-11.718750
715,-11.718750
716,-11.718750
717,-13.671875
718,-11.718750
719,-13.671875
720,-13.671875
721,-13.671875
722,-13.671875
723,-13.671875
724,-13.671875
725,-13.671875
726,-13.671875
727,-15.625000
728,-15.625000
729,-15.625000
730,-15.625000
731,-15.625000
732,-15.625000
733,-15.625000
734,-17.578125
735,-15.625000
736,-17.578125
737,-17.578125
738,-17.578125
739,-17.578125
740,-17.578125
741,-17.578125
742,-17.578125
743,-17.578125
744,-17.578125
745,-19.531250
746,-17.578125
747,-19.531250
748,-19.531250
749,-19.531250
750,-19.531250
751,-19.531250
752,-19.531250
753,-21.484375
754,-19.531250
755,-21.484375
756,-21.484375
757,-21.484375
758,-21.484375
759,-21.484375
760,-21.484375
761,-21.484375
762,-21.484375
763,-21.484375
764,-21.484375
765,-23.437500
766,-23.437500
767,-23.437500
768,-23.437500
769,-23.437500
770,-23.437500
771,-23.437500
772,-23.437500
773,-23.437500
774,-23.437500
775,-23.437500
776,-23.437500
777,-25.390625
778,-25.390625
779,-25.390625
780,-25.390625
781,-25.390625
782,-25.390625
783,-25.390625
784,-25.390625
785,-25.390625
786,-25.390625
787,-25.390625
788,-25.390625
789,-25.390625
790,-25.390625
791,-27.343750
792,-27.343750
793,-27.343750
794,-27.343750
795,-27.343750
796,-27.343750
797,-27.343750
798,-27.343750
799,-27.343750
800,-29.296875
801,-27.343750
802,-27.343750
803,-29.296875
804,-29.296875
805,-27.343750
806,-27.343750
807,-29.296875
808,-29.296875
809,-29.296875
810,-29.296875
811,-29.296875
812,-29.296875
813,-29.296875
814,-29.296875
815,-29.296875
816,-29.296875
817,-29.296875
818,-29.296875
819,-29.296875
820,-29.296875
821,-29.296875
822,-29.296875
823,-29.296875
824,-29.296875
825,-29.296875
826,-29.296875
827,-29.296875
828,-29.296875
829,-29.296875
830,-29.296875
831,-29.296875
832,-29.296875
833,-29.296875
834,-29.296875
835,-29.296875
836,-27.343750
837,-29.296875
838,-27.343750
839,-27.343750
840,-27.343750
841,-27.343750
842,-29.296875
843,-27.343750
844,-29.296875
845,-27.343750
846,-27.343750
847,-27.343750
848,-27.343750
849,-27.343750
850,-27.343750
851,-27.343750
852,-27.343750
853,-27.343750
854,-27.343750
855,-27.343750
856,-27.343750
857,-27.343750
858,-27.343750
859,-27.343750
860,-25.390625
861,-25.390625
862,-25.390625
863,-27.343750
864,-25.390625
865,-25.390625
866,-25.390625
867,-25.390625
868,-25.390625
869,-25.390625
870,-25.390625
871,-25.390625
872,-25.390625
873,-25.390625
874,-25.390625
875,-23.437500
876,-23.437500
877,-23.437500
878,-23.437500
879,-23.437500
880,-23.437500
881,-23.437500
882,-23.437500
883,-21.484375
884,-23.437500
885,-23.437500
886,-23.437500
887,-23.437500
888,-21.484375
889,-21.484375
890,-21.484375
891,-21.484375
892,-21.484375
893,-21.484375
894,-21.484375
895,-19.531250
896,-19.531250
897,-19.531250
898,-19.531250
899,-19.531250
900,-19.531250
901,-19.531250
902,-17.578125
903,-17.578125
904,-17.578125
905,-17.578125
906,-17.578125
907,-17.578125
908,-17.578125
909,-17.578125
910,-15.625000
911,-15.625000
912,-15.625000
913,-15.625000
914,-15.625000
915,-13.671875
916,-15.625000
917,-15.625000
918,-13.671875
919,-13.671875
920,-13.671875
921,-13.671875
922,-13.671875
923,-13.671875
924,-11.718750
925,-11.718750
926,-11.718750
927,-11.718750
928,-11.718750
929,-11.718750
930,-11.718750
931,-11.718750
932,-9.765625
933,-11.718750
934,-9.765625
935,-9.765625
936,-9.765625
937,-9.765625
938,-9.765625
939,-9.765625
940,-9.765625
941,-9.765625
942,-7.812500
943,-7.812500
944,-7.812500
945,-7.812500
946,-7.812500
947,-7.812500
948,-5.859375
949,-7.812500
950,-5.859375
951,-5.859375
952,-5.859375
953,-5.859375
954,-5.859375
955,-3.906250
956,-3.906250
957,-3.906250
958,-3.906250
959,-3.906250
960,-3.906250
961,-1.953125
962,-3.906250
963,-3.906250
964,-3.906250
965,-1.953125
966,-1.953125
967,-1.953125
968,-1.953125
969,-1.953125
970,-1.953125
971,-1.953125
972,-1.953125
973,0.000000
974,-1.953125
975,0.000000
976,0.000000
977,0.000000
978,0.000000
979,0.000000
980,0.000000
981,0.000000
982,0.000000
983,1.953125
984,0.000000
985,1.953125
986,0.000000
987,0.000000
988,1.953125
989,1.953125
990,1.953125
991,1.953125
992,1.953125
993,1.953125
994,1.953125
995,3.906250
996,1.953125
997,1.953125
998,1.953125
999,3.906250
1000,3.906250
1001,3.906250
1002,1.953125
1003,3.906250
1004,3.906250
1005,3.906250
1006,3.906250
1007,3.906250
1008,3.906250
1009,3.906250
1010,3.906250
1011,3.906250
1012,3.906250
1013,3.906250
1014,3.906250
1015,3.906250
1016,3.906250
1017,3.906250
1018,5.859375
1019,3.906250
1020,5.859375
1021,3.906250
1022,3.906250
1023,5.859375
1024,3.906250
1025,5.859375
1026,5.859375
1027,5.859375
1028,5.859375
1029,5.859375
1030,5.859375
1031,5.859375
1032,5.859375
1033,5.859375
1034,5.859375
1035,5.859375
1036,5.859375
1037,5.859375
1038,5.859375
1039,5.859375
1040,5.859375
1041,5.859375
1042,3.906250
1043,5.859375
1044,5.859375
1045,5.859375
1046,5.859375
1047,5.859375
1048,5.859375
1049,5.859375
1050,5.859375
1051,5.859375
1052,5.859375
1053,5.859375
1054,5.859375
1055,5.859375
1056,3.906250
1057,5.859375
1058,3.906250
1059,5.859375
1060,5.859375
1061,3.906250
1062,5.859375
1063,5.859375
1064,5.859375
1065,5.859375
1066,3.906250
1067,3.906250
1068,3.906250
1069,3.906250
1070,3.906250
1071,3.906250
1072,3.906250
1073,3.906250
1074,3.906250
1075,3.906250
1076,3.906250
1077,3.906250
1078,3.906250
1079,3.906250
1080,3.906250
1081,3.906250
1082,3.906250
1083,3.906250
1084,3.906250
1085,3.906250
1086,3.906250
1087,3.906250
1088,3.906250
1089,3.906250
1090,1.953125
1091,1.953125
1092,3.906250
1093,3.906250
1094,3.906250
1095,3.906250
1096,3.906250
1097,3.906250
1098,3.906250
1099,1.953125
1100,1.953125
1101,1.953125
1102,1.953125
1103,1.953125
1104,1.953125
1105,1.953125
1106,1.953125
1107,3.906250
1108,1.953125
1109,3.906250
1110,1.953125
1111,1.953125
1112,1.953125
1113,1.953125
1114,1.953125
1115,1.953125
1116,1.953125
1117,1.953125
1118,1.953125
1119,1.953125
1120,1.953125
1121,1.953125
1122,1.953125
1123,1.953125
1124,0.000000
1125,1.953125
1126,1.953125
1127,0.000000
1128,1.953125
1129,1.953125
1130,0.000000
1131,0.000000
1132,0.000000
1133,0.000000
1134,0.000000
1135,0.000000
1136,0.000000
1137,0.000000
1138,0.000000
1139,0.000000
1140,0.000000
1141,0.000000
1142,0.000000
1143,0.000000
1144,0.000000
1145,0.000000
1146,0.000000
1147,0.000000
1148,1.953125
1149,0.000000
1150,0.000000
1151,0.000000
1152,-1.953125
1153,0.000000
1154,0.000000
1155,0.000000
1156,0.000000
1157,0.000000
1158,0.000000
1159,0.000000
1160,0.000000
1161,0.000000
1162,0.000000
1163,0.000000
1164,0.000000
1165,0.000000
1166,0.000000
1167,0.000000
1168,0.000000
1169,0.000000
1170,0.000000
1171,0.000000
1172,0.000000
1173,0.000000
1174,0.000000
1175,0.000000
1176,0.000000
1177,0.000000
1178,0.000000
1179,0.000000
1180,0.000000
1181,0.000000
1182,-1.953125
1183,0.000000
1184,0.000000
1185,0.000000
1186,0.000000
1187,-1.953125
1188,0.000000
1189,0.000000
1190,0.000000
1191,-1.953125
1192,-1.953125
1193,-1.953125
1194,-1.953125
1195,0.000000
1196,-1.953125
1197,-1.953125
1198,-1.953125
1199,-1.953125
1200,-1.953125
1201,-1.953125
1202,-1.953125
1203,-1.953125
1204,-1.953125
1205,-1.953125
1206,-1.953125
1207,-1.953125
1208,-1.953125
1209,-1.953125
1210,-1.953125
1211,-1.953125
1212,-1.953125
1213,-1.953125
1214,-1.953125
1215,-1.953125
1216,-1.953125
1217,-1.953125
1218,-1.953125
1219,-3.906250
1220,-1.953125
1221,-1.953125
1222,-1.953125
1223,-1.953125
1224,-3.906250
1225,-1.953125
1226,-1.953125
1227,-3.906250
1228,-3.906250
1229,-3.906250
1230,-3.906250
1231,-3.906250
1232,-3.906250
1233,-3.906250
1234,-3.906250
1235,-3.906250
1236,-3.906250
1237,-3.906250
1238,-3.906250
1239,-3.906250
1240,-3.906250
1241,-5.859375
1242,-5.859375
1243,-3.906250
1244,-3.906250
1245,-3.906250
1246,-5.859375
1247,-5.859375
1248,-5.859375
1249,-5.859375
1250,-5.859375
1251,-5.859375
1252,-5.859375
1253,-5.859375
1254,-5.859375
1255,-7.812500
1256,-5.859375
1257,-5.859375
1258,-7.812500
1259,-7.812500
1260,-7.812500
1261,-7.812500
1262,-7.812500
1263,-7.812500
1264,-7.812500
1265,-7.812500
1266,-7.812500
1267,-7.812500
1268,-7.812500
1269,-7.812500
1270,-7.812500
1271,-7.812500
1272,-7.812500
1273,-7.812500
1274,-7.812500
1275,-9.765625
1276,-9.765625
1277,-9.765625
1278,-9.765625
1279,-9.765625
1280,-9.765625
1281,-9.765625
1282,-9.765625
1283,-9.765625
1284,-9.765625
1285,-11.718750
1286,-9.765625
1287,-11.718750
1288,-11.718750
1289,-11.718750
1290,-11.718750
1291,-11.718750
1292,-9.765625
1293,-11.718750
1294,-11.718750
1295,-11.718750
1296,-11.718750
1297,-13.671875
1298,-11.718750
1299,-13.671875
1300,-13.671875
1301,-13.671875
1302,-11.718750
1303,-13.671875
1304,-13.671875
1305,-13.671875
1306,-13.671875
1307,-13.671875
1308,-13.671875
1309,-13.671875
1310,-15.625000
1311,-15.625000
1312,-15.625000
1313,-15.625000
1314,-15.625000
1315,-15.625000
1316,-15.625000
1317,-15.625000
1318,-17.578125
1319,-15.625000
1320,-17.578125
1321,-15.625000
1322,-17.578125
1323,-17.578125
1324,-19.531250
1325,-19.531250
1326,-19.531250
1327,-17.578125
1328,-19.531250
1329,-19.531250
1330,-19.531250
1331,-19.531250
1332,-19.531250
1333,-19.531250
1334,-19.531250
1335,-19.531250
1336,-19.531250
1337,-21.484375
1338,-19.531250
1339,-21.484375
1340,-21.484375
1341,-21.484375
1342,-21.484375
1343,-21.484375
1344,-21.484375
1345,-21.484375
1346,-21.484375
1347,-21.484375
1348,-23.437500
1349,-23.437500
1350,-23.437500
1351,-23.437500
1352,-23.437500
1353,-23.437500
1354,-23.437500
1355,-23.437500
1356,-23.437500
1357,-25.390625
1358,-23.437500
1359,-23.437500
1360,-25.390625
1361,-25.390625
1362,-25.390625
1363,-25.390625
1364,-25.390625
1365,-25.390625
1366,-25.390625
1367,-25.390625
1368,-25.390625
1369,-25.390625
1370,-25.390625
1371,-25.390625
1372,-27.343750
1373,-27.343750
1374,-27.343750
1375,-27.343750
1376,-27.343750
1377,-27.343750
1378,-27.343750
1379,-27.343750
1380,-27.343750
1381,-27.343750
1382,-27.343750
1383,-27.343750
1384,-29.296875
1385,-27.343750
1386,-29.296875
1387,-27.343750
1388,-27.343750
1389,-27.343750
1390,-29.296875
1391,-29.296875
1392,-29.296875
1393,-29.296875
1394,-29.296875
1395,-29.296875
1396,-29.296875
1397,-29.296875
1398,-29.296875
1399,-29.296875
1400,-29.296875
1401,-29.296875
1402,-29.296875
1403,-29.296875
1404,-29.296875
1405,-29.296875
1406,-29.296875
1407,-29.296875
1408,-29.296875
1409,-29.296875
1410,-29.296875
1411,-29.296875
1412,-29.296875
1413,-29.296875
1414,-29.296875
1415,-29.296875
1416,-29.296875
1417,-29.296875
1418,-29.296875
1419,-29.296875
1420,-29.296875
1421,-29.296875
1422,-29.296875
1423,-29.296875
1424,-27.343750
1425,-29.296875
1426,-29.296875
1427,-29.296875
1428,-27.343750
1429,-27.343750
1430,-29.296875
1431,-27.343750
1432,-27.343750
1433,-27.343750
1434,-27.343750
1435,-27.343750
1436,-27.343750
1437,-27.343750
1438,-27.343750
1439,-27.343750
1440,-27.343750
1441,-27.343750
1442,-27.343750
1443,-27.343750
1444,-25.390625
1445,-25.390625
1446,-25.390625
1447,-25.390625
1448,-25.390625
1449,-25.390625
1450,-25.390625
1451,-25.390625
1452,-25.390625
1453,-25.390625
1454,-25.390625
1455,-25.390625
1456,-25.390625
1457,-25.390625
1458,-23.437500
1459,-23.437500
1460,-23.437500
1461,-23.437500
1462,-23.437500
1463,-23.437500
1464,-23.437500
1465,-23.437500
1466,-23.437500
1467,-23.437500
1468,-23.437500
1469,-21.484375
1470,-21.484375
1471,-21.484375
1472,-21.484375
1473,-21.484375
1474,-21.484375
1475,-21.484375
1476,-21.484375
1477,-19.531250
1478,-19.531250
1479,-19.531250
1480,-19.531250
1481,-19.531250
1482,-19.531250
1483,-19.531250
1484,-17.578125
1485,-17.578125
1486,-17.578125
1487,-17.578125
1488,-17.578125
1489,-17.578125
1490,-17.578125
1491,-17.578125
1492,-15.625000
1493,-15.625000
1494,-15.625000
1495,-15.625000
1496,-15.625000
1497,-13.671875
1498,-15.625000
1499,-13.671875
1500,-15.625000
1501,-13.671875
1502,-13.671875
1503,-11.718750
1504,-13.671875
1505,-13.671875
1506,-13.671875
1507,-11.718750
1508,-11.718750
1509,-11.718750
1510,-11.718750
1511,-11.718750
1512,-11.718750
1513,-11.718750
1514,-11.718750
1515,-9.765625
1516,-9.765625
1517,-11.718750
1518,-9.765625
1519,-9.765625
1520,-9.765625
1521,-9.765625
1522,-9.765625
1523,-7.812500
1524,-7.812500
1525,-7.812500
1526,-7.812500
1527,-7.812500
1528,-7.812500
1529,-7.812500
1530,-7.812500
1531,-5.859375
1532,-5.859375
1533,-5.859375
1534,-5.859375
1535,-5.859375
1536,-5.859375
1537,-3.906250
1538,-3.906250
1539,-3.906250
1540,-3.906250
1541,-3.906250
1542,-3.906250
1543,-3.906250
1544,-3.906250
1545,-1.953125
1546,-1.953125
1547,-3.906250
1548,-1.953125
1549,-1.953125
1550,-1.953125
1551,-1.953125
1552,-1.953125
1553,-1.953125
1554,-1.953125
1555,0.000000
1556,0.000000
1557,0.000000
1558,0.000000
1559,0.000000
1560,0.000000
1561,0.000000
1562,0.000000
1563,0.000000
1564,0.000000
1565,0.000000
1566,1.953125
1567,1.953125
1568,1.953125
1569,1.953125
1570,1.953125
1571,0.000000
1572,1.953125
1573,1.953125
1574,1.953125
1575,1.953125
1576,1.953125
1577,1.953125
1578,1.953125
1579,3.906250
1580,1.953125
1581,1.953125
1582,1.953125
1583,1.953125
1584,3.906250
1585,3.906250
1586,3.906250
1587,1.953125
1588,3.906250
1589,3.906250
1590,3.906250
1591,3.906250
1592,3.906250
1593,3.906250
1594,3.906250
1595,3.906250
1596,5.859375
1597,3.906250
1598,3.906250
1599,3.906250
1600,5.859375
1601,3.906250
1602,3.906250
1603,3.906250
1604,3.906250
1605,5.859375
1606,3.906250
1607,5.859375
1608,5.859375
1609,5.859375
1610,5.859375
1611,5.859375
1612,5.859375
1613,5.859375
1614,5.859375
1615,5.859375
1616,5.859375
1617,5.859375
1618,5.859375
1619,5.859375
1620,5.859375
1621,5.859375
1622,5.859375
1623,5.859375
1624,5.859375
1625,5.859375
1626,5.859375
1627,5.859375
1628,5.859375
1629,5.859375
1630,5.859375
1631,5.859375
1632,5.859375
1633,5.859375
1634,5.859375
1635,5.859375
1636,5.859375
1637,5.859375
1638,3.906250
1639,5.859375
1640,5.859375
1641,5.859375
1642,5.859375
1643,5.859375
1644,5.859375
1645,3.906250
1646,3.906250
1647,3.906250
1648,3.906250
1649,3.906250
1650,5.859375
1651,3.906250
1652,3.906250
1653,3.906250
1654,3.906250
1655,3.906250
1656,3.906250
1657,3.906250
1658,3.906250
1659,3.906250
1660,3.906250
1661,3.906250
1662,3.906250
1663,3.906250
1664,3.906250
1665,3.906250
1666,3.906250
1667,3.906250
1668,3.906250
1669,3.906250
1670,3.906250
1671,3.906250
1672,3.906250
1673,1.953125
1674,3.906250
1675,3.906250
1676,3.906250
1677,3.906250
1678,3.906250
1679,1.953125
1680,1.953125
1681,1.953125
1682,3.906250
1683,3.906250
1684,3.906250
1685,1.953125
1686,1.953125
1687,1.953125
1688,1.953125
1689,1.953125
1690,1.953125
1691,1.953125
1692,1.953125
1693,1.953125
1694,1.953125
1695,1.953125
1696,1.953125
1697,1.953125
1698,1.953125
1699,1.953125
1700,1.953125
1701,1.953125
1702,1.953125
1703,1.953125
1704,1.953125
1705,1.953125
1706,0.000000
1707,1.953125
1708,0.000000
1709,1.953125
1710,1.953125
1711,1.953125
1712,0.000000
1713,0.000000
1714,0.000000
1715,0.000000
1716,1.953125
1717,0.000000
1718,0.000000
1719,0.000000
1720,0.000000
1721,0.000000
1722,0.000000
1723,0.000000
1724,0.000000
1725,0.000000
1726,0.000000
1727,0.000000
1728,0.000000
1729,0.000000
1730,0.000000
1731,0.000000
1732,0.000000
1733,0.000000
1734,0.000000
1735,0.000000
1736,0.000000
1737,0.000000
1738,0.000000
1739,0.000000
1740,0.000000
1741,0.000000
1742,0.000000
1743,0.000000
1744,0.000000
1745,0.000000
1746,0.000000
1747,0.000000
1748,0.000000
1749,0.000000
1750,0.000000
1751,0.000000
1752,0.000000
1753,0.000000
1754,0.000000
1755,0.000000
1756,0.000000
1757,0.000000
1758,0.000000
1759,0.000000
1760,0.000000
1761,0.000000
1762,0.000000
1763,0.000000
1764,0.000000
1765,0.000000
1766,0.000000
1767,-1.953125
1768,0.000000
1769,0.000000
1770,0.000000
1771,-1.953125
1772,-1.953125
1773,-1.953125
1774,0.000000
1775,-1.953125
1776,-1.953125
1777,-1.953125
1778,-1.953125
1779,-1.953125
1780,-1.953125
1781,-1.953125
1782,-1.953125
1783,-1.953125
1784,-1.953125
1785,-1.953125
1786,-1.953125
1787,-1.953125
1788,-1.953125
1789,-1.953125
1790,-1.953125
1791,-1.953125
1792,-1.953125
1793,-1.953125
1794,-1.953125
1795,-1.953125
1796,-1.953125
1797,0.000000
1798,-1.953125
1799,-1.953125
1800,-1.953125
1801,-1.953125
1802,-1.953125
1803,-3.906250
1804,-1.953125
1805,-1.953125
1806,-3.906250
1807,-3.906250
1808,-3.906250
1809,-3.906250
1810,-3.906250
1811,-3.906250
1812,-3.906250
1813,-3.906250
1814,-3.906250
1815,-3.906250
1816,-3.906250
1817,-3.906250
1818,-3.906250
1819,-3.906250
1820,-3.906250
1821,-3.906250
1822,-3.906250
1823,-3.906250
1824,-3.906250
1825,-3.906250
1826,-3.906250
1827,-5.859375
1828,-5.859375
1829,-5.859375
1830,-5.859375
1831,-5.859375
1832,-5.859375
1833,-5.859375
1834,-5.859375
1835,-5.859375
1836,-5.859375
1837,-5.859375
1838,-5.859375
1839,-5.859375
1840,-5.859375
1841,-7.812500
1842,-5.859375
1843,-7.812500
1844,-7.812500
1845,-7.812500
1846,-7.812500
1847,-7.812500
1848,-9.765625
1849,-7.812500
1850,-7.812500
1851,-7.812500
1852,-7.812500
1853,-7.812500
1854,-7.812500
1855,-7.812500
1856,-7.812500
1857,-9.765625
1858,-9.765625
1859,-9.765625
1860,-9.765625
1861,-9.765625
1862,-9.765625
1863,-9.765625
1864,-9.765625
1865,-9.765625
1866,-9.765625
1867,-9.765625
1868,-11.718750
1869,-9.765625
1870,-9.765625
1871,-11.718750
1872,-11.718750
1873,-11.718750
1874,-11.718750
1875,-11.718750
1876,-11.718750
1877,-11.718750
1878,-11.718750
1879,-11.718750
1880,-11.718750
1881,-13.671875
1882,-13.671875
1883,-13.671875
1884,-11.718750
1885,-13.671875
1886,-13.671875
1887,-13.671875
1888,-13.671875
1889,-13.671875
1890,-13.671875
1891,-13.671875
1892,-13.671875
1893,-13.671875
1894,-15.625000
1895,-15.625000
1896,-15.625000
1897,-15.625000
1898,-15.625000
1899,-15.625000
1900,-17.578125
1901,-15.625000
1902,-15.625000
1903,-17.578125
1904,-17.578125
1905,-17.578125
1906,-17.578125
1907,-17.578125
1908,-19.531250
1909,-17.578125
1910,-19.531250
1911,-19.531250
1912,-19.531250
1913,-19.531250
1914,-19.531250
1915,-19.531250
1916,-19.531250
1917,-19.531250
1918,-21.484375
1919,-21.484375
1920,-21.484375
1921,-21.484375
1922,-21.484375
1923,-21.484375
1924,-21.484375
1925,-21.484375
1926,-21.484375
1927,-21.484375
1928,-21.484375
1929,-21.484375
1930,-21.484375
1931,-23.437500
1932,-21.484375
1933,-23.437500
1934,-23.437500
1935,-23.437500
1936,-23.437500
1937,-23.437500
1938,-25.390625
1939,-23.437500
1940,-23.437500
1941,-23.437500
1942,-25.390625
1943,-25.390625
1944,-25.390625
1945,-25.390625
1946,-25.390625
1947,-25.390625
1948,-25.390625
1949,-25.390625
1950,-25.390625
1951,-25.390625
1952,-25.390625
1953,-25.390625
1954,-25.390625
1955,-25.390625
1956,-27.343750
1957,-27.343750
1958,-27.343750
1959,-27.343750
1960,-27.343750
1961,-27.343750
1962,-27.343750
1963,-27.343750
1964,-27.343750
1965,-27.343750
1966,-27.343750
1967,-29.296875
1968,-27.343750
1969,-29.296875
1970,-29.296875
1971,-29.296875
1972,-29.296875
1973,-29.296875
1974,-29.296875
1975,-29.296875
1976,-29.296875
1977,-29.296875
1978,-29.296875
1979,-29.296875
1980,-29.296875
1981,-29.296875
1982,-29.296875
1983,-29.296875
1984,-29.296875
1985,-29.296875
1986,-29.296875
1987,-29.296875
1988,-29.296875
1989,-29.296875
1990,-29.296875
1991,-29.296875
1992,-29.296875
1993,-29.296875
1994,-29.296875
1995,-29.296875
1996,-29.296875
1997,-29.296875
1998,-29.296875
1999,-29.296875
2000,-29.296875
2001,-29.296875
2002,-29.296875
2003,-29.296875
2004,-29.296875
2005,-29.296875
2006,-29.296875
2007,-29.296875
2008,-29.296875
2009,-29.296875
2010,-29.296875
2011,-29.296875
2012,-29.296875
2013,-27.343750
2014,-27.343750
2015,-27.343750
2016,-27.343750
2017,-27.343750
2018,-27.343750
2019,-27.343750
2020,-27.343750
2021,-27.343750
2022,-27.343750
2023,-27.343750
2024,-27.343750
2025,-27.343750
2026,-27.343750
2027,-27.343750
2028,-27.343750
2029,-25.390625
2030,-27.343750
2031,-25.390625
2032,-25.390625
2033,-25.390625
2034,-25.390625
2035,-25.390625
2036,-25.390625
2037,-25.390625
2038,-27.343750
2039,-25.390625
2040,-25.390625
2041,-25.390625
2042,-25.390625
2043,-23.437500
2044,-23.437500
2045,-23.437500
2046,-23.437500
2047,-23.437500
2048,-23.437500
2049,-21.484375
2050,-23.437500
2051,-21.484375
2052,-21.484375
2053,-21.484375
2054,-23.437500
2055,-21.484375
2056,-21.484375
2057,-21.484375
2058,-21.484375
2059,-19.531250
2060,-19.531250
2061,-19.531250
2062,-19.531250
2063,-19.531250
2064,-19.531250
2065,-19.531250
2066,-17.578125
2067,-19.531250
2068,-17.578125
2069,-17.578125
2070,-17.578125
2071,-17.578125
2072,-17.578125
2073,-17.578125
2074,-17.578125
2075,-17.578125
2076,-17.578125
2077,-15.625000
2078,-15.625000
2079,-15.625000
2080,-15.625000
2081,-15.625000
2082,-13.671875
2083,-15.625000
2084,-13.671875
2085,-13.671875
2086,-13.671875
2087,-13.671875
2088,-13.671875
2089,-13.671875
2090,-13.671875
2091,-11.718750
2092,-11.718750
2093,-11.718750
2094,-11.718750
2095,-11.718750
2096,-11.718750
2097,-11.718750
2098,-9.765625
2099,-9.765625
2100,-9.765625
2101,-9.765625
2102,-9.765625
2103,-9.765625
2104,-9.765625
2105,-9.765625
2106,-7.812500
2107,-7.812500
2108,-7.812500
2109,-7.812500
2110,-7.812500
2111,-7.812500
2112,-5.859375
2113,-7.812500
2114,-5.859375
2115,-7.812500
2116,-5.859375
2117,-5.859375
2118,-7.812500
2119,-5.859375
2120,-5.859375
2121,-7.812500
2122,-3.906250
2123,-3.906250
2124,-3.906250
2125,-5.859375
2126,-3.906250
2127,-3.906250
2128,-3.906250
2129,-1.953125
2130,-3.906250
2131,-1.953125
2132,-1.953125
2133,-1.953125
2134,-1.953125
2135,-1.953125
2136,-1.953125
2137,-1.953125
2138,-1.953125
2139,0.000000
2140,0.000000
2141,0.000000
2142,0.000000
2143,0.000000
2144,0.000000
2145,0.000000
2146,0.000000
2147,1.953125
2148,0.000000
2149,0.000000
2150,1.953125
2151,1.953125
2152,1.953125
2153,1.953125
2154,1.953125
2155,1.953125
2156,1.953125
2157,1.953125
2158,1.953125
2159,1.953125
2160,1.953125
2161,1.953125
2162,1.953125
2163,3.906250
2164,3.906250
2165,3.906250
2166,3.906250
2167,3.906250
2168,1.953125
2169,3.906250
2170,1.953125
2171,3.906250
2172,3.906250
2173,3.906250
2174,3.906250
2175,3.906250
2176,3.906250
2177,1.953125
2178,3.906250
2179,3.906250
2180,3.906250
2181,5.859375
2182,3.906250
2183,5.859375
2184,3.906250
2185,5.859375
2186,5.859375
2187,5.859375
2188,3.906250
2189,5.859375
2190,5.859375
2191,5.859375
2192,5.859375
2193,5.859375
2194,5.859375
2195,5.859375
2196,5.859375
2197,5.859375
2198,5.859375
2199,5.859375
2200,5.859375
2201,5.859375
2202,5.859375
2203,5.859375
2204,5.859375
2205,5.859375
2206,5.859375
2207,5.859375
2208,5.859375
2209,5.859375
2210,5.859375
2211,5.859375
2212,5.859375
2213,5.859375
2214,5.859375
2215,5.859375
2216,5.859375
2217,5.859375
2218,5.859375
2219,5.859375
2220,5.859375
2221,5.859375
2222,5.859375
2223,5.859375
2224,3.906250
2225,3.906250
2226,3.906250
2227,5.859375
2228,5.859375
2229,3.906250
2230,3.906250
2231,3.906250
2232,3.906250
2233,3.906250
2234,3.906250
2235,3.906250
2236,3.906250
2237,3.906250
2238,3.906250
2239,3.906250
2240,3.906250
2241,3.906250
2242,3.906250
2243,3.906250
2244,3.906250
2245,3.906250
2246,3.906250
2247,3.906250
2248,3.906250
2249,3.906250
2250,3.906250
2251,3.906250
2252,3.906250
2253,3.906250
2254,3.906250
2255,1.953125
2256,3.906250
2257,3.906250
2258,3.906250
2259,3.906250
2260,3.906250
2261,1.953125
2262,1.953125
2263,1.953125
2264,3.906250
2265,1.953125
2266,1.953125
2267,1.953125
2268,1.953125
2269,1.953125
2270,1.953125
2271,1.953125
2272,1.953125
2273,1.953125
2274,1.953125
2275,1.953125
2276,1.953125
2277,1.953125
2278,1.953125
2279,1.953125
2280,1.953125
2281,1.953125
2282,1.953125
2283,1.953125
2284,1.953125
2285,1.953125
2286,1.953125
2287,1.953125
2288,1.953125
2289,0.000000
2290,0.000000
2291,0.000000
2292,0.000000
2293,1.953125
2294,0.000000
2295,0.000000
2296,0.000000
2297,0.000000
2298,0.000000
2299,0.000000
2300,0.000000
2301,0.000000
2302,0.000000
2303,0.000000
2304,0.000000
2305,0.000000
2306,0.000000
2307,0.000000
2308,0.000000
2309,0.000000
2310,0.000000
2311,0.000000
2312,0.000000
2313,0.000000
2314,0.000000
2315,0.000000
2316,0.000000
2317,0.000000
2318,0.000000
2319,0.000000
2320,0.000000
2321,0.000000
2322,0.000000
2323,0.000000
2324,0.000000
2325,0.000000
2326,0.000000
2327,0.000000
2328,0.000000
2329,0.000000
2330,0.000000
2331,0.000000
2332,0.000000
2333,0.000000
2334,0.000000
2335,0.000000
2336,0.000000
2337,0.000000
2338,0.000000
2339,-1.953125
2340,0.000000
2341,0.000000
2342,0.000000
2343,0.000000
2344,0.000000
2345,0.000000
2346,0.000000
2347,0.000000
2348,0.000000
2349,0.000000
2350,0.000000
2351,0.000000
2352,-1.953125
2353,-1.953125
2354,-1.953125
2355,-1.953125
2356,-1.953125
2357,0.000000
2358,0.000000
2359,-1.953125
2360,-1.953125
2361,-1.953125
2362,-1.953125
2363,-1.953125
2364,-1.953125
2365,-1.953125
2366,-1.953125
2367,-1.953125
2368,-1.953125
2369,-1.953125
2370,-1.953125
2371,-1.953125
2372,-1.953125
2373,-1.953125
2374,-1.953125
2375,-1.953125
2376,-1.953125
2377,-3.906250
2378,-1.953125
2379,-3.906250
2380,-1.953125
2381,-1.953125
2382,-1.953125
2383,-1.953125
2384,-1.953125
2385,-3.906250
2386,-1.953125
2387,-3.906250
2388,-1.953125
2389,-3.906250
2390,-3.906250
2391,-3.906250
2392,-3.906250
2393,-3.906250
2394,-1.953125
2395,-3.906250
2396,-3.906250
2397,-3.906250
2398,-3.906250
2399,-3.906250
2400,-3.906250
2401,-3.906250
2402,-3.906250
2403,-3.906250
2404,-3.906250
2405,-3.906250
2406,-5.859375
2407,-5.859375
2408,-3.906250
2409,-3.906250
2410,-5.859375
2411,-5.859375
2412,-5.859375
2413,-5.859375
2414,-5.859375
2415,-5.859375
2416,-5.859375
2417,-5.859375
2418,-5.859375
2419,-5.859375
2420,-5.859375
2421,-5.859375
2422,-5.859375
2423,-7.812500
2424,-5.859375
2425,-7.812500
2426,-7.812500
2427,-7.812500
2428,-7.812500
2429,-7.812500
2430,-7.812500
2431,-7.812500
2432,-7.812500
2433,-7.812500
2434,-7.812500
2435,-9.765625
2436,-7.812500
2437,-9.765625
2438,-9.765625
2439,-9.765625
2440,-9.765625
2441,-7.812500
2442,-9.765625
2443,-9.765625
2444,-9.765625
2445,-11.718750
2446,-9.765625
2447,-9.765625
2448,-9.765625
2449,-9.765625
2450,-9.765625
2451,-9.765625
2452,-9.765625
2453,-11.718750
2454,-11.718750
2455,-11.718750
2456,-11.718750
2457,-11.718750
2458,-11.718750
2459,-11.718750
2460,-11.718750
2461,-11.718750
2462,-11.718750
2463,-11.718750
2464,-11.718750
2465,-13.671875
2466,-13.671875
2467,-13.671875
2468,-13.671875
2469,-13.671875
2470,-13.671875
2471,-15.625000
2472,-13.671875
2473,-13.671875
2474,-15.625000
2475,-15.625000
2476,-15.625000
2477,-15.625000
2478,-15.625000
2479,-15.625000
2480,-15.625000
2481,-15.625000
2482,-15.625000
2483,-15.625000
2484,-15.625000
2485,-15.625000
2486,-17.578125
2487,-17.578125
2488,-17.578125
2489,-17.578125
2490,-17.578125
2491,-19.531250
2492,-19.531250
2493,-19.531250
2494,-19.531250
2495,-19.531250
2496,-19.531250
2497,-19.531250
2498,-19.531250
2499,-19.531250
2500,-19.531250
2501,-19.531250
2502,-21.484375
2503,-21.484375
2504,-21.484375
2505,-21.484375
2506,-21.484375
2507,-21.484375
2508,-21.484375
2509,-21.484375
2510,-21.484375
2511,-21.484375
2512,-23.437500
2513,-19.531250
2514,-23.437500
2515,-23.437500
2516,-23.437500
2517,-23.437500
2518,-23.437500
2519,-23.437500
2520,-23.437500
2521,-25.390625
2522,-25.390625
2523,-23.437500
2524,-25.390625
2525,-25.390625
2526,-23.437500
2527,-25.390625
2528,-21.484375
2529,-25.390625
2530,-25.390625
2531,-25.390625
2532,-25.390625
2533,-25.390625
2534,-27.343750
2535,-27.343750
2536,-27.343750
2537,-27.343750
2538,-27.343750
2539,-27.343750
2540,-27.343750
2541,-27.343750
2542,-27.343750
2543,-27.343750
2544,-27.343750
2545,-27.343750
2546,-27.343750
2547,-27.343750
2548,-27.343750
2549,-27.343750
2550,-29.296875
2551,-29.296875
2552,-29.296875
2553,-29.296875
2554,-29.296875
2555,-29.296875
2556,-29.296875
2557,-29.296875
2558,-29.296875
2559,-29.296875
2560,-29.296875
2561,-29.296875
2562,-29.296875
2563,-29.296875
2564,-31.250000
2565,-29.296875
2566,-29.296875
2567,-29.296875
2568,-29.296875
2569,-29.296875
2570,-29.296875
2571,-29.296875
2572,-29.296875
2573,-29.296875
2574,-29.296875
2575,-29.296875
2576,-29.296875
2577,-29.296875
2578,-29.296875
2579,-29.296875
2580,-29.296875
2581,-29.296875
2582,-29.296875
2583,-29.296875
2584,-29.296875
2585,-29.296875
2586,-29.296875
2587,-29.296875
2588,-29.296875
2589,-27.343750
2590,-27.343750
2591,-29.296875
2592,-29.296875
2593,-29.296875
2594,-29.296875
2595,-27.343750
2596,-27.343750
2597,-27.343750
2598,-27.343750
2599,-27.343750
2600,-29.296875
2601,-27.343750
2602,-27.343750
2603,-27.343750
2604,-27.343750
2605,-27.343750
2606,-27.343750
2607,-27.343750
2608,-27.343750
2609,-27.343750
2610,-27.343750
2611,-27.343750
2612,-27.343750
2613,-25.390625
2614,-25.390625
2615,-27.343750
2616,-25.390625
2617,-25.390625
2618,-25.390625
2619,-25.390625
2620,-25.390625
2621,-25.390625
2622,-25.390625
2623,-25.390625
2624,-25.390625
2625,-25.390625
2626,-23.437500
2627,-23.437500
2628,-23.437500
2629,-23.437500
2630,-23.437500
2631,-23.437500
2632,-23.437500
2633,-21.484375
2634,-23.437500
2635,-21.484375
2636,-21.484375
2637,-21.484375
2638,-21.484375
2639,-21.484375
2640,-21.484375
2641,-21.484375
2642,-19.531250
2643,-21.484375
2644,-19.531250
2645,-19.531250
2646,-19.531250
2647,-19.531250
2648,-19.531250
2649,-19.531250
2650,-17.578125
2651,-17.578125
2652,-17.578125
2653,-17.578125
2654,-17.578125
2655,-17.578125
2656,-17.578125
2657,-17.578125
2658,-15.625000
2659,-15.625000
2660,-15.625000
2661,-15.625000
2662,-15.625000
2663,-15.625000
2664,-13.671875
2665,-13.671875
2666,-13.671875
2667,-13.671875
2668,-13.671875
2669,-13.671875
2670,-11.718750
2671,-13.671875
2672,-13.671875
2673,-13.671875
2674,-11.718750
2675,-11.718750
2676,-11.718750
2677,-11.718750
2678,-11.718750
2679,-11.718750
2680,-11.718750
2681,-9.765625
2682,-9.765625
2683,-9.765625
2684,-9.765625
2685,-9.765625
2686,-9.765625
2687,-7.812500
2688,-9.765625
2689,-7.812500
2690,-7.812500
2691,-7.812500
2692,-7.812500
2693,-7.812500
2694,-7.812500
2695,-7.812500
2696,-7.812500
2697,-5.859375
2698,-5.859375
2699,-5.859375
2700,-5.859375
2701,-5.859375
2702,-5.859375
2703,-5.859375
2704,-3.906250
2705,-1.953125
2706,-3.906250
2707,-3.906250
2708,-1.953125
2709,-3.906250
2710,-3.906250
2711,-1.953125
2712,-1.953125
2713,-1.953125
2714,-1.953125
2715,-1.953125
2716,-1.953125
2717,-1.953125
2718,-1.953125
2719,-1.953125
2720,0.000000
2721,0.000000
2722,0.000000
2723,-1.953125
2724,0.000000
2725,0.000000
2726,0.000000
2727,0.000000
2728,0.000000
2729,0.000000
2730,0.000000
2731,1.953125
2732,1.953125
2733,1.953125
2734,1.953125
2735,1.953125
2736,1.953125
2737,1.953125
2738,1.953125
2739,1.953125
2740,1.953125
2741,1.953125
2742,0.000000
2743,3.906250
2744,1.953125
2745,1.953125
2746,1.953125
2747,1.953125
2748,3.906250
2749,3.906250
2750,3.906250
2751,3.906250
2752,3.906250
2753,1.953125
2754,3.906250
2755,3.906250
2756,3.906250
2757,3.906250
2758,3.906250
2759,3.906250
2760,3.906250
2761,5.859375
2762,3.906250
2763,3.906250
2764,5.859375
2765,3.906250
2766,5.859375
2767,5.859375
2768,5.859375
2769,5.859375
2770,5.859375
2771,5.859375
2772,5.859375
2773,5.859375
2774,5.859375
2775,5.859375
2776,5.859375
2777,5.859375
2778,5.859375
2779,5.859375
2780,5.859375
2781,5.859375
2782,5.859375
2783,5.859375
2784,5.859375
2785,5.859375
2786,5.859375
2787,5.859375
2788,5.859375
2789,5.859375
2790,5.859375
2791,5.859375
2792,5.859375
2793,5.859375
2794,5.859375
2795,5.859375
2796,5.859375
2797,5.859375
2798,5.859375
2799,5.859375
2800,5.859375
2801,5.859375
2802,5.859375
2803,3.906250
2804,5.859375
2805,3.906250
2806,5.859375
2807,5.859375
2808,3.906250
2809,3.906250
2810,5.859375
2811,3.906250
2812,3.906250
2813,3.906250
2814,3.906250
2815,3.906250
2816,3.906250
2817,3.906250
2818,3.906250
2819,3.906250
2820,3.906250
2821,3.906250
2822,3.906250
2823,3.906250
2824,3.906250
2825,3.906250
2826,3.906250
2827,3.906250
2828,3.906250
2829,3.906250
2830,3.906250
2831,3.906250
2832,3.906250
2833,3.906250
2834,3.906250
2835,3.906250
2836,1.953125
2837,1.953125
2838,3.906250
2839,3.906250
2840,1.953125
2841,1.953125
2842,1.953125
2843,3.906250
2844,1.953125
2845,3.906250
2846,1.953125
2847,1.953125
2848,1.953125
2849,1.953125
2850,1.953125
2851,1.953125
2852,1.953125
2853,1.953125
2854,1.953125
2855,1.953125
2856,1.953125
2857,1.953125
2858,1.953125
2859,1.953125
2860,1.953125
2861,1.953125
2862,1.953125
2863,1.953125
2864,1.953125
2865,1.953125
2866,0.000000
2867,1.953125
2868,1.953125
2869,1.953125
2870,0.000000
2871,0.000000
2872,1.953125
2873,1.953125
2874,0.000000
2875,0.000000
2876,0.000000
2877,0.000000
2878,0.000000
2879,0.000000
2880,0.000000
2881,0.000000
2882,0.000000
2883,0.000000
2884,0.000000
2885,0.000000
2886,0.000000
2887,0.000000
2888,0.000000
2889,0.000000
2890,0.000000
2891,0.000000
2892,0.000000
2893,0.000000
2894,0.000000
2895,0.000000
2896,0.000000
2897,0.000000
2898,0.000000
2899,0.000000
2900,0.000000
2901,1.953125
2902,0.000000
2903,0.000000
2904,0.000000
2905,0.000000
2906,0.000000
2907,0.000000
2908,0.000000
2909,0.000000
2910,0.000000
2911,-1.953125
2912,0.000000
2913,0.000000
2914,0.000000
2915,0.000000
2916,0.000000
2917,0.000000
2918,0.000000
2919,0.000000
2920,0.000000
2921,0.000000
2922,0.000000
2923,0.000000
2924,-1.953125
2925,0.000000
2926,0.000000
2927,0.000000
2928,0.000000
2929,0.000000
2930,0.000000
2931,0.000000
2932,0.000000
2933,0.000000
2934,-1.953125
2935,-1.953125
2936,-1.953125
2937,-1.953125
2938,-1.953125
2939,-1.953125
2940,-1.953125
2941,0.000000
2942,-1.953125
2943,-1.953125
2944,0.000000
2945,-1.953125
2946,-1.953125
2947,-1.953125
2948,-1.953125
2949,-1.953125
2950,-1.953125
2951,-1.953125
2952,-1.953125
2953,-1.953125
2954,-1.953125
2955,-1.953125
2956,-1.953125
2957,-1.953125
2958,-1.953125
2959,-1.953125
2960,-3.906250
2961,-1.953125
2962,-1.953125
2963,-1.953125
2964,-1.953125
2965,-1.953125
2966,-1.953125
2967,-3.906250
2968,-3.906250
2969,-3.906250
2970,-3.906250
2971,-1.953125
2972,-3.906250
2973,-3.906250
2974,-3.906250
2975,-3.906250
2976,-3.906250
2977,-3.906250
2978,-3.906250
2979,-3.906250
2980,-3.906250
2981,-3.906250
2982,-3.906250
2983,-3.906250
2984,-3.906250
2985,-3.906250
2986,-3.906250
2987,-5.859375
2988,-5.859375
2989,-3.906250
2990,-3.906250
2991,-5.859375
2992,-3.906250
2993,-5.859375
2994,-5.859375
2995,-5.859375
2996,-5.859375
2997,-5.859375
2998,-5.859375
2999,-5.859375
3000,-5.859375
3001,-5.859375
3002,-5.859375
3003,-5.859375
3004,-7.812500
3005,-7.812500
3006,-7.812500
3007,-7.812500
3008,-7.812500
3009,-7.812500
3010,-7.812500
3011,-7.812500
3012,-7.812500
3013,-7.812500
3014,-7.812500
3015,-7.812500
3016,-7.812500
3017,-7.812500
3018,-7.812500
3019,-7.812500
3020,-7.812500
3021,-9.765625
3022,-7.812500
3023,-7.812500
3024,-9.765625
3025,-9.765625
3026,-9.765625
3027,-9.765625
3028,-9.765625
3029,-9.765625
3030,-9.765625
3031,-9.765625
3032,-9.765625
3033,-9.765625
3034,-9.765625
3035,-9.765625
3036,-11.718750
3037,-11.718750
3038,-11.718750
3039,-11.718750
3040,-11.718750
3041,-11.718750
3042,-11.718750
3043,-11.718750
3044,-11.718750
3045,-11.718750
3046,-13.671875
3047,-13.671875
3048,-13.671875
3049,-13.671875
3050,-13.671875
3051,-13.671875
3052,-13.671875
3053,-13.671875
3054,-13.671875
3055,-13.671875
3056,-15.625000
3057,-13.671875
3058,-15.625000
3059,-15.625000
3060,-15.625000
3061,-15.625000
3062,-15.625000
3063,-15.625000
3064,-15.625000
3065,-15.625000
3066,-15.625000
3067,-17.578125
3068,-15.625000
3069,-17.578125
3070,-17.578125
3071,-17.578125
3072,-17.578125
3073,-19.531250
3074,-17.578125
3075,-19.531250
3076,-17.578125
3077,-17.578125
3078,-19.531250
3079,-19.531250
3080,-19.531250
3081,-21.484375
3082,-19.531250
3083,-21.484375
3084,-19.531250
3085,-19.531250
3086,-21.484375
3087,-21.484375
3088,-21.484375
3089,-21.484375
3090,-21.484375
3091,-21.484375
3092,-21.484375
3093,-21.484375
3094,-21.484375
3095,-23.437500
3096,-23.437500
3097,-23.437500
3098,-23.437500
3099,-21.484375
3100,-23.437500
3101,-23.437500
3102,-23.437500
3103,-23.437500
3104,-25.390625
3105,-23.437500
3106,-23.437500
3107,-25.390625
3108,-23.437500
3109,-23.437500
3110,-25.390625
3111,-25.390625
3112,-25.390625
3113,-25.390625
3114,-25.390625
3115,-25.390625
3116,-25.390625
3117,-25.390625
3118,-25.390625
3119,-27.343750
3120,-27.343750
3121,-27.343750
3122,-27.343750
3123,-27.343750
3124,-27.343750
3125,-27.343750
3126,-27.343750
3127,-27.343750
3128,-27.343750
3129,-27.343750
3130,-27.343750
3131,-27.343750
3132,-27.343750
3133,-29.296875
3134,-29.296875
3135,-29.296875
3136,-27.343750
3137,-29.296875
3138,-29.296875
3139,-29.296875
3140,-29.296875
3141,-29.296875
3142,-29.296875
3143,-29.296875
3144,-29.296875
3145,-29.296875
3146,-29.296875
3147,-29.296875
3148,-29.296875
3149,-29.296875
3150,-29.296875
3151,-29.296875
3152,-29.296875
3153,-29.296875
3154,-29.296875
3155,-31.250000
3156,-29.296875
3157,-29.296875
3158,-29.296875
3159,-29.296875
3160,-29.296875
3161,-29.296875
3162,-29.296875
3163,-29.296875
3164,-29.296875
3165,-29.296875
3166,-29.296875
3167,-29.296875
3168,-27.343750
3169,-29.296875
3170,-29.296875
3171,-29.296875
3172,-29.296875
3173,-29.296875
3174,-27.343750
3175,-27.343750
3176,-27.343750
3177,-29.296875
3178,-27.343750
3179,-27.343750
3180,-27.343750
3181,-27.343750
3182,-27.343750
3183,-27.343750
3184,-27.343750
3185,-27.343750
3186,-27.343750
3187,-27.343750
3188,-27.343750
3189,-27.343750
3190,-27.343750
3191,-27.343750
3192,-27.343750
3193,-25.390625
3194,-27.343750
3195,-27.343750
3196,-25.390625
3197,-25.390625
3198,-25.390625
3199,-25.390625
3200,-25.390625
3201,-25.390625
3202,-25.390625
3203,-25.390625
3204,-25.390625
3205,-25.390625
3206,-25.390625
3207,-23.437500
3208,-23.437500
3209,-23.437500
3210,-23.437500
3211,-23.437500
3212,-23.437500
3213,-23.437500
3214,-23.437500
3215,-21.484375
3216,-23.437500
3217,-23.437500
3218,-23.437500
3219,-21.484375
3220,-21.484375
3221,-21.484375
3222,-21.484375
3223,-21.484375
3224,-21.484375
3225,-19.531250
3226,-19.531250
3227,-19.531250
3228,-19.531250
3229,-19.531250
3230,-19.531250
3231,-19.531250
3232,-17.578125
3233,-19.531250
3234,-17.578125
3235,-17.578125
3236,-17.578125
3237,-17.578125
3238,-17.578125
3239,-17.578125
3240,-17.578125
3241,-15.625000
3242,-15.625000
3243,-15.625000
3244,-15.625000
3245,-15.625000
3246,-15.625000
3247,-15.625000
3248,-13.671875
3249,-13.671875
3250,-13.671875
3251,-13.671875
3252,-13.671875
3253,-13.671875
3254,-13.671875
3255,-11.718750
3256,-11.718750
3257,-11.718750
3258,-11.718750
3259,-11.718750
3260,-11.718750
3261,-11.718750
3262,-11.718750
3263,-9.765625
3264,-11.718750
3265,-9.765625
3266,-9.765625
3267,-9.765625
3268,-9.765625
3269,-9.765625
3270,-9.765625
3271,-9.765625
3272,-7.812500
3273,-7.812500
3274,-7.812500
3275,-7.812500
3276,-7.812500
3277,-7.812500
3278,-7.812500
3279,-5.859375
3280,-5.859375
3281,-5.859375
3282,-5.859375
3283,-5.859375
3284,-5.859375
3285,-5.859375
3286,-3.906250
3287,-3.906250
3288,-3.906250
3289,-3.906250
3290,-3.906250
3291,-3.906250
3292,-3.906250
3293,-3.906250
3294,-1.953125
3295,-1.953125
3296,-1.953125
3297,-1.953125
3298,-1.953125
3299,-1.953125
3300,-1.953125
3301,-1.953125
3302,-1.953125
3303,-1.953125
3304,0.000000
3305,0.000000
3306,0.000000
3307,0.000000
3308,0.000000
3309,0.000000
3310,0.000000
3311,1.953125
3312,0.000000
3313,0.000000
3314,1.953125
3315,1.953125
3316,1.953125
3317,1.953125
3318,1.953125
3319,1.953125
3320,1.953125
3321,1.953125
3322,1.953125
3323,1.953125
3324,1.953125
3325,1.953125
3326,1.953125
3327,3.906250
3328,1.953125
3329,1.953125
3330,3.906250
3331,1.953125
3332,3.906250
3333,3.906250
3334,3.906250
3335,3.906250
3336,3.906250
3337,3.906250
3338,3.906250
3339,3.906250
3340,3.906250
3341,3.906250
3342,3.906250
3343,3.906250
3344,3.906250
3345,3.906250
3346,5.859375
3347,3.906250
3348,3.906250
3349,3.906250
3350,5.859375
3351,5.859375
3352,3.906250
3353,3.906250
3354,5.859375
3355,5.859375
3356,5.859375
3357,5.859375
3358,5.859375
3359,5.859375
3360,5.859375
3361,5.859375
3362,5.859375
3363,5.859375
3364,5.859375
3365,5.859375
3366,5.859375
3367,5.859375
3368,5.859375
3369,5.859375
3370,5.859375
3371,5.859375
3372,5.859375
3373,5.859375
3374,5.859375
3375,5.859375
3376,5.859375
3377,5.859375
3378,5.859375
3379,5.859375
3380,5.859375
3381,5.859375
3382,5.859375
3383,5.859375
3384,5.859375
3385,5.859375
3386,5.859375
3387,5.859375
3388,5.859375
3389,5.859375
3390,5.859375
3391,5.859375
3392,5.859375
3393,3.906250
3394,3.906250
3395,5.859375
3396,5.859375
3397,3.906250
3398,3.906250
3399,3.906250
3400,3.906250
3401,3.906250
3402,3.906250
3403,3.906250
3404,3.906250
3405,3.906250
3406,3.906250
3407,3.906250
3408,3.906250
3409,3.906250
3410,3.906250
3411,3.906250
3412,3.906250
3413,3.906250
3414,3.906250
3415,3.906250
3416,3.906250
3417,3.906250
3418,3.906250
3419,3.906250
3420,3.906250
3421,3.906250
3422,3.906250
3423,3.906250
3424,3.906250
3425,1.953125
3426,1.953125
3427,3.906250
3428,1.953125
3429,1.953125
3430,3.906250
3431,3.906250
3432,1.953125
3433,1.953125
3434,1.953125
3435,1.953125
3436,1.953125
3437,1.953125
3438,1.953125
3439,1.953125
3440,1.953125
3441,1.953125
3442,1.953125
3443,1.953125
3444,1.953125
3445,1.953125
3446,1.953125
3447,1.953125
3448,1.953125
3449,1.953125
3450,1.953125
3451,1.953125
3452,0.000000
3453,1.953125
3454,1.953125
3455,0.000000
3456,0.000000
3457,1.953125
3458,0.000000
3459,1.953125
3460,1.953125
3461,0.000000
3462,0.000000
3463,0.000000
3464,0.000000
3465,0.000000
3466,0.000000
3467,0.000000
3468,0.000000
3469,0.000000
3470,0.000000
3471,0.000000
3472,0.000000
3473,0.000000
3474,0.000000
3475,0.000000
3476,0.000000
3477,0.000000
3478,0.000000
3479,0.000000
3480,0.000000
3481,0.000000
3482,0.000000
3483,0.000000
3484,0.000000
3485,0.000000
3486,0.000000
3487,0.000000
3488,0.000000
3489,0.000000
3490,0.000000
3491,0.000000
3492,0.000000
3493,0.000000
3494,0.000000
3495,1.953125
3496,0.000000
3497,1.953125
3498,0.000000
3499,0.000000
3500,1.953125
3501,0.000000
3502,0.000000
3503,0.000000
3504,0.000000
3505,0.000000
3506,0.000000
3507,0.000000
3508,0.000000
3509,0.000000
3510,0.000000
3511,0.000000
3512,0.000000
3513,0.000000
3514,0.000000
3515,-1.953125
3516,0.000000
3517,-1.953125
3518,-1.953125
3519,-1.953125
3520,-1.953125
3521,0.000000
3522,-1.953125
3523,-1.953125
3524,-1.953125
3525,-1.953125
3526,-1.953125
3527,-1.953125
3528,-1.953125
3529,-1.953125
3530,-1.953125
3531,-1.953125
3532,-1.953125
3533,-1.953125
3534,-1.953125
3535,-1.953125
3536,-1.953125
3537,-1.953125
3538,-1.953125
3539,-1.953125
3540,-1.953125
3541,-1.953125
3542,-1.953125
3543,-1.953125
3544,-1.953125
3545,-1.953125
3546,-1.953125
3547,-1.953125
3548,-3.906250
3549,-1.953125
3550,-1.953125
3551,-1.953125
3552,-3.906250
3553,-3.906250
3554,-1.953125
3555,-3.906250
3556,-3.906250
3557,-3.906250
3558,-3.906250
3559,-3.906250
3560,-3.906250
3561,-3.906250
3562,-3.906250
3563,-3.906250
3564,-3.906250
3565,-3.906250
3566,-3.906250
3567,-3.906250
3568,-3.906250
3569,-3.906250
3570,-3.906250
3571,-3.906250
3572,-3.906250
3573,-3.906250
3574,-5.859375
3575,-5.859375
3576,-5.859375
3577,-5.859375
3578,-5.859375
3579,-5.859375
3580,-5.859375
3581,-5.859375
3582,-5.859375
3583,-5.859375
3584,-5.859375
3585,-5.859375
3586,-5.859375
3587,-5.859375
3588,-7.812500
3589,-7.812500
3590,-5.859375
3591,-7.812500
3592,-7.812500
3593,-7.812500
3594,-7.812500
3595,-7.812500
3596,-7.812500
3597,-7.812500
3598,-7.812500
3599,-7.812500
3600,-7.812500
3601,-7.812500
3602,-7.812500
3603,-9.765625
3604,-9.765625
3605,-9.765625
3606,-9.765625
3607,-9.765625
3608,-9.765625
3609,-9.765625
3610,-9.765625
3611,-9.765625
3612,-9.765625
3613,-9.765625
3614,-9.765625
3615,-9.765625
3616,-9.765625
3617,-9.765625
3618,-11.718750
3619,-11.718750
3620,-11.718750
3621,-11.718750
3622,-11.718750
3623,-11.718750
3624,-11.718750
3625,-11.718750
3626,-11.718750
3627,-11.718750
3628,-11.718750
3629,-13.671875
3630,-13.671875
3631,-11.718750
3632,-13.671875
3633,-13.671875
3634,-11.718750
3635,-13.671875
3636,-15.625000
3637,-13.671875
3638,-13.671875
3639,-13.671875
3640,-15.625000
3641,-15.625000
3642,-15.625000
3643,-15.625000
3644,-15.625000
3645,-15.625000
3646,-15.625000
3647,-15.625000
3648,-15.625000
3649,-17.578125
3650,-17.578125
3651,-15.625000
3652,-17.578125
3653,-17.578125
3654,-17.578125
3655,-17.578125
3656,-17.578125
3657,-17.578125
3658,-19.531250
3659,-17.578125
3660,-19.531250
3661,-19.531250
3662,-19.531250
3663,-19.531250
3664,-19.531250
3665,-21.484375
3666,-19.531250
3667,-17.578125
3668,-21.484375
3669,-21.484375
3670,-19.531250
3671,-21.484375
3672,-21.484375
3673,-21.484375
3674,-21.484375
3675,-21.484375
3676,-21.484375
3677,-21.484375
3678,-21.484375
3679,-23.437500
3680,-23.437500
3681,-23.437500
3682,-23.437500
3683,-21.484375
3684,-23.437500
3685,-23.437500
3686,-23.437500
3687,-23.437500
3688,-23.437500
3689,-23.437500
3690,-23.437500
3691,-23.437500
3692,-25.390625
3693,-25.390625
3694,-25.390625
3695,-25.390625
3696,-25.390625
3697,-25.390625
3698,-25.390625
3699,-25.390625
3700,-25.390625
3701,-25.390625
3702,-27.343750
3703,-25.390625
3704,-25.390625
3705,-27.343750
3706,-27.343750
3707,-27.343750
3708,-27.343750
3709,-27.343750
3710,-27.343750
3711,-27.343750
3712,-27.343750
3713,-27.343750
3714,-27.343750
3715,-27.343750
3716,-27.343750
3717,-29.296875
3718,-29.296875
3719,-29.296875
3720,-29.296875
3721,-27.343750
3722,-29.296875
3723,-29.296875
3724,-29.296875
3725,-29.296875
3726,-29.296875
3727,-29.296875
3728,-29.296875
3729,-29.296875
3730,-29.296875
3731,-29.296875
3732,-29.296875
3733,-29.296875
3734,-29.296875
3735,-29.296875
3736,-29.296875
3737,-29.296875
3738,-29.296875
3739,-29.296875
3740,-29.296875
3741,-29.296875
3742,-29.296875
3743,-29.296875
3744,-29.296875
3745,-29.296875
3746,-27.343750
3747,-29.296875
3748,-29.296875
3749,-29.296875
3750,-29.296875
3751,-29.296875
3752,-27.343750
3753,-29.296875
3754,-27.343750
3755,-27.343750
3756,-29.296875
3757,-27.343750
3758,-29.296875
3759,-27.343750
3760,-27.343750
3761,-27.343750
3762,-27.343750
3763,-27.343750
3764,-27.343750
3765,-27.343750
3766,-27.343750
3767,-27.343750
3768,-27.343750
3769,-27.343750
3770,-27.343750
3771,-27.343750
3772,-27.343750
3773,-27.343750
3774,-25.390625
3775,-27.343750
3776,-27.343750
3777,-25.390625
3778,-25.390625
3779,-27.343750
3780,-25.390625
3781,-25.390625
3782,-25.390625
3783,-25.390625
3784,-25.390625
3785,-25.390625
3786,-25.390625
3787,-23.437500
3788,-23.437500
3789,-23.437500
3790,-23.437500
3791,-23.437500
3792,-23.437500
3793,-23.437500
3794,-23.437500
3795,-23.437500
3796,-21.484375
3797,-23.437500
3798,-21.484375
3799,-23.437500
3800,-21.484375
3801,-21.484375
3802,-21.484375
3803,-21.484375
3804,-21.484375
3805,-19.531250
3806,-21.484375
3807,-19.531250
3808,-19.531250
3809,-19.531250
3810,-19.531250
3811,-19.531250
3812,-19.531250
3813,-19.531250
3814,-19.531250
3815,-17.578125
3816,-17.578125
3817,-17.578125
3818,-17.578125
3819,-17.578125
3820,-17.578125
3821,-15.625000
3822,-17.578125
3823,-15.625000
3824,-15.625000
3825,-15.625000
3826,-15.625000
3827,-15.625000
3828,-15.625000
3829,-13.671875
3830,-15.625000
3831,-15.625000
3832,-13.671875
3833,-13.671875
3834,-13.671875
3835,-13.671875
3836,-13.671875
3837,-13.671875
3838,-11.718750
3839,-11.718750
3840,-11.718750
3841,-11.718750
3842,-11.718750
3843,-11.718750
3844,-11.718750
3845,-9.765625
3846,-11.718750
3847,-11.718750
3848,-9.765625
3849,-9.765625
3850,-9.765625
3851,-9.765625
3852,-9.765625
3853,-9.765625
3854,-7.812500
3855,-7.812500
3856,-7.812500
3857,-7.812500
3858,-7.812500
3859,-7.812500
3860,-7.812500
3861,-5.859375
3862,-5.859375
3863,-5.859375
3864,-5.859375
3865,-5.859375
3866,-5.859375
3867,-5.859375
3868,-5.859375
3869,-3.906250
3870,-3.906250
3871,-3.906250
3872,-3.906250
3873,-3.906250
3874,-3.906250
3875,-3.906250
3876,-1.953125
3877,-3.906250
3878,-1.953125
3879,-1.953125
3880,-1.953125
3881,-1.953125
3882,0.000000
3883,-1.953125
3884,-1.953125
3885,-1.953125
3886,0.000000
3887,0.000000
3888,0.000000
3889,-1.953125
3890,0.000000
3891,0.000000
3892,0.000000
3893,0.000000
3894,0.000000
3895,0.000000
3896,0.000000
3897,1.953125
3898,0.000000
3899,0.000000
3900,1.953125
3901,1.953125
3902,1.953125
3903,1.953125
3904,1.953125
3905,1.953125
3906,1.953125
3907,1.953125
3908,1.953125
3909,0.000000
3910,3.906250
3911,1.953125
3912,3.906250
3913,3.906250
3914,3.906250
3915,1.953125
3916,1.953125
3917,3.906250
3918,3.906250
3919,3.906250
3920,3.906250
3921,3.906250
3922,3.906250
3923,3.906250
3924,3.906250
3925,3.906250
3926,3.906250
3927,3.906250
3928,3.906250
3929,3.906250
3930,3.906250
3931,3.906250
3932,5.859375
3933,3.906250
3934,3.906250
3935,5.859375
3936,5.859375
3937,5.859375
3938,3.906250
3939,3.906250
3940,5.859375
3941,5.859375
3942,5.859375
3943,5.859375
3944,5.859375
3945,5.859375
3946,5.859375
3947,5.859375
3948,5.859375
3949,5.859375
3950,5.859375
3951,5.859375
3952,5.859375
3953,5.859375
3954,5.859375
3955,5.859375
3956,5.859375
3957,5.859375
3958,5.859375
3959,5.859375
3960,5.859375
3961,5.859375
3962,5.859375
3963,5.859375
3964,5.859375
3965,5.859375
3966,5.859375
3967,5.859375
3968,5.859375
3969,5.859375
3970,3.906250
3971,3.906250
3972,5.859375
3973,5.859375
3974,5.859375
3975,3.906250
3976,3.906250
3977,3.906250
3978,3.906250
3979,3.906250
3980,3.906250
3981,5.859375
3982,3.906250
3983,3.906250
3984,3.906250
3985,3.906250
3986,3.906250
3987,3.906250
3988,3.906250
3989,3.906250
3990,3.906250
3991,3.906250
3992,3.906250
3993,3.906250
3994,3.906250
3995,3.906250
3996,3.906250
3997,3.906250
3998,3.906250
3999,3.906250
4000,3.906250
4001,3.906250
4002,3.906250
4003,3.906250
4004,1.953125
4005,3.906250
4006,3.906250
4007,3.906250
4008,3.906250
4009,1.953125
4010,1.953125
4011,1.953125
4012,1.953125
4013,1.953125
4014,3.906250
4015,1.953125
4016,1.953125
4017,1.953125
4018,1.953125
4019,1.953125
4020,1.953125
4021,1.953125
4022,1.953125
4023,1.953125
4024,1.953125
4025,1.953125
4026,1.953125
4027,1.953125
4028,1.953125
4029,1.953125
4030,1.953125
4031,1.953125
4032,1.953125
4033,1.953125
4034,0.000000
4035,1.953125
4036,1.953125
4037,1.953125
4038,1.953125
4039,1.953125
4040,1.953125
4041,1.953125
4042,0.000000
4043,1.953125
4044,0.000000
4045,0.000000
4046,0.000000
4047,0.000000
4048,0.000000
4049,0.000000
4050,0.000000
4051,0.000000
4052,0.000000
4053,0.000000
4054,0.000000
4055,0.000000
4056,0.000000
4057,0.000000
4058,0.000000
4059,1.953125
4060,0.000000
4061,0.000000
4062,0.000000
4063,0.000000
4064,0.000000
4065,0.000000
4066,0.000000
4067,0.000000
4068,0.000000
4069,0.000000
4070,0.000000
4071,0.000000
4072,0.000000
4073,0.000000
4074,0.000000
4075,0.000000
4076,0.000000
4077,0.000000
4078,0.000000
4079,0.000000
4080,0.000000
4081,0.000000
4082,0.000000
4083,0.000000
4084,0.000000
4085,0.000000
4086,0.000000
4087,0.000000
4088,0.000000
4089,0.000000
4090,0.000000
4091,0.000000
4092,0.000000
4093,0.000000
4094,0.000000
4095,0.000000
4096,0.000000
4097,0.000000
4098,-1.953125
4099,-1.953125
4100,0.000000
4101,-1.953125
4102,0.000000
4103,-1.953125
4104,0.000000
4105,0.000000
4106,-1.953125
4107,-1.953125
4108,0.000000
4109,-1.953125
4110,-1.953125
4111,-1.953125
4112,-1.953125
4113,-1.953125
4114,-1.953125
4115,-1.953125
4116,-1.953125
4117,-1.953125
4118,-1.953125
4119,-1.953125
4120,-1.953125
4121,-1.953125
4122,-1.953125
4123,-1.953125
4124,-1.953125
4125,-1.953125
4126,-1.953125
4127,-1.953125
4128,-1.953125
4129,-1.953125
4130,-1.953125
4131,-1.953125
4132,-1.953125
4133,-1.953125
4134,-1.953125
4135,-1.953125
4136,-1.953125
4137,-1.953125
4138,-3.906250
4139,-3.906250
4140,-1.953125
4141,-3.906250
4142,-3.906250
4143,-3.906250
4144,-3.906250
4145,-3.906250
4146,-3.906250
4147,-3.906250
4148,-3.906250
4149,-3.906250
4150,-3.906250
4151,-3.906250
4152,-3.906250
4153,-3.906250
4154,-3.906250
4155,-3.906250
4156,-5.859375
4157,-3.906250
4158,-3.906250
4159,-5.859375
4160,-5.859375
4161,-5.859375
4162,-5.859375
4163,-5.859375
4164,-5.859375
4165,-5.859375
4166,-5.859375
4167,-5.859375
4168,-7.812500
4169,-5.859375
4170,-5.859375
4171,-5.859375
4172,-7.812500
4173,-7.812500
4174,-7.812500
4175,-7.812500
4176,-7.812500
4177,-7.812500
4178,-7.812500
4179,-7.812500
4180,-7.812500
4181,-7.812500
4182,-7.812500
4183,-7.812500
4184,-7.812500
4185,-9.765625
4186,-7.812500
4187,-9.765625
4188,-9.765625
4189,-9.765625
4190,-9.765625
4191,-7.812500
4192,-9.765625
4193,-9.765625
4194,-9.765625
4195,-9.765625
4196,-9.765625
4197,-9.765625
4198,-11.718750
4199,-9.765625
4200,-9.765625
4201,-11.718750
4202,-11.718750
4203,-11.718750
4204,-11.718750
4205,-11.718750
4206,-11.718750
4207,-11.718750
4208,-11.718750
4209,-11.718750
4210,-11.718750
4211,-13.671875
4212,-11.718750
4213,-13.671875
4214,-13.671875
4215,-13.671875
4216,-13.671875
4217,-13.671875
4218,-13.671875
4219,-13.671875
4220,-13.671875
4221,-15.625000
4222,-13.671875
4223,-15.625000
4224,-15.625000
4225,-15.625000
4226,-15.625000
4227,-15.625000
4228,-15.625000
4229,-17.578125
4230,-15.625000
4231,-15.625000
4232,-17.578125
4233,-17.578125
4234,-17.578125
4235,-17.578125
4236,-17.578125
4237,-17.578125
4238,-17.578125
4239,-17.578125
4240,-19.531250
4241,-19.531250
4242,-19.531250
4243,-19.531250
4244,-19.531250
4245,-19.531250
4246,-19.531250
4247,-19.531250
4248,-19.531250
4249,-19.531250
4250,-21.484375
4251,-19.531250
4252,-21.484375
4253,-21.484375
4254,-21.484375
4255,-21.484375
4256,-21.484375
4257,-21.484375
4258,-21.484375
4259,-19.531250
4260,-21.484375
4261,-21.484375
4262,-23.437500
4263,-23.437500
4264,-23.437500
4265,-23.437500
4266,-23.437500
4267,-23.437500
4268,-23.437500
4269,-23.437500
4270,-23.437500
4271,-23.437500
4272,-23.437500
4273,-23.437500
4274,-25.390625
4275,-25.390625
4276,-23.437500
4277,-25.390625
4278,-25.390625
4279,-25.390625
4280,-25.390625
4281,-25.390625
4282,-25.390625
4283,-25.390625
4284,-25.390625
4285,-25.390625
4286,-25.390625
4287,-27.343750
4288,-27.343750
4289,-25.390625
4290,-27.343750
4291,-27.343750
4292,-27.343750
4293,-27.343750
4294,-27.343750
4295,-27.343750
4296,-27.343750
4297,-27.343750
4298,-27.343750
4299,-29.296875
4300,-27.343750
4301,-29.296875
4302,-29.296875
4303,-29.296875
4304,-29.296875
4305,-29.296875
4306,-29.296875
4307,-29.296875
4308,-29.296875
4309,-31.250000
4310,-29.296875
4311,-29.296875
4312,-29.296875
4313,-29.296875
4314,-29.296875
4315,-29.296875
4316,-29.296875
4317,-29.296875
4318,-29.296875
4319,-29.296875
4320,-29.296875
4321,-29.296875
4322,-29.296875
4323,-29.296875
4324,-29.296875
4325,-29.296875
4326,-29.296875
4327,-29.296875
4328,-29.296875
4329,-29.296875
4330,-29.296875
4331,-29.296875
4332,-29.296875
4333,-29.296875
4334,-29.296875
4335,-27.343750
4336,-29.296875
4337,-29.296875
4338,-27.343750
4339,-27.343750
4340,-27.343750
4341,-27.343750
4342,-27.343750
4343,-29.296875
4344,-29.296875
4345,-27.343750
4346,-27.343750
4347,-27.343750
4348,-27.343750
4349,-27.343750
4350,-27.343750
4351,-27.343750
4352,-27.343750
4353,-27.343750
4354,-27.343750
4355,-25.390625
4356,-27.343750
4357,-27.343750
4358,-25.390625
4359,-27.343750
4360,-27.343750
4361,-25.390625
4362,-25.390625
4363,-25.390625
4364,-25.390625
4365,-25.390625
4366,-25.390625
4367,-25.390625
4368,-25.390625
4369,-23.437500
4370,-25.390625
4371,-25.390625
4372,-23.437500
4373,-23.437500
4374,-25.390625
4375,-23.437500
4376,-23.437500
4377,-23.437500
4378,-23.437500
4379,-23.437500
4380,-21.484375
4381,-23.437500
4382,-23.437500
4383,-21.484375
4384,-21.484375
4385,-23.437500
4386,-21.484375
4387,-21.484375
4388,-21.484375
4389,-21.484375
4390,-19.531250
4391,-21.484375
4392,-19.531250
4393,-19.531250
4394,-19.531250
4395,-19.531250
4396,-19.531250
4397,-19.531250
4398,-17.578125
4399,-17.578125
4400,-17.578125
4401,-17.578125
4402,-17.578125
4403,-17.578125
4404,-17.578125
4405,-17.578125
4406,-15.625000
4407,-15.625000
4408,-15.625000
4409,-15.625000
4410,-15.625000
4411,-15.625000
4412,-15.625000
4413,-15.625000
4414,-13.671875
4415,-13.671875
4416,-13.671875
4417,-13.671875
4418,-13.671875
4419,-11.718750
4420,-11.718750
4421,-13.671875
4422,-13.671875
4423,-11.718750
4424,-11.718750
4425,-11.718750
4426,-11.718750
4427,-11.718750
4428,-9.765625
4429,-11.718750
4430,-11.718750
4431,-9.765625
4432,-9.765625
4433,-9.765625
4434,-9.765625
4435,-9.765625
4436,-9.765625
4437,-7.812500
4438,-7.812500
4439,-7.812500
4440,-7.812500
4441,-7.812500
4442,-7.812500
4443,-7.812500
4444,-5.859375
4445,-5.859375
4446,-5.859375
4447,-5.859375
4448,-5.859375
4449,-5.859375
4450,-5.859375
4451,-3.906250
4452,-3.906250
4453,-3.906250
4454,-3.906250
4455,-3.906250
4456,-3.906250
4457,-3.906250
4458,-3.906250
4459,0.000000
4460,-3.906250
4461,-1.953125
4462,-1.953125
4463,-1.953125
4464,-1.953125
4465,-1.953125
4466,-1.953125
4467,-1.953125
4468,-1.953125
4469,-1.953125
4470,-1.953125
4471,0.000000
4472,-1.953125
4473,0.000000
4474,0.000000
4475,0.000000
4476,0.000000
4477,0.000000
4478,0.000000
4479,0.000000
4480,0.000000
4481,0.000000
4482,0.000000
4483,1.953125
4484,1.953125
4485,1.953125
4486,1.953125
4487,1.953125
4488,1.953125
4489,1.953125
4490,1.953125
4491,1.953125
4492,1.953125
4493,3.906250
4494,1.953125
4495,1.953125
4496,3.906250
4497,3.906250
4498,3.906250
4499,3.906250
4500,3.906250
4501,3.906250
4502,3.906250
4503,3.906250
4504,3.906250
4505,3.906250
4506,3.906250
4507,3.906250
4508,3.906250
4509,3.906250
4510,5.859375
4511,5.859375
4512,3.906250
4513,3.906250
4514,3.906250
4515,5.859375
4516,3.906250
4517,3.906250
4518,3.906250
4519,5.859375
4520,5.859375
4521,5.859375
4522,3.906250
4523,5.859375
4524,5.859375
4525,5.859375
4526,5.859375
4527,3.906250
4528,5.859375
4529,3.906250
4530,5.859375
4531,5.859375
4532,5.859375
4533,5.859375
4534,5.859375
4535,5.859375
4536,5.859375
4537,5.859375
4538,5.859375
4539,5.859375
4540,5.859375
4541,5.859375
4542,5.859375
4543,5.859375
4544,5.859375
4545,5.859375
4546,5.859375
4547,5.859375
4548,5.859375
4549,5.859375
4550,5.859375
4551,5.859375
4552,5.859375
4553,3.906250
4554,5.859375
4555,5.859375
4556,5.859375
4557,5.859375
4558,3.906250
4559,3.906250
4560,5.859375
4561,5.859375
4562,3.906250
4563,3.906250
4564,3.906250
4565,3.906250
4566,3.906250
4567,3.906250
4568,3.906250
4569,3.906250
4570,3.906250
4571,3.906250
4572,3.906250
4573,3.906250
4574,3.906250
4575,3.906250
4576,3.906250
4577,3.906250
4578,3.906250
4579,3.906250
4580,3.906250
4581,3.906250
4582,3.906250
4583,3.906250
4584,3.906250
4585,3.906250
4586,3.906250
4587,3.906250
4588,3.906250
4589,3.906250
4590,3.906250
4591,1.953125
4592,3.906250
4593,1.953125
4594,1.953125
4595,3.906250
4596,1.953125
4597,1.953125
4598,1.953125
4599,1.953125
4600,1.953125
4601,1.953125
4602,1.953125
4603,1.953125
4604,1.953125
4605,1.953125
4606,1.953125
4607,1.953125
4608,1.953125
4609,1.953125
4610,1.953125
4611,1.953125
4612,1.953125
4613,1.953125
4614,1.953125
4615,1.953125
4616,1.953125
4617,1.953125
4618,1.953125
4619,0.000000
4620,1.953125
4621,1.953125
4622,0.000000
4623,0.000000
4624,1.953125
4625,1.953125
4626,0.000000
4627,0.000000
4628,0.000000
4629,0.000000
4630,1.953125
4631,0.000000
4632,0.000000
4633,0.000000
4634,0.000000
4635,0.000000
4636,0.000000
4637,1.953125
4638,0.000000
4639,0.000000
4640,0.000000
4641,0.000000
4642,0.000000
4643,0.000000
4644,0.000000
4645,0.000000
4646,0.000000
4647,0.000000
4648,0.000000
4649,0.000000
4650,0.000000
4651,0.000000
4652,0.000000
4653,0.000000
4654,0.000000
4655,0.000000
4656,0.000000
4657,0.000000
4658,0.000000
4659,0.000000
4660,0.000000
4661,0.000000
4662,0.000000
4663,0.000000
4664,0.000000
4665,0.000000
4666,0.000000
4667,0.000000
4668,0.000000
4669,0.000000
4670,0.000000
4671,0.000000
4672,0.000000
4673,0.000000
4674,0.000000
4675,0.000000
4676,0.000000
4677,0.000000
4678,0.000000
4679,0.000000
4680,-1.953125
4681,0.000000
4682,0.000000
4683,-1.953125
4684,-1.953125
4685,-1.953125
4686,0.000000
4687,0.000000
4688,0.000000
4689,-1.953125
4690,0.000000
4691,-1.953125
4692,-1.953125
4693,-1.953125
4694,-1.953125
4695,-1.953125
4696,-1.953125
4697,-1.953125
4698,-1.953125
4699,-1.953125
4700,-1.953125
4701,-1.953125
4702,-1.953125
4703,-1.953125
4704,-1.953125
4705,-1.953125
4706,-1.953125
4707,-1.953125
4708,-1.953125
4709,-1.953125
4710,-1.953125
4711,-1.953125
4712,-1.953125
4713,-1.953125
4714,-1.953125
4715,-1.953125
4716,-1.953125
4717,-1.953125
4718,-1.953125
4719,-3.906250
4720,-3.906250
4721,-1.953125
4722,-1.953125
4723,-3.906250
4724,-3.906250
4725,-3.906250
4726,-3.906250
4727,-3.906250
4728,-3.906250
4729,-3.906250
4730,-3.906250
4731,-3.906250
4732,-3.906250
4733,-3.906250
4734,-3.906250
4735,-3.906250
4736,-3.906250
4737,-3.906250
4738,-3.906250
4739,-3.906250
4740,-5.859375
4741,-5.859375
4742,-3.906250
4743,-5.859375
4744,-5.859375
4745,-5.859375
4746,-5.859375
4747,-5.859375
4748,-5.859375
4749,-5.859375
4750,-5.859375
4751,-5.859375
4752,-5.859375
4753,-5.859375
4754,-5.859375
4755,-5.859375
4756,-7.812500
4757,-7.812500
4758,-7.812500
4759,-7.812500
4760,-7.812500
4761,-7.812500
4762,-7.812500
4763,-7.812500
4764,-7.812500
4765,-7.812500
4766,-7.812500
4767,-9.765625
4768,-7.812500
4769,-7.812500
4770,-9.765625
4771,-9.765625
4772,-9.765625
4773,-9.765625
4774,-9.765625
4775,-9.765625
4776,-9.765625
4777,-9.765625
4778,-9.765625
4779,-9.765625
4780,-9.765625
4781,-9.765625
4782,-11.718750
4783,-11.718750
4784,-11.718750
4785,-11.718750
4786,-9.765625
4787,-11.718750
4788,-11.718750
4789,-11.718750
4790,-11.718750
4791,-11.718750
4792,-11.718750
4793,-13.671875
4794,-13.671875
4795,-11.718750
4796,-13.671875
4797,-13.671875
4798,-13.671875
4799,-13.671875
4800,-13.671875
4801,-13.671875
4802,-13.671875
4803,-13.671875
4804,-13.671875
4805,-13.671875
4806,-15.625000
4807,-15.625000
4808,-15.625000
4809,-15.625000
4810,-15.625000
4811,-15.625000
4812,-15.625000
4813,-15.625000
4814,-17.578125
4815,-17.578125
4816,-17.578125
4817,-17.578125
4818,-17.578125
4819,-17.578125
4820,-17.578125
4821,-17.578125
4822,-17.578125
4823,-19.531250
4824,-19.531250
4825,-19.531250
4826,-19.531250
4827,-19.531250
4828,-19.531250
4829,-19.531250
4830,-19.531250
4831,-19.531250
4832,-19.531250
4833,-21.484375
4834,-21.484375
4835,-21.484375
4836,-21.484375
4837,-21.484375
4838,-21.484375
4839,-21.484375
4840,-21.484375
4841,-21.484375
4842,-23.437500
4843,-23.437500
4844,-23.437500
4845,-23.437500
4846,-23.437500
4847,-23.437500
4848,-23.437500
4849,-23.437500
4850,-23.437500
4851,-23.437500
4852,-25.390625
4853,-23.437500
4854,-23.437500
4855,-25.390625
4856,-25.390625
4857,-25.390625
4858,-25.390625
4859,-25.390625
4860,-25.390625
4861,-25.390625
4862,-25.390625
4863,-25.390625
4864,-25.390625
4865,-27.343750
4866,-25.390625
4867,-25.390625
4868,-25.390625
4869,-27.343750
4870,-27.343750
4871,-27.343750
4872,-27.343750
4873,-27.343750
4874,-27.343750
4875,-25.390625
4876,-27.343750
4877,-27.343750
4878,-27.343750
4879,-29.296875
4880,-29.296875
4881,-27.343750
4882,-29.296875
4883,-29.296875
4884,-29.296875
4885,-29.296875
4886,-29.296875
4887,-29.296875
4888,-29.296875
4889,-29.296875
4890,-29.296875
4891,-29.296875
4892,-29.296875
4893,-29.296875
4894,-29.296875
4895,-29.296875
4896,-29.296875
4897,-29.296875
4898,-29.296875
4899,-29.296875
4900,-29.296875
4901,-29.296875
4902,-29.296875
4903,-29.296875
4904,-29.296875
4905,-29.296875
4906,-29.296875
4907,-29.296875
4908,-29.296875
4909,-29.296875
4910,-29.296875
4911,-29.296875
4912,-29.296875
4913,-29.296875
4914,-29.296875
4915,-29.296875
4916,-29.296875
4917,-29.296875
4918,-29.296875
4919,-29.296875
4920,-29.296875
4921,-29.296875
4922,-27.343750
4923,-29.296875
4924,-29.296875
4925,-27.343750
4926,-27.343750
4927,-27.343750
4928,-29.296875
4929,-27.343750
4930,-27.343750
4931,-27.343750
4932,-27.343750
4933,-27.343750
4934,-27.343750
4935,-27.343750
4936,-27.343750
4937,-27.343750
4938,-27.343750
4939,-25.390625
4940,-27.343750
4941,-25.390625
4942,-27.343750
4943,-27.343750
4944,-25.390625
4945,-25.390625
4946,-25.390625
4947,-25.390625
4948,-25.390625
4949,-25.390625
4950,-25.390625
4951,-25.390625
4952,-25.390625
4953,-23.437500
4954,-25.390625
4955,-25.390625
4956,-25.390625
4957,-25.390625
4958,-23.437500
4959,-23.437500
4960,-23.437500
4961,-23.437500
4962,-23.437500
4963,-23.437500
4964,-23.437500
4965,-21.484375
4966,-21.484375
4967,-21.484375
4968,-21.484375
4969,-21.484375
4970,-21.484375
4971,-21.484375
4972,-21.484375
4973,-21.484375
4974,-19.531250
4975,-19.531250
4976,-19.531250
4977,-19.531250
4978,-19.531250
4979,-19.531250
4980,-19.531250
4981,-17.578125
4982,-17.578125
4983,-17.578125
4984,-17.578125
4985,-17.578125
4986,-17.578125
4987,-15.625000
4988,-17.578125
4989,-15.625000
4990,-15.625000
4991,-15.625000
4992,-15.625000
4993,-15.625000
4994,-15.625000
4995,-15.625000
4996,-13.671875
4997,-13.671875
4998,-13.671875
4999,-13.671875
5000,-13.671875
5001,-13.671875
5002,-13.671875
5003,-13.671875
5004,-13.671875
5005,-11.718750
5006,-11.718750
5007,-11.718750
5008,-11.718750
5009,-11.718750
5010,-11.718750
5011,-11.718750
5012,-11.718750
5013,-11.718750
5014,-9.765625
5015,-9.765625
5016,-9.765625
5017,-9.765625
5018,-7.812500
5019,-7.812500
5020,-7.812500
5021,-7.812500
5022,-7.812500
5023,-7.812500
5024,-7.812500
5025,-7.812500
5026,-5.859375
5027,-7.812500
5028,-7.812500
5029,-5.859375
5030,-5.859375
5031,-5.859375
5032,-5.859375
5033,-5.859375
5034,-3.906250
5035,-3.906250
5036,-3.906250
5037,-3.906250
5038,-3.906250
5039,-3.906250
5040,-3.906250
5041,-3.906250
5042,-1.953125
5043,-3.906250
5044,-1.953125
5045,-1.953125
5046,-1.953125
5047,-1.953125
5048,-1.953125
5049,-1.953125
5050,-1.953125
5051,0.000000
5052,0.000000
5053,-1.953125
5054,0.000000
5055,0.000000
5056,0.000000
5057,0.000000
5058,0.000000
5059,0.000000
5060,0.000000
5061,0.000000
5062,0.000000
5063,1.953125
5064,0.000000
5065,1.953125
5066,1.953125
5067,1.953125
5068,1.953125
5069,3.906250
5070,1.953125
5071,1.953125
5072,1.953125
5073,1.953125
5074,3.906250
5075,1.953125
5076,1.953125
5077,1.953125
5078,3.906250
5079,3.906250
5080,1.953125
5081,3.906250
5082,3.906250
5083,1.953125
5084,3.906250
5085,3.906250
5086,3.906250
5087,3.906250
5088,3.906250
5089,3.906250
5090,3.906250
5091,3.906250
5092,3.906250
5093,3.906250
5094,3.906250
5095,3.906250
5096,3.906250
5097,5.859375
5098,3.906250
5099,5.859375
5100,5.859375
5101,3.906250
5102,5.859375
5103,5.859375
5104,5.859375
5105,5.859375
5106,5.859375
5107,5.859375
5108,5.859375
5109,5.859375
5110,5.859375
5111,5.859375
5112,5.859375
5113,5.859375
5114,5.859375
5115,5.859375
5116,5.859375
5117,5.859375
5118,5.859375
5119,5.859375
5120,5.859375
5121,5.859375
5122,5.859375
5123,5.859375
5124,5.859375
5125,5.859375
5126,5.859375
5127,5.859375
5128,5.859375
5129,5.859375
5130,5.859375
5131,5.859375
5132,5.859375
5133,5.859375
5134,5.859375
5135,5.859375
5136,5.859375
5137,3.906250
5138,5.859375
5139,5.859375
5140,3.906250
5141,3.906250
5142,5.859375
5143,3.906250
5144,3.906250
5145,3.906250
5146,3.906250
5147,3.906250
5148,3.906250
5149,3.906250
5150,3.906250
5151,3.906250
5152,3.906250
5153,3.906250
5154,3.906250
5155,3.906250
5156,3.906250
5157,3.906250
5158,3.906250
5159,3.906250
5160,3.906250
5161,3.906250
5162,3.906250
5163,3.906250
5164,3.906250
5165,3.906250
5166,3.906250
5167,3.906250
5168,3.906250
5169,3.906250
5170,3.906250
5171,3.906250
5172,1.953125
5173,3.906250
5174,1.953125
5175,3.906250
5176,3.906250
5177,1.953125
5178,1.953125
5179,3.906250
5180,1.953125
5181,1.953125
5182,1.953125
5183,1.953125
5184,1.953125
5185,1.953125
5186,1.953125
5187,1.953125
5188,1.953125
5189,1.953125
5190,1.953125
5191,1.953125
5192,1.953125
5193,1.953125
5194,1.953125
5195,0.000000
5196,1.953125
5197,1.953125
5198,1.953125
5199,1.953125
5200,1.953125
5201,1.953125
5202,0.000000
5203,1.953125
5204,1.953125
5205,0.000000
5206,0.000000
5207,1.953125
5208,0.000000
5209,0.000000
5210,0.000000
5211,0.000000
5212,0.000000
5213,0.000000
5214,0.000000
5215,0.000000
5216,0.000000
5217,0.000000
5218,0.000000
5219,0.000000
5220,0.000000
5221,0.000000
5222,0.000000
5223,0.000000
5224,0.000000
5225,0.000000
5226,0.000000
5227,0.000000
5228,0.000000
5229,0.000000
5230,0.000000
5231,0.000000
5232,0.000000
5233,0.000000
5234,0.000000
5235,0.000000
5236,0.000000
5237,0.000000
5238,0.000000
5239,0.000000
5240,0.000000
5241,0.000000
5242,0.000000
5243,0.000000
5244,0.000000
5245,0.000000
5246,0.000000
5247,0.000000
5248,0.000000
5249,0.000000
5250,0.000000
5251,0.000000
5252,0.000000
5253,0.000000
5254,0.000000
5255,0.000000
5256,0.000000
5257,0.000000
5258,0.000000
5259,0.000000
5260,0.000000
5261,0.000000
5262,-1.953125
5263,0.000000
5264,1.953125
5265,0.000000
5266,-1.953125
5267,0.000000
5268,-1.953125
5269,-1.953125
5270,-1.953125
5271,-1.953125
5272,-1.953125
5273,-1.953125
5274,-1.953125
5275,-1.953125
5276,-1.953125
5277,-1.953125
5278,-1.953125
5279,-1.953125
5280,-1.953125
5281,-1.953125
5282,-1.953125
5283,-1.953125
5284,-1.953125
5285,-1.953125
5286,-1.953125
5287,-1.953125
5288,-1.953125
5289,-1.953125
5290,-1.953125
5291,-1.953125
5292,-3.906250
5293,-1.953125
5294,-1.953125
5295,-3.906250
5296,-1.953125
5297,-1.953125
5298,-3.906250
5299,-1.953125
5300,-1.953125
5301,-1.953125
5302,-3.906250
5303,-3.906250
5304,-1.953125
5305,-3.906250
5306,-3.906250
5307,-3.906250
5308,-3.906250
5309,-3.906250
5310,-3.906250
5311,-3.906250
5312,-3.906250
5313,-3.906250
5314,-3.906250
5315,-3.906250
5316,-3.906250
5317,-3.906250
5318,-5.859375
5319,-3.906250
5320,-3.906250
5321,-3.906250
5322,-5.859375
5323,-5.859375
5324,-3.906250
5325,-5.859375
5326,-5.859375
5327,-5.859375
5328,-5.859375
5329,-5.859375
5330,-5.859375
5331,-5.859375
5332,-5.859375
5333,-5.859375
5334,-5.859375
5335,-5.859375
5336,-7.812500
5337,-7.812500
5338,-7.812500
5339,-7.812500
5340,-7.812500
5341,-7.812500
5342,-7.812500
5343,-7.812500
5344,-9.765625
5345,-7.812500
5346,-7.812500
5347,-7.812500
5348,-7.812500
5349,-9.765625
5350,-7.812500
5351,-9.765625
5352,-9.765625
5353,-9.765625
5354,-9.765625
5355,-9.765625
5356,-9.765625
5357,-9.765625
5358,-9.765625
5359,-9.765625
5360,-9.765625
5361,-9.765625
5362,-9.765625
5363,-11.718750
5364,-11.718750
5365,-11.718750
5366,-9.765625
5367,-11.718750
5368,-11.718750
5369,-11.718750
5370,-11.718750
5371,-9.765625
5372,-11.718750
5373,-13.671875
5374,-11.718750
5375,-11.718750
5376,-11.718750
5377,-11.718750
5378,-13.671875
5379,-13.671875
5380,-13.671875
5381,-13.671875
5382,-11.718750
5383,-13.671875
5384,-15.625000
5385,-13.671875
5386,-13.671875
5387,-13.671875
5388,-15.625000
5389,-15.625000
5390,-15.625000
5391,-15.625000
5392,-15.625000
5393,-15.625000
5394,-15.625000
5395,-17.578125
5396,-17.578125
5397,-17.578125
5398,-17.578125
5399,-17.578125
5400,-17.578125
5401,-17.578125
5402,-17.578125
5403,-17.578125
5404,-17.578125
5405,-17.578125
5406,-19.531250
5407,-19.531250
5408,-19.531250
5409,-19.531250
5410,-19.531250
5411,-19.531250
5412,-19.531250
5413,-19.531250
5414,-19.531250
5415,-21.484375
5416,-21.484375
5417,-21.484375
5418,-21.484375
5419,-21.484375
5420,-21.484375
5421,-21.484375
5422,-21.484375
5423,-21.484375
5424,-23.437500
5425,-23.437500
5426,-23.437500
5427,-23.437500
5428,-23.437500
5429,-23.437500
5430,-23.437500
5431,-23.437500
5432,-23.437500
5433,-23.437500
5434,-23.437500
5435,-23.437500
5436,-25.390625
5437,-25.390625
5438,-23.437500
5439,-25.390625
5440,-25.390625
5441,-25.390625
5442,-25.390625
5443,-25.390625
5444,-25.390625
5445,-25.390625
5446,-25.390625
5447,-27.343750
5448,-25.390625
5449,-25.390625
5450,-27.343750
5451,-27.343750
5452,-27.343750
5453,-27.343750
5454,-27.343750
5455,-27.343750
5456,-27.343750
5457,-27.343750
5458,-27.343750
5459,-27.343750
5460,-29.296875
5461,-27.343750
5462,-27.343750
5463,-29.296875
5464,-29.296875
5465,-27.343750
5466,-27.343750
5467,-29.296875
5468,-29.296875
5469,-29.296875
5470,-29.296875
5471,-29.296875
5472,-29.296875
5473,-29.296875
5474,-29.296875
5475,-29.296875
5476,-29.296875
5477,-29.296875
5478,-29.296875
5479,-29.296875
5480,-29.296875
5481,-29.296875
5482,-29.296875
5483,-29.296875
5484,-29.296875
5485,-29.296875
5486,-29.296875
5487,-29.296875
5488,-29.296875
5489,-29.296875
5490,-29.296875
5491,-29.296875
5492,-29.296875
5493,-29.296875
5494,-29.296875
5495,-29.296875
5496,-29.296875
5497,-29.296875
5498,-29.296875
5499,-29.296875
5500,-29.296875
5501,-29.296875
5502,-29.296875
5503,-27.343750
5504,-29.296875
5505,-29.296875
5506,-29.296875
5507,-27.343750
5508,-27.343750
5509,-29.296875
5510,-27.343750
5511,-27.343750
5512,-27.343750
5513,-27.343750
5514,-27.343750
5515,-27.343750
5516,-27.343750
5517,-27.343750
5518,-27.343750
5519,-27.343750
5520,-27.343750
5521,-27.343750
5522,-25.390625
5523,-27.343750
5524,-27.343750
5525,-25.390625
5526,-27.343750
5527,-25.390625
5528,-25.390625
5529,-25.390625
5530,-25.390625
5531,-25.390625
5532,-25.390625
5533,-25.390625
5534,-23.437500
5535,-25.390625
5536,-25.390625
5537,-23.437500
5538,-25.390625
5539,-23.437500
5540,-23.437500
5541,-23.437500
5542,-23.437500
5543,-23.437500
5544,-23.437500
5545,-25.390625
5546,-23.437500
5547,-21.484375
5548,-21.484375
5549,-23.437500
5550,-21.484375
5551,-21.484375
5552,-21.484375
5553,-21.484375
5554,-21.484375
5555,-21.484375
5556,-21.484375
5557,-19.531250
5558,-19.531250
5559,-19.531250
5560,-19.531250
5561,-19.531250
5562,-17.578125
5563,-17.578125
5564,-21.484375
5565,-17.578125
5566,-15.625000
5567,-17.578125
5568,-17.578125
5569,-17.578125
5570,-15.625000
5571,-15.625000
5572,-15.625000
5573,-15.625000
5574,-15.625000
5575,-15.625000
5576,-15.625000
5577,-13.671875
5578,-13.671875
5579,-13.671875
5580,-13.671875
5581,-9.765625
5582,-13.671875
5583,-11.718750
5584,-13.671875
5585,-13.671875
5586,-11.718750
5587,-11.718750
5588,-11.718750
5589,-11.718750
5590,-11.718750
5591,-11.718750
5592,-11.718750
5593,-11.718750
5594,-11.718750
5595,-9.765625
5596,-9.765625
5597,-9.765625
5598,-9.765625
5599,-9.765625
5600,-9.765625
5601,-9.765625
5602,-9.765625
5603,-7.812500
5604,-7.812500
5605,-7.812500
5606,-7.812500
5607,-7.812500
5608,-7.812500
5609,-5.859375
5610,-5.859375
5611,-5.859375
5612,-9.765625
5613,-5.859375
5614,-5.859375
5615,-5.859375
5616,-5.859375
5617,-3.906250
5618,-3.906250
5619,-3.906250
5620,-3.906250
5621,-3.906250
5622,-3.906250
5623,-1.953125
5624,-3.906250
5625,-3.906250
5626,-1.953125
5627,-1.953125
5628,-1.953125
5629,-1.953125
5630,-1.953125
5631,1.953125
5632,-1.953125
5633,-1.953125
5634,0.000000
5635,0.000000
5636,0.000000
5637,0.000000
5638,0.000000
5639,0.000000
5640,0.000000
5641,0.000000
5642,0.000000
5643,0.000000
5644,0.000000
5645,0.000000
5646,1.953125
5647,1.953125
5648,3.906250
5649,1.953125
5650,0.000000
5651,1.953125
5652,1.953125
5653,1.953125
5654,1.953125
5655,1.953125
5656,1.953125
5657,3.906250
5658,1.953125
5659,1.953125
5660,1.953125
5661,1.953125
5662,1.953125
5663,1.953125
5664,3.906250
5665,3.906250
5666,3.906250
5667,1.953125
5668,3.906250
5669,3.906250
5670,3.906250
5671,3.906250
5672,3.906250
5673,3.906250
5674,3.906250
5675,3.906250
5676,5.859375
5677,3.906250
5678,3.906250
5679,3.906250
5680,3.906250
5681,5.859375
5682,5.859375
5683,5.859375
5684,3.906250
5685,5.859375
5686,5.859375
5687,3.906250
5688,5.859375
5689,5.859375
5690,3.906250
5691,5.859375
5692,5.859375
5693,5.859375
5694,5.859375
5695,5.859375
5696,5.859375
5697,5.859375
5698,5.859375
5699,5.859375
5700,5.859375
5701,5.859375
5702,5.859375
5703,5.859375
5704,5.859375
5705,5.859375
5706,5.859375
5707,5.859375
5708,5.859375
5709,5.859375
5710,5.859375
5711,5.859375
5712,5.859375
5713,5.859375
5714,5.859375
5715,3.906250
5716,5.859375
5717,5.859375
5718,5.859375
5719,5.859375
5720,5.859375
5721,5.859375
5722,5.859375
5723,3.906250
5724,3.906250
5725,3.906250
5726,3.906250
5727,3.906250
5728,3.906250
5729,3.906250
5730,3.906250
5731,3.906250
5732,3.906250
5733,3.906250
5734,3.906250
5735,3.906250
5736,3.906250
5737,3.906250
5738,3.906250
5739,3.906250
5740,3.906250
5741,3.906250
5742,3.906250
5743,3.906250
5744,3.906250
5745,3.906250
5746,3.906250
5747,3.906250
5748,3.906250
5749,3.906250
5750,3.906250
5751,3.906250
5752,1.953125
5753,1.953125
5754,3.906250
5755,3.906250
5756,3.906250
5757,3.906250
5758,1.953125
5759,3.906250
5760,1.953125
5761,1.953125
5762,1.953125
5763,1.953125
5764,1.953125
5765,1.953125
5766,1.953125
5767,1.953125
5768,1.953125
5769,1.953125
5770,1.953125
5771,1.953125
5772,1.953125
5773,1.953125
5774,1.953125
5775,1.953125
5776,1.953125
5777,1.953125
5778,1.953125
5779,1.953125
5780,1.953125
5781,1.953125
5782,1.953125
5783,0.000000
5784,1.953125
5785,1.953125
5786,0.000000
5787,0.000000
5788,1.953125
5789,0.000000
5790,1.953125
5791,0.000000
5792,1.953125
5793,0.000000
5794,0.000000
5795,0.000000
5796,0.000000
5797,0.000000
5798,0.000000
5799,0.000000
5800,0.000000
5801,0.000000
5802,0.000000
5803,0.000000
5804,0.000000
5805,0.000000
5806,0.000000
5807,0.000000
5808,0.000000
5809,0.000000
5810,0.000000
5811,0.000000
5812,0.000000
5813,0.000000
5814,0.000000
5815,0.000000
5816,0.000000
5817,0.000000
5818,0.000000
5819,0.000000
5820,0.000000
5821,0.000000
5822,1.953125
5823,0.000000
5824,0.000000
5825,0.000000
5826,0.000000
5827,0.000000
5828,0.000000
5829,0.000000
5830,0.000000
5831,0.000000
5832,0.000000
5833,0.000000
5834,0.000000
5835,0.000000
5836,0.000000
5837,0.000000
5838,0.000000
5839,0.000000
5840,0.000000
5841,0.000000
5842,0.000000
5843,-1.953125
5844,-1.953125
5845,0.000000
5846,0.000000
5847,-1.953125
5848,0.000000
5849,-1.953125
5850,-1.953125
5851,0.000000
5852,0.000000
5853,-1.953125
5854,-1.953125
5855,0.000000
5856,-1.953125
5857,-1.953125
5858,-1.953125
5859,-1.953125
5860,-1.953125
5861,-1.953125
5862,-1.953125
5863,-1.953125
5864,-3.906250
5865,-1.953125
5866,-1.953125
5867,-1.953125
5868,-1.953125
5869,-1.953125
5870,-1.953125
5871,-1.953125
5872,-3.906250
5873,-3.906250
5874,-1.953125
5875,-1.953125
5876,-3.906250
5877,-1.953125
5878,-1.953125
5879,-3.906250
5880,-1.953125
5881,-1.953125
5882,-1.953125
5883,-1.953125
5884,-3.906250
5885,-3.906250
5886,-3.906250
5887,-3.906250
5888,-3.906250
5889,-3.906250
5890,-3.906250
5891,-3.906250
5892,-3.906250
5893,-3.906250
5894,-3.906250
5895,-3.906250
5896,-3.906250
5897,-3.906250
5898,-3.906250
5899,-3.906250
5900,-3.906250
5901,-3.906250
5902,-5.859375
5903,-3.906250
5904,-3.906250
5905,-5.859375
5906,-3.906250
5907,-5.859375
5908,-5.859375
5909,-5.859375
5910,-5.859375
5911,-5.859375
5912,-5.859375
5913,-5.859375
5914,-5.859375
5915,-5.859375
5916,-5.859375
5917,-7.812500
5918,-7.812500
5919,-7.812500
5920,-7.812500
5921,-7.812500
5922,-7.812500
5923,-7.812500
5924,-7.812500
5925,-7.812500
5926,-7.812500
5927,-7.812500
5928,-7.812500
5929,-7.812500
5930,-9.765625
5931,-7.812500
5932,-9.765625
5933,-7.812500
5934,-9.765625
5935,-9.765625
5936,-9.765625
5937,-9.765625
5938,-9.765625
5939,-9.765625
5940,-9.765625
5941,-9.765625
5942,-9.765625
5943,-9.765625
5944,-9.765625
5945,-11.718750
5946,-11.718750
5947,-11.718750
5948,-9.765625
5949,-11.718750
5950,-11.718750
5951,-11.718750
5952,-11.718750
5953,-11.718750
5954,-11.718750
5955,-11.718750
5956,-13.671875
5957,-11.718750
5958,-13.671875
5959,-13.671875
5960,-13.671875
5961,-13.671875
5962,-13.671875
5963,-13.671875
5964,-13.671875
5965,-13.671875
5966,-13.671875
5967,-13.671875
5968,-13.671875
5969,-13.671875
5970,-15.625000
5971,-13.671875
5972,-15.625000
5973,-15.625000
5974,-15.625000
5975,-15.625000
5976,-15.625000
5977,-15.625000
5978,-17.578125
5979,-17.578125
5980,-15.625000
5981,-17.578125
5982,-17.578125
5983,-17.578125
5984,-17.578125
5985,-17.578125
5986,-17.578125
5987,-19.531250
5988,-19.531250
5989,-19.531250
5990,-19.531250
5991,-19.531250
5992,-19.531250
5993,-19.531250
5994,-19.531250
5995,-19.531250
5996,-19.531250
5997,-19.531250
5998,-21.484375
5999,-21.484375
6000,-21.484375
6001,-21.484375
6002,-21.484375
6003,-21.484375
6004,-21.484375
6005,-21.484375
6006,-21.484375
6007,-21.484375
6008,-23.437500
6009,-21.484375
6010,-23.437500
6011,-23.437500
6012,-23.437500
6013,-23.437500
6014,-23.437500
6015,-23.437500
6016,-23.437500
6017,-23.437500
6018,-25.390625
6019,-23.437500
6020,-23.437500
6021,-23.437500
6022,-23.437500
6023,-25.390625
6024,-25.390625
6025,-25.390625
6026,-25.390625
6027,-25.390625
6028,-25.390625
6029,-25.390625
6030,-27.343750
6031,-27.343750
6032,-25.390625
6033,-27.343750
6034,-27.343750
6035,-27.343750
6036,-27.343750
6037,-27.343750
6038,-27.343750
6039,-27.343750
6040,-27.343750
6041,-27.343750
6042,-27.343750
6043,-27.343750
6044,-27.343750
6045,-27.343750
6046,-27.343750
6047,-29.296875
6048,-29.296875
6049,-29.296875
6050,-27.343750
6051,-29.296875
6052,-29.296875
6053,-29.296875
6054,-29.296875
6055,-29.296875
6056,-29.296875
6057,-29.296875
6058,-29.296875
6059,-29.296875
6060,-29.296875
6061,-29.296875
6062,-29.296875
6063,-29.296875
6064,-29.296875
6065,-29.296875
6066,-29.296875
6067,-29.296875
6068,-29.296875
6069,-29.296875
6070,-29.296875
6071,-29.296875
6072,-29.296875
6073,-29.296875
6074,-29.296875
6075,-29.296875
6076,-29.296875
6077,-29.296875
6078,-29.296875
6079,-29.296875
6080,-29.296875
6081,-29.296875
6082,-29.296875
6083,-29.296875
6084,-29.296875
6085,-27.343750
6086,-29.296875
6087,-29.296875
6088,-29.296875
6089,-29.296875
6090,-27.343750
6091,-27.343750
6092,-27.343750
6093,-27.343750
6094,-27.343750
6095,-27.343750
6096,-27.343750
6097,-27.343750
6098,-27.343750
6099,-27.343750
6100,-27.343750
6101,-27.343750
6102,-27.343750
6103,-27.343750
6104,-27.343750
6105,-27.343750
6106,-27.343750
6107,-27.343750
6108,-25.390625
6109,-25.390625
6110,-25.390625
6111,-25.390625
6112,-25.390625
6113,-25.390625
6114,-25.390625
6115,-25.390625
6116,-25.390625
6117,-25.390625
6118,-25.390625
6119,-25.390625
6120,-23.437500
6121,-23.437500
6122,-23.437500
6123,-23.437500
6124,-23.437500
6125,-23.437500
6126,-23.437500
6127,-23.437500
6128,-21.484375
6129,-23.437500
6130,-21.484375
6131,-21.484375
6132,-21.484375
6133,-21.484375
6134,-21.484375
6135,-21.484375
6136,-21.484375
6137,-19.531250
6138,-21.484375
6139,-19.531250
6140,-19.531250
6141,-19.531250
6142,-19.531250
6143,-19.531250
6144,-17.578125
6145,-17.578125
6146,-17.578125
6147,-17.578125
6148,-17.578125
6149,-17.578125
6150,-17.578125
6151,-17.578125
6152,-15.625000
6153,-15.625000
6154,-17.578125
6155,-15.625000
6156,-15.625000
6157,-15.625000
6158,-15.625000
6159,-15.625000
6160,-13.671875
6161,-15.625000
6162,-13.671875
6163,-13.671875
6164,-13.671875
6165,-13.671875
6166,-13.671875
6167,-13.671875
6168,-13.671875
6169,-13.671875
6170,-11.718750
6171,-11.718750
6172,-11.718750
6173,-11.718750
6174,-11.718750
6175,-11.718750
6176,-11.718750
6177,-11.718750
6178,-9.765625
6179,-9.765625
6180,-9.765625
6181,-9.765625
6182,-9.765625
6183,-9.765625
6184,-9.765625
6185,-9.765625
6186,-7.812500
6187,-7.812500
6188,-7.812500
6189,-7.812500
6190,-7.812500
6191,-7.812500
6192,-7.812500
6193,-5.859375
6194,-5.859375
6195,-5.859375
6196,-5.859375
6197,-5.859375
6198,-5.859375
6199,-5.859375
6200,-5.859375
6201,-1.953125
6202,-1.953125
6203,-3.906250
6204,-3.906250
6205,-3.906250
6206,-3.906250
6207,-3.906250
6208,-1.953125
6209,-1.953125
6210,-1.953125
6211,-1.953125
6212,-1.953125
6213,-1.953125
6214,-1.953125
6215,-1.953125
6216,-1.953125
6217,0.000000
6218,-1.953125
6219,0.000000
6220,0.000000
6221,0.000000
6222,0.000000
6223,0.000000
6224,0.000000
6225,0.000000
6226,0.000000
6227,0.000000
6228,1.953125
6229,0.000000
6230,0.000000
6231,1.953125
6232,1.953125
6233,1.953125
6234,1.953125
6235,1.953125
6236,0.000000
6237,1.953125
6238,1.953125
6239,1.953125
6240,1.953125
6241,1.953125
6242,3.906250
6243,1.953125
6244,1.953125
6245,1.953125
6246,3.906250
6247,1.953125
6248,3.906250
6249,3.906250
6250,3.906250
6251,3.906250
6252,3.906250
6253,3.906250
6254,3.906250
6255,3.906250
6256,3.906250
6257,3.906250
6258,3.906250
6259,3.906250
6260,3.906250
6261,3.906250
6262,3.906250
6263,5.859375
6264,5.859375
6265,3.906250
6266,5.859375
6267,5.859375
6268,5.859375
6269,3.906250
6270,5.859375
6271,5.859375
6272,5.859375
6273,5.859375
6274,5.859375
6275,5.859375
6276,5.859375
6277,5.859375
6278,5.859375
6279,5.859375
6280,5.859375
6281,5.859375
6282,3.906250
6283,5.859375
6284,5.859375
6285,5.859375
6286,5.859375
6287,5.859375
6288,5.859375
6289,5.859375
6290,5.859375
6291,5.859375
6292,5.859375
6293,5.859375
6294,5.859375
6295,5.859375
6296,5.859375
6297,5.859375
6298,5.859375
6299,5.859375
6300,5.859375
6301,5.859375
6302,5.859375
6303,5.859375
6304,5.859375
6305,5.859375
6306,3.906250
6307,5.859375
6308,5.859375
6309,3.906250
6310,3.906250
6311,5.859375
6312,3.906250
6313,3.906250
6314,3.906250
6315,3.906250
6316,3.906250
6317,3.906250
6318,3.906250
6319,3.906250
6320,3.906250
6321,3.906250
6322,3.906250
6323,3.906250
6324,3.906250
6325,3.906250
6326,3.906250
6327,3.906250
6328,3.906250
6329,3.906250
6330,3.906250
6331,3.906250
6332,3.906250
6333,3.906250
6334,3.906250
6335,3.906250
6336,3.906250
6337,3.906250
6338,1.953125
6339,3.906250
6340,3.906250
6341,1.953125
6342,1.953125
6343,3.906250
6344,3.906250
6345,1.953125
6346,1.953125
6347,1.953125
6348,3.906250
6349,1.953125
6350,1.953125
6351,1.953125
6352,1.953125
6353,1.953125
6354,1.953125
6355,1.953125
6356,1.953125
6357,1.953125
6358,1.953125
6359,1.953125
6360,1.953125
6361,1.953125
6362,1.953125
6363,1.953125
6364,1.953125
6365,1.953125
6366,1.953125
6367,1.953125
6368,0.000000
6369,1.953125
6370,1.953125
6371,1.953125
6372,0.000000
6373,0.000000
6374,1.953125
6375,0.000000
6376,0.000000
6377,0.000000
6378,1.953125
6379,0.000000
6380,0.000000
6381,0.000000
6382,1.953125
6383,0.000000
6384,0.000000
6385,0.000000
6386,0.000000
6387,0.000000
6388,0.000000
6389,0.000000
6390,0.000000
6391,0.000000
6392,0.000000
6393,0.000000
6394,0.000000
6395,0.000000
6396,0.000000
6397,0.000000
6398,0.000000
6399,0.000000
6400,0.000000
6401,0.000000
6402,0.000000
6403,0.000000
6404,0.000000
6405,0.000000
6406,0.000000
6407,0.000000
6408,0.000000
6409,0.000000
6410,0.000000
6411,0.000000
6412,0.000000
6413,0.000000
6414,0.000000
6415,0.000000
6416,0.000000
6417,0.000000
6418,0.000000
6419,0.000000
6420,0.000000
6421,0.000000
6422,0.000000
6423,0.000000
6424,0.000000
6425,0.000000
6426,0.000000
6427,0.000000
6428,-1.953125
6429,0.000000
6430,-1.953125
6431,-1.953125
6432,-1.953125
6433,0.000000
6434,-1.953125
6435,-1.953125
6436,-1.953125
6437,0.000000
6438,-1.953125
6439,-1.953125
6440,-1.953125
6441,-1.953125
6442,-1.953125
6443,-1.953125
6444,-1.953125
6445,-1.953125
6446,-1.953125
6447,-1.953125
6448,-1.953125
6449,-1.953125
6450,-1.953125
6451,-1.953125
6452,-1.953125
6453,-1.953125
6454,-1.953125
6455,-1.953125
6456,-1.953125
6457,-1.953125
6458,-1.953125
6459,-1.953125
6460,-1.953125
6461,-1.953125
6462,-3.906250
6463,-1.953125
6464,-1.953125
6465,-3.906250
6466,-1.953125
6467,-3.906250
6468,-1.953125
6469,-1.953125
6470,-3.906250
6471,-3.906250
6472,-3.906250
6473,-3.906250
6474,-3.906250
6475,-3.906250
6476,-3.906250
6477,-3.906250
6478,-3.906250
6479,-3.906250
6480,-3.906250
6481,-3.906250
6482,-3.906250
6483,-3.906250
6484,-3.906250
6485,-3.906250
6486,-3.906250
6487,-5.859375
6488,-5.859375
6489,-5.859375
6490,-5.859375
6491,-5.859375
6492,-5.859375
6493,-5.859375
6494,-5.859375
6495,-5.859375
6496,-5.859375
6497,-5.859375
6498,-5.859375
6499,-5.859375
6500,-5.859375
6501,-5.859375
6502,-7.812500
6503,-7.812500
6504,-5.859375
6505,-7.812500
6506,-7.812500
6507,-7.812500
6508,-7.812500
6509,-7.812500
6510,-7.812500
6511,-7.812500
6512,-7.812500
6513,-7.812500
6514,-7.812500
6515,-9.765625
6516,-7.812500
6517,-9.765625
6518,-9.765625
6519,-7.812500
6520,-9.765625
6521,-9.765625
6522,-9.765625
6523,-9.765625
6524,-9.765625
6525,-9.765625
6526,-9.765625
6527,-9.765625
6528,-9.765625
6529,-9.765625
6530,-9.765625
6531,-11.718750
6532,-11.718750
6533,-11.718750
6534,-11.718750
6535,-11.718750
6536,-11.718750
6537,-11.718750
6538,-11.718750
6539,-11.718750
6540,-11.718750
6541,-13.671875
6542,-13.671875
6543,-13.671875
6544,-13.671875
6545,-13.671875
6546,-13.671875
6547,-13.671875
6548,-13.671875
6549,-13.671875
6550,-13.671875
6551,-13.671875
6552,-13.671875
6553,-15.625000
6554,-15.625000
6555,-15.625000
6556,-15.625000
6557,-15.625000
6558,-15.625000
6559,-15.625000
6560,-17.578125
6561,-15.625000
6562,-17.578125
6563,-17.578125
6564,-17.578125
6565,-17.578125
6566,-17.578125
6567,-17.578125
6568,-17.578125
6569,-17.578125
6570,-19.531250
6571,-19.531250
6572,-19.531250
6573,-19.531250
6574,-19.531250
6575,-19.531250
6576,-19.531250
6577,-19.531250
6578,-19.531250
6579,-19.531250
6580,-21.484375
6581,-21.484375
6582,-19.531250
6583,-21.484375
6584,-21.484375
6585,-21.484375
6586,-21.484375
6587,-21.484375
6588,-21.484375
6589,-21.484375
6590,-23.437500
6591,-23.437500
6592,-21.484375
6593,-23.437500
6594,-23.437500
6595,-23.437500
6596,-23.437500
6597,-23.437500
6598,-23.437500
6599,-23.437500
6600,-23.437500
6601,-25.390625
6602,-25.390625
6603,-25.390625
6604,-23.437500
6605,-25.390625
6606,-25.390625
6607,-25.390625
6608,-25.390625
6609,-25.390625
6610,-25.390625
6611,-25.390625
6612,-25.390625
6613,-27.343750
6614,-25.390625
6615,-25.390625
6616,-27.343750
6617,-25.390625
6618,-27.343750
6619,-27.343750
6620,-27.343750
6621,-27.343750
6622,-27.343750
6623,-27.343750
6624,-27.343750
6625,-27.343750
6626,-27.343750
6627,-27.343750
6628,-27.343750
6629,-29.296875
6630,-29.296875
6631,-29.296875
6632,-29.296875
6633,-29.296875
6634,-29.296875
6635,-29.296875
6636,-29.296875
6637,-29.296875
6638,-29.296875
6639,-29.296875
6640,-29.296875
6641,-29.296875
6642,-29.296875
6643,-29.296875
6644,-29.296875
6645,-29.296875
6646,-29.296875
6647,-29.296875
6648,-29.296875
6649,-29.296875
6650,-29.296875
6651,-29.296875
6652,-29.296875
6653,-29.296875
6654,-29.296875
6655,-29.296875
6656,-29.296875
6657,-29.296875
6658,-29.296875
6659,-29.296875
6660,-29.296875
6661,-29.296875
6662,-29.296875
6663,-29.296875
6664,-29.296875
6665,-29.296875
6666,-29.296875
6667,-27.343750
6668,-29.296875
6669,-29.296875
6670,-29.296875
6671,-27.343750
6672,-27.343750
6673,-27.343750
6674,-27.343750
6675,-27.343750
6676,-27.343750
6677,-27.343750
6678,-27.343750
6679,-27.343750
6680,-27.343750
6681,-27.343750
6682,-27.343750
6683,-27.343750
6684,-27.343750
6685,-27.343750
6686,-27.343750
6687,-25.390625
6688,-27.343750
6689,-27.343750
6690,-25.390625
6691,-25.390625
6692,-27.343750
6693,-25.390625
6694,-25.390625
6695,-25.390625
6696,-25.390625
6697,-25.390625
6698,-25.390625
6699,-25.390625
6700,-25.390625
6701,-23.437500
6702,-25.390625
6703,-25.390625
6704,-23.437500
6705,-23.437500
6706,-23.437500
6707,-23.437500
6708,-23.437500
6709,-21.484375
6710,-21.484375
6711,-23.437500
6712,-21.484375
6713,-21.484375
6714,-21.484375
6715,-21.484375
6716,-21.484375
6717,-21.484375
6718,-21.484375
6719,-21.484375
6720,-19.531250
6721,-19.531250
6722,-19.531250
6723,-21.484375
6724,-19.531250
6725,-19.531250
6726,-17.578125
6727,-19.531250
6728,-17.578125
6729,-17.578125
6730,-17.578125
6731,-17.578125
6732,-17.578125
6733,-17.578125
6734,-15.625000
6735,-17.578125
6736,-15.625000
6737,-15.625000
6738,-15.625000
6739,-15.625000
6740,-15.625000
6741,-15.625000
6742,-15.625000
6743,-13.671875
6744,-13.671875
6745,-13.671875
6746,-13.671875
6747,-13.671875
6748,-13.671875
6749,-13.671875
6750,-11.718750
6751,-11.718750
6752,-11.718750
6753,-11.718750
6754,-11.718750
6755,-11.718750
6756,-11.718750
6757,-11.718750
6758,-11.718750
6759,-11.718750
6760,-9.765625
6761,-9.765625
6762,-9.765625
6763,-9.765625
6764,-9.765625
6765,-9.765625
6766,-7.812500
6767,-7.812500
6768,-7.812500
6769,-7.812500
6770,-7.812500
6771,-7.812500
6772,-5.859375
6773,-7.812500
6774,-5.859375
6775,-5.859375
6776,-5.859375
6777,-5.859375
6778,-5.859375
6779,-5.859375
6780,-5.859375
6781,-3.906250
6782,-3.906250
6783,-5.859375
6784,-3.906250
6785,-3.906250
6786,-3.906250
6787,-3.906250
6788,-1.953125
6789,-1.953125
6790,-1.953125
6791,-1.953125
6792,-1.953125
6793,-1.953125
6794,-1.953125
6795,0.000000
6796,-1.953125
6797,-1.953125
6798,0.000000
6799,0.000000
6800,0.000000
6801,0.000000
6802,0.000000
6803,0.000000
6804,0.000000
6805,0.000000
6806,0.000000
6807,0.000000
6808,1.953125
6809,0.000000
6810,0.000000
6811,0.000000
6812,1.953125
6813,1.953125
6814,1.953125
6815,1.953125
6816,1.953125
6817,1.953125
6818,1.953125
6819,1.953125
6820,1.953125
6821,1.953125
6822,1.953125
6823,1.953125
6824,3.906250
6825,1.953125
6826,3.906250
6827,3.906250
6828,3.906250
6829,3.906250
6830,1.953125
6831,3.906250
6832,3.906250
6833,3.906250
6834,3.906250
6835,3.906250
6836,3.906250
6837,3.906250
6838,3.906250
6839,3.906250
6840,3.906250
6841,5.859375
6842,3.906250
6843,3.906250
6844,3.906250
6845,5.859375
6846,5.859375
6847,3.906250
6848,5.859375
6849,5.859375
6850,5.859375
6851,5.859375
6852,5.859375
6853,5.859375
6854,5.859375
6855,5.859375
6856,5.859375
6857,5.859375
6858,5.859375
6859,5.859375
6860,5.859375
6861,5.859375
6862,5.859375
6863,5.859375
6864,5.859375
6865,5.859375
6866,5.859375
6867,5.859375
6868,5.859375
6869,5.859375
6870,5.859375
6871,5.859375
6872,5.859375
6873,5.859375
6874,5.859375
6875,5.859375
6876,5.859375
6877,5.859375
6878,5.859375
6879,5.859375
6880,5.859375
6881,3.906250
6882,5.859375
6883,5.859375
6884,5.859375
6885,3.906250
6886,3.906250
6887,5.859375
6888,5.859375
6889,3.906250
6890,3.906250
6891,3.906250
6892,3.906250
6893,3.906250
6894,3.906250
6895,5.859375
6896,3.906250
6897,3.906250
6898,3.906250
6899,3.906250
6900,3.906250
6901,3.906250
6902,3.906250
6903,3.906250
6904,3.906250
6905,3.906250
6906,3.906250
6907,3.906250
6908,3.906250
6909,3.906250
6910,3.906250
6911,3.906250
6912,3.906250
6913,3.906250
6914,3.906250
6915,1.953125
6916,3.906250
6917,3.906250
6918,1.953125
6919,1.953125
6920,3.906250
6921,1.953125
6922,1.953125
6923,1.953125
6924,3.906250
6925,1.953125
6926,1.953125
6927,3.906250
6928,1.953125
6929,1.953125
6930,1.953125
6931,1.953125
6932,1.953125
6933,1.953125
6934,1.953125
6935,1.953125
6936,1.953125
6937,1.953125
6938,1.953125
6939,1.953125
6940,1.953125
6941,1.953125
6942,1.953125
6943,0.000000
6944,1.953125
6945,0.000000
6946,0.000000
6947,1.953125
6948,0.000000
6949,1.953125
6950,1.953125
6951,0.000000
6952,0.000000
6953,0.000000
6954,0.000000
6955,0.000000
6956,0.000000
6957,0.000000
6958,0.000000
6959,0.000000
6960,0.000000
6961,0.000000
6962,0.000000
6963,0.000000
6964,0.000000
6965,0.000000
6966,0.000000
6967,0.000000
6968,0.000000
6969,0.000000
6970,0.000000
6971,0.000000
6972,0.000000
6973,0.000000
6974,0.000000
6975,1.953125
6976,0.000000
6977,0.000000
6978,0.000000
6979,0.000000
6980,0.000000
6981,0.000000
6982,0.000000
6983,0.000000
6984,0.000000
6985,0.000000
6986,0.000000
6987,0.000000
6988,0.000000
6989,0.000000
6990,0.000000
6991,0.000000
6992,0.000000
6993,0.000000
6994,0.000000
6995,0.000000
6996,0.000000
6997,0.000000
6998,0.000000
6999,0.000000
7000,0.000000
7001,0.000000
7002,0.000000
7003,0.000000
7004,0.000000
7005,0.000000
7006,0.000000
7007,-1.953125
7008,0.000000
7009,0.000000
7010,-1.953125
7011,0.000000
7012,-1.953125
7013,0.000000
7014,-1.953125
7015,-1.953125
7016,0.000000
7017,-1.953125
7018,-1.953125
7019,-1.953125
7020,-1.953125
7021,-1.953125
7022,-1.953125
7023,-1.953125
7024,-1.953125
7025,-1.953125
7026,-1.953125
7027,-1.953125
7028,-1.953125
7029,-1.953125
7030,-3.906250
7031,-1.953125
7032,-1.953125
7033,-1.953125
7034,-1.953125
7035,-1.953125
7036,-1.953125
7037,-1.953125
7038,-1.953125
7039,-1.953125
7040,-1.953125
7041,-1.953125
7042,-1.953125
7043,-1.953125
7044,-1.953125
7045,-1.953125
7046,-1.953125
7047,-1.953125
7048,-1.953125
7049,-3.906250
7050,-3.906250
7051,-3.906250
7052,-3.906250
7053,-3.906250
7054,-3.906250
7055,-3.906250
7056,-3.906250
7057,-3.906250
7058,-3.906250
7059,-3.906250
7060,-3.906250
7061,-3.906250
7062,-3.906250
7063,-3.906250
7064,-3.906250
7065,-3.906250
7066,-3.906250
7067,-3.906250
7068,-5.859375
7069,-3.906250
7070,-5.859375
7071,-5.859375
7072,-5.859375
7073,-3.906250
7074,-5.859375
7075,-5.859375
7076,-5.859375
7077,-5.859375
7078,-5.859375
7079,-5.859375
7080,-5.859375
7081,-5.859375
7082,-7.812500
7083,-5.859375
7084,-5.859375
7085,-7.812500
7086,-7.812500
7087,-7.812500
7088,-7.812500
7089,-7.812500
7090,-7.812500
7091,-7.812500
7092,-7.812500
7093,-7.812500
7094,-7.812500
7095,-7.812500
7096,-7.812500
7097,-9.765625
7098,-7.812500
7099,-7.812500
7100,-7.812500
7101,-7.812500
7102,-9.765625
7103,-7.812500
7104,-7.812500
7105,-9.765625
7106,-9.765625
7107,-7.812500
7108,-9.765625
7109,-9.765625
7110,-9.765625
7111,-9.765625
7112,-9.765625
7113,-9.765625
7114,-9.765625
7115,-11.718750
7116,-11.718750
7117,-11.718750
7118,-11.718750
7119,-11.718750
7120,-11.718750
7121,-11.718750
7122,-11.718750
7123,-11.718750
7124,-11.718750
7125,-11.718750
7126,-11.718750
7127,-13.671875
7128,-13.671875
7129,-13.671875
7130,-13.671875
7131,-13.671875
7132,-13.671875
7133,-13.671875
7134,-13.671875
7135,-15.625000
7136,-13.671875
7137,-15.625000
7138,-15.625000
7139,-13.671875
7140,-15.625000
7141,-15.625000
7142,-15.625000
7143,-15.625000
7144,-17.578125
7145,-15.625000
7146,-17.578125
7147,-17.578125
7148,-17.578125
7149,-17.578125
7150,-17.578125
7151,-17.578125
7152,-17.578125
7153,-17.578125
7154,-17.578125
7155,-19.531250
7156,-19.531250
7157,-19.531250
7158,-19.531250
7159,-19.531250
7160,-19.531250
7161,-19.531250
7162,-19.531250
7163,-19.531250
7164,-19.531250
7165,-21.484375
7166,-21.484375
7167,-21.484375
7168,-21.484375
7169,-21.484375
7170,-21.484375
7171,-21.484375
7172,-21.484375
7173,-21.484375
7174,-21.484375
7175,-23.437500
7176,-23.437500
7177,-23.437500
7178,-21.484375
7179,-23.437500
7180,-23.437500
7181,-23.437500
7182,-23.437500
7183,-23.437500
7184,-23.437500
7185,-23.437500
7186,-23.437500
7187,-25.390625
7188,-25.390625
7189,-25.390625
7190,-25.390625
7191,-25.390625
7192,-25.390625
7193,-25.390625
7194,-25.390625
7195,-25.390625
7196,-25.390625
7197,-25.390625
7198,-27.343750
7199,-27.343750
7200,-27.343750
7201,-27.343750
7202,-27.343750
7203,-27.343750
7204,-27.343750
7205,-27.343750
7206,-27.343750
7207,-27.343750
7208,-27.343750
7209,-27.343750
7210,-27.343750
7211,-25.390625
7212,-29.296875
7213,-29.296875
7214,-29.296875
7215,-29.296875
7216,-27.343750
7217,-27.343750
7218,-29.296875
7219,-29.296875
7220,-29.296875
7221,-29.296875
7222,-29.296875
7223,-29.296875
7224,-29.296875
7225,-29.296875
7226,-31.250000
7227,-29.296875
7228,-29.296875
7229,-29.296875
7230,-29.296875
7231,-29.296875
7232,-29.296875
7233,-29.296875
7234,-29.296875
7235,-29.296875
7236,-29.296875
7237,-29.296875
7238,-29.296875
7239,-29.296875
7240,-29.296875
7241,-29.296875
7242,-29.296875
7243,-29.296875
7244,-29.296875
7245,-29.296875
7246,-29.296875
7247,-29.296875
7248,-29.296875
7249,-29.296875
7250,-29.296875
7251,-29.296875
7252,-29.296875
7253,-29.296875
7254,-27.343750
7255,-29.296875
7256,-27.343750
7257,-29.296875
7258,-29.296875
7259,-27.343750
7260,-27.343750
7261,-27.343750
7262,-27.343750
7263,-27.343750
7264,-27.343750
7265,-27.343750
7266,-27.343750
7267,-27.343750
7268,-27.343750
7269,-27.343750
7270,-27.343750
7271,-27.343750
7272,-27.343750
7273,-27.343750
7274,-25.390625
7275,-27.343750
7276,-25.390625
7277,-25.390625
7278,-25.390625
7279,-25.390625
7280,-25.390625
7281,-25.390625
7282,-25.390625
7283,-25.390625
7284,-25.390625
7285,-25.390625
7286,-25.390625
7287,-23.437500
7288,-23.437500
7289,-23.437500
7290,-23.437500
7291,-23.437500
7292,-23.437500
7293,-23.437500
7294,-23.437500
7295,-25.390625
7296,-21.484375
7297,-23.437500
7298,-21.484375
7299,-21.484375
7300,-21.484375
7301,-21.484375
7302,-21.484375
7303,-21.484375
7304,-19.531250
7305,-21.484375
7306,-19.531250
7307,-19.531250
7308,-19.531250
7309,-19.531250
7310,-19.531250
7311,-19.531250
7312,-15.625000
7313,-17.578125
7314,-19.531250
7315,-17.578125
7316,-17.578125
7317,-17.578125
7318,-15.625000
7319,-15.625000
7320,-15.625000
7321,-17.578125
7322,-15.625000
7323,-15.625000
7324,-15.625000
7325,-15.625000
7326,-15.625000
7327,-15.625000
7328,-13.671875
7329,-13.671875
7330,-13.671875
7331,-13.671875
7332,-13.671875
7333,-13.671875
7334,-13.671875
7335,-11.718750
7336,-13.671875
7337,-11.718750
7338,-11.718750
7339,-11.718750
7340,-11.718750
7341,-11.718750
7342,-11.718750
7343,-9.765625
7344,-11.718750
7345,-9.765625
7346,-9.765625
7347,-9.765625
7348,-9.765625
7349,-7.812500
7350,-9.765625
7351,-7.812500
7352,-7.812500
7353,-7.812500
7354,-7.812500
7355,-11.718750
7356,-7.812500
7357,-7.812500
7358,-7.812500
7359,-5.859375
7360,-5.859375
7361,-7.812500
7362,-5.859375
7363,-5.859375
7364,-5.859375
7365,-3.906250
7366,-3.906250
7367,-3.906250
7368,-3.906250
7369,-3.906250
7370,-3.906250
7371,-3.906250
7372,-3.906250
7373,-3.906250
7374,-1.953125
7375,-1.953125
7376,-1.953125
7377,-1.953125
7378,-1.953125
7379,-1.953125
7380,-1.953125
7381,0.000000
7382,0.000000
7383,0.000000
7384,0.000000
7385,0.000000
7386,1.953125
7387,0.000000
7388,0.000000
7389,0.000000
7390,0.000000
7391,0.000000
7392,0.000000
7393,0.000000
7394,1.953125
7395,1.953125
7396,1.953125
7397,1.953125
7398,1.953125
7399,1.953125
7400,1.953125
7401,1.953125
7402,1.953125
7403,1.953125
7404,1.953125
7405,1.953125
7406,3.906250
7407,1.953125
7408,1.953125
7409,3.906250
7410,3.906250
7411,3.906250
7412,3.906250
7413,7.812500
7414,3.906250
7415,3.906250
7416,3.906250
7417,3.906250
7418,3.906250
7419,3.906250
7420,3.906250
7421,3.906250
7422,3.906250
7423,3.906250
7424,3.906250
7425,5.859375
7426,3.906250
7427,3.906250
7428,5.859375
7429,5.859375
7430,5.859375
7431,5.859375
7432,3.906250
7433,5.859375
7434,5.859375
7435,5.859375
7436,5.859375
7437,5.859375
7438,5.859375
7439,5.859375
7440,5.859375
7441,5.859375
7442,5.859375
7443,5.859375
7444,5.859375
7445,5.859375
7446,5.859375
7447,5.859375
7448,5.859375
7449,5.859375
7450,5.859375
7451,5.859375
7452,5.859375
7453,5.859375
7454,5.859375
7455,5.859375
7456,5.859375
7457,5.859375
7458,5.859375
7459,5.859375
7460,5.859375
7461,5.859375
7462,5.859375
7463,5.859375
7464,5.859375
7465,5.859375
7466,5.859375
7467,5.859375
7468,3.906250
7469,5.859375
7470,5.859375
7471,5.859375
7472,5.859375
7473,3.906250
7474,3.906250
7475,3.906250
7476,5.859375
7477,3.906250
7478,3.906250
7479,3.906250
7480,3.906250
7481,3.906250
7482,3.906250
7483,3.906250
7484,3.906250
7485,3.906250
7486,3.906250
7487,3.906250
7488,3.906250
7489,3.906250
7490,3.906250
7491,3.906250
7492,3.906250
7493,3.906250
7494,3.906250
7495,3.906250
7496,3.906250
7497,3.906250
7498,3.906250
7499,3.906250
7500,3.906250
7501,3.906250
7502,1.953125
7503,3.906250
7504,3.906250
7505,3.906250
7506,3.906250
7507,1.953125
7508,1.953125
7509,1.953125
7510,1.953125
7511,1.953125
7512,3.906250
7513,1.953125
7514,1.953125
7515,1.953125
7516,1.953125
7517,1.953125
7518,1.953125
7519,1.953125
7520,1.953125
7521,1.953125
7522,1.953125
7523,1.953125
7524,1.953125
7525,1.953125
7526,1.953125
7527,1.953125
7528,0.000000
7529,0.000000
7530,1.953125
7531,0.000000
7532,1.953125
7533,1.953125
7534,0.000000
7535,1.953125
7536,0.000000
7537,0.000000
7538,0.000000
7539,0.000000
7540,0.000000
7541,0.000000
7542,0.000000
7543,0.000000
7544,0.000000
7545,0.000000
7546,0.000000
7547,0.000000
7548,0.000000
7549,0.000000
7550,-1.953125
7551,-1.953125
7552,0.000000
7553,0.000000
7554,0.000000
7555,-1.953125
7556,0.000000
7557,0.000000
7558,0.000000
7559,0.000000
7560,0.000000
7561,0.000000
7562,0.000000
7563,0.000000
7564,-1.953125
7565,0.000000
7566,0.000000
7567,0.000000
7568,-1.953125
7569,0.000000
7570,0.000000
7571,0.000000
7572,0.000000
7573,0.000000
7574,0.000000
7575,0.000000
7576,0.000000
7577,0.000000
7578,0.000000
7579,0.000000
7580,0.000000
7581,0.000000
7582,0.000000
7583,0.000000
7584,0.000000
7585,0.000000
7586,0.000000
7587,0.000000
7588,0.000000
7589,0.000000
7590,0.000000
7591,-1.953125
7592,0.000000
7593,0.000000
7594,0.000000
7595,-1.953125
7596,-1.953125
7597,-1.953125
7598,0.000000
7599,-1.953125
7600,0.000000
7601,-1.953125
7602,-1.953125
7603,-1.953125
7604,-1.953125
7605,-1.953125
7606,-1.953125
7607,0.000000
7608,-1.953125
7609,-1.953125
7610,-1.953125
7611,-1.953125
7612,-1.953125
7613,-1.953125
7614,-1.953125
7615,-1.953125
7616,-1.953125
7617,-1.953125
7618,-1.953125
7619,-1.953125
7620,-1.953125
7621,-1.953125
7622,-1.953125
7623,-1.953125
7624,-1.953125
7625,-1.953125
7626,-1.953125
7627,-3.906250
7628,-3.906250
7629,-1.953125
7630,-1.953125
7631,-1.953125
7632,-3.906250
7633,-3.906250
7634,-3.906250
7635,-3.906250
7636,-3.906250
7637,-1.953125
7638,-3.906250
7639,-3.906250
7640,-3.906250
7641,-3.906250
7642,-3.906250
7643,-3.906250
7644,-3.906250
7645,-3.906250
7646,-3.906250
7647,-3.906250
7648,-3.906250
7649,-3.906250
7650,-5.859375
7651,-5.859375
7652,-5.859375
7653,-3.906250
7654,-5.859375
7655,-5.859375
7656,-5.859375
7657,-5.859375
7658,-5.859375
7659,-3.906250
7660,-5.859375
7661,-5.859375
7662,-5.859375
7663,-5.859375
7664,-5.859375
7665,-5.859375
7666,-7.812500
7667,-5.859375
7668,-7.812500
7669,-5.859375
7670,-5.859375
7671,-7.812500
7672,-7.812500
7673,-7.812500
7674,-7.812500
7675,-7.812500
7676,-7.812500
7677,-7.812500
7678,-7.812500
7679,-7.812500
7680,-7.812500
7681,-9.765625
7682,-7.812500
7683,-7.812500
7684,-7.812500
7685,-7.812500
7686,-9.765625
7687,-9.765625
7688,-9.765625
7689,-9.765625
7690,-9.765625
7691,-9.765625
7692,-9.765625
7693,-9.765625
7694,-9.765625
7695,-9.765625
7696,-11.718750
7697,-9.765625
7698,-11.718750
7699,-9.765625
7700,-11.718750
7701,-11.718750
7702,-11.718750
7703,-11.718750
7704,-11.718750
7705,-11.718750
7706,-11.718750
7707,-11.718750
7708,-11.718750
7709,-13.671875
7710,-13.671875
7711,-13.671875
7712,-13.671875
7713,-13.671875
7714,-13.671875
7715,-13.671875
7716,-13.671875
7717,-13.671875
7718,-15.625000
7719,-13.671875
7720,-13.671875
7721,-15.625000
7722,-15.625000
7723,-15.625000
7724,-15.625000
7725,-15.625000
7726,-15.625000
7727,-15.625000
7728,-17.578125
7729,-17.578125
7730,-17.578125
7731,-17.578125
7732,-17.578125
7733,-17.578125
7734,-17.578125
7735,-17.578125
7736,-17.578125
7737,-19.531250
7738,-17.578125
7739,-19.531250
7740,-19.531250
7741,-19.531250
7742,-19.531250
7743,-19.531250
7744,-19.531250
7745,-19.531250
7746,-21.484375
7747,-21.484375
7748,-21.484375
7749,-21.484375
7750,-21.484375
7751,-21.484375
7752,-21.484375
7753,-21.484375
7754,-21.484375
7755,-21.484375
7756,-21.484375
7757,-21.484375
7758,-23.437500
7759,-23.437500
7760,-23.437500
7761,-23.437500
7762,-23.437500
7763,-23.437500
7764,-23.437500
7765,-23.437500
7766,-23.437500
7767,-23.437500
7768,-23.437500
7769,-23.437500
7770,-25.390625
7771,-25.390625
7772,-25.390625
7773,-25.390625
7774,-25.390625
7775,-25.390625
7776,-25.390625
7777,-25.390625
7778,-27.343750
7779,-25.390625
7780,-25.390625
7781,-25.390625
7782,-27.343750
7783,-27.343750
7784,-27.343750
7785,-27.343750
7786,-25.390625
7787,-27.343750
7788,-27.343750
7789,-27.343750
7790,-27.343750
7791,-27.343750
7792,-27.343750
7793,-27.343750
7794,-29.296875
7795,-29.296875
7796,-29.296875
7797,-29.296875
7798,-29.296875
7799,-29.296875
7800,-29.296875
7801,-29.296875
7802,-29.296875
7803,-29.296875
7804,-29.296875
7805,-29.296875
7806,-29.296875
7807,-29.296875
7808,-29.296875
7809,-29.296875
7810,-29.296875
7811,-29.296875
7812,-29.296875
7813,-29.296875
7814,-29.296875
7815,-29.296875
7816,-29.296875
7817,-29.296875
7818,-29.296875
7819,-29.296875
7820,-29.296875
7821,-29.296875
7822,-29.296875
7823,-29.296875
7824,-29.296875
7825,-29.296875
7826,-29.296875
7827,-29.296875
7828,-29.296875
7829,-29.296875
7830,-29.296875
7831,-29.296875
7832,-29.296875
7833,-29.296875
7834,-29.296875
7835,-29.296875
7836,-29.296875
7837,-27.343750
7838,-27.343750
7839,-29.296875
7840,-29.296875
7841,-29.296875
7842,-27.343750
7843,-27.343750
7844,-27.343750
7845,-29.296875
7846,-27.343750
7847,-27.343750
7848,-27.343750
7849,-27.343750
7850,-27.343750
7851,-27.343750
7852,-27.343750
7853,-27.343750
7854,-27.343750
7855,-27.343750
7856,-27.343750
7857,-25.390625
7858,-27.343750
7859,-25.390625
7860,-25.390625
7861,-25.390625
7862,-25.390625
7863,-25.390625
7864,-25.390625
7865,-25.390625
7866,-25.390625
7867,-25.390625
7868,-25.390625
7869,-25.390625
7870,-23.437500
7871,-23.437500
7872,-23.437500
7873,-23.437500
7874,-23.437500
7875,-23.437500
7876,-23.437500
7877,-23.437500
7878,-23.437500
7879,-21.484375
7880,-23.437500
7881,-21.484375
7882,-21.484375
7883,-21.484375
7884,-21.484375
7885,-21.484375
7886,-19.531250
7887,-19.531250
7888,-19.531250
7889,-19.531250
7890,-19.531250
7891,-19.531250
7892,-17.578125
7893,-19.531250
7894,-19.531250
7895,-17.578125
7896,-17.578125
7897,-17.578125
7898,-17.578125
7899,-17.578125
7900,-17.578125
7901,-15.625000
7902,-15.625000
7903,-17.578125
7904,-15.625000
7905,-15.625000
7906,-15.625000
7907,-15.625000
7908,-15.625000
7909,-13.671875
7910,-15.625000
7911,-15.625000
7912,-13.671875
7913,-13.671875
7914,-13.671875
7915,-13.671875
7916,-13.671875
7917,-11.718750
7918,-13.671875
7919,-11.718750
7920,-13.671875
7921,-11.718750
7922,-11.718750
7923,-11.718750
7924,-11.718750
7925,-11.718750
7926,-9.765625
7927,-9.765625
7928,-9.765625
7929,-9.765625
7930,-9.765625
7931,-9.765625
7932,-9.765625
7933,-7.812500
7934,-7.812500
7935,-7.812500
7936,-7.812500
7937,-7.812500
7938,-7.812500
7939,-7.812500
7940,-5.859375
7941,-5.859375
7942,-5.859375
7943,-5.859375
7944,-5.859375
7945,-3.906250
7946,-5.859375
7947,-5.859375
7948,-3.906250
7949,-3.906250
7950,-3.906250
7951,-3.906250
7952,-3.906250
7953,-3.906250
7954,-3.906250
7955,-3.906250
7956,-1.953125
7957,-3.906250
7958,-1.953125
7959,-1.953125
7960,-1.953125
7961,-1.953125
7962,-1.953125
7963,-1.953125
7964,-1.953125
7965,0.000000
7966,-1.953125
7967,0.000000
7968,0.000000
7969,0.000000
7970,0.000000
7971,0.000000
7972,0.000000
7973,0.000000
7974,0.000000
7975,0.000000
7976,1.953125
7977,1.953125
7978,1.953125
7979,1.953125
7980,1.953125
7981,1.953125
7982,1.953125
7983,1.953125
7984,1.953125
7985,1.953125
7986,3.906250
7987,3.906250
7988,1.953125
7989,1.953125
7990,1.953125
7991,3.906250
7992,3.906250
7993,3.906250
7994,3.906250
7995,3.906250
7996,3.906250
7997,3.906250
7998,3.906250
7999,3.906250
8000,3.906250
8001,3.906250
8002,3.906250
8003,3.906250
8004,3.906250
8005,5.859375
8006,3.906250
8007,3.906250
8008,5.859375
8009,3.906250
8010,5.859375
8011,5.859375
8012,5.859375
8013,5.859375
8014,5.859375
8015,3.906250
8016,5.859375
8017,5.859375
8018,5.859375
8019,5.859375
8020,5.859375
8021,5.859375
8022,5.859375
8023,5.859375
8024,5.859375
8025,5.859375
8026,5.859375
8027,5.859375
8028,5.859375
8029,5.859375
8030,5.859375
8031,5.859375
8032,5.859375
8033,5.859375
8034,5.859375
8035,5.859375
8036,5.859375
8037,5.859375
8038,5.859375
8039,5.859375
8040,5.859375
8041,5.859375
8042,5.859375
8043,5.859375
8044,5.859375
8045,5.859375
8046,5.859375
8047,5.859375
8048,5.859375
8049,5.859375
8050,5.859375
8051,5.859375
8052,5.859375
8053,5.859375
8054,3.906250
8055,5.859375
8056,3.906250
8057,3.906250
8058,3.906250
8059,5.859375
8060,5.859375
8061,3.906250
8062,3.906250
8063,3.906250
8064,3.906250
8065,3.906250
8066,3.906250
8067,3.906250
8068,3.906250
8069,3.906250
8070,3.906250
8071,3.906250
8072,3.906250
8073,3.906250
8074,3.906250
8075,3.906250
8076,3.906250
8077,3.906250
8078,3.906250
8079,3.906250
8080,3.906250
8081,3.906250
8082,3.906250
8083,3.906250
8084,3.906250
8085,1.953125
8086,3.906250
8087,3.906250
8088,1.953125
8089,3.906250
8090,1.953125
8091,1.953125
8092,1.953125
8093,1.953125
8094,1.953125
8095,3.906250
8096,1.953125
8097,1.953125
8098,1.953125
8099,1.953125
8100,1.953125
8101,1.953125
8102,1.953125
8103,1.953125
8104,1.953125
8105,1.953125
8106,1.953125
8107,1.953125
8108,0.000000
8109,1.953125
8110,1.953125
8111,1.953125
8112,0.000000
8113,0.000000
8114,1.953125
8115,0.000000
8116,1.953125
8117,0.000000
8118,1.953125
8119,1.953125
8120,0.000000
8121,0.000000
8122,0.000000
8123,1.953125
8124,0.000000
8125,1.953125
8126,0.000000
8127,0.000000
8128,0.000000
8129,0.000000
8130,0.000000
8131,0.000000
8132,0.000000
8133,0.000000
8134,1.953125
8135,0.000000
8136,0.000000
8137,0.000000
8138,0.000000
8139,0.000000
8140,0.000000
8141,0.000000
8142,0.000000
8143,0.000000
8144,0.000000
8145,0.000000
8146,0.000000
8147,0.000000
8148,0.000000
8149,0.000000
8150,0.000000
8151,0.000000
8152,0.000000
8153,0.000000
8154,0.000000
8155,0.000000
8156,0.000000
8157,0.000000
8158,0.000000
8159,0.000000
8160,0.000000
8161,0.000000
8162,0.000000
8163,0.000000
8164,0.000000
8165,0.000000
8166,0.000000
8167,0.000000
8168,0.000000
8169,0.000000
8170,0.000000
8171,-1.953125
8172,0.000000
8173,0.000000
8174,-1.953125
8175,-1.953125
8176,-1.953125
8177,-1.953125
8178,-1.953125
8179,-1.953125
8180,-1.953125
8181,-1.953125
8182,-1.953125
8183,-1.953125
8184,-1.953125
8185,-1.953125
8186,-1.953125
8187,-1.953125
8188,-1.953125
8189,-1.953125
8190,-1.953125
8191,-1.953125
8192,-1.953125
8193,-1.953125
8194,-1.953125
8195,-1.953125
8196,-1.953125
8197,-1.953125
8198,-1.953125
8199,-1.953125
8200,-1.953125
8201,-1.953125
8202,-1.953125
8203,-1.953125
8204,-1.953125
8205,-1.953125
8206,-1.953125
8207,-1.953125
8208,-1.953125
8209,-1.953125
8210,-1.953125
8211,-1.953125
8212,-3.906250
8213,-1.953125
8214,-1.953125
8215,-1.953125
8216,-3.906250
8217,-1.953125
8218,-3.906250
8219,-3.906250
8220,-3.906250
8221,-3.906250
8222,-1.953125
8223,-3.906250
8224,-3.906250
8225,-3.906250
8226,-3.906250
8227,-3.906250
8228,-3.906250
8229,-3.906250
8230,-3.906250
8231,-3.906250
8232,-5.859375
8233,-3.906250
8234,-3.906250
8235,-5.859375
8236,-5.859375
8237,-5.859375
8238,-5.859375
8239,-5.859375
8240,-5.859375
8241,-5.859375
8242,-5.859375
8243,-5.859375
8244,-5.859375
8245,-5.859375
8246,-5.859375
8247,-5.859375
8248,-5.859375
8249,-5.859375
8250,-7.812500
8251,-5.859375
8252,-5.859375
8253,-7.812500
8254,-7.812500
8255,-7.812500
8256,-7.812500
8257,-7.812500
8258,-7.812500
8259,-7.812500
8260,-7.812500
8261,-7.812500
8262,-7.812500
8263,-7.812500
8264,-7.812500
8265,-9.765625
8266,-9.765625
8267,-9.765625
8268,-7.812500
8269,-9.765625
8270,-9.765625
8271,-9.765625
8272,-9.765625
8273,-9.765625
8274,-9.765625
8275,-9.765625
8276,-9.765625
8277,-9.765625
8278,-9.765625
8279,-9.765625
8280,-9.765625
8281,-11.718750
8282,-11.718750
8283,-11.718750
8284,-11.718750
8285,-11.718750
8286,-11.718750
8287,-11.718750
8288,-11.718750
8289,-11.718750
8290,-11.718750
8291,-13.671875
8292,-11.718750
8293,-13.671875
8294,-11.718750
8295,-13.671875
8296,-13.671875
8297,-13.671875
8298,-13.671875
8299,-13.671875
8300,-13.671875
8301,-13.671875
8302,-15.625000
8303,-15.625000
8304,-15.625000
8305,-15.625000
8306,-15.625000
8307,-15.625000
8308,-15.625000
8309,-15.625000
8310,-15.625000
8311,-17.578125
8312,-17.578125
8313,-17.578125
8314,-17.578125
8315,-17.578125
8316,-17.578125
8317,-17.578125
8318,-19.531250
8319,-19.531250
8320,-19.531250
8321,-19.531250
8322,-19.531250
8323,-19.531250
8324,-19.531250
8325,-19.531250
8326,-19.531250
8327,-19.531250
8328,-19.531250
8329,-21.484375
8330,-19.531250
8331,-21.484375
8332,-21.484375
8333,-21.484375
8334,-21.484375
8335,-21.484375
8336,-21.484375
8337,-21.484375
8338,-23.437500
8339,-23.437500
8340,-23.437500
8341,-23.437500
8342,-23.437500
8343,-23.437500
8344,-23.437500
8345,-23.437500
8346,-23.437500
8347,-23.437500
8348,-23.437500
8349,-25.390625
8350,-25.390625
8351,-23.437500
8352,-25.390625
8353,-23.437500
8354,-25.390625
8355,-25.390625
8356,-25.390625
8357,-25.390625
8358,-25.390625
8359,-25.390625
8360,-25.390625
8361,-27.343750
8362,-27.343750
8363,-27.343750
8364,-27.343750
8365,-27.343750
8366,-27.343750
8367,-27.343750
8368,-27.343750
8369,-27.343750
8370,-27.343750
8371,-27.343750
8372,-29.296875
8373,-27.343750
8374,-27.343750
8375,-29.296875
8376,-29.296875
8377,-29.296875
8378,-29.296875
8379,-29.296875
8380,-29.296875
8381,-29.296875
8382,-29.296875
8383,-29.296875
8384,-29.296875
8385,-29.296875
8386,-29.296875
8387,-29.296875
8388,-29.296875
8389,-29.296875
8390,-29.296875
8391,-29.296875
8392,-29.296875
8393,-29.296875
8394,-29.296875
8395,-29.296875
8396,-29.296875
8397,-29.296875
8398,-29.296875
8399,-29.296875
8400,-29.296875
8401,-29.296875
8402,-29.296875
8403,-29.296875
8404,-29.296875
8405,-29.296875
8406,-29.296875
8407,-29.296875
8408,-29.296875
8409,-29.296875
8410,-29.296875
8411,-29.296875
8412,-29.296875
8413,-29.296875
8414,-29.296875
8415,-27.343750
8416,-29.296875
8417,-29.296875
8418,-29.296875
8419,-29.296875
8420,-29.296875
8421,-27.343750
8422,-27.343750
8423,-27.343750
8424,-27.343750
8425,-27.343750
8426,-27.343750
8427,-27.343750
8428,-27.343750
8429,-27.343750
8430,-27.343750
8431,-27.343750
8432,-27.343750
8433,-27.343750
8434,-27.343750
8435,-27.343750
8436,-27.343750
8437,-27.343750
8438,-27.343750
8439,-27.343750
8440,-25.390625
8441,-25.390625
8442,-25.390625
8443,-25.390625
8444,-25.390625
8445,-25.390625
8446,-25.390625
8447,-25.390625
8448,-25.390625
8449,-25.390625
8450,-25.390625
8451,-23.437500
8452,-23.437500
8453,-23.437500
8454,-23.437500
8455,-25.390625
8456,-23.437500
8457,-23.437500
8458,-23.437500
8459,-23.437500
8460,-23.437500
8461,-21.484375
8462,-23.437500
8463,-21.484375
8464,-21.484375
8465,-21.484375
8466,-21.484375
8467,-21.484375
8468,-19.531250
8469,-21.484375
8470,-19.531250
8471,-19.531250
8472,-19.531250
8473,-19.531250
8474,-19.531250
8475,-19.531250
8476,-17.578125
8477,-17.578125
8478,-17.578125
8479,-17.578125
8480,-17.578125
8481,-17.578125
8482,-17.578125
8483,-17.578125
8484,-15.625000
8485,-15.625000
8486,-15.625000
8487,-15.625000
8488,-15.625000
8489,-15.625000
8490,-15.625000
8491,-15.625000
8492,-13.671875
8493,-13.671875
8494,-13.671875
8495,-13.671875
8496,-13.671875
8497,-13.671875
8498,-11.718750
8499,-11.718750
8500,-11.718750
8501,-11.718750
8502,-11.718750
8503,-11.718750
8504,-11.718750
8505,-9.765625
8506,-11.718750
8507,-9.765625
8508,-9.765625
8509,-9.765625
8510,-9.765625
8511,-9.765625
8512,-9.765625
8513,-9.765625
8514,-7.812500
8515,-7.812500
8516,-9.765625
8517,-7.812500
8518,-7.812500
8519,-7.812500
8520,-7.812500
8521,-7.812500
8522,-5.859375
8523,-5.859375
8524,-5.859375
8525,-5.859375
8526,-5.859375
8527,-5.859375
8528,-5.859375
8529,-5.859375
8530,-3.906250
8531,-3.906250
8532,-3.906250
8533,-3.906250
8534,-3.906250
8535,-3.906250
8536,-3.906250
8537,-5.859375
8538,-1.953125
8539,-1.953125
8540,-1.953125
8541,-1.953125
8542,-1.953125
8543,-1.953125
8544,-1.953125
8545,-1.953125
8546,0.000000
8547,0.000000
8548,0.000000
8549,-1.953125
8550,0.000000
8551,0.000000
8552,0.000000
8553,0.000000
8554,0.000000
8555,0.000000
8556,0.000000
8557,1.953125
8558,0.000000
8559,0.000000
8560,1.953125
8561,1.953125
8562,0.000000
8563,1.953125
8564,1.953125
8565,1.953125
8566,1.953125
8567,1.953125
8568,1.953125
8569,1.953125
8570,1.953125
8571,1.953125
8572,1.953125
8573,3.906250
8574,3.906250
8575,1.953125
8576,3.906250
8577,3.906250
8578,3.906250
8579,3.906250
8580,1.953125
8581,3.906250
8582,3.906250
8583,3.906250
8584,3.906250
8585,3.906250
8586,3.906250
8587,3.906250
8588,5.859375
8589,3.906250
8590,3.906250
8591,3.906250
8592,5.859375
8593,3.906250
8594,3.906250
8595,3.906250
8596,5.859375
8597,3.906250
8598,5.859375
8599,5.859375
8600,3.906250
8601,5.859375
8602,5.859375
8603,5.859375
8604,5.859375
8605,5.859375
8606,5.859375
8607,5.859375
8608,5.859375
8609,5.859375
8610,5.859375
8611,5.859375
8612,5.859375
8613,5.859375
8614,5.859375
8615,5.859375
8616,5.859375
8617,5.859375
8618,5.859375
8619,5.859375
8620,5.859375
8621,5.859375
8622,5.859375
8623,5.859375
8624,5.859375
8625,5.859375
8626,5.859375
8627,5.859375
8628,5.859375
8629,5.859375
8630,3.906250
8631,3.906250
8632,5.859375
8633,5.859375
8634,5.859375
8635,3.906250
8636,3.906250
8637,3.906250
8638,3.906250
8639,3.906250
8640,5.859375
8641,3.906250
8642,3.906250
8643,3.906250
8644,3.906250
8645,3.906250
8646,3.906250
8647,3.906250
8648,3.906250
8649,3.906250
8650,3.906250
8651,3.906250
8652,3.906250
8653,3.906250
8654,3.906250
8655,3.906250
8656,3.906250
8657,3.906250
8658,3.906250
8659,3.906250
8660,3.906250
8661,3.906250
8662,1.953125
8663,3.906250
8664,3.906250
8665,1.953125
8666,3.906250
8667,1.953125
8668,3.906250
8669,3.906250
8670,1.953125
8671,3.906250
8672,1.953125
8673,1.953125
8674,1.953125
8675,1.953125
8676,1.953125
8677,1.953125
8678,1.953125
8679,1.953125
8680,1.953125
8681,3.906250
8682,1.953125
8683,1.953125
8684,1.953125
8685,1.953125
8686,1.953125
8687,1.953125
8688,1.953125
8689,0.000000
8690,1.953125
8691,1.953125
8692,1.953125
8693,0.000000
8694,0.000000
8695,1.953125
8696,1.953125
8697,1.953125
8698,0.000000
8699,0.000000
8700,0.000000
8701,0.000000
8702,0.000000
8703,0.000000
8704,0.000000
8705,0.000000
8706,0.000000
8707,0.000000
8708,0.000000
8709,0.000000
8710,0.000000
8711,0.000000
8712,0.000000
8713,0.000000
8714,0.000000
8715,0.000000
8716,0.000000
8717,0.000000
8718,0.000000
8719,0.000000
8720,0.000000
8721,0.000000
8722,0.000000
8723,0.000000
8724,0.000000
8725,0.000000
8726,0.000000
8727,0.000000
8728,0.000000
8729,0.000000
8730,0.000000
8731,0.000000
8732,0.000000
8733,0.000000
8734,0.000000
8735,0.000000
8736,0.000000
8737,0.000000
8738,0.000000
8739,0.000000
8740,-1.953125
8741,0.000000
8742,0.000000
8743,0.000000
8744,0.000000
8745,0.000000
8746,0.000000
8747,0.000000
8748,-1.953125
8749,0.000000
8750,0.000000
8751,0.000000
8752,-1.953125
8753,0.000000
8754,-1.953125
8755,0.000000
8756,-1.953125
8757,-1.953125
8758,0.000000
8759,0.000000
8760,0.000000
8761,-1.953125
8762,-1.953125
8763,-1.953125
8764,-1.953125
8765,-1.953125
8766,-1.953125
8767,-1.953125
8768,-1.953125
8769,-1.953125
8770,-1.953125
8771,-1.953125
8772,-1.953125
8773,-1.953125
8774,-1.953125
8775,-1.953125
8776,-1.953125
8777,-1.953125
8778,-1.953125
8779,-1.953125
8780,-1.953125
8781,-1.953125
8782,-1.953125
8783,-1.953125
8784,-1.953125
8785,-1.953125
8786,-1.953125
8787,-1.953125
8788,-1.953125
8789,-1.953125
8790,-1.953125
8791,-3.906250
8792,-1.953125
8793,-3.906250
8794,-1.953125
8795,-3.906250
8796,-1.953125
8797,-3.906250
8798,-1.953125
8799,-3.906250
8800,-3.906250
8801,-3.906250
8802,-1.953125
8803,-3.906250
8804,-3.906250
8805,-3.906250
8806,-3.906250
8807,-3.906250
8808,-3.906250
8809,-3.906250
8810,-3.906250
8811,-3.906250
8812,-3.906250
8813,-3.906250
8814,-3.906250
8815,-3.906250
8816,-3.906250
8817,-5.859375
8818,-5.859375
8819,-5.859375
8820,-5.859375
8821,-5.859375
8822,-5.859375
8823,-5.859375
8824,-5.859375
8825,-5.859375
8826,-5.859375
8827,-5.859375
8828,-5.859375
8829,-5.859375
8830,-5.859375
8831,-5.859375
8832,-7.812500
8833,-5.859375
8834,-5.859375
8835,-5.859375
8836,-5.859375
8837,-7.812500
8838,-7.812500
8839,-7.812500
8840,-7.812500
8841,-7.812500
8842,-7.812500
8843,-7.812500
8844,-9.765625
8845,-7.812500
8846,-7.812500
8847,-7.812500
8848,-9.765625
8849,-9.765625
8850,-9.765625
8851,-9.765625
8852,-9.765625
8853,-7.812500
8854,-9.765625
8855,-9.765625
8856,-9.765625
8857,-9.765625
8858,-9.765625
8859,-9.765625
8860,-9.765625
8861,-11.718750
8862,-9.765625
8863,-9.765625
8864,-9.765625
8865,-11.718750
8866,-11.718750
8867,-11.718750
8868,-11.718750
8869,-11.718750
8870,-11.718750
8871,-11.718750
8872,-11.718750
8873,-11.718750
8874,-13.671875
8875,-13.671875
8876,-13.671875
8877,-13.671875
8878,-13.671875
8879,-13.671875
8880,-13.671875
8881,-13.671875
8882,-13.671875
8883,-13.671875
8884,-15.625000
8885,-15.625000
8886,-15.625000
8887,-15.625000
8888,-15.625000
8889,-15.625000
8890,-17.578125
8891,-15.625000
8892,-17.578125
8893,-17.578125
8894,-17.578125
8895,-17.578125
8896,-17.578125
8897,-17.578125
8898,-17.578125
8899,-19.531250
8900,-19.531250
8901,-19.531250
8902,-19.531250
8903,-19.531250
8904,-19.531250
8905,-19.531250
8906,-19.531250
8907,-19.531250
8908,-19.531250
8909,-19.531250
8910,-19.531250
8911,-21.484375
8912,-19.531250
8913,-21.484375
8914,-21.484375
8915,-21.484375
8916,-21.484375
8917,-21.484375
8918,-21.484375
8919,-23.437500
8920,-21.484375
8921,-21.484375
8922,-21.484375
8923,-23.437500
8924,-23.437500
8925,-23.437500
8926,-23.437500
8927,-23.437500
8928,-23.437500
8929,-23.437500
8930,-23.437500
8931,-23.437500
8932,-23.437500
8933,-23.437500
8934,-25.390625
8935,-25.390625
8936,-25.390625
8937,-25.390625
8938,-25.390625
8939,-25.390625
8940,-25.390625
8941,-25.390625
8942,-25.390625
8943,-25.390625
8944,-27.343750
8945,-25.390625
8946,-27.343750
8947,-27.343750
8948,-27.343750
8949,-27.343750
8950,-27.343750
8951,-27.343750
8952,-27.343750
8953,-27.343750
8954,-27.343750
8955,-27.343750
8956,-29.296875
8957,-27.343750
8958,-29.296875
8959,-29.296875
8960,-29.296875
8961,-27.343750
8962,-29.296875
8963,-29.296875
8964,-29.296875
8965,-29.296875
8966,-29.296875
8967,-29.296875
8968,-29.296875
8969,-29.296875
8970,-29.296875
8971,-29.296875
8972,-29.296875
8973,-29.296875
8974,-29.296875
8975,-29.296875
8976,-29.296875
8977,-29.296875
8978,-29.296875
8979,-29.296875
8980,-29.296875
8981,-29.296875
8982,-29.296875
8983,-29.296875
8984,-29.296875
8985,-29.296875
8986,-29.296875
8987,-29.296875
8988,-29.296875
8989,-29.296875
8990,-29.296875
8991,-29.296875
8992,-29.296875
8993,-29.296875
8994,-29.296875
8995,-29.296875
8996,-29.296875
8997,-29.296875
8998,-27.343750
8999,-29.296875
9000,-27.343750
9001,-29.296875
9002,-29.296875
9003,-27.343750
9004,-27.343750
9005,-29.296875
9006,-27.343750
9007,-27.343750
9008,-27.343750
9009,-27.343750
9010,-27.343750
9011,-27.343750
9012,-27.343750
9013,-27.343750
9014,-27.343750
9015,-27.343750
9016,-27.343750
9017,-27.343750
9018,-27.343750
9019,-27.343750
9020,-27.343750
9021,-25.390625
9022,-27.343750
9023,-25.390625
9024,-25.390625
9025,-25.390625
9026,-25.390625
9027,-25.390625
9028,-25.390625
9029,-25.390625
9030,-25.390625
9031,-25.390625
9032,-25.390625
9033,-25.390625
9034,-23.437500
9035,-23.437500
9036,-23.437500
9037,-23.437500
9038,-23.437500
9039,-23.437500
9040,-23.437500
9041,-23.437500
9042,-21.484375
9043,-21.484375
9044,-23.437500
9045,-23.437500
9046,-21.484375
9047,-21.484375
9048,-21.484375
9049,-21.484375
9050,-21.484375
9051,-21.484375
9052,-21.484375
9053,-19.531250
9054,-19.531250
9055,-19.531250
9056,-19.531250
9057,-19.531250
9058,-19.531250
9059,-17.578125
9060,-17.578125
9061,-17.578125
9062,-17.578125
9063,-17.578125
9064,-17.578125
9065,-15.625000
9066,-15.625000
9067,-15.625000
9068,-17.578125
9069,-15.625000
9070,-15.625000
9071,-15.625000
9072,-15.625000
9073,-13.671875
9074,-15.625000
9075,-13.671875
9076,-13.671875
9077,-13.671875
9078,-13.671875
9079,-13.671875
9080,-13.671875
9081,-13.671875
9082,-11.718750
9083,-13.671875
9084,-11.718750
9085,-11.718750
9086,-11.718750
9087,-11.718750
9088,-11.718750
9089,-9.765625
9090,-11.718750
9091,-9.765625
9092,-9.765625
9093,-9.765625
9094,-9.765625
9095,-9.765625
9096,-9.765625
9097,-7.812500
9098,-7.812500
9099,-7.812500
9100,-7.812500
9101,-7.812500
9102,-7.812500
9103,-5.859375
9104,-7.812500
9105,-5.859375
9106,-5.859375
9107,-5.859375
9108,-5.859375
9109,-5.859375
9110,-5.859375
9111,-5.859375
9112,-5.859375
9113,-3.906250
9114,-5.859375
9115,-3.906250
9116,-3.906250
9117,-3.906250
9118,-3.906250
9119,-3.906250
9120,-3.906250
9121,-1.953125
9122,-3.906250
9123,-1.953125
9124,-1.953125
9125,-1.953125
9126,-1.953125
9127,-1.953125
9128,-1.953125
9129,-1.953125
9130,0.000000
9131,-1.953125
9132,0.000000
9133,0.000000
9134,0.000000
9135,0.000000
9136,0.000000
9137,0.000000
9138,0.000000
9139,0.000000
9140,0.000000
9141,1.953125
9142,0.000000
9143,1.953125
9144,1.953125
9145,1.953125
9146,1.953125
9147,1.953125
9148,1.953125
9149,1.953125
9150,1.953125
9151,1.953125
9152,1.953125
9153,1.953125
9154,3.906250
9155,1.953125
9156,3.906250
9157,1.953125
9158,1.953125
9159,3.906250
9160,3.906250
9161,3.906250
9162,3.906250
9163,3.906250
9164,3.906250
9165,3.906250
9166,3.906250
9167,3.906250
9168,3.906250
9169,3.906250
9170,3.906250
9171,3.906250
9172,3.906250
9173,3.906250
9174,3.906250
9175,3.906250
9176,3.906250
9177,3.906250
9178,3.906250
9179,3.906250
9180,3.906250
9181,3.906250
9182,5.859375
9183,3.906250
9184,5.859375
9185,3.906250
9186,5.859375
9187,5.859375
9188,5.859375
9189,5.859375
9190,5.859375
9191,5.859375
9192,5.859375
9193,5.859375
9194,5.859375
9195,5.859375
9196,5.859375
9197,5.859375
9198,5.859375
9199,5.859375
9200,5.859375
9201,5.859375
9202,5.859375
9203,5.859375
9204,5.859375
9205,5.859375
9206,5.859375
9207,5.859375
9208,5.859375
9209,5.859375
9210,5.859375
9211,5.859375
9212,5.859375
9213,5.859375
9214,5.859375
9215,3.906250
9216,5.859375
9217,3.906250
9218,5.859375
9219,3.906250
9220,3.906250
9221,3.906250
9222,5.859375
9223,3.906250
9224,3.906250
9225,3.906250
9226,3.906250
9227,3.906250
9228,3.906250
9229,3.906250
9230,3.906250
9231,3.906250
9232,3.906250
9233,3.906250
9234,3.906250
9235,3.906250
9236,3.906250
9237,3.906250
9238,3.906250
9239,3.906250
9240,3.906250
9241,3.906250
9242,3.906250
9243,3.906250
9244,3.906250
9245,1.953125
9246,1.953125
9247,3.906250
9248,3.906250
9249,1.953125
9250,1.953125
9251,1.953125
9252,1.953125
9253,1.953125
9254,1.953125
9255,1.953125
9256,1.953125
9257,1.953125
9258,1.953125
9259,1.953125
9260,1.953125
9261,1.953125
9262,1.953125
9263,1.953125
9264,1.953125
9265,1.953125
9266,1.953125
9267,1.953125
9268,1.953125
9269,1.953125
9270,1.953125
9271,1.953125
9272,1.953125
9273,1.953125
9274,1.953125
9275,0.000000
9276,1.953125
9277,0.000000
9278,1.953125
9279,0.000000
9280,1.953125
9281,0.000000
9282,1.953125
9283,0.000000
9284,0.000000
9285,0.000000
9286,1.953125
9287,0.000000
9288,0.000000
9289,0.000000
9290,0.000000
9291,0.000000
9292,0.000000
9293,0.000000
9294,0.000000
9295,0.000000
9296,0.000000
9297,0.000000
9298,0.000000
9299,0.000000
9300,0.000000
9301,1.953125
9302,0.000000
9303,0.000000
9304,0.000000
9305,0.000000
9306,0.000000
9307,0.000000
9308,0.000000
9309,0.000000
9310,0.000000
9311,0.000000
9312,0.000000
9313,0.000000
9314,0.000000
9315,0.000000
9316,0.000000
9317,0.000000
9318,0.000000
9319,0.000000
9320,0.000000
9321,0.000000
9322,0.000000
9323,0.000000
9324,0.000000
9325,0.000000
9326,0.000000
9327,0.000000
9328,0.000000
9329,0.000000
9330,0.000000
9331,0.000000
9332,0.000000
9333,0.000000
9334,0.000000
9335,0.000000
9336,0.000000
9337,-1.953125
9338,0.000000
9339,-1.953125
9340,0.000000
9341,0.000000
9342,-1.953125
9343,0.000000
9344,0.000000
9345,-1.953125
9346,-1.953125
9347,-1.953125
9348,-1.953125
9349,0.000000
9350,-1.953125
9351,-1.953125
9352,0.000000
9353,-1.953125
9354,-1.953125
9355,-1.953125
9356,-1.953125
9357,-1.953125
9358,-1.953125
9359,-1.953125
9360,-1.953125
9361,-1.953125
9362,-1.953125
9363,-1.953125
9364,-1.953125
9365,-1.953125
9366,-1.953125
9367,-1.953125
9368,-1.953125
9369,-1.953125
9370,-1.953125
9371,-1.953125
9372,-1.953125
9373,-1.953125
9374,-1.953125
9375,-1.953125
9376,-1.953125
9377,-3.906250
9378,-1.953125
9379,-1.953125
9380,-1.953125
9381,-1.953125
9382,-1.953125
9383,-3.906250
9384,-3.906250
9385,-1.953125
9386,-3.906250
9387,-3.906250
9388,-3.906250
9389,-1.953125
9390,-3.906250
9391,-3.906250
9392,-3.906250
9393,-3.906250
9394,-3.906250
9395,-3.906250
9396,-3.906250
9397,-3.906250
9398,-3.906250
9399,-3.906250
9400,-5.859375
9401,-3.906250
9402,-3.906250
9403,-3.906250
9404,-5.859375
9405,-5.859375
9406,-5.859375
9407,-5.859375
9408,-5.859375
9409,-5.859375
9410,-5.859375
9411,-5.859375
9412,-7.812500
9413,-5.859375
9414,-5.859375
9415,-7.812500
9416,-5.859375
9417,-7.812500
9418,-7.812500
9419,-7.812500
9420,-7.812500
9421,-7.812500
9422,-7.812500
9423,-7.812500
9424,-7.812500
9425,-7.812500
9426,-7.812500
9427,-7.812500
9428,-9.765625
9429,-7.812500
9430,-7.812500
9431,-9.765625
9432,-7.812500
9433,-7.812500
9434,-9.765625
9435,-9.765625
9436,-9.765625
9437,-9.765625
9438,-9.765625
9439,-9.765625
9440,-9.765625
9441,-9.765625
9442,-9.765625
9443,-9.765625
9444,-9.765625
9445,-9.765625
9446,-11.718750
9447,-9.765625
9448,-11.718750
9449,-9.765625
9450,-11.718750
9451,-11.718750
9452,-11.718750
9453,-11.718750
9454,-11.718750
9455,-11.718750
9456,-13.671875
9457,-13.671875
9458,-13.671875
9459,-11.718750
9460,-13.671875
9461,-13.671875
9462,-13.671875
9463,-13.671875
9464,-13.671875
9465,-13.671875
9466,-13.671875
9467,-15.625000
9468,-15.625000
9469,-15.625000
9470,-13.671875
9471,-15.625000
9472,-15.625000
9473,-15.625000
9474,-15.625000
9475,-17.578125
9476,-15.625000
9477,-17.578125
9478,-17.578125
9479,-17.578125
9480,-17.578125
9481,-17.578125
9482,-17.578125
9483,-19.531250
9484,-19.531250
9485,-19.531250
9486,-19.531250
9487,-19.531250
9488,-19.531250
9489,-19.531250
9490,-19.531250
9491,-19.531250
9492,-21.484375
9493,-21.484375
9494,-21.484375
9495,-21.484375
9496,-21.484375
9497,-21.484375
9498,-21.484375
9499,-21.484375
9500,-21.484375
9501,-21.484375
9502,-21.484375
9503,-21.484375
9504,-23.437500
9505,-21.484375
9506,-23.437500
9507,-23.437500
9508,-23.437500
9509,-23.437500
9510,-23.437500
9511,-23.437500
9512,-23.437500
9513,-23.437500
9514,-23.437500
9515,-23.437500
9516,-23.437500
9517,-23.437500
9518,-25.390625
9519,-25.390625
9520,-25.390625
9521,-25.390625
9522,-25.390625
9523,-25.390625
9524,-25.390625
9525,-25.390625
9526,-25.390625
9527,-25.390625
9528,-25.390625
9529,-25.390625
9530,-27.343750
9531,-27.343750
9532,-27.343750
9533,-27.343750
9534,-27.343750
9535,-27.343750
9536,-27.343750
9537,-29.296875
9538,-27.343750
9539,-27.343750
9540,-29.296875
9541,-29.296875
9542,-27.343750
9543,-29.296875
9544,-27.343750
9545,-29.296875
9546,-29.296875
9547,-29.296875
9548,-29.296875
9549,-29.296875
9550,-29.296875
9551,-29.296875
9552,-29.296875
9553,-29.296875
9554,-29.296875
9555,-29.296875
9556,-29.296875
9557,-29.296875
9558,-29.296875
9559,-29.296875
9560,-29.296875
9561,-29.296875
9562,-29.296875
9563,-29.296875
9564,-29.296875
9565,-29.296875
9566,-29.296875
9567,-29.296875
9568,-29.296875
9569,-29.296875
9570,-29.296875
9571,-29.296875
9572,-29.296875
9573,-29.296875
9574,-29.296875
9575,-29.296875
9576,-29.296875
9577,-29.296875
9578,-29.296875
9579,-29.296875
9580,-27.343750
9581,-29.296875
9582,-27.343750
9583,-29.296875
9584,-29.296875
9585,-29.296875
9586,-29.296875
9587,-27.343750
9588,-29.296875
9589,-29.296875
9590,-27.343750
9591,-27.343750
9592,-27.343750
9593,-27.343750
9594,-27.343750
9595,-27.343750
9596,-27.343750
9597,-27.343750
9598,-27.343750
9599,-27.343750
9600,-27.343750
9601,-27.343750
9602,-25.390625
9603,-25.390625
9604,-27.343750
9605,-25.390625
9606,-25.390625
9607,-25.390625
9608,-25.390625
9609,-25.390625
9610,-25.390625
9611,-25.390625
9612,-25.390625
9613,-25.390625
9614,-25.390625
9615,-25.390625
9616,-23.437500
9617,-23.437500
9618,-23.437500
9619,-23.437500
9620,-23.437500
9621,-23.437500
9622,-23.437500
9623,-23.437500
9624,-23.437500
9625,-21.484375
9626,-23.437500
9627,-21.484375
9628,-21.484375
9629,-21.484375
9630,-21.484375
9631,-21.484375
9632,-21.484375
9633,-21.484375
9634,-19.531250
9635,-21.484375
9636,-19.531250
9637,-19.531250
9638,-19.531250
9639,-19.531250
9640,-19.531250
9641,-17.578125
9642,-19.531250
9643,-17.578125
9644,-17.578125
9645,-17.578125
9646,-17.578125
9647,-17.578125
9648,-17.578125
9649,-17.578125
9650,-15.625000
9651,-15.625000
9652,-15.625000
9653,-15.625000
9654,-15.625000
9655,-15.625000
9656,-15.625000
9657,-15.625000
9658,-13.671875
9659,-13.671875
9660,-13.671875
9661,-13.671875
9662,-13.671875
9663,-11.718750
9664,-13.671875
9665,-13.671875
9666,-11.718750
9667,-11.718750
9668,-11.718750
9669,-11.718750
9670,-11.718750
9671,-11.718750
9672,-11.718750
9673,-9.765625
9674,-9.765625
9675,-9.765625
9676,-9.765625
9677,-7.812500
9678,-9.765625
9679,-9.765625
9680,-7.812500
9681,-7.812500
9682,-7.812500
9683,-7.812500
9684,-7.812500
9685,-7.812500
9686,-7.812500
9687,-7.812500
9688,-5.859375
9689,-5.859375
9690,-3.906250
9691,-5.859375
9692,-5.859375
9693,-5.859375
9694,-3.906250
9695,-3.906250
9696,-3.906250
9697,-3.906250
9698,-3.906250
9699,-3.906250
9700,-3.906250
9701,-3.906250
9702,-1.953125
9703,-1.953125
9704,-1.953125
9705,-1.953125
9706,-1.953125
9707,-1.953125
9708,-1.953125
9709,-1.953125
9710,-1.953125
9711,-1.953125
9712,0.000000
9713,0.000000
9714,0.000000
9715,0.000000
9716,0.000000
9717,0.000000
9718,0.000000
9719,0.000000
9720,0.000000
9721,0.000000
9722,1.953125
9723,1.953125
9724,1.953125
9725,0.000000
9726,1.953125
9727,1.953125
9728,1.953125
9729,1.953125
9730,1.953125
9731,1.953125
9732,1.953125
9733,1.953125
9734,1.953125
9735,1.953125
9736,3.906250
9737,1.953125
9738,3.906250
9739,1.953125
9740,3.906250
9741,3.906250
9742,1.953125
9743,3.906250
9744,3.906250
9745,3.906250
9746,3.906250
9747,3.906250
9748,3.906250
9749,3.906250
9750,3.906250
9751,3.906250
9752,3.906250
9753,5.859375
9754,3.906250
9755,3.906250
9756,5.859375
9757,3.906250
9758,5.859375
9759,5.859375
9760,3.906250
9761,5.859375
9762,5.859375
9763,5.859375
9764,5.859375
9765,3.906250
9766,5.859375
9767,5.859375
9768,5.859375
9769,5.859375
9770,5.859375
9771,5.859375
9772,5.859375
9773,5.859375
9774,5.859375
9775,5.859375
9776,5.859375
9777,5.859375
9778,5.859375
9779,5.859375
9780,5.859375
9781,5.859375
9782,5.859375
9783,5.859375
9784,5.859375
9785,5.859375
9786,5.859375
9787,3.906250
9788,5.859375
9789,5.859375
9790,5.859375
9791,5.859375
9792,5.859375
9793,5.859375
9794,5.859375
9795,5.859375
9796,5.859375
9797,5.859375
9798,3.906250
9799,5.859375
9800,3.906250
9801,3.906250
9802,3.906250
9803,5.859375
9804,3.906250
9805,3.906250
9806,5.859375
9807,3.906250
9808,5.859375
9809,3.906250
9810,3.906250
9811,3.906250
9812,3.906250
9813,3.906250
9814,3.906250
9815,3.906250
9816,3.906250
9817,3.906250
9818,3.906250
9819,3.906250
9820,3.906250
9821,3.906250
9822,3.906250
9823,3.906250
9824,1.953125
9825,3.906250
9826,3.906250
9827,3.906250
9828,3.906250
9829,3.906250
9830,3.906250
9831,3.906250
9832,3.906250
9833,3.906250
9834,1.953125
9835,1.953125
9836,1.953125
9837,1.953125
9838,3.906250
9839,1.953125
9840,1.953125
9841,1.953125
9842,3.906250
9843,1.953125
9844,1.953125
9845,1.953125
9846,1.953125
9847,3.906250
9848,1.953125
9849,1.953125
9850,1.953125
9851,1.953125
9852,1.953125
9853,1.953125
9854,1.953125
9855,1.953125
9856,1.953125
9857,1.953125
9858,1.953125
9859,1.953125
9860,0.000000
9861,0.000000
9862,1.953125
9863,1.953125
9864,0.000000
9865,0.000000
9866,1.953125
9867,0.000000
9868,0.000000
9869,0.000000
9870,0.000000
9871,0.000000
9872,0.000000
9873,0.000000
9874,0.000000
9875,1.953125
9876,0.000000
9877,0.000000
9878,0.000000
9879,0.000000
9880,0.000000
9881,0.000000
9882,0.000000
9883,0.000000
9884,1.953125
9885,0.000000
9886,0.000000
9887,0.000000
9888,0.000000
9889,0.000000
9890,0.000000
9891,0.000000
9892,0.000000
9893,0.000000
9894,0.000000
9895,0.000000
9896,0.000000
9897,0.000000
9898,0.000000
9899,0.000000
9900,0.000000
9901,0.000000
9902,0.000000
9903,0.000000
9904,0.000000
9905,0.000000
9906,0.000000
9907,0.000000
9908,0.000000
9909,0.000000
9910,0.000000
9911,0.000000
9912,0.000000
9913,0.000000
9914,0.000000
9915,0.000000
9916,0.000000
9917,-1.953125
9918,0.000000
9919,0.000000
9920,0.000000
9921,0.000000
9922,0.000000
9923,0.000000
9924,0.000000
9925,0.000000
9926,0.000000
9927,0.000000
9928,-1.953125
9929,-1.953125
9930,-1.953125
9931,0.000000
9932,-1.953125
9933,-1.953125
9934,-3.906250
9935,-1.953125
9936,-1.953125
9937,-1.953125
9938,-1.953125
9939,-1.953125
9940,-1.953125
9941,-1.953125
9942,-1.953125
9943,-1.953125
9944,-1.953125
9945,-1.953125
9946,-1.953125
9947,-1.953125
9948,-1.953125
9949,-1.953125
9950,-1.953125
9951,-1.953125
9952,-1.953125
9953,-1.953125
9954,-1.953125
9955,-1.953125
9956,-1.953125
9957,-1.953125
9958,-1.953125
9959,-1.953125
9960,-3.906250
9961,-3.906250
9962,-1.953125
9963,-1.953125
9964,-3.906250
9965,-3.906250
9966,-3.906250
9967,-1.953125
9968,-3.906250
9969,-3.906250
9970,-3.906250
9971,-3.906250
9972,-3.906250
9973,-3.906250
9974,-3.906250
9975,-3.906250
9976,-3.906250
9977,-3.906250
9978,-3.906250
9979,-3.906250
9980,-3.906250
9981,-3.906250
9982,-5.859375
9983,-3.906250
9984,-5.859375
9985,-5.859375
9986,-5.859375
9987,-5.859375
9988,-5.859375
9989,-5.859375
9990,-5.859375
9991,-5.859375
9992,-5.859375
9993,-5.859375
9994,-5.859375
9995,-5.859375
9996,-5.859375
9997,-5.859375
9998,-7.812500
9999,-7.812500
10000,-7.812500
