Channel              :,CH1
Frequency            :,857.1Hz
Period               :,1.167ms
PK-PK                :,44.92mV
Probe attenuation    :,1X
Voltage per ADC value:,0.122070mV
Time interval        :,2.00000us

index,CH1_Voltage(mV)
1,9.765625
2,9.765625
3,9.765625
4,11.718750
5,9.765625
6,9.765625
7,9.765625
8,9.765625
9,9.765625
10,9.765625
11,9.765625
12,7.812500
13,9.765625
14,7.812500
15,7.812500
16,7.812500
17,7.812500
18,7.812500
19,7.812500
20,7.812500
21,7.812500
22,7.812500
23,7.812500
24,7.812500
25,7.812500
26,7.812500
27,7.812500
28,7.812500
29,5.859375
30,7.812500
31,5.859375
32,5.859375
33,5.859375
34,5.859375
35,5.859375
36,5.859375
37,5.859375
38,5.859375
39,5.859375
40,5.859375
41,5.859375
42,5.859375
43,3.906250
44,3.906250
45,3.906250
46,3.906250
47,3.906250
48,3.906250
49,3.906250
50,3.906250
51,1.953125
52,1.953125
53,1.953125
54,1.953125
55,1.953125
56,1.953125
57,1.953125
58,1.953125
59,1.953125
60,0.000000
61,0.000000
62,0.000000
63,0.000000
64,0.000000
65,0.000000
66,-1.953125
67,-1.953125
68,-1.953125
69,-1.953125
70,-1.953125
71,-1.953125
72,-1.953125
73,-1.953125
74,-3.906250
75,-3.906250
76,-3.906250
77,-3.906250
78,-3.906250
79,-5.859375
80,-5.859375
81,-5.859375
82,-5.859375
83,-5.859375
84,-5.859375
85,-5.859375
86,-5.859375
87,-5.859375
88,-7.812500
89,-7.812500
90,-7.812500
91,-7.812500
92,-7.812500
93,-9.765625
94,-7.812500
95,-9.765625
96,-9.765625
97,-9.765625
98,-9.765625
99,-9.765625
100,-9.765625
101,-11.718750
102,-11.718750
103,-11.718750
104,-11.718750
105,-11.718750
106,-13.671875
107,-13.671875
108,-13.671875
109,-13.671875
110,-13.671875
111,-13.671875
112,-13.671875
113,-13.671875
114,-13.671875
115,-15.625000
116,-15.625000
117,-15.625000
118,-15.625000
119,-15.625000
120,-15.625000
121,-17.578125
122,-15.625000
123,-17.578125
124,-17.578125
125,-17.578125
126,-17.578125
127,-17.578125
128,-19.531250
129,-19.531250
130,-19.531250
131,-19.531250
132,-19.531250
133,-19.531250
134,-19.531250
135,-21.484375
136,-21.484375
137,-21.484375
138,-21.484375
139,-21.484375
140,-21.484375
141,-23.437500
142,-21.484375
143,-21.484375
144,-23.437500
145,-23.437500
146,-23.437500
147,-23.437500
148,-23.437500
149,-23.437500
150,-23.437500
151,-25.390625
152,-25.390625
153,-23.437500
154,-25.390625
155,-25.390625
156,-25.390625
157,-25.390625
158,-25.390625
159,-27.343750
160,-25.390625
161,-25.390625
162,-25.390625
163,-25.390625
164,-27.343750
165,-27.343750
166,-27.343750
167,-27.343750
168,-27.343750
169,-27.343750
170,-27.343750
171,-27.343750
172,-27.343750
173,-27.343750
174,-27.343750
175,-29.296875
176,-29.296875
177,-29.296875
178,-29.296875
179,-29.296875
180,-29.296875
181,-29.296875
182,-27.343750
183,-29.296875
184,-29.296875
185,-29.296875
186,-29.296875
187,-29.296875
188,-29.296875
189,-29.296875
190,-29.296875
191,-29.296875
192,-29.296875
193,-29.296875
194,-31.250000
195,-29.296875
196,-31.250000
197,-29.296875
198,-31.250000
199,-31.250000
200,-29.296875
201,-31.250000
202,-31.250000
203,-31.250000
204,-31.250000
205,-31.250000
206,-31.250000
207,-31.250000
208,-31.250000
209,-31.250000
210,-31.250000
211,-31.250000
212,-31.250000
213,-31.250000
214,-31.250000
215,-31.250000
216,-31.250000
217,-31.250000
218,-31.250000
219,-31.250000
220,-31.250000
221,-31.250000
222,-31.250000
223,-31.250000
224,-31.250000
225,-31.250000
226,-31.250000
227,-31.250000
228,-31.250000
229,-31.250000
230,-31.250000
231,-31.250000
232,-31.250000
233,-31.250000
234,-31.250000
235,-31.250000
236,-31.250000
237,-31.250000
238,-29.296875
239,-29.296875
240,-29.296875
241,-29.296875
242,-29.296875
243,-31.250000
244,-31.250000
245,-29.296875
246,-29.296875
247,-29.296875
248,-29.296875
249,-29.296875
250,-29.296875
251,-29.296875
252,-29.296875
253,-29.296875
254,-29.296875
255,-29.296875
256,-29.296875
257,-29.296875
258,-29.296875
259,-27.343750
260,-29.296875
261,-29.296875
262,-29.296875
263,-29.296875
264,-29.296875
265,-29.296875
266,-29.296875
267,-27.343750
268,-29.296875
269,-29.296875
270,-27.343750
271,-29.296875
272,-27.343750
273,-27.343750
274,-27.343750
275,-25.390625
276,-27.343750
277,-27.343750
278,-27.343750
279,-27.343750
280,-27.343750
281,-27.343750
282,-25.390625
283,-27.343750
284,-27.343750
285,-25.390625
286,-25.390625
287,-25.390625
288,-25.390625
289,-25.390625
290,-23.437500
291,-25.390625
292,-23.437500
293,-25.390625
294,-23.437500
295,-23.437500
296,-23.437500
297,-23.437500
298,-23.437500
299,-23.437500
300,-23.437500
301,-23.437500
302,-21.484375
303,-21.484375
304,-21.484375
305,-21.484375
306,-21.484375
307,-21.484375
308,-19.531250
309,-21.484375
310,-19.531250
311,-19.531250
312,-19.531250
313,-19.531250
314,-19.531250
315,-19.531250
316,-17.578125
317,-19.531250
318,-19.531250
319,-19.531250
320,-19.531250
321,-17.578125
322,-17.578125
323,-17.578125
324,-17.578125
325,-17.578125
326,-17.578125
327,-19.531250
328,-17.578125
329,-15.625000
330,-15.625000
331,-15.625000
332,-15.625000
333,-15.625000
334,-15.625000
335,-15.625000
336,-15.625000
337,-13.671875
338,-13.671875
339,-13.671875
340,-13.671875
341,-13.671875
342,-13.671875
343,-13.671875
344,-13.671875
345,-11.718750
346,-11.718750
347,-11.718750
348,-11.718750
349,-11.718750
350,-11.718750
351,-11.718750
352,-11.718750
353,-9.765625
354,-11.718750
355,-9.765625
356,-9.765625
357,-9.765625
358,-9.765625
359,-9.765625
360,-9.765625
361,-9.765625
362,-7.812500
363,-7.812500
364,-7.812500
365,-7.812500
366,-7.812500
367,-7.812500
368,-7.812500
369,-7.812500
370,-7.812500
371,-7.812500
372,-7.812500
373,-7.812500
374,-5.859375
375,-5.859375
376,-5.859375
377,-5.859375
378,-5.859375
379,-5.859375
380,-5.859375
381,-5.859375
382,-5.859375
383,-5.859375
384,-3.906250
385,-5.859375
386,-5.859375
387,-3.906250
388,-5.859375
389,-3.906250
390,-3.906250
391,-3.906250
392,-3.906250
393,-3.906250
394,-3.906250
395,-3.906250
396,-3.906250
397,-3.906250
398,-1.953125
399,-3.906250
400,-3.906250
401,-3.906250
402,-1.953125
403,-1.953125
404,-1.953125
405,-1.953125
406,-3.906250
407,-1.953125
408,-1.953125
409,-1.953125
410,-1.953125
411,-1.953125
412,-1.953125
413,-1.953125
414,-1.953125
415,-1.953125
416,-1.953125
417,0.000000
418,-1.953125
419,0.000000
420,0.000000
421,0.000000
422,0.000000
423,0.000000
424,0.000000
425,0.000000
426,0.000000
427,0.000000
428,0.000000
429,0.000000
430,0.000000
431,1.953125
432,0.000000
433,1.953125
434,1.953125
435,0.000000
436,1.953125
437,1.953125
438,1.953125
439,1.953125
440,1.953125
441,1.953125
442,1.953125
443,1.953125
444,1.953125
445,1.953125
446,1.953125
447,1.953125
448,1.953125
449,1.953125
450,1.953125
451,1.953125
452,1.953125
453,3.906250
454,3.906250
455,3.906250
456,3.906250
457,1.953125
458,3.906250
459,3.906250
460,3.906250
461,3.906250
462,3.906250
463,3.906250
464,3.906250
465,3.906250
466,3.906250
467,3.906250
468,3.906250
469,3.906250
470,3.906250
471,3.906250
472,3.906250
473,3.906250
474,3.906250
475,3.906250
476,3.906250
477,3.906250
478,3.906250
479,5.859375
480,5.859375
481,3.906250
482,3.906250
483,3.906250
484,5.859375
485,5.859375
486,5.859375
487,3.906250
488,3.906250
489,5.859375
490,5.859375
491,5.859375
492,5.859375
493,5.859375
494,5.859375
495,5.859375
496,5.859375
497,5.859375
498,5.859375
499,5.859375
500,5.859375
501,5.859375
502,7.812500
503,7.812500
504,5.859375
505,5.859375
506,5.859375
507,5.859375
508,7.812500
509,5.859375
510,5.859375
511,7.812500
512,7.812500
513,5.859375
514,7.812500
515,7.812500
516,5.859375
517,7.812500
518,7.812500
519,7.812500
520,7.812500
521,7.812500
522,7.812500
523,7.812500
524,7.812500
525,7.812500
526,7.812500
527,7.812500
528,7.812500
529,7.812500
530,7.812500
531,7.812500
532,7.812500
533,7.812500
534,7.812500
535,9.765625
536,7.812500
537,9.765625
538,9.765625
539,7.812500
540,7.812500
541,7.812500
542,7.812500
543,9.765625
544,9.765625
545,9.765625
546,9.765625
547,9.765625
548,9.765625
549,9.765625
550,9.765625
551,9.765625
552,9.765625
553,9.765625
554,9.765625
555,9.765625
556,9.765625
557,9.765625
558,9.765625
559,9.765625
560,9.765625
561,9.765625
562,9.765625
563,9.765625
564,9.765625
565,9.765625
566,9.765625
567,9.765625
568,9.765625
569,9.765625
570,9.765625
571,9.765625
572,9.765625
573,9.765625
574,9.765625
575,9.765625
576,9.765625
577,9.765625
578,9.765625
579,9.765625
580,9.765625
581,9.765625
582,9.765625
583,9.765625
584,9.765625
585,9.765625
586,9.765625
587,9.765625
588,9.765625
589,9.765625
590,9.765625
591,9.765625
592,9.765625
593,9.765625
594,9.765625
595,7.812500
596,7.812500
597,7.812500
598,7.812500
599,7.812500
600,7.812500
601,7.812500
602,7.812500
603,7.812500
604,7.812500
605,7.812500
606,7.812500
607,7.812500
608,7.812500
609,7.812500
610,7.812500
611,7.812500
612,5.859375
613,5.859375
614,7.812500
615,5.859375
616,5.859375
617,5.859375
618,5.859375
619,5.859375
620,5.859375
621,5.859375
622,5.859375
623,5.859375
624,5.859375
625,5.859375
626,5.859375
627,3.906250
628,3.906250
629,3.906250
630,3.906250
631,3.906250
632,3.906250
633,3.906250
634,1.953125
635,1.953125
636,1.953125
637,1.953125
638,1.953125
639,1.953125
640,1.953125
641,0.000000
642,0.000000
643,0.000000
644,0.000000
645,0.000000
646,0.000000
647,0.000000
648,0.000000
649,0.000000
650,-1.953125
651,-1.953125
652,-1.953125
653,-1.953125
654,-1.953125
655,-1.953125
656,-3.906250
657,-3.906250
658,-3.906250
659,-3.906250
660,-5.859375
661,-3.906250
662,-3.906250
663,-3.906250
664,-5.859375
665,-5.859375
666,-5.859375
667,-5.859375
668,-7.812500
669,-5.859375
670,-5.859375
671,-5.859375
672,-7.812500
673,-7.812500
674,-7.812500
675,-9.765625
676,-9.765625
677,-9.765625
678,-9.765625
679,-9.765625
680,-9.765625
681,-9.765625
682,-9.765625
683,-11.718750
684,-11.718750
685,-11.718750
686,-11.718750
687,-11.718750
688,-11.718750
689,-11.718750
690,-11.718750
691,-13.671875
692,-13.671875
693,-13.671875
694,-13.671875
695,-13.671875
696,-13.671875
697,-15.625000
698,-15.625000
699,-15.625000
700,-15.625000
701,-15.625000
702,-15.625000
703,-15.625000
704,-17.578125
705,-15.625000
706,-17.578125
707,-17.578125
708,-17.578125
709,-17.578125
710,-17.578125
711,-17.578125
712,-19.531250
713,-19.531250
714,-19.531250
715,-19.531250
716,-19.531250
717,-19.531250
718,-21.484375
719,-21.484375
720,-21.484375
721,-21.484375
722,-21.484375
723,-21.484375
724,-23.437500
725,-23.437500
726,-21.484375
727,-23.437500
728,-23.437500
729,-23.437500
730,-23.437500
731,-23.437500
732,-23.437500
733,-25.390625
734,-25.390625
735,-25.390625
736,-25.390625
737,-25.390625
738,-25.390625
739,-25.390625
740,-25.390625
741,-25.390625
742,-27.343750
743,-25.390625
744,-25.390625
745,-27.343750
746,-27.343750
747,-27.343750
748,-27.343750
749,-27.343750
750,-27.343750
751,-27.343750
752,-27.343750
753,-29.296875
754,-27.343750
755,-27.343750
756,-27.343750
757,-27.343750
758,-29.296875
759,-29.296875
760,-29.296875
761,-27.343750
762,-27.343750
763,-29.296875
764,-29.296875
765,-29.296875
766,-29.296875
767,-29.296875
768,-29.296875
769,-29.296875
770,-29.296875
771,-29.296875
772,-31.250000
773,-29.296875
774,-29.296875
775,-29.296875
776,-29.296875
777,-31.250000
778,-31.250000
779,-31.250000
780,-31.250000
781,-31.250000
782,-31.250000
783,-31.250000
784,-31.250000
785,-31.250000
786,-31.250000
787,-31.250000
788,-31.250000
789,-31.250000
790,-31.250000
791,-31.250000
792,-31.250000
793,-31.250000
794,-31.250000
795,-31.250000
796,-31.250000
797,-31.250000
798,-31.250000
799,-31.250000
800,-31.250000
801,-31.250000
802,-31.250000
803,-31.250000
804,-31.250000
805,-31.250000
806,-31.250000
807,-31.250000
808,-31.250000
809,-31.250000
810,-31.250000
811,-31.250000
812,-31.250000
813,-31.250000
814,-31.250000
815,-31.250000
816,-31.250000
817,-31.250000
818,-31.250000
819,-31.250000
820,-31.250000
821,-31.250000
822,-31.250000
823,-31.250000
824,-29.296875
825,-29.296875
826,-31.250000
827,-29.296875
828,-29.296875
829,-29.296875
830,-31.250000
831,-31.250000
832,-29.296875
833,-29.296875
834,-29.296875
835,-29.296875
836,-31.250000
837,-29.296875
838,-29.296875
839,-29.296875
840,-29.296875
841,-29.296875
842,-29.296875
843,-29.296875
844,-29.296875
845,-29.296875
846,-29.296875
847,-29.296875
848,-29.296875
849,-29.296875
850,-29.296875
851,-27.343750
852,-29.296875
853,-29.296875
854,-27.343750
855,-27.343750
856,-27.343750
857,-27.343750
858,-27.343750
859,-27.343750
860,-27.343750
861,-27.343750
862,-27.343750
863,-27.343750
864,-27.343750
865,-25.390625
866,-25.390625
867,-25.390625
868,-27.343750
869,-25.390625
870,-25.390625
871,-25.390625
872,-27.343750
873,-25.390625
874,-23.437500
875,-23.437500
876,-23.437500
877,-23.437500
878,-23.437500
879,-23.437500
880,-23.437500
881,-23.437500
882,-23.437500
883,-23.437500
884,-21.484375
885,-23.437500
886,-23.437500
887,-21.484375
888,-21.484375
889,-21.484375
890,-21.484375
891,-21.484375
892,-21.484375
893,-21.484375
894,-19.531250
895,-21.484375
896,-19.531250
897,-19.531250
898,-19.531250
899,-19.531250
900,-19.531250
901,-19.531250
902,-17.578125
903,-17.578125
904,-17.578125
905,-17.578125
906,-17.578125
907,-17.578125
908,-17.578125
909,-17.578125
910,-17.578125
911,-15.625000
912,-15.625000
913,-15.625000
914,-15.625000
915,-15.625000
916,-15.625000
917,-15.625000
918,-15.625000
919,-15.625000
920,-15.625000
921,-13.671875
922,-13.671875
923,-13.671875
924,-13.671875
925,-13.671875
926,-13.671875
927,-13.671875
928,-13.671875
929,-11.718750
930,-11.718750
931,-11.718750
932,-11.718750
933,-11.718750
934,-11.718750
935,-11.718750
936,-11.718750
937,-9.765625
938,-9.765625
939,-9.765625
940,-9.765625
941,-9.765625
942,-9.765625
943,-9.765625
944,-9.765625
945,-7.812500
946,-9.765625
947,-7.812500
948,-7.812500
949,-7.812500
950,-7.812500
951,-7.812500
952,-7.812500
953,-7.812500
954,-7.812500
955,-7.812500
956,-5.859375
957,-5.859375
958,-5.859375
959,-5.859375
960,-5.859375
961,-5.859375
962,-5.859375
963,-5.859375
964,-5.859375
965,-5.859375
966,-5.859375
967,-5.859375
968,-5.859375
969,-3.906250
970,-3.906250
971,-5.859375
972,-3.906250
973,-3.906250
974,-3.906250
975,-3.906250
976,-3.906250
977,-3.906250
978,-3.906250
979,-3.906250
980,-3.906250
981,-3.906250
982,-3.906250
983,-1.953125
984,-1.953125
985,-3.906250
986,-1.953125
987,-3.906250
988,-1.953125
989,-1.953125
990,-1.953125
991,-1.953125
992,-1.953125
993,-1.953125
994,-1.953125
995,-1.953125
996,0.000000
997,0.000000
998,-1.953125
999,-1.953125
1000,0.000000
1001,0.000000
1002,0.000000
1003,0.000000
1004,0.000000
1005,0.000000
1006,0.000000
1007,0.000000
1008,0.000000
1009,0.000000
1010,0.000000
1011,0.000000
1012,0.000000
1013,0.000000
1014,0.000000
1015,1.953125
1016,1.953125
1017,1.953125
1018,1.953125
1019,0.000000
1020,1.953125
1021,1.953125
1022,3.906250
1023,1.953125
1024,1.953125
1025,1.953125
1026,1.953125
1027,1.953125
1028,1.953125
1029,1.953125
1030,1.953125
1031,1.953125
1032,1.953125
1033,1.953125
1034,1.953125
1035,1.953125
1036,1.953125
1037,3.906250
1038,3.906250
1039,1.953125
1040,3.906250
1041,3.906250
1042,3.906250
1043,1.953125
1044,1.953125
1045,3.906250
1046,3.906250
1047,3.906250
1048,3.906250
1049,3.906250
1050,3.906250
1051,3.906250
1052,3.906250
1053,3.906250
1054,3.906250
1055,3.906250
1056,3.906250
1057,3.906250
1058,3.906250
1059,3.906250
1060,3.906250
1061,3.906250
1062,3.906250
1063,5.859375
1064,3.906250
1065,3.906250
1066,5.859375
1067,5.859375
1068,5.859375
1069,5.859375
1070,5.859375
1071,5.859375
1072,5.859375
1073,5.859375
1074,5.859375
1075,5.859375
1076,5.859375
1077,5.859375
1078,5.859375
1079,5.859375
1080,5.859375
1081,5.859375
1082,5.859375
1083,5.859375
1084,7.812500
1085,5.859375
1086,5.859375
1087,7.812500
1088,5.859375
1089,5.859375
1090,7.812500
1091,7.812500
1092,7.812500
1093,5.859375
1094,7.812500
1095,7.812500
1096,7.812500
1097,7.812500
1098,7.812500
1099,7.812500
1100,7.812500
1101,7.812500
1102,7.812500
1103,7.812500
1104,7.812500
1105,7.812500
1106,7.812500
1107,7.812500
1108,7.812500
1109,7.812500
1110,7.812500
1111,7.812500
1112,7.812500
1113,7.812500
1114,7.812500
1115,7.812500
1116,7.812500
1117,7.812500
1118,9.765625
1119,7.812500
1120,7.812500
1121,7.812500
1122,9.765625
1123,9.765625
1124,9.765625
1125,9.765625
1126,7.812500
1127,9.765625
1128,9.765625
1129,9.765625
1130,9.765625
1131,9.765625
1132,9.765625
1133,9.765625
1134,9.765625
1135,9.765625
1136,9.765625
1137,9.765625
1138,9.765625
1139,9.765625
1140,9.765625
1141,11.718750
1142,9.765625
1143,11.718750
1144,9.765625
1145,9.765625
1146,9.765625
1147,9.765625
1148,9.765625
1149,11.718750
1150,9.765625
1151,9.765625
1152,9.765625
1153,9.765625
1154,9.765625
1155,9.765625
1156,11.718750
1157,9.765625
1158,11.718750
1159,9.765625
1160,9.765625
1161,9.765625
1162,9.765625
1163,9.765625
1164,9.765625
1165,9.765625
1166,9.765625
1167,9.765625
1168,9.765625
1169,9.765625
1170,9.765625
1171,9.765625
1172,9.765625
1173,9.765625
1174,9.765625
1175,9.765625
1176,9.765625
1177,9.765625
1178,9.765625
1179,9.765625
1180,9.765625
1181,7.812500
1182,7.812500
1183,7.812500
1184,9.765625
1185,7.812500
1186,7.812500
1187,7.812500
1188,7.812500
1189,7.812500
1190,7.812500
1191,7.812500
1192,7.812500
1193,7.812500
1194,7.812500
1195,7.812500
1196,7.812500
1197,5.859375
1198,7.812500
1199,5.859375
1200,5.859375
1201,7.812500
1202,5.859375
1203,5.859375
1204,5.859375
1205,5.859375
1206,5.859375
1207,5.859375
1208,3.906250
1209,5.859375
1210,3.906250
1211,3.906250
1212,3.906250
1213,3.906250
1214,3.906250
1215,1.953125
1216,3.906250
1217,1.953125
1218,1.953125
1219,1.953125
1220,1.953125
1221,1.953125
1222,1.953125
1223,1.953125
1224,1.953125
1225,0.000000
1226,0.000000
1227,0.000000
1228,0.000000
1229,0.000000
1230,0.000000
1231,-1.953125
1232,-1.953125
1233,-1.953125
1234,-1.953125
1235,-1.953125
1236,-1.953125
1237,-1.953125
1238,-3.906250
1239,-3.906250
1240,-3.906250
1241,-3.906250
1242,-3.906250
1243,-3.906250
1244,-5.859375
1245,-3.906250
1246,-5.859375
1247,-5.859375
1248,-5.859375
1249,-5.859375
1250,-5.859375
1251,-5.859375
1252,-5.859375
1253,-5.859375
1254,-7.812500
1255,-7.812500
1256,-7.812500
1257,-7.812500
1258,-7.812500
1259,-7.812500
1260,-9.765625
1261,-9.765625
1262,-9.765625
1263,-9.765625
1264,-9.765625
1265,-9.765625
1266,-9.765625
1267,-9.765625
1268,-9.765625
1269,-11.718750
1270,-11.718750
1271,-11.718750
1272,-11.718750
1273,-11.718750
1274,-11.718750
1275,-13.671875
1276,-13.671875
1277,-13.671875
1278,-13.671875
1279,-13.671875
1280,-15.625000
1281,-15.625000
1282,-15.625000
1283,-15.625000
1284,-15.625000
1285,-15.625000
1286,-17.578125
1287,-17.578125
1288,-17.578125
1289,-17.578125
1290,-17.578125
1291,-19.531250
1292,-17.578125
1293,-17.578125
1294,-19.531250
1295,-19.531250
1296,-19.531250
1297,-19.531250
1298,-19.531250
1299,-19.531250
1300,-21.484375
1301,-21.484375
1302,-21.484375
1303,-21.484375
1304,-21.484375
1305,-21.484375
1306,-21.484375
1307,-21.484375
1308,-21.484375
1309,-23.437500
1310,-23.437500
1311,-23.437500
1312,-23.437500
1313,-23.437500
1314,-23.437500
1315,-25.390625
1316,-23.437500
1317,-23.437500
1318,-23.437500
1319,-25.390625
1320,-23.437500
1321,-25.390625
1322,-25.390625
1323,-25.390625
1324,-25.390625
1325,-25.390625
1326,-25.390625
1327,-27.343750
1328,-25.390625
1329,-27.343750
1330,-27.343750
1331,-27.343750
1332,-27.343750
1333,-27.343750
1334,-27.343750
1335,-27.343750
1336,-27.343750
1337,-27.343750
1338,-27.343750
1339,-27.343750
1340,-29.296875
1341,-27.343750
1342,-27.343750
1343,-29.296875
1344,-29.296875
1345,-29.296875
1346,-29.296875
1347,-29.296875
1348,-29.296875
1349,-29.296875
1350,-29.296875
1351,-29.296875
1352,-29.296875
1353,-29.296875
1354,-29.296875
1355,-29.296875
1356,-29.296875
1357,-31.250000
1358,-31.250000
1359,-29.296875
1360,-31.250000
1361,-29.296875
1362,-31.250000
1363,-31.250000
1364,-31.250000
1365,-31.250000
1366,-31.250000
1367,-31.250000
1368,-31.250000
1369,-31.250000
1370,-31.250000
1371,-31.250000
1372,-31.250000
1373,-31.250000
1374,-31.250000
1375,-31.250000
1376,-31.250000
1377,-31.250000
1378,-31.250000
1379,-31.250000
1380,-31.250000
1381,-31.250000
1382,-31.250000
1383,-31.250000
1384,-31.250000
1385,-31.250000
1386,-31.250000
1387,-31.250000
1388,-31.250000
1389,-31.250000
1390,-31.250000
1391,-31.250000
1392,-31.250000
1393,-31.250000
1394,-31.250000
1395,-31.250000
1396,-31.250000
1397,-31.250000
1398,-29.296875
1399,-31.250000
1400,-29.296875
1401,-31.250000
1402,-31.250000
1403,-31.250000
1404,-31.250000
1405,-29.296875
1406,-29.296875
1407,-31.250000
1408,-29.296875
1409,-29.296875
1410,-29.296875
1411,-31.250000
1412,-31.250000
1413,-29.296875
1414,-31.250000
1415,-29.296875
1416,-29.296875
1417,-31.250000
1418,-31.250000
1419,-31.250000
1420,-29.296875
1421,-29.296875
1422,-29.296875
1423,-29.296875
1424,-29.296875
1425,-29.296875
1426,-29.296875
1427,-29.296875
1428,-29.296875
1429,-29.296875
1430,-29.296875
1431,-29.296875
1432,-29.296875
1433,-29.296875
1434,-29.296875
1435,-27.343750
1436,-27.343750
1437,-29.296875
1438,-27.343750
1439,-27.343750
1440,-27.343750
1441,-27.343750
1442,-27.343750
1443,-27.343750
1444,-27.343750
1445,-27.343750
1446,-27.343750
1447,-27.343750
1448,-25.390625
1449,-25.390625
1450,-25.390625
1451,-27.343750
1452,-29.296875
1453,-25.390625
1454,-25.390625
1455,-25.390625
1456,-23.437500
1457,-23.437500
1458,-23.437500
1459,-23.437500
1460,-23.437500
1461,-23.437500
1462,-23.437500
1463,-23.437500
1464,-23.437500
1465,-21.484375
1466,-23.437500
1467,-23.437500
1468,-21.484375
1469,-21.484375
1470,-21.484375
1471,-21.484375
1472,-21.484375
1473,-21.484375
1474,-21.484375
1475,-21.484375
1476,-19.531250
1477,-19.531250
1478,-19.531250
1479,-19.531250
1480,-19.531250
1481,-19.531250
1482,-19.531250
1483,-17.578125
1484,-19.531250
1485,-21.484375
1486,-21.484375
1487,-17.578125
1488,-17.578125
1489,-17.578125
1490,-17.578125
1491,-17.578125
1492,-17.578125
1493,-17.578125
1494,-17.578125
1495,-15.625000
1496,-15.625000
1497,-15.625000
1498,-15.625000
1499,-15.625000
1500,-15.625000
1501,-13.671875
1502,-13.671875
1503,-15.625000
1504,-13.671875
1505,-13.671875
1506,-13.671875
1507,-13.671875
1508,-13.671875
1509,-13.671875
1510,-13.671875
1511,-11.718750
1512,-13.671875
1513,-11.718750
1514,-11.718750
1515,-11.718750
1516,-11.718750
1517,-11.718750
1518,-11.718750
1519,-9.765625
1520,-9.765625
1521,-9.765625
1522,-9.765625
1523,-9.765625
1524,-9.765625
1525,-7.812500
1526,-9.765625
1527,-7.812500
1528,-7.812500
1529,-7.812500
1530,-7.812500
1531,-7.812500
1532,-7.812500
1533,-7.812500
1534,-7.812500
1535,-7.812500
1536,-7.812500
1537,-7.812500
1538,-5.859375
1539,-5.859375
1540,-5.859375
1541,-5.859375
1542,-5.859375
1543,-5.859375
1544,-5.859375
1545,-5.859375
1546,-5.859375
1547,-3.906250
1548,-5.859375
1549,-5.859375
1550,-3.906250
1551,-5.859375
1552,-3.906250
1553,-3.906250
1554,-3.906250
1555,-3.906250
1556,-3.906250
1557,-3.906250
1558,-3.906250
1559,-3.906250
1560,-1.953125
1561,-3.906250
1562,-3.906250
1563,-3.906250
1564,-3.906250
1565,-1.953125
1566,-1.953125
1567,-1.953125
1568,-1.953125
1569,0.000000
1570,-3.906250
1571,-1.953125
1572,-1.953125
1573,-1.953125
1574,-1.953125
1575,-1.953125
1576,-1.953125
1577,0.000000
1578,0.000000
1579,0.000000
1580,0.000000
1581,0.000000
1582,0.000000
1583,0.000000
1584,0.000000
1585,0.000000
1586,0.000000
1587,0.000000
1588,0.000000
1589,0.000000
1590,1.953125
1591,1.953125
1592,0.000000
1593,0.000000
1594,0.000000
1595,0.000000
1596,1.953125
1597,1.953125
1598,1.953125
1599,1.953125
1600,1.953125
1601,1.953125
1602,1.953125
1603,1.953125
1604,1.953125
1605,1.953125
1606,0.000000
1607,1.953125
1608,1.953125
1609,3.906250
1610,3.906250
1611,1.953125
1612,3.906250
1613,3.906250
1614,1.953125
1615,1.953125
1616,3.906250
1617,3.906250
1618,3.906250
1619,1.953125
1620,3.906250
1621,1.953125
1622,3.906250
1623,3.906250
1624,3.906250
1625,3.906250
1626,3.906250
1627,3.906250
1628,3.906250
1629,3.906250
1630,3.906250
1631,3.906250
1632,3.906250
1633,3.906250
1634,3.906250
1635,3.906250
1636,3.906250
1637,3.906250
1638,3.906250
1639,3.906250
1640,5.859375
1641,3.906250
1642,3.906250
1643,5.859375
1644,5.859375
1645,5.859375
1646,5.859375
1647,5.859375
1648,5.859375
1649,5.859375
1650,5.859375
1651,5.859375
1652,5.859375
1653,5.859375
1654,5.859375
1655,5.859375
1656,5.859375
1657,5.859375
1658,7.812500
1659,5.859375
1660,5.859375
1661,5.859375
1662,7.812500
1663,7.812500
1664,5.859375
1665,7.812500
1666,5.859375
1667,7.812500
1668,7.812500
1669,7.812500
1670,7.812500
1671,7.812500
1672,7.812500
1673,7.812500
1674,5.859375
1675,7.812500
1676,7.812500
1677,7.812500
1678,7.812500
1679,7.812500
1680,7.812500
1681,7.812500
1682,7.812500
1683,7.812500
1684,7.812500
1685,7.812500
1686,7.812500
1687,7.812500
1688,7.812500
1689,7.812500
1690,7.812500
1691,7.812500
1692,7.812500
1693,7.812500
1694,7.812500
1695,7.812500
1696,9.765625
1697,9.765625
1698,7.812500
1699,9.765625
1700,9.765625
1701,9.765625
1702,7.812500
1703,9.765625
1704,9.765625
1705,9.765625
1706,9.765625
1707,9.765625
1708,9.765625
1709,9.765625
1710,9.765625
1711,9.765625
1712,9.765625
1713,9.765625
1714,9.765625
1715,9.765625
1716,9.765625
1717,9.765625
1718,9.765625
1719,9.765625
1720,9.765625
1721,9.765625
1722,9.765625
1723,9.765625
1724,9.765625
1725,9.765625
1726,9.765625
1727,11.718750
1728,11.718750
1729,9.765625
1730,9.765625
1731,11.718750
1732,9.765625
1733,9.765625
1734,11.718750
1735,9.765625
1736,9.765625
1737,9.765625
1738,9.765625
1739,9.765625
1740,9.765625
1741,9.765625
1742,9.765625
1743,9.765625
1744,9.765625
1745,11.718750
1746,9.765625
1747,9.765625
1748,9.765625
1749,9.765625
1750,9.765625
1751,9.765625
1752,9.765625
1753,9.765625
1754,9.765625
1755,9.765625
1756,9.765625
1757,9.765625
1758,9.765625
1759,9.765625
1760,9.765625
1761,9.765625
1762,9.765625
1763,7.812500
1764,7.812500
1765,9.765625
1766,7.812500
1767,9.765625
1768,7.812500
1769,7.812500
1770,7.812500
1771,7.812500
1772,7.812500
1773,7.812500
1774,7.812500
1775,7.812500
1776,7.812500
1777,7.812500
1778,7.812500
1779,7.812500
1780,7.812500
1781,5.859375
1782,5.859375
1783,5.859375
1784,5.859375
1785,5.859375
1786,5.859375
1787,5.859375
1788,5.859375
1789,3.906250
1790,5.859375
1791,3.906250
1792,3.906250
1793,3.906250
1794,3.906250
1795,3.906250
1796,3.906250
1797,3.906250
1798,3.906250
1799,1.953125
1800,3.906250
1801,1.953125
1802,1.953125
1803,1.953125
1804,1.953125
1805,1.953125
1806,0.000000
1807,0.000000
1808,0.000000
1809,0.000000
1810,0.000000
1811,0.000000
1812,0.000000
1813,-1.953125
1814,-1.953125
1815,-1.953125
1816,-1.953125
1817,-1.953125
1818,-1.953125
1819,-1.953125
1820,-3.906250
1821,-3.906250
1822,-3.906250
1823,-3.906250
1824,-3.906250
1825,-3.906250
1826,-3.906250
1827,-3.906250
1828,-5.859375
1829,-5.859375
1830,-5.859375
1831,-3.906250
1832,-5.859375
1833,-7.812500
1834,-7.812500
1835,-7.812500
1836,-7.812500
1837,-3.906250
1838,-7.812500
1839,-7.812500
1840,-7.812500
1841,-7.812500
1842,-7.812500
1843,-9.765625
1844,-9.765625
1845,-9.765625
1846,-9.765625
1847,-9.765625
1848,-9.765625
1849,-11.718750
1850,-11.718750
1851,-11.718750
1852,-11.718750
1853,-11.718750
1854,-11.718750
1855,-13.671875
1856,-13.671875
1857,-13.671875
1858,-13.671875
1859,-13.671875
1860,-13.671875
1861,-13.671875
1862,-15.625000
1863,-15.625000
1864,-15.625000
1865,-15.625000
1866,-15.625000
1867,-15.625000
1868,-15.625000
1869,-17.578125
1870,-17.578125
1871,-17.578125
1872,-17.578125
1873,-17.578125
1874,-19.531250
1875,-19.531250
1876,-19.531250
1877,-19.531250
1878,-19.531250
1879,-19.531250
1880,-19.531250
1881,-19.531250
1882,-21.484375
1883,-19.531250
1884,-21.484375
1885,-21.484375
1886,-21.484375
1887,-21.484375
1888,-21.484375
1889,-23.437500
1890,-23.437500
1891,-23.437500
1892,-23.437500
1893,-23.437500
1894,-23.437500
1895,-23.437500
1896,-23.437500
1897,-23.437500
1898,-23.437500
1899,-23.437500
1900,-25.390625
1901,-25.390625
1902,-25.390625
1903,-25.390625
1904,-25.390625
1905,-25.390625
1906,-25.390625
1907,-25.390625
1908,-25.390625
1909,-25.390625
1910,-25.390625
1911,-27.343750
1912,-25.390625
1913,-27.343750
1914,-25.390625
1915,-27.343750
1916,-27.343750
1917,-27.343750
1918,-27.343750
1919,-27.343750
1920,-27.343750
1921,-27.343750
1922,-27.343750
1923,-29.296875
1924,-27.343750
1925,-29.296875
1926,-29.296875
1927,-29.296875
1928,-29.296875
1929,-29.296875
1930,-29.296875
1931,-29.296875
1932,-29.296875
1933,-29.296875
1934,-29.296875
1935,-29.296875
1936,-29.296875
1937,-29.296875
1938,-29.296875
1939,-31.250000
1940,-29.296875
1941,-31.250000
1942,-29.296875
1943,-31.250000
1944,-29.296875
1945,-31.250000
1946,-31.250000
1947,-31.250000
1948,-31.250000
1949,-31.250000
1950,-31.250000
1951,-31.250000
1952,-31.250000
1953,-31.250000
1954,-31.250000
1955,-31.250000
1956,-31.250000
1957,-31.250000
1958,-31.250000
1959,-31.250000
1960,-31.250000
1961,-31.250000
1962,-31.250000
1963,-31.250000
1964,-31.250000
1965,-31.250000
1966,-31.250000
1967,-31.250000
1968,-31.250000
1969,-31.250000
1970,-31.250000
1971,-31.250000
1972,-31.250000
1973,-31.250000
1974,-31.250000
1975,-31.250000
1976,-29.296875
1977,-31.250000
1978,-31.250000
1979,-29.296875
1980,-31.250000
1981,-29.296875
1982,-31.250000
1983,-31.250000
1984,-29.296875
1985,-31.250000
1986,-31.250000
1987,-31.250000
1988,-29.296875
1989,-31.250000
1990,-31.250000
1991,-31.250000
1992,-29.296875
1993,-31.250000
1994,-31.250000
1995,-29.296875
1996,-29.296875
1997,-31.250000
1998,-29.296875
1999,-29.296875
2000,-29.296875
2001,-29.296875
2002,-29.296875
2003,-29.296875
2004,-29.296875
2005,-29.296875
2006,-29.296875
2007,-29.296875
2008,-29.296875
2009,-29.296875
2010,-29.296875
2011,-29.296875
2012,-29.296875
2013,-27.343750
2014,-29.296875
2015,-27.343750
2016,-27.343750
2017,-27.343750
2018,-27.343750
2019,-27.343750
2020,-27.343750
2021,-27.343750
2022,-27.343750
2023,-27.343750
2024,-27.343750
2025,-27.343750
2026,-27.343750
2027,-27.343750
2028,-25.390625
2029,-25.390625
2030,-27.343750
2031,-25.390625
2032,-25.390625
2033,-25.390625
2034,-25.390625
2035,-25.390625
2036,-25.390625
2037,-25.390625
2038,-25.390625
2039,-23.437500
2040,-23.437500
2041,-25.390625
2042,-23.437500
2043,-23.437500
2044,-23.437500
2045,-23.437500
2046,-23.437500
2047,-21.484375
2048,-23.437500
2049,-21.484375
2050,-23.437500
2051,-21.484375
2052,-21.484375
2053,-21.484375
2054,-21.484375
2055,-21.484375
2056,-21.484375
2057,-21.484375
2058,-19.531250
2059,-19.531250
2060,-19.531250
2061,-19.531250
2062,-19.531250
2063,-19.531250
2064,-19.531250
2065,-19.531250
2066,-17.578125
2067,-17.578125
2068,-19.531250
2069,-17.578125
2070,-17.578125
2071,-17.578125
2072,-17.578125
2073,-17.578125
2074,-17.578125
2075,-15.625000
2076,-17.578125
2077,-15.625000
2078,-15.625000
2079,-15.625000
2080,-15.625000
2081,-15.625000
2082,-15.625000
2083,-15.625000
2084,-13.671875
2085,-13.671875
2086,-13.671875
2087,-13.671875
2088,-13.671875
2089,-13.671875
2090,-13.671875
2091,-13.671875
2092,-11.718750
2093,-13.671875
2094,-11.718750
2095,-11.718750
2096,-11.718750
2097,-11.718750
2098,-11.718750
2099,-11.718750
2100,-11.718750
2101,-11.718750
2102,-9.765625
2103,-9.765625
2104,-9.765625
2105,-9.765625
2106,-9.765625
2107,-9.765625
2108,-9.765625
2109,-9.765625
2110,-7.812500
2111,-9.765625
2112,-7.812500
2113,-7.812500
2114,-7.812500
2115,-7.812500
2116,-7.812500
2117,-7.812500
2118,-7.812500
2119,-7.812500
2120,-5.859375
2121,-7.812500
2122,-5.859375
2123,-5.859375
2124,-5.859375
2125,-5.859375
2126,-5.859375
2127,-5.859375
2128,-5.859375
2129,-5.859375
2130,-5.859375
2131,-5.859375
2132,-5.859375
2133,-5.859375
2134,-5.859375
2135,-5.859375
2136,-3.906250
2137,-3.906250
2138,-3.906250
2139,-3.906250
2140,-3.906250
2141,-3.906250
2142,-3.906250
2143,-3.906250
2144,-3.906250
2145,-3.906250
2146,-3.906250
2147,-3.906250
2148,-1.953125
2149,-3.906250
2150,-1.953125
2151,-1.953125
2152,-1.953125
2153,-1.953125
2154,-1.953125
2155,-1.953125
2156,-1.953125
2157,0.000000
2158,-1.953125
2159,-1.953125
2160,-1.953125
2161,0.000000
2162,-1.953125
2163,0.000000
2164,0.000000
2165,0.000000
2166,0.000000
2167,0.000000
2168,0.000000
2169,0.000000
2170,0.000000
2171,0.000000
2172,0.000000
2173,0.000000
2174,0.000000
2175,0.000000
2176,0.000000
2177,1.953125
2178,0.000000
2179,1.953125
2180,1.953125
2181,1.953125
2182,1.953125
2183,1.953125
2184,1.953125
2185,1.953125
2186,1.953125
2187,1.953125
2188,1.953125
2189,1.953125
2190,1.953125
2191,1.953125
2192,3.906250
2193,1.953125
2194,1.953125
2195,3.906250
2196,1.953125
2197,1.953125
2198,1.953125
2199,1.953125
2200,3.906250
2201,1.953125
2202,1.953125
2203,1.953125
2204,3.906250
2205,3.906250
2206,3.906250
2207,3.906250
2208,3.906250
2209,3.906250
2210,3.906250
2211,5.859375
2212,3.906250
2213,3.906250
2214,5.859375
2215,3.906250
2216,3.906250
2217,5.859375
2218,5.859375
2219,3.906250
2220,3.906250
2221,3.906250
2222,5.859375
2223,5.859375
2224,3.906250
2225,5.859375
2226,5.859375
2227,5.859375
2228,5.859375
2229,5.859375
2230,5.859375
2231,5.859375
2232,5.859375
2233,5.859375
2234,5.859375
2235,5.859375
2236,5.859375
2237,5.859375
2238,5.859375
2239,5.859375
2240,5.859375
2241,7.812500
2242,5.859375
2243,5.859375
2244,5.859375
2245,5.859375
2246,5.859375
2247,7.812500
2248,5.859375
2249,5.859375
2250,5.859375
2251,7.812500
2252,7.812500
2253,7.812500
2254,7.812500
2255,7.812500
2256,7.812500
2257,7.812500
2258,7.812500
2259,5.859375
2260,5.859375
2261,5.859375
2262,9.765625
2263,7.812500
2264,7.812500
2265,7.812500
2266,7.812500
2267,7.812500
2268,7.812500
2269,7.812500
2270,7.812500
2271,7.812500
2272,7.812500
2273,7.812500
2274,7.812500
2275,7.812500
2276,9.765625
2277,7.812500
2278,7.812500
2279,7.812500
2280,9.765625
2281,7.812500
2282,9.765625
2283,7.812500
2284,9.765625
2285,9.765625
2286,9.765625
2287,9.765625
2288,9.765625
2289,9.765625
2290,9.765625
2291,9.765625
2292,9.765625
2293,9.765625
2294,9.765625
2295,9.765625
2296,9.765625
2297,9.765625
2298,9.765625
2299,9.765625
2300,9.765625
2301,9.765625
2302,9.765625
2303,9.765625
2304,9.765625
2305,9.765625
2306,9.765625
2307,9.765625
2308,9.765625
2309,11.718750
2310,9.765625
2311,11.718750
2312,9.765625
2313,9.765625
2314,9.765625
2315,9.765625
2316,11.718750
2317,9.765625
2318,9.765625
2319,9.765625
2320,9.765625
2321,9.765625
2322,9.765625
2323,9.765625
2324,9.765625
2325,9.765625
2326,9.765625
2327,9.765625
2328,9.765625
2329,9.765625
2330,9.765625
2331,9.765625
2332,9.765625
2333,9.765625
2334,9.765625
2335,9.765625
2336,9.765625
2337,9.765625
2338,9.765625
2339,9.765625
2340,9.765625
2341,9.765625
2342,9.765625
2343,7.812500
2344,7.812500
2345,7.812500
2346,9.765625
2347,7.812500
2348,7.812500
2349,7.812500
2350,9.765625
2351,7.812500
2352,7.812500
2353,7.812500
2354,7.812500
2355,7.812500
2356,7.812500
2357,7.812500
2358,7.812500
2359,7.812500
2360,7.812500
2361,7.812500
2362,5.859375
2363,7.812500
2364,5.859375
2365,5.859375
2366,5.859375
2367,5.859375
2368,5.859375
2369,5.859375
2370,5.859375
2371,3.906250
2372,5.859375
2373,3.906250
2374,3.906250
2375,3.906250
2376,3.906250
2377,3.906250
2378,3.906250
2379,3.906250
2380,3.906250
2381,3.906250
2382,1.953125
2383,1.953125
2384,1.953125
2385,3.906250
2386,0.000000
2387,1.953125
2388,0.000000
2389,0.000000
2390,0.000000
2391,0.000000
2392,0.000000
2393,0.000000
2394,-1.953125
2395,-1.953125
2396,-1.953125
2397,-1.953125
2398,-1.953125
2399,-3.906250
2400,-1.953125
2401,-1.953125
2402,-1.953125
2403,-3.906250
2404,-3.906250
2405,-3.906250
2406,-3.906250
2407,-3.906250
2408,-3.906250
2409,-5.859375
2410,-3.906250
2411,-5.859375
2412,-5.859375
2413,-5.859375
2414,-5.859375
2415,-5.859375
2416,-5.859375
2417,-7.812500
2418,-7.812500
2419,-5.859375
2420,-7.812500
2421,-7.812500
2422,-9.765625
2423,-7.812500
2424,-9.765625
2425,-9.765625
2426,-9.765625
2427,-9.765625
2428,-9.765625
2429,-9.765625
2430,-9.765625
2431,-11.718750
2432,-11.718750
2433,-11.718750
2434,-11.718750
2435,-11.718750
2436,-11.718750
2437,-13.671875
2438,-13.671875
2439,-13.671875
2440,-13.671875
2441,-13.671875
2442,-13.671875
2443,-13.671875
2444,-15.625000
2445,-15.625000
2446,-15.625000
2447,-15.625000
2448,-15.625000
2449,-15.625000
2450,-17.578125
2451,-17.578125
2452,-17.578125
2453,-17.578125
2454,-17.578125
2455,-17.578125
2456,-17.578125
2457,-19.531250
2458,-17.578125
2459,-19.531250
2460,-19.531250
2461,-19.531250
2462,-19.531250
2463,-19.531250
2464,-21.484375
2465,-19.531250
2466,-21.484375
2467,-21.484375
2468,-21.484375
2469,-23.437500
2470,-21.484375
2471,-21.484375
2472,-21.484375
2473,-23.437500
2474,-21.484375
2475,-23.437500
2476,-23.437500
2477,-23.437500
2478,-23.437500
2479,-23.437500
2480,-23.437500
2481,-23.437500
2482,-25.390625
2483,-25.390625
2484,-25.390625
2485,-25.390625
2486,-25.390625
2487,-25.390625
2488,-25.390625
2489,-25.390625
2490,-25.390625
2491,-25.390625
2492,-27.343750
2493,-27.343750
2494,-25.390625
2495,-25.390625
2496,-27.343750
2497,-27.343750
2498,-27.343750
2499,-27.343750
2500,-27.343750
2501,-27.343750
2502,-27.343750
2503,-29.296875
2504,-27.343750
2505,-27.343750
2506,-29.296875
2507,-27.343750
2508,-29.296875
2509,-29.296875
2510,-29.296875
2511,-29.296875
2512,-29.296875
2513,-29.296875
2514,-29.296875
2515,-29.296875
2516,-29.296875
2517,-29.296875
2518,-29.296875
2519,-31.250000
2520,-29.296875
2521,-29.296875
2522,-29.296875
2523,-31.250000
2524,-29.296875
2525,-31.250000
2526,-31.250000
2527,-31.250000
2528,-31.250000
2529,-31.250000
2530,-31.250000
2531,-31.250000
2532,-31.250000
2533,-31.250000
2534,-31.250000
2535,-31.250000
2536,-31.250000
2537,-31.250000
2538,-31.250000
2539,-31.250000
2540,-31.250000
2541,-31.250000
2542,-31.250000
2543,-33.203125
2544,-31.250000
2545,-31.250000
2546,-31.250000
2547,-31.250000
2548,-31.250000
2549,-31.250000
2550,-31.250000
2551,-31.250000
2552,-29.296875
2553,-29.296875
2554,-31.250000
2555,-31.250000
2556,-31.250000
2557,-31.250000
2558,-31.250000
2559,-31.250000
2560,-31.250000
2561,-31.250000
2562,-29.296875
2563,-31.250000
2564,-31.250000
2565,-29.296875
2566,-31.250000
2567,-31.250000
2568,-29.296875
2569,-29.296875
2570,-31.250000
2571,-29.296875
2572,-29.296875
2573,-29.296875
2574,-31.250000
2575,-29.296875
2576,-29.296875
2577,-31.250000
2578,-29.296875
2579,-29.296875
2580,-29.296875
2581,-29.296875
2582,-29.296875
2583,-29.296875
2584,-29.296875
2585,-29.296875
2586,-29.296875
2587,-29.296875
2588,-29.296875
2589,-29.296875
2590,-29.296875
2591,-29.296875
2592,-27.343750
2593,-29.296875
2594,-29.296875
2595,-29.296875
2596,-27.343750
2597,-29.296875
2598,-29.296875
2599,-27.343750
2600,-27.343750
2601,-29.296875
2602,-27.343750
2603,-27.343750
2604,-27.343750
2605,-27.343750
2606,-27.343750
2607,-27.343750
2608,-27.343750
2609,-27.343750
2610,-25.390625
2611,-25.390625
2612,-25.390625
2613,-25.390625
2614,-25.390625
2615,-25.390625
2616,-25.390625
2617,-25.390625
2618,-25.390625
2619,-25.390625
2620,-23.437500
2621,-23.437500
2622,-23.437500
2623,-23.437500
2624,-23.437500
2625,-23.437500
2626,-23.437500
2627,-23.437500
2628,-23.437500
2629,-23.437500
2630,-23.437500
2631,-21.484375
2632,-23.437500
2633,-21.484375
2634,-21.484375
2635,-21.484375
2636,-21.484375
2637,-21.484375
2638,-19.531250
2639,-21.484375
2640,-21.484375
2641,-19.531250
2642,-19.531250
2643,-17.578125
2644,-19.531250
2645,-19.531250
2646,-19.531250
2647,-19.531250
2648,-19.531250
2649,-19.531250
2650,-17.578125
2651,-19.531250
2652,-17.578125
2653,-17.578125
2654,-17.578125
2655,-15.625000
2656,-17.578125
2657,-17.578125
2658,-15.625000
2659,-15.625000
2660,-15.625000
2661,-15.625000
2662,-15.625000
2663,-15.625000
2664,-15.625000
2665,-13.671875
2666,-15.625000
2667,-15.625000
2668,-13.671875
2669,-13.671875
2670,-13.671875
2671,-13.671875
2672,-13.671875
2673,-13.671875
2674,-13.671875
2675,-11.718750
2676,-13.671875
2677,-11.718750
2678,-11.718750
2679,-11.718750
2680,-11.718750
2681,-11.718750
2682,-11.718750
2683,-9.765625
2684,-11.718750
2685,-9.765625
2686,-9.765625
2687,-9.765625
2688,-9.765625
2689,-9.765625
2690,-9.765625
2691,-9.765625
2692,-9.765625
2693,-7.812500
2694,-9.765625
2695,-7.812500
2696,-7.812500
2697,-7.812500
2698,-7.812500
2699,-7.812500
2700,-7.812500
2701,-7.812500
2702,-7.812500
2703,-7.812500
2704,-5.859375
2705,-5.859375
2706,-5.859375
2707,-5.859375
2708,-5.859375
2709,-5.859375
2710,-5.859375
2711,-5.859375
2712,-5.859375
2713,-5.859375
2714,-3.906250
2715,-5.859375
2716,-5.859375
2717,-3.906250
2718,-3.906250
2719,-3.906250
2720,-3.906250
2721,-3.906250
2722,-3.906250
2723,-3.906250
2724,-3.906250
2725,-3.906250
2726,-3.906250
2727,-3.906250
2728,-1.953125
2729,-3.906250
2730,-1.953125
2731,-1.953125
2732,-1.953125
2733,-1.953125
2734,-1.953125
2735,-1.953125
2736,-1.953125
2737,-1.953125
2738,-1.953125
2739,-1.953125
2740,-1.953125
2741,0.000000
2742,0.000000
2743,-1.953125
2744,0.000000
2745,-1.953125
2746,0.000000
2747,0.000000
2748,0.000000
2749,0.000000
2750,0.000000
2751,0.000000
2752,0.000000
2753,0.000000
2754,0.000000
2755,0.000000
2756,1.953125
2757,0.000000
2758,0.000000
2759,0.000000
2760,0.000000
2761,0.000000
2762,1.953125
2763,1.953125
2764,1.953125
2765,1.953125
2766,1.953125
2767,1.953125
2768,1.953125
2769,1.953125
2770,1.953125
2771,1.953125
2772,1.953125
2773,1.953125
2774,1.953125
2775,1.953125
2776,1.953125
2777,3.906250
2778,1.953125
2779,1.953125
2780,3.906250
2781,3.906250
2782,1.953125
2783,1.953125
2784,3.906250
2785,3.906250
2786,3.906250
2787,3.906250
2788,3.906250
2789,3.906250
2790,3.906250
2791,3.906250
2792,3.906250
2793,3.906250
2794,3.906250
2795,3.906250
2796,1.953125
2797,3.906250
2798,3.906250
2799,1.953125
2800,3.906250
2801,3.906250
2802,1.953125
2803,3.906250
2804,3.906250
2805,3.906250
2806,3.906250
2807,3.906250
2808,3.906250
2809,5.859375
2810,5.859375
2811,5.859375
2812,5.859375
2813,5.859375
2814,5.859375
2815,5.859375
2816,5.859375
2817,5.859375
2818,5.859375
2819,5.859375
2820,5.859375
2821,5.859375
2822,5.859375
2823,5.859375
2824,5.859375
2825,5.859375
2826,5.859375
2827,5.859375
2828,5.859375
2829,7.812500
2830,5.859375
2831,5.859375
2832,5.859375
2833,5.859375
2834,7.812500
2835,5.859375
2836,5.859375
2837,7.812500
2838,5.859375
2839,5.859375
2840,7.812500
2841,7.812500
2842,5.859375
2843,5.859375
2844,7.812500
2845,7.812500
2846,7.812500
2847,7.812500
2848,7.812500
2849,7.812500
2850,7.812500
2851,7.812500
2852,7.812500
2853,7.812500
2854,7.812500
2855,7.812500
2856,7.812500
2857,5.859375
2858,7.812500
2859,7.812500
2860,7.812500
2861,7.812500
2862,7.812500
2863,9.765625
2864,7.812500
2865,7.812500
2866,9.765625
2867,7.812500
2868,7.812500
2869,9.765625
2870,9.765625
2871,9.765625
2872,9.765625
2873,9.765625
2874,9.765625
2875,9.765625
2876,9.765625
2877,9.765625
2878,9.765625
2879,9.765625
2880,9.765625
2881,9.765625
2882,9.765625
2883,9.765625
2884,9.765625
2885,9.765625
2886,9.765625
2887,9.765625
2888,9.765625
2889,11.718750
2890,9.765625
2891,9.765625
2892,9.765625
2893,9.765625
2894,9.765625
2895,9.765625
2896,11.718750
2897,9.765625
2898,9.765625
2899,9.765625
2900,9.765625
2901,9.765625
2902,9.765625
2903,9.765625
2904,9.765625
2905,9.765625
2906,9.765625
2907,9.765625
2908,9.765625
2909,9.765625
2910,9.765625
2911,9.765625
2912,9.765625
2913,9.765625
2914,9.765625
2915,9.765625
2916,9.765625
2917,9.765625
2918,9.765625
2919,9.765625
2920,9.765625
2921,9.765625
2922,9.765625
2923,9.765625
2924,7.812500
2925,9.765625
2926,9.765625
2927,7.812500
2928,7.812500
2929,7.812500
2930,7.812500
2931,9.765625
2932,7.812500
2933,7.812500
2934,7.812500
2935,7.812500
2936,7.812500
2937,7.812500
2938,7.812500
2939,7.812500
2940,7.812500
2941,7.812500
2942,5.859375
2943,7.812500
2944,7.812500
2945,5.859375
2946,5.859375
2947,5.859375
2948,5.859375
2949,5.859375
2950,5.859375
2951,5.859375
2952,5.859375
2953,5.859375
2954,5.859375
2955,3.906250
2956,3.906250
2957,3.906250
2958,3.906250
2959,3.906250
2960,3.906250
2961,3.906250
2962,1.953125
2963,3.906250
2964,1.953125
2965,1.953125
2966,1.953125
2967,1.953125
2968,1.953125
2969,1.953125
2970,1.953125
2971,0.000000
2972,0.000000
2973,0.000000
2974,0.000000
2975,0.000000
2976,0.000000
2977,0.000000
2978,-1.953125
2979,-1.953125
2980,-1.953125
2981,-1.953125
2982,-1.953125
2983,-1.953125
2984,-3.906250
2985,-3.906250
2986,-1.953125
2987,-3.906250
2988,-3.906250
2989,-3.906250
2990,-3.906250
2991,-3.906250
2992,-5.859375
2993,-5.859375
2994,-5.859375
2995,-5.859375
2996,-5.859375
2997,-5.859375
2998,-5.859375
2999,-5.859375
3000,-7.812500
3001,-7.812500
3002,-7.812500
3003,-7.812500
3004,-7.812500
3005,-5.859375
3006,-7.812500
3007,-7.812500
3008,-9.765625
3009,-9.765625
3010,-9.765625
3011,-9.765625
3012,-9.765625
3013,-13.671875
3014,-11.718750
3015,-11.718750
3016,-11.718750
3017,-11.718750
3018,-11.718750
3019,-11.718750
3020,-11.718750
3021,-13.671875
3022,-11.718750
3023,-13.671875
3024,-13.671875
3025,-13.671875
3026,-15.625000
3027,-15.625000
3028,-15.625000
3029,-15.625000
3030,-13.671875
3031,-15.625000
3032,-15.625000
3033,-17.578125
3034,-13.671875
3035,-17.578125
3036,-17.578125
3037,-17.578125
3038,-17.578125
3039,-19.531250
3040,-19.531250
3041,-19.531250
3042,-19.531250
3043,-19.531250
3044,-19.531250
3045,-19.531250
3046,-21.484375
3047,-21.484375
3048,-21.484375
3049,-21.484375
3050,-19.531250
3051,-21.484375
3052,-21.484375
3053,-21.484375
3054,-21.484375
3055,-21.484375
3056,-23.437500
3057,-23.437500
3058,-23.437500
3059,-23.437500
3060,-23.437500
3061,-23.437500
3062,-23.437500
3063,-23.437500
3064,-23.437500
3065,-25.390625
3066,-25.390625
3067,-25.390625
3068,-25.390625
3069,-25.390625
3070,-25.390625
3071,-25.390625
3072,-25.390625
3073,-25.390625
3074,-25.390625
3075,-25.390625
3076,-25.390625
3077,-25.390625
3078,-27.343750
3079,-27.343750
3080,-25.390625
3081,-27.343750
3082,-27.343750
3083,-27.343750
3084,-27.343750
3085,-27.343750
3086,-27.343750
3087,-27.343750
3088,-29.296875
3089,-27.343750
3090,-27.343750
3091,-29.296875
3092,-27.343750
3093,-29.296875
3094,-29.296875
3095,-29.296875
3096,-29.296875
3097,-29.296875
3098,-29.296875
3099,-29.296875
3100,-29.296875
3101,-29.296875
3102,-29.296875
3103,-29.296875
3104,-29.296875
3105,-29.296875
3106,-31.250000
3107,-29.296875
3108,-29.296875
3109,-31.250000
3110,-29.296875
3111,-29.296875
3112,-31.250000
3113,-31.250000
3114,-29.296875
3115,-31.250000
3116,-31.250000
3117,-31.250000
3118,-31.250000
3119,-31.250000
3120,-31.250000
3121,-31.250000
3122,-31.250000
3123,-31.250000
3124,-31.250000
3125,-31.250000
3126,-31.250000
3127,-31.250000
3128,-31.250000
3129,-31.250000
3130,-31.250000
3131,-31.250000
3132,-29.296875
3133,-31.250000
3134,-31.250000
3135,-31.250000
3136,-31.250000
3137,-29.296875
3138,-31.250000
3139,-31.250000
3140,-31.250000
3141,-31.250000
3142,-31.250000
3143,-31.250000
3144,-29.296875
3145,-31.250000
3146,-31.250000
3147,-31.250000
3148,-31.250000
3149,-31.250000
3150,-31.250000
3151,-29.296875
3152,-31.250000
3153,-31.250000
3154,-29.296875
3155,-29.296875
3156,-29.296875
3157,-29.296875
3158,-29.296875
3159,-29.296875
3160,-29.296875
3161,-29.296875
3162,-29.296875
3163,-29.296875
3164,-29.296875
3165,-29.296875
3166,-29.296875
3167,-29.296875
3168,-29.296875
3169,-29.296875
3170,-31.250000
3171,-29.296875
3172,-29.296875
3173,-29.296875
3174,-29.296875
3175,-29.296875
3176,-29.296875
3177,-27.343750
3178,-27.343750
3179,-29.296875
3180,-29.296875
3181,-27.343750
3182,-27.343750
3183,-27.343750
3184,-27.343750
3185,-27.343750
3186,-27.343750
3187,-27.343750
3188,-27.343750
3189,-27.343750
3190,-27.343750
3191,-27.343750
3192,-27.343750
3193,-27.343750
3194,-25.390625
3195,-25.390625
3196,-25.390625
3197,-25.390625
3198,-25.390625
3199,-25.390625
3200,-25.390625
3201,-25.390625
3202,-23.437500
3203,-25.390625
3204,-23.437500
3205,-23.437500
3206,-25.390625
3207,-23.437500
3208,-23.437500
3209,-23.437500
3210,-23.437500
3211,-23.437500
3212,-23.437500
3213,-21.484375
3214,-21.484375
3215,-23.437500
3216,-19.531250
3217,-21.484375
3218,-21.484375
3219,-21.484375
3220,-21.484375
3221,-21.484375
3222,-21.484375
3223,-21.484375
3224,-19.531250
3225,-19.531250
3226,-19.531250
3227,-19.531250
3228,-19.531250
3229,-19.531250
3230,-19.531250
3231,-19.531250
3232,-17.578125
3233,-19.531250
3234,-19.531250
3235,-17.578125
3236,-17.578125
3237,-17.578125
3238,-17.578125
3239,-17.578125
3240,-17.578125
3241,-17.578125
3242,-15.625000
3243,-15.625000
3244,-17.578125
3245,-15.625000
3246,-15.625000
3247,-15.625000
3248,-15.625000
3249,-15.625000
3250,-13.671875
3251,-13.671875
3252,-13.671875
3253,-13.671875
3254,-13.671875
3255,-13.671875
3256,-13.671875
3257,-13.671875
3258,-13.671875
3259,-11.718750
3260,-11.718750
3261,-11.718750
3262,-11.718750
3263,-11.718750
3264,-11.718750
3265,-11.718750
3266,-9.765625
3267,-9.765625
3268,-9.765625
3269,-9.765625
3270,-9.765625
3271,-9.765625
3272,-9.765625
3273,-9.765625
3274,-9.765625
3275,-9.765625
3276,-9.765625
3277,-7.812500
3278,-7.812500
3279,-9.765625
3280,-7.812500
3281,-7.812500
3282,-7.812500
3283,-7.812500
3284,-7.812500
3285,-7.812500
3286,-7.812500
3287,-7.812500
3288,-5.859375
3289,-7.812500
3290,-5.859375
3291,-5.859375
3292,-5.859375
3293,-5.859375
3294,-5.859375
3295,-5.859375
3296,-5.859375
3297,-5.859375
3298,-5.859375
3299,-3.906250
3300,-5.859375
3301,-3.906250
3302,-3.906250
3303,-3.906250
3304,-3.906250
3305,-3.906250
3306,-3.906250
3307,-3.906250
3308,-3.906250
3309,-1.953125
3310,-3.906250
3311,-3.906250
3312,-3.906250
3313,-1.953125
3314,-1.953125
3315,-3.906250
3316,-1.953125
3317,-1.953125
3318,-1.953125
3319,-1.953125
3320,-1.953125
3321,-1.953125
3322,-1.953125
3323,-1.953125
3324,0.000000
3325,-1.953125
3326,-1.953125
3327,0.000000
3328,0.000000
3329,0.000000
3330,0.000000
3331,0.000000
3332,0.000000
3333,0.000000
3334,0.000000
3335,0.000000
3336,0.000000
3337,0.000000
3338,0.000000
3339,0.000000
3340,0.000000
3341,0.000000
3342,0.000000
3343,0.000000
3344,0.000000
3345,0.000000
3346,1.953125
3347,0.000000
3348,1.953125
3349,1.953125
3350,0.000000
3351,0.000000
3352,1.953125
3353,1.953125
3354,1.953125
3355,1.953125
3356,1.953125
3357,1.953125
3358,1.953125
3359,1.953125
3360,1.953125
3361,1.953125
3362,1.953125
3363,3.906250
3364,1.953125
3365,1.953125
3366,1.953125
3367,1.953125
3368,1.953125
3369,1.953125
3370,3.906250
3371,3.906250
3372,3.906250
3373,3.906250
3374,3.906250
3375,3.906250
3376,1.953125
3377,3.906250
3378,3.906250
3379,3.906250
3380,3.906250
3381,3.906250
3382,3.906250
3383,5.859375
3384,3.906250
3385,3.906250
3386,5.859375
3387,3.906250
3388,3.906250
3389,5.859375
3390,3.906250
3391,5.859375
3392,5.859375
3393,3.906250
3394,5.859375
3395,5.859375
3396,3.906250
3397,5.859375
3398,5.859375
3399,3.906250
3400,5.859375
3401,5.859375
3402,5.859375
3403,5.859375
3404,5.859375
3405,5.859375
3406,5.859375
3407,5.859375
3408,5.859375
3409,5.859375
3410,5.859375
3411,5.859375
3412,5.859375
3413,5.859375
3414,7.812500
3415,5.859375
3416,5.859375
3417,5.859375
3418,7.812500
3419,5.859375
3420,5.859375
3421,7.812500
3422,5.859375
3423,5.859375
3424,7.812500
3425,5.859375
3426,7.812500
3427,5.859375
3428,7.812500
3429,7.812500
3430,7.812500
3431,7.812500
3432,7.812500
3433,7.812500
3434,7.812500
3435,7.812500
3436,7.812500
3437,7.812500
3438,7.812500
3439,7.812500
3440,7.812500
3441,7.812500
3442,7.812500
3443,7.812500
3444,7.812500
3445,7.812500
3446,7.812500
3447,9.765625
3448,7.812500
3449,9.765625
3450,9.765625
3451,7.812500
3452,7.812500
3453,9.765625
3454,9.765625
3455,9.765625
3456,9.765625
3457,9.765625
3458,9.765625
3459,9.765625
3460,9.765625
3461,9.765625
3462,9.765625
3463,9.765625
3464,9.765625
3465,9.765625
3466,9.765625
3467,9.765625
3468,9.765625
3469,9.765625
3470,9.765625
3471,9.765625
3472,9.765625
3473,9.765625
3474,9.765625
3475,9.765625
3476,9.765625
3477,9.765625
3478,9.765625
3479,9.765625
3480,9.765625
3481,9.765625
3482,9.765625
3483,9.765625
3484,9.765625
3485,9.765625
3486,9.765625
3487,9.765625
3488,9.765625
3489,9.765625
3490,9.765625
3491,9.765625
3492,9.765625
3493,9.765625
3494,9.765625
3495,7.812500
3496,9.765625
3497,9.765625
3498,9.765625
3499,9.765625
3500,9.765625
3501,9.765625
3502,9.765625
3503,9.765625
3504,9.765625
3505,9.765625
3506,9.765625
3507,9.765625
3508,9.765625
3509,7.812500
3510,7.812500
3511,9.765625
3512,7.812500
3513,7.812500
3514,7.812500
3515,7.812500
3516,7.812500
3517,7.812500
3518,7.812500
3519,7.812500
3520,7.812500
3521,7.812500
3522,7.812500
3523,7.812500
3524,7.812500
3525,7.812500
3526,5.859375
3527,5.859375
3528,7.812500
3529,5.859375
3530,5.859375
3531,5.859375
3532,5.859375
3533,5.859375
3534,5.859375
3535,5.859375
3536,3.906250
3537,3.906250
3538,3.906250
3539,3.906250
3540,3.906250
3541,3.906250
3542,3.906250
3543,3.906250
3544,1.953125
3545,1.953125
3546,1.953125
3547,1.953125
3548,1.953125
3549,1.953125
3550,1.953125
3551,1.953125
3552,1.953125
3553,0.000000
3554,0.000000
3555,0.000000
3556,0.000000
3557,0.000000
3558,0.000000
3559,0.000000
3560,-1.953125
3561,-1.953125
3562,-1.953125
3563,-1.953125
3564,-1.953125
3565,-1.953125
3566,-1.953125
3567,-3.906250
3568,-1.953125
3569,-3.906250
3570,-3.906250
3571,-3.906250
3572,-3.906250
3573,-5.859375
3574,-3.906250
3575,-5.859375
3576,-5.859375
3577,-5.859375
3578,-5.859375
3579,-5.859375
3580,-7.812500
3581,-5.859375
3582,-5.859375
3583,-7.812500
3584,-7.812500
3585,-7.812500
3586,-7.812500
3587,-7.812500
3588,-9.765625
3589,-9.765625
3590,-9.765625
3591,-9.765625
3592,-9.765625
3593,-9.765625
3594,-9.765625
3595,-9.765625
3596,-11.718750
3597,-9.765625
3598,-11.718750
3599,-11.718750
3600,-11.718750
3601,-11.718750
3602,-11.718750
3603,-11.718750
3604,-13.671875
3605,-13.671875
3606,-13.671875
3607,-13.671875
3608,-15.625000
3609,-13.671875
3610,-13.671875
3611,-15.625000
3612,-15.625000
3613,-13.671875
3614,-15.625000
3615,-15.625000
3616,-15.625000
3617,-15.625000
3618,-17.578125
3619,-17.578125
3620,-17.578125
3621,-17.578125
3622,-17.578125
3623,-17.578125
3624,-17.578125
3625,-19.531250
3626,-19.531250
3627,-19.531250
3628,-19.531250
3629,-19.531250
3630,-21.484375
3631,-19.531250
3632,-19.531250
3633,-21.484375
3634,-21.484375
3635,-21.484375
3636,-21.484375
3637,-21.484375
3638,-21.484375
3639,-21.484375
3640,-23.437500
3641,-21.484375
3642,-23.437500
3643,-23.437500
3644,-23.437500
3645,-23.437500
3646,-23.437500
3647,-23.437500
3648,-23.437500
3649,-23.437500
3650,-23.437500
3651,-25.390625
3652,-25.390625
3653,-25.390625
3654,-25.390625
3655,-25.390625
3656,-25.390625
3657,-25.390625
3658,-25.390625
3659,-25.390625
3660,-25.390625
3661,-27.343750
3662,-25.390625
3663,-27.343750
3664,-27.343750
3665,-27.343750
3666,-27.343750
3667,-27.343750
3668,-27.343750
3669,-27.343750
3670,-27.343750
3671,-27.343750
3672,-27.343750
3673,-27.343750
3674,-29.296875
3675,-27.343750
3676,-29.296875
3677,-29.296875
3678,-27.343750
3679,-29.296875
3680,-29.296875
3681,-29.296875
3682,-29.296875
3683,-29.296875
3684,-29.296875
3685,-29.296875
3686,-29.296875
3687,-29.296875
3688,-29.296875
3689,-29.296875
3690,-31.250000
3691,-29.296875
3692,-29.296875
3693,-29.296875
3694,-29.296875
3695,-31.250000
3696,-31.250000
3697,-29.296875
3698,-31.250000
3699,-31.250000
3700,-31.250000
3701,-31.250000
3702,-29.296875
3703,-31.250000
3704,-31.250000
3705,-31.250000
3706,-31.250000
3707,-31.250000
3708,-29.296875
3709,-31.250000
3710,-31.250000
3711,-31.250000
3712,-31.250000
3713,-31.250000
3714,-31.250000
3715,-31.250000
3716,-31.250000
3717,-29.296875
3718,-31.250000
3719,-31.250000
3720,-31.250000
3721,-31.250000
3722,-31.250000
3723,-29.296875
3724,-31.250000
3725,-29.296875
3726,-31.250000
3727,-31.250000
3728,-29.296875
3729,-31.250000
3730,-29.296875
3731,-29.296875
3732,-29.296875
3733,-31.250000
3734,-29.296875
3735,-31.250000
3736,-29.296875
3737,-31.250000
3738,-29.296875
3739,-29.296875
3740,-29.296875
3741,-29.296875
3742,-29.296875
3743,-29.296875
3744,-31.250000
3745,-29.296875
3746,-31.250000
3747,-29.296875
3748,-29.296875
3749,-29.296875
3750,-29.296875
3751,-29.296875
3752,-29.296875
3753,-29.296875
3754,-29.296875
3755,-29.296875
3756,-29.296875
3757,-29.296875
3758,-29.296875
3759,-29.296875
3760,-29.296875
3761,-29.296875
3762,-27.343750
3763,-29.296875
3764,-27.343750
3765,-27.343750
3766,-29.296875
3767,-27.343750
3768,-27.343750
3769,-27.343750
3770,-27.343750
3771,-27.343750
3772,-27.343750
3773,-27.343750
3774,-27.343750
3775,-27.343750
3776,-25.390625
3777,-25.390625
3778,-27.343750
3779,-25.390625
3780,-25.390625
3781,-25.390625
3782,-25.390625
3783,-25.390625
3784,-25.390625
3785,-25.390625
3786,-25.390625
3787,-25.390625
3788,-25.390625
3789,-23.437500
3790,-23.437500
3791,-21.484375
3792,-23.437500
3793,-23.437500
3794,-23.437500
3795,-23.437500
3796,-23.437500
3797,-21.484375
3798,-21.484375
3799,-21.484375
3800,-21.484375
3801,-23.437500
3802,-21.484375
3803,-21.484375
3804,-21.484375
3805,-21.484375
3806,-21.484375
3807,-21.484375
3808,-19.531250
3809,-21.484375
3810,-21.484375
3811,-19.531250
3812,-19.531250
3813,-19.531250
3814,-19.531250
3815,-19.531250
3816,-19.531250
3817,-19.531250
3818,-17.578125
3819,-19.531250
3820,-17.578125
3821,-17.578125
3822,-17.578125
3823,-17.578125
3824,-17.578125
3825,-17.578125
3826,-17.578125
3827,-17.578125
3828,-15.625000
3829,-15.625000
3830,-15.625000
3831,-15.625000
3832,-15.625000
3833,-13.671875
3834,-13.671875
3835,-15.625000
3836,-13.671875
3837,-13.671875
3838,-13.671875
3839,-13.671875
3840,-13.671875
3841,-13.671875
3842,-11.718750
3843,-11.718750
3844,-13.671875
3845,-11.718750
3846,-11.718750
3847,-11.718750
3848,-11.718750
3849,-11.718750
3850,-11.718750
3851,-9.765625
3852,-9.765625
3853,-9.765625
3854,-9.765625
3855,-9.765625
3856,-9.765625
3857,-7.812500
3858,-9.765625
3859,-9.765625
3860,-7.812500
3861,-7.812500
3862,-9.765625
3863,-7.812500
3864,-7.812500
3865,-7.812500
3866,-7.812500
3867,-7.812500
3868,-7.812500
3869,-7.812500
3870,-7.812500
3871,-7.812500
3872,-7.812500
3873,-7.812500
3874,-7.812500
3875,-5.859375
3876,-5.859375
3877,-5.859375
3878,-5.859375
3879,-5.859375
3880,-5.859375
3881,-5.859375
3882,-5.859375
3883,-5.859375
3884,-5.859375
3885,-5.859375
3886,-5.859375
3887,-5.859375
3888,-5.859375
3889,-3.906250
3890,-3.906250
3891,-3.906250
3892,-3.906250
3893,-3.906250
3894,-3.906250
3895,-3.906250
3896,-3.906250
3897,-3.906250
3898,-1.953125
3899,-1.953125
3900,-1.953125
3901,-1.953125
3902,-1.953125
3903,-1.953125
3904,-1.953125
3905,-1.953125
3906,-1.953125
3907,-1.953125
3908,-1.953125
3909,-1.953125
3910,-1.953125
3911,-1.953125
3912,-1.953125
3913,0.000000
3914,0.000000
3915,0.000000
3916,0.000000
3917,0.000000
3918,0.000000
3919,0.000000
3920,0.000000
3921,0.000000
3922,0.000000
3923,0.000000
3924,0.000000
3925,0.000000
3926,0.000000
3927,0.000000
3928,0.000000
3929,1.953125
3930,1.953125
3931,0.000000
3932,1.953125
3933,0.000000
3934,1.953125
3935,1.953125
3936,0.000000
3937,1.953125
3938,1.953125
3939,1.953125
3940,1.953125
3941,1.953125
3942,1.953125
3943,1.953125
3944,1.953125
3945,1.953125
3946,1.953125
3947,1.953125
3948,1.953125
3949,1.953125
3950,1.953125
3951,3.906250
3952,1.953125
3953,1.953125
3954,1.953125
3955,3.906250
3956,3.906250
3957,3.906250
3958,3.906250
3959,1.953125
3960,3.906250
3961,3.906250
3962,3.906250
3963,3.906250
3964,3.906250
3965,3.906250
3966,3.906250
3967,3.906250
3968,3.906250
3969,3.906250
3970,5.859375
3971,3.906250
3972,3.906250
3973,3.906250
3974,3.906250
3975,3.906250
3976,5.859375
3977,5.859375
3978,5.859375
3979,5.859375
3980,5.859375
3981,5.859375
3982,5.859375
3983,3.906250
3984,5.859375
3985,5.859375
3986,5.859375
3987,5.859375
3988,5.859375
3989,5.859375
3990,5.859375
3991,5.859375
3992,5.859375
3993,5.859375
3994,5.859375
3995,7.812500
3996,7.812500
3997,5.859375
3998,5.859375
3999,7.812500
4000,5.859375
4001,5.859375
4002,5.859375
4003,7.812500
4004,5.859375
4005,5.859375
4006,7.812500
4007,7.812500
4008,3.906250
4009,7.812500
4010,7.812500
4011,5.859375
4012,7.812500
4013,7.812500
4014,7.812500
4015,7.812500
4016,7.812500
4017,7.812500
4018,7.812500
4019,7.812500
4020,7.812500
4021,7.812500
4022,7.812500
4023,7.812500
4024,7.812500
4025,7.812500
4026,7.812500
4027,7.812500
4028,7.812500
4029,7.812500
4030,7.812500
4031,9.765625
4032,7.812500
4033,9.765625
4034,9.765625
4035,9.765625
4036,7.812500
4037,9.765625
4038,9.765625
4039,9.765625
4040,9.765625
4041,9.765625
4042,9.765625
4043,9.765625
4044,9.765625
4045,9.765625
4046,9.765625
4047,9.765625
4048,9.765625
4049,9.765625
4050,9.765625
4051,9.765625
4052,9.765625
4053,9.765625
4054,9.765625
4055,9.765625
4056,9.765625
4057,9.765625
4058,9.765625
4059,9.765625
4060,9.765625
4061,9.765625
4062,11.718750
4063,9.765625
4064,9.765625
4065,9.765625
4066,9.765625
4067,9.765625
4068,9.765625
4069,9.765625
4070,9.765625
4071,9.765625
4072,9.765625
4073,9.765625
4074,9.765625
4075,9.765625
4076,9.765625
4077,9.765625
4078,9.765625
4079,9.765625
4080,9.765625
4081,9.765625
4082,9.765625
4083,9.765625
4084,9.765625
4085,9.765625
4086,9.765625
4087,9.765625
4088,9.765625
4089,9.765625
4090,9.765625
4091,9.765625
4092,9.765625
4093,9.765625
4094,7.812500
4095,9.765625
4096,9.765625
4097,9.765625
4098,7.812500
4099,7.812500
4100,9.765625
4101,9.765625
4102,7.812500
4103,7.812500
4104,7.812500
4105,7.812500
4106,7.812500
4107,7.812500
4108,5.859375
4109,7.812500
4110,5.859375
4111,5.859375
4112,5.859375
4113,5.859375
4114,5.859375
4115,5.859375
4116,5.859375
4117,5.859375
4118,5.859375
4119,5.859375
4120,3.906250
4121,3.906250
4122,3.906250
4123,3.906250
4124,3.906250
4125,3.906250
4126,3.906250
4127,1.953125
4128,3.906250
4129,3.906250
4130,1.953125
4131,1.953125
4132,1.953125
4133,1.953125
4134,1.953125
4135,0.000000
4136,0.000000
4137,0.000000
4138,0.000000
4139,0.000000
4140,0.000000
4141,0.000000
4142,-1.953125
4143,0.000000
4144,0.000000
4145,-1.953125
4146,-1.953125
4147,-1.953125
4148,-1.953125
4149,-3.906250
4150,-1.953125
4151,-1.953125
4152,-3.906250
4153,-3.906250
4154,-3.906250
4155,-3.906250
4156,-3.906250
4157,-3.906250
4158,-3.906250
4159,-5.859375
4160,-5.859375
4161,-5.859375
4162,-5.859375
4163,-5.859375
4164,-7.812500
4165,-5.859375
4166,-5.859375
4167,-7.812500
4168,-7.812500
4169,-7.812500
4170,-7.812500
4171,-7.812500
4172,-7.812500
4173,-9.765625
4174,-9.765625
4175,-7.812500
4176,-9.765625
4177,-9.765625
4178,-9.765625
4179,-9.765625
4180,-9.765625
4181,-9.765625
4182,-11.718750
4183,-11.718750
4184,-11.718750
4185,-11.718750
4186,-13.671875
4187,-13.671875
4188,-13.671875
4189,-13.671875
4190,-13.671875
4191,-13.671875
4192,-15.625000
4193,-15.625000
4194,-15.625000
4195,-15.625000
4196,-15.625000
4197,-15.625000
4198,-15.625000
4199,-17.578125
4200,-17.578125
4201,-15.625000
4202,-17.578125
4203,-17.578125
4204,-17.578125
4205,-17.578125
4206,-19.531250
4207,-19.531250
4208,-19.531250
4209,-19.531250
4210,-19.531250
4211,-19.531250
4212,-19.531250
4213,-21.484375
4214,-21.484375
4215,-21.484375
4216,-21.484375
4217,-21.484375
4218,-21.484375
4219,-21.484375
4220,-21.484375
4221,-21.484375
4222,-23.437500
4223,-23.437500
4224,-23.437500
4225,-23.437500
4226,-23.437500
4227,-23.437500
4228,-23.437500
4229,-23.437500
4230,-25.390625
4231,-25.390625
4232,-23.437500
4233,-25.390625
4234,-25.390625
4235,-25.390625
4236,-25.390625
4237,-25.390625
4238,-25.390625
4239,-25.390625
4240,-25.390625
4241,-25.390625
4242,-27.343750
4243,-27.343750
4244,-27.343750
4245,-27.343750
4246,-27.343750
4247,-27.343750
4248,-27.343750
4249,-27.343750
4250,-27.343750
4251,-27.343750
4252,-27.343750
4253,-27.343750
4254,-27.343750
4255,-29.296875
4256,-29.296875
4257,-29.296875
4258,-29.296875
4259,-29.296875
4260,-27.343750
4261,-29.296875
4262,-29.296875
4263,-29.296875
4264,-29.296875
4265,-31.250000
4266,-29.296875
4267,-29.296875
4268,-31.250000
4269,-29.296875
4270,-31.250000
4271,-29.296875
4272,-29.296875
4273,-31.250000
4274,-29.296875
4275,-31.250000
4276,-29.296875
4277,-31.250000
4278,-31.250000
4279,-31.250000
4280,-31.250000
4281,-31.250000
4282,-31.250000
4283,-31.250000
4284,-31.250000
4285,-31.250000
4286,-31.250000
4287,-31.250000
4288,-31.250000
4289,-31.250000
4290,-31.250000
4291,-31.250000
4292,-31.250000
4293,-31.250000
4294,-31.250000
4295,-31.250000
4296,-31.250000
4297,-31.250000
4298,-31.250000
4299,-31.250000
4300,-31.250000
4301,-31.250000
4302,-31.250000
4303,-31.250000
4304,-31.250000
4305,-31.250000
4306,-31.250000
4307,-31.250000
4308,-31.250000
4309,-31.250000
4310,-31.250000
4311,-31.250000
4312,-31.250000
4313,-31.250000
4314,-31.250000
4315,-31.250000
4316,-31.250000
4317,-29.296875
4318,-31.250000
4319,-31.250000
4320,-29.296875
4321,-31.250000
4322,-31.250000
4323,-31.250000
4324,-29.296875
4325,-31.250000
4326,-31.250000
4327,-29.296875
4328,-31.250000
4329,-29.296875
4330,-29.296875
4331,-29.296875
4332,-29.296875
4333,-29.296875
4334,-29.296875
4335,-29.296875
4336,-29.296875
4337,-29.296875
4338,-29.296875
4339,-29.296875
4340,-29.296875
4341,-29.296875
4342,-29.296875
4343,-29.296875
4344,-29.296875
4345,-29.296875
4346,-29.296875
4347,-29.296875
4348,-27.343750
4349,-29.296875
4350,-29.296875
4351,-27.343750
4352,-27.343750
4353,-27.343750
4354,-27.343750
4355,-27.343750
4356,-27.343750
4357,-27.343750
4358,-27.343750
4359,-27.343750
4360,-25.390625
4361,-27.343750
4362,-27.343750
4363,-25.390625
4364,-25.390625
4365,-25.390625
4366,-25.390625
4367,-25.390625
4368,-25.390625
4369,-23.437500
4370,-25.390625
4371,-25.390625
4372,-25.390625
4373,-23.437500
4374,-23.437500
4375,-23.437500
4376,-23.437500
4377,-23.437500
4378,-23.437500
4379,-23.437500
4380,-23.437500
4381,-23.437500
4382,-23.437500
4383,-23.437500
4384,-21.484375
4385,-23.437500
4386,-21.484375
4387,-21.484375
4388,-21.484375
4389,-21.484375
4390,-21.484375
4391,-21.484375
4392,-19.531250
4393,-21.484375
4394,-19.531250
4395,-19.531250
4396,-19.531250
4397,-19.531250
4398,-19.531250
4399,-19.531250
4400,-17.578125
4401,-19.531250
4402,-19.531250
4403,-17.578125
4404,-17.578125
4405,-17.578125
4406,-17.578125
4407,-17.578125
4408,-17.578125
4409,-15.625000
4410,-15.625000
4411,-15.625000
4412,-15.625000
4413,-15.625000
4414,-15.625000
4415,-15.625000
4416,-15.625000
4417,-15.625000
4418,-15.625000
4419,-13.671875
4420,-13.671875
4421,-13.671875
4422,-13.671875
4423,-13.671875
4424,-13.671875
4425,-11.718750
4426,-11.718750
4427,-11.718750
4428,-11.718750
4429,-11.718750
4430,-11.718750
4431,-11.718750
4432,-11.718750
4433,-11.718750
4434,-9.765625
4435,-9.765625
4436,-9.765625
4437,-9.765625
4438,-9.765625
4439,-9.765625
4440,-9.765625
4441,-9.765625
4442,-9.765625
4443,-7.812500
4444,-7.812500
4445,-7.812500
4446,-7.812500
4447,-7.812500
4448,-7.812500
4449,-7.812500
4450,-7.812500
4451,-7.812500
4452,-7.812500
4453,-7.812500
4454,-7.812500
4455,-7.812500
4456,-7.812500
4457,-5.859375
4458,-5.859375
4459,-5.859375
4460,-5.859375
4461,-5.859375
4462,-5.859375
4463,-5.859375
4464,-5.859375
4465,-5.859375
4466,-5.859375
4467,-3.906250
4468,-5.859375
4469,-5.859375
4470,-3.906250
4471,-3.906250
4472,-3.906250
4473,-3.906250
4474,-3.906250
4475,-3.906250
4476,-3.906250
4477,-1.953125
4478,-3.906250
4479,-3.906250
4480,-1.953125
4481,-1.953125
4482,-1.953125
4483,-1.953125
4484,-1.953125
4485,-1.953125
4486,-1.953125
4487,-1.953125
4488,-1.953125
4489,0.000000
4490,-1.953125
4491,-1.953125
4492,0.000000
4493,0.000000
4494,0.000000
4495,0.000000
4496,0.000000
4497,0.000000
4498,0.000000
4499,0.000000
4500,0.000000
4501,0.000000
4502,0.000000
4503,0.000000
4504,1.953125
4505,0.000000
4506,0.000000
4507,0.000000
4508,1.953125
4509,1.953125
4510,1.953125
4511,1.953125
4512,1.953125
4513,1.953125
4514,1.953125
4515,1.953125
4516,1.953125
4517,1.953125
4518,1.953125
4519,1.953125
4520,1.953125
4521,1.953125
4522,1.953125
4523,1.953125
4524,1.953125
4525,1.953125
4526,1.953125
4527,3.906250
4528,1.953125
4529,1.953125
4530,3.906250
4531,1.953125
4532,3.906250
4533,3.906250
4534,3.906250
4535,3.906250
4536,3.906250
4537,3.906250
4538,3.906250
4539,3.906250
4540,3.906250
4541,3.906250
4542,3.906250
4543,0.000000
4544,3.906250
4545,3.906250
4546,3.906250
4547,3.906250
4548,3.906250
4549,3.906250
4550,5.859375
4551,3.906250
4552,5.859375
4553,5.859375
4554,5.859375
4555,5.859375
4556,5.859375
4557,5.859375
4558,5.859375
4559,5.859375
4560,5.859375
4561,5.859375
4562,5.859375
4563,5.859375
4564,5.859375
4565,5.859375
4566,5.859375
4567,5.859375
4568,5.859375
4569,7.812500
4570,5.859375
4571,5.859375
4572,5.859375
4573,5.859375
4574,5.859375
4575,5.859375
4576,5.859375
4577,5.859375
4578,7.812500
4579,5.859375
4580,7.812500
4581,7.812500
4582,7.812500
4583,7.812500
4584,5.859375
4585,7.812500
4586,7.812500
4587,7.812500
4588,7.812500
4589,7.812500
4590,7.812500
4591,7.812500
4592,7.812500
4593,7.812500
4594,5.859375
4595,7.812500
4596,7.812500
4597,7.812500
4598,7.812500
4599,7.812500
4600,7.812500
4601,7.812500
4602,7.812500
4603,7.812500
4604,7.812500
4605,7.812500
4606,7.812500
4607,9.765625
4608,7.812500
4609,7.812500
4610,7.812500
4611,9.765625
4612,9.765625
4613,9.765625
4614,9.765625
4615,9.765625
4616,9.765625
4617,9.765625
4618,9.765625
4619,9.765625
4620,9.765625
4621,9.765625
4622,9.765625
4623,9.765625
4624,9.765625
4625,9.765625
4626,9.765625
4627,9.765625
4628,9.765625
4629,9.765625
4630,9.765625
4631,9.765625
4632,9.765625
4633,11.718750
4634,9.765625
4635,9.765625
4636,9.765625
4637,9.765625
4638,9.765625
4639,9.765625
4640,11.718750
4641,9.765625
4642,9.765625
4643,9.765625
4644,11.718750
4645,9.765625
4646,9.765625
4647,11.718750
4648,9.765625
4649,9.765625
4650,9.765625
4651,9.765625
4652,9.765625
4653,9.765625
4654,9.765625
4655,9.765625
4656,9.765625
4657,9.765625
4658,9.765625
4659,9.765625
4660,9.765625
4661,9.765625
4662,9.765625
4663,9.765625
4664,9.765625
4665,9.765625
4666,9.765625
4667,9.765625
4668,9.765625
4669,9.765625
4670,9.765625
4671,9.765625
4672,9.765625
4673,9.765625
4674,9.765625
4675,9.765625
4676,9.765625
4677,7.812500
4678,7.812500
4679,7.812500
4680,9.765625
4681,7.812500
4682,7.812500
4683,9.765625
4684,7.812500
4685,7.812500
4686,7.812500
4687,7.812500
4688,7.812500
4689,7.812500
4690,7.812500
4691,5.859375
4692,5.859375
4693,7.812500
4694,5.859375
4695,5.859375
4696,5.859375
4697,5.859375
4698,5.859375
4699,5.859375
4700,5.859375
4701,3.906250
4702,3.906250
4703,5.859375
4704,3.906250
4705,3.906250
4706,3.906250
4707,3.906250
4708,3.906250
4709,3.906250
4710,3.906250
4711,1.953125
4712,1.953125
4713,1.953125
4714,1.953125
4715,1.953125
4716,0.000000
4717,1.953125
4718,1.953125
4719,0.000000
4720,0.000000
4721,0.000000
4722,0.000000
4723,0.000000
4724,0.000000
4725,0.000000
4726,-1.953125
4727,-1.953125
4728,-1.953125
4729,-1.953125
4730,-1.953125
4731,-1.953125
4732,-3.906250
4733,-1.953125
4734,-3.906250
4735,-7.812500
4736,-3.906250
4737,-3.906250
4738,-3.906250
4739,-3.906250
4740,-3.906250
4741,-3.906250
4742,-5.859375
4743,-5.859375
4744,-5.859375
4745,-5.859375
4746,-5.859375
4747,-5.859375
4748,-11.718750
4749,-7.812500
4750,-7.812500
4751,-7.812500
4752,-7.812500
4753,-7.812500
4754,-7.812500
4755,-7.812500
4756,-9.765625
4757,-9.765625
4758,-9.765625
4759,-9.765625
4760,-9.765625
4761,-11.718750
4762,-11.718750
4763,-11.718750
4764,-11.718750
4765,-11.718750
4766,-11.718750
4767,-11.718750
4768,-11.718750
4769,-11.718750
4770,-13.671875
4771,-13.671875
4772,-13.671875
4773,-15.625000
4774,-15.625000
4775,-13.671875
4776,-15.625000
4777,-15.625000
4778,-15.625000
4779,-15.625000
4780,-15.625000
4781,-17.578125
4782,-17.578125
4783,-17.578125
4784,-17.578125
4785,-17.578125
4786,-17.578125
4787,-19.531250
4788,-17.578125
4789,-17.578125
4790,-19.531250
4791,-19.531250
4792,-19.531250
4793,-19.531250
4794,-19.531250
4795,-21.484375
4796,-19.531250
4797,-21.484375
4798,-21.484375
4799,-21.484375
4800,-21.484375
4801,-21.484375
4802,-21.484375
4803,-23.437500
4804,-21.484375
4805,-23.437500
4806,-23.437500
4807,-23.437500
4808,-23.437500
4809,-23.437500
4810,-23.437500
4811,-23.437500
4812,-23.437500
4813,-23.437500
4814,-23.437500
4815,-23.437500
4816,-25.390625
4817,-25.390625
4818,-25.390625
4819,-25.390625
4820,-25.390625
4821,-25.390625
4822,-25.390625
4823,-25.390625
4824,-25.390625
4825,-25.390625
4826,-27.343750
4827,-27.343750
4828,-27.343750
4829,-27.343750
4830,-27.343750
4831,-27.343750
4832,-27.343750
4833,-27.343750
4834,-27.343750
4835,-27.343750
4836,-29.296875
4837,-29.296875
4838,-27.343750
4839,-29.296875
4840,-29.296875
4841,-29.296875
4842,-29.296875
4843,-29.296875
4844,-29.296875
4845,-29.296875
4846,-29.296875
4847,-29.296875
4848,-29.296875
4849,-29.296875
4850,-29.296875
4851,-29.296875
4852,-31.250000
4853,-31.250000
4854,-29.296875
4855,-31.250000
4856,-29.296875
4857,-31.250000
4858,-31.250000
4859,-31.250000
4860,-31.250000
4861,-29.296875
4862,-31.250000
4863,-31.250000
4864,-31.250000
4865,-31.250000
4866,-31.250000
4867,-31.250000
4868,-31.250000
4869,-31.250000
4870,-31.250000
4871,-29.296875
4872,-31.250000
4873,-31.250000
4874,-31.250000
4875,-31.250000
4876,-31.250000
4877,-31.250000
4878,-31.250000
4879,-31.250000
4880,-31.250000
4881,-31.250000
4882,-31.250000
4883,-31.250000
4884,-31.250000
4885,-31.250000
4886,-31.250000
4887,-31.250000
4888,-31.250000
4889,-31.250000
4890,-31.250000
4891,-31.250000
4892,-31.250000
4893,-31.250000
4894,-31.250000
4895,-31.250000
4896,-31.250000
4897,-31.250000
4898,-31.250000
4899,-31.250000
4900,-31.250000
4901,-31.250000
4902,-31.250000
4903,-31.250000
4904,-29.296875
4905,-31.250000
4906,-31.250000
4907,-31.250000
4908,-31.250000
4909,-29.296875
4910,-31.250000
4911,-29.296875
4912,-31.250000
4913,-31.250000
4914,-29.296875
4915,-29.296875
4916,-29.296875
4917,-29.296875
4918,-29.296875
4919,-29.296875
4920,-29.296875
4921,-29.296875
4922,-29.296875
4923,-29.296875
4924,-29.296875
4925,-29.296875
4926,-29.296875
4927,-29.296875
4928,-29.296875
4929,-27.343750
4930,-29.296875
4931,-29.296875
4932,-29.296875
4933,-27.343750
4934,-27.343750
4935,-27.343750
4936,-27.343750
4937,-27.343750
4938,-27.343750
4939,-29.296875
4940,-27.343750
4941,-27.343750
4942,-25.390625
4943,-27.343750
4944,-25.390625
4945,-25.390625
4946,-25.390625
4947,-25.390625
4948,-25.390625
4949,-25.390625
4950,-25.390625
4951,-25.390625
4952,-23.437500
4953,-25.390625
4954,-23.437500
4955,-23.437500
4956,-23.437500
4957,-23.437500
4958,-23.437500
4959,-23.437500
4960,-23.437500
4961,-23.437500
4962,-23.437500
4963,-23.437500
4964,-21.484375
4965,-23.437500
4966,-23.437500
4967,-23.437500
4968,-21.484375
4969,-21.484375
4970,-23.437500
4971,-21.484375
4972,-21.484375
4973,-21.484375
4974,-21.484375
4975,-21.484375
4976,-19.531250
4977,-19.531250
4978,-19.531250
4979,-19.531250
4980,-19.531250
4981,-19.531250
4982,-19.531250
4983,-19.531250
4984,-17.578125
4985,-17.578125
4986,-17.578125
4987,-17.578125
4988,-17.578125
4989,-17.578125
4990,-17.578125
4991,-15.625000
4992,-15.625000
4993,-15.625000
4994,-15.625000
4995,-15.625000
4996,-15.625000
4997,-13.671875
4998,-13.671875
4999,-15.625000
5000,-13.671875
5001,-13.671875
5002,-13.671875
5003,-13.671875
5004,-13.671875
5005,-11.718750
5006,-11.718750
5007,-11.718750
5008,-11.718750
5009,-11.718750
5010,-11.718750
5011,-11.718750
5012,-11.718750
5013,-11.718750
5014,-9.765625
5015,-11.718750
5016,-9.765625
5017,-9.765625
5018,-9.765625
5019,-9.765625
5020,-9.765625
5021,-9.765625
5022,-9.765625
5023,-7.812500
5024,-7.812500
5025,-7.812500
5026,-7.812500
5027,-7.812500
5028,-7.812500
5029,-7.812500
5030,-7.812500
5031,-7.812500
5032,-7.812500
5033,-7.812500
5034,-7.812500
5035,-5.859375
5036,-5.859375
5037,-5.859375
5038,-5.859375
5039,-5.859375
5040,-5.859375
5041,-5.859375
5042,-5.859375
5043,-5.859375
5044,-5.859375
5045,-5.859375
5046,-5.859375
5047,-3.906250
5048,-5.859375
5049,-3.906250
5050,-3.906250
5051,-3.906250
5052,-3.906250
5053,-3.906250
5054,-3.906250
5055,-3.906250
5056,-3.906250
5057,-1.953125
5058,-3.906250
5059,-1.953125
5060,-1.953125
5061,-1.953125
5062,-1.953125
5063,-1.953125
5064,-1.953125
5065,-1.953125
5066,-1.953125
5067,-1.953125
5068,0.000000
5069,-1.953125
5070,-1.953125
5071,0.000000
5072,-1.953125
5073,0.000000
5074,0.000000
5075,0.000000
5076,0.000000
5077,0.000000
5078,0.000000
5079,0.000000
5080,0.000000
5081,0.000000
5082,0.000000
5083,0.000000
5084,0.000000
5085,0.000000
5086,0.000000
5087,0.000000
5088,0.000000
5089,0.000000
5090,1.953125
5091,1.953125
5092,0.000000
5093,1.953125
5094,1.953125
5095,1.953125
5096,1.953125
5097,1.953125
5098,1.953125
5099,1.953125
5100,1.953125
5101,1.953125
5102,1.953125
5103,1.953125
5104,1.953125
5105,1.953125
5106,1.953125
5107,1.953125
5108,3.906250
5109,1.953125
5110,1.953125
5111,3.906250
5112,1.953125
5113,3.906250
5114,3.906250
5115,3.906250
5116,3.906250
5117,3.906250
5118,3.906250
5119,3.906250
5120,3.906250
5121,3.906250
5122,3.906250
5123,3.906250
5124,3.906250
5125,3.906250
5126,1.953125
5127,3.906250
5128,3.906250
5129,3.906250
5130,3.906250
5131,3.906250
5132,5.859375
5133,5.859375
5134,3.906250
5135,3.906250
5136,5.859375
5137,5.859375
5138,5.859375
5139,5.859375
5140,5.859375
5141,5.859375
5142,5.859375
5143,5.859375
5144,5.859375
5145,5.859375
5146,5.859375
5147,5.859375
5148,5.859375
5149,5.859375
5150,5.859375
5151,5.859375
5152,5.859375
5153,5.859375
5154,5.859375
5155,5.859375
5156,5.859375
5157,5.859375
5158,7.812500
5159,5.859375
5160,5.859375
5161,5.859375
5162,5.859375
5163,5.859375
5164,7.812500
5165,7.812500
5166,5.859375
5167,5.859375
5168,5.859375
5169,7.812500
5170,7.812500
5171,5.859375
5172,7.812500
5173,7.812500
5174,7.812500
5175,7.812500
5176,7.812500
5177,7.812500
5178,7.812500
5179,7.812500
5180,7.812500
5181,7.812500
5182,7.812500
5183,7.812500
5184,7.812500
5185,7.812500
5186,7.812500
5187,7.812500
5188,7.812500
5189,9.765625
5190,7.812500
5191,9.765625
5192,7.812500
5193,9.765625
5194,9.765625
5195,7.812500
5196,9.765625
5197,9.765625
5198,9.765625
5199,9.765625
5200,9.765625
5201,9.765625
5202,9.765625
5203,9.765625
5204,9.765625
5205,9.765625
5206,9.765625
5207,9.765625
5208,9.765625
5209,9.765625
5210,9.765625
5211,9.765625
5212,9.765625
5213,9.765625
5214,9.765625
5215,9.765625
5216,9.765625
5217,9.765625
5218,9.765625
5219,9.765625
5220,9.765625
5221,9.765625
5222,9.765625
5223,9.765625
5224,9.765625
5225,9.765625
5226,9.765625
5227,9.765625
5228,9.765625
5229,9.765625
5230,9.765625
5231,9.765625
5232,9.765625
5233,9.765625
5234,9.765625
5235,9.765625
5236,9.765625
5237,9.765625
5238,9.765625
5239,9.765625
5240,9.765625
5241,9.765625
5242,9.765625
5243,9.765625
5244,9.765625
5245,9.765625
5246,9.765625
5247,9.765625
5248,9.765625
5249,9.765625
5250,9.765625
5251,9.765625
5252,9.765625
5253,9.765625
5254,9.765625
5255,9.765625
5256,9.765625
5257,9.765625
5258,7.812500
5259,9.765625
5260,9.765625
5261,7.812500
5262,7.812500
5263,9.765625
5264,7.812500
5265,7.812500
5266,7.812500
5267,7.812500
5268,7.812500
5269,7.812500
5270,7.812500
5271,7.812500
5272,7.812500
5273,7.812500
5274,7.812500
5275,5.859375
5276,5.859375
5277,5.859375
5278,5.859375
5279,5.859375
5280,5.859375
5281,5.859375
5282,5.859375
5283,5.859375
5284,5.859375
5285,3.906250
5286,3.906250
5287,3.906250
5288,3.906250
5289,3.906250
5290,3.906250
5291,3.906250
5292,1.953125
5293,1.953125
5294,3.906250
5295,1.953125
5296,1.953125
5297,1.953125
5298,1.953125
5299,1.953125
5300,1.953125
5301,1.953125
5302,0.000000
5303,0.000000
5304,0.000000
5305,0.000000
5306,0.000000
5307,0.000000
5308,-1.953125
5309,-1.953125
5310,-1.953125
5311,-1.953125
5312,-1.953125
5313,-1.953125
5314,-1.953125
5315,-3.906250
5316,-3.906250
5317,-3.906250
5318,-3.906250
5319,-3.906250
5320,-3.906250
5321,-3.906250
5322,-3.906250
5323,-5.859375
5324,-5.859375
5325,-5.859375
5326,-5.859375
5327,-5.859375
5328,-5.859375
5329,-5.859375
5330,-5.859375
5331,-7.812500
5332,-7.812500
5333,-7.812500
5334,-7.812500
5335,-7.812500
5336,-9.765625
5337,-9.765625
5338,-9.765625
5339,-9.765625
5340,-9.765625
5341,-9.765625
5342,-9.765625
5343,-9.765625
5344,-9.765625
5345,-11.718750
5346,-11.718750
5347,-11.718750
5348,-11.718750
5349,-11.718750
5350,-13.671875
5351,-13.671875
5352,-13.671875
5353,-13.671875
5354,-13.671875
5355,-13.671875
5356,-13.671875
5357,-13.671875
5358,-15.625000
5359,-17.578125
5360,-15.625000
5361,-15.625000
5362,-15.625000
5363,-17.578125
5364,-17.578125
5365,-17.578125
5366,-17.578125
5367,-17.578125
5368,-19.531250
5369,-19.531250
5370,-17.578125
5371,-17.578125
5372,-19.531250
5373,-19.531250
5374,-19.531250
5375,-19.531250
5376,-19.531250
5377,-19.531250
5378,-21.484375
5379,-21.484375
5380,-21.484375
5381,-21.484375
5382,-21.484375
5383,-21.484375
5384,-21.484375
5385,-21.484375
5386,-21.484375
5387,-21.484375
5388,-23.437500
5389,-23.437500
5390,-23.437500
5391,-23.437500
5392,-23.437500
5393,-23.437500
5394,-23.437500
5395,-23.437500
5396,-25.390625
5397,-25.390625
5398,-25.390625
5399,-25.390625
5400,-25.390625
5401,-25.390625
5402,-25.390625
5403,-25.390625
5404,-25.390625
5405,-25.390625
5406,-25.390625
5407,-25.390625
5408,-25.390625
5409,-27.343750
5410,-27.343750
5411,-27.343750
5412,-27.343750
5413,-27.343750
5414,-27.343750
5415,-27.343750
5416,-27.343750
5417,-27.343750
5418,-27.343750
5419,-29.296875
5420,-29.296875
5421,-29.296875
5422,-29.296875
5423,-29.296875
5424,-29.296875
5425,-29.296875
5426,-29.296875
5427,-29.296875
5428,-29.296875
5429,-29.296875
5430,-29.296875
5431,-29.296875
5432,-29.296875
5433,-29.296875
5434,-31.250000
5435,-31.250000
5436,-29.296875
5437,-31.250000
5438,-29.296875
5439,-29.296875
5440,-31.250000
5441,-31.250000
5442,-31.250000
5443,-31.250000
5444,-29.296875
5445,-31.250000
5446,-31.250000
5447,-31.250000
5448,-31.250000
5449,-31.250000
5450,-31.250000
5451,-31.250000
5452,-31.250000
5453,-31.250000
5454,-31.250000
5455,-31.250000
5456,-31.250000
5457,-31.250000
5458,-31.250000
5459,-31.250000
5460,-31.250000
5461,-29.296875
5462,-31.250000
5463,-31.250000
5464,-31.250000
5465,-31.250000
5466,-31.250000
5467,-31.250000
5468,-31.250000
5469,-31.250000
5470,-31.250000
5471,-31.250000
5472,-29.296875
5473,-31.250000
5474,-31.250000
5475,-31.250000
5476,-31.250000
5477,-31.250000
5478,-31.250000
5479,-31.250000
5480,-31.250000
5481,-31.250000
5482,-31.250000
5483,-29.296875
5484,-31.250000
5485,-31.250000
5486,-31.250000
5487,-31.250000
5488,-31.250000
5489,-31.250000
5490,-31.250000
5491,-31.250000
5492,-31.250000
5493,-29.296875
5494,-29.296875
5495,-29.296875
5496,-31.250000
5497,-31.250000
5498,-29.296875
5499,-29.296875
5500,-29.296875
5501,-29.296875
5502,-29.296875
5503,-29.296875
5504,-29.296875
5505,-29.296875
5506,-29.296875
5507,-29.296875
5508,-29.296875
5509,-29.296875
5510,-29.296875
5511,-29.296875
5512,-29.296875
5513,-29.296875
5514,-27.343750
5515,-27.343750
5516,-27.343750
5517,-27.343750
5518,-27.343750
5519,-27.343750
5520,-27.343750
5521,-27.343750
5522,-25.390625
5523,-25.390625
5524,-27.343750
5525,-25.390625
5526,-27.343750
5527,-25.390625
5528,-25.390625
5529,-25.390625
5530,-25.390625
5531,-25.390625
5532,-25.390625
5533,-25.390625
5534,-23.437500
5535,-23.437500
5536,-23.437500
5537,-25.390625
5538,-23.437500
5539,-23.437500
5540,-23.437500
5541,-23.437500
5542,-23.437500
5543,-23.437500
5544,-21.484375
5545,-23.437500
5546,-23.437500
5547,-21.484375
5548,-21.484375
5549,-21.484375
5550,-21.484375
5551,-21.484375
5552,-21.484375
5553,-21.484375
5554,-21.484375
5555,-21.484375
5556,-19.531250
5557,-19.531250
5558,-19.531250
5559,-19.531250
5560,-19.531250
5561,-19.531250
5562,-19.531250
5563,-19.531250
5564,-19.531250
5565,-19.531250
5566,-17.578125
5567,-17.578125
5568,-17.578125
5569,-17.578125
5570,-17.578125
5571,-17.578125
5572,-17.578125
5573,-15.625000
5574,-15.625000
5575,-15.625000
5576,-15.625000
5577,-15.625000
5578,-15.625000
5579,-15.625000
5580,-13.671875
5581,-13.671875
5582,-13.671875
5583,-13.671875
5584,-13.671875
5585,-13.671875
5586,-13.671875
5587,-13.671875
5588,-11.718750
5589,-11.718750
5590,-11.718750
5591,-11.718750
5592,-11.718750
5593,-9.765625
5594,-11.718750
5595,-9.765625
5596,-9.765625
5597,-9.765625
5598,-9.765625
5599,-9.765625
5600,-9.765625
5601,-9.765625
5602,-9.765625
5603,-9.765625
5604,-9.765625
5605,-9.765625
5606,-7.812500
5607,-7.812500
5608,-7.812500
5609,-7.812500
5610,-7.812500
5611,-7.812500
5612,-7.812500
5613,-7.812500
5614,-7.812500
5615,-7.812500
5616,-7.812500
5617,-7.812500
5618,-7.812500
5619,-5.859375
5620,-5.859375
5621,-5.859375
5622,-5.859375
5623,-5.859375
5624,-5.859375
5625,-5.859375
5626,-5.859375
5627,-5.859375
5628,-5.859375
5629,-3.906250
5630,-3.906250
5631,-5.859375
5632,-3.906250
5633,-3.906250
5634,-3.906250
5635,-3.906250
5636,-3.906250
5637,-3.906250
5638,-3.906250
5639,-1.953125
5640,-3.906250
5641,-3.906250
5642,-1.953125
5643,-1.953125
5644,-1.953125
5645,-1.953125
5646,-1.953125
5647,-1.953125
5648,-1.953125
5649,-1.953125
5650,-1.953125
5651,-1.953125
5652,-1.953125
5653,-1.953125
5654,-1.953125
5655,-1.953125
5656,-1.953125
5657,0.000000
5658,0.000000
5659,-1.953125
5660,0.000000
5661,0.000000
5662,0.000000
5663,0.000000
5664,0.000000
5665,0.000000
5666,0.000000
5667,0.000000
5668,0.000000
5669,0.000000
5670,1.953125
5671,0.000000
5672,0.000000
5673,0.000000
5674,1.953125
5675,1.953125
5676,0.000000
5677,0.000000
5678,1.953125
5679,1.953125
5680,1.953125
5681,0.000000
5682,1.953125
5683,1.953125
5684,1.953125
5685,1.953125
5686,1.953125
5687,1.953125
5688,1.953125
5689,1.953125
5690,1.953125
5691,3.906250
5692,1.953125
5693,1.953125
5694,1.953125
5695,1.953125
5696,3.906250
5697,3.906250
5698,1.953125
5699,3.906250
5700,3.906250
5701,3.906250
5702,3.906250
5703,3.906250
5704,3.906250
5705,5.859375
5706,3.906250
5707,3.906250
5708,3.906250
5709,3.906250
5710,5.859375
5711,3.906250
5712,3.906250
5713,3.906250
5714,3.906250
5715,3.906250
5716,3.906250
5717,3.906250
5718,5.859375
5719,3.906250
5720,5.859375
5721,3.906250
5722,3.906250
5723,5.859375
5724,5.859375
5725,3.906250
5726,5.859375
5727,5.859375
5728,5.859375
5729,3.906250
5730,5.859375
5731,5.859375
5732,5.859375
5733,5.859375
5734,5.859375
5735,5.859375
5736,5.859375
5737,5.859375
5738,5.859375
5739,5.859375
5740,5.859375
5741,5.859375
5742,5.859375
5743,5.859375
5744,5.859375
5745,5.859375
5746,5.859375
5747,5.859375
5748,5.859375
5749,5.859375
5750,5.859375
5751,5.859375
5752,5.859375
5753,7.812500
5754,5.859375
5755,7.812500
5756,7.812500
5757,5.859375
5758,5.859375
5759,7.812500
5760,7.812500
5761,7.812500
5762,7.812500
5763,7.812500
5764,7.812500
5765,7.812500
5766,7.812500
5767,7.812500
5768,7.812500
5769,7.812500
5770,7.812500
5771,7.812500
5772,7.812500
5773,7.812500
5774,7.812500
5775,7.812500
5776,7.812500
5777,7.812500
5778,7.812500
5779,7.812500
5780,9.765625
5781,9.765625
5782,9.765625
5783,7.812500
5784,7.812500
5785,9.765625
5786,9.765625
5787,9.765625
5788,9.765625
5789,9.765625
5790,9.765625
5791,9.765625
5792,9.765625
5793,9.765625
5794,9.765625
5795,9.765625
5796,9.765625
5797,9.765625
5798,9.765625
5799,9.765625
5800,9.765625
5801,9.765625
5802,9.765625
5803,9.765625
5804,9.765625
5805,9.765625
5806,9.765625
5807,9.765625
5808,9.765625
5809,9.765625
5810,9.765625
5811,9.765625
5812,9.765625
5813,9.765625
5814,9.765625
5815,9.765625
5816,9.765625
5817,9.765625
5818,9.765625
5819,9.765625
5820,9.765625
5821,9.765625
5822,9.765625
5823,9.765625
5824,9.765625
5825,9.765625
5826,9.765625
5827,9.765625
5828,9.765625
5829,9.765625
5830,9.765625
5831,9.765625
5832,9.765625
5833,9.765625
5834,9.765625
5835,9.765625
5836,9.765625
5837,9.765625
5838,5.859375
5839,7.812500
5840,9.765625
5841,9.765625
5842,7.812500
5843,9.765625
5844,7.812500
5845,7.812500
5846,7.812500
5847,7.812500
5848,7.812500
5849,7.812500
5850,7.812500
5851,7.812500
5852,7.812500
5853,7.812500
5854,7.812500
5855,5.859375
5856,5.859375
5857,5.859375
5858,5.859375
5859,9.765625
5860,5.859375
5861,5.859375
5862,5.859375
5863,5.859375
5864,5.859375
5865,5.859375
5866,5.859375
5867,3.906250
5868,3.906250
5869,3.906250
5870,3.906250
5871,3.906250
5872,3.906250
5873,3.906250
5874,3.906250
5875,3.906250
5876,3.906250
5877,1.953125
5878,1.953125
5879,1.953125
5880,1.953125
5881,1.953125
5882,1.953125
5883,0.000000
5884,0.000000
5885,0.000000
5886,0.000000
5887,0.000000
5888,-3.906250
5889,0.000000
5890,-3.906250
5891,-1.953125
5892,-1.953125
5893,-1.953125
5894,-1.953125
5895,-1.953125
5896,-1.953125
5897,-1.953125
5898,-1.953125
5899,-3.906250
5900,-1.953125
5901,-3.906250
5902,-3.906250
5903,-3.906250
5904,-3.906250
5905,-3.906250
5906,-5.859375
5907,-5.859375
5908,-5.859375
5909,-5.859375
5910,-5.859375
5911,-5.859375
5912,-7.812500
5913,-5.859375
5914,-7.812500
5915,-7.812500
5916,-7.812500
5917,-7.812500
5918,-7.812500
5919,-9.765625
5920,-9.765625
5921,-9.765625
5922,-9.765625
5923,-9.765625
5924,-9.765625
5925,-9.765625
5926,-11.718750
5927,-11.718750
5928,-11.718750
5929,-11.718750
5930,-11.718750
5931,-11.718750
5932,-11.718750
5933,-13.671875
5934,-13.671875
5935,-13.671875
5936,-13.671875
5937,-13.671875
5938,-15.625000
5939,-17.578125
5940,-13.671875
5941,-17.578125
5942,-15.625000
5943,-11.718750
5944,-15.625000
5945,-15.625000
5946,-15.625000
5947,-17.578125
5948,-17.578125
5949,-17.578125
5950,-17.578125
5951,-17.578125
5952,-17.578125
5953,-19.531250
5954,-19.531250
5955,-17.578125
5956,-17.578125
5957,-21.484375
5958,-21.484375
5959,-19.531250
5960,-19.531250
5961,-21.484375
5962,-19.531250
5963,-21.484375
5964,-21.484375
5965,-21.484375
5966,-21.484375
5967,-21.484375
5968,-21.484375
5969,-21.484375
5970,-21.484375
5971,-21.484375
5972,-23.437500
5973,-23.437500
5974,-23.437500
5975,-23.437500
5976,-23.437500
5977,-23.437500
5978,-23.437500
5979,-23.437500
5980,-23.437500
5981,-25.390625
5982,-25.390625
5983,-25.390625
5984,-25.390625
5985,-25.390625
5986,-25.390625
5987,-25.390625
5988,-25.390625
5989,-25.390625
5990,-27.343750
5991,-25.390625
5992,-27.343750
5993,-27.343750
5994,-27.343750
5995,-27.343750
5996,-27.343750
5997,-27.343750
5998,-27.343750
5999,-27.343750
6000,-29.296875
6001,-27.343750
6002,-29.296875
6003,-27.343750
6004,-29.296875
6005,-27.343750
6006,-29.296875
6007,-29.296875
6008,-27.343750
6009,-29.296875
6010,-29.296875
6011,-29.296875
6012,-29.296875
6013,-29.296875
6014,-29.296875
6015,-29.296875
6016,-31.250000
6017,-29.296875
6018,-29.296875
6019,-29.296875
6020,-31.250000
6021,-31.250000
6022,-31.250000
6023,-31.250000
6024,-31.250000
6025,-29.296875
6026,-31.250000
6027,-29.296875
6028,-31.250000
6029,-31.250000
6030,-31.250000
6031,-31.250000
6032,-31.250000
6033,-31.250000
6034,-31.250000
6035,-31.250000
6036,-31.250000
6037,-31.250000
6038,-31.250000
6039,-31.250000
6040,-31.250000
6041,-31.250000
6042,-31.250000
6043,-31.250000
6044,-31.250000
6045,-31.250000
6046,-31.250000
6047,-31.250000
6048,-31.250000
6049,-31.250000
6050,-31.250000
6051,-31.250000
6052,-31.250000
6053,-31.250000
6054,-31.250000
6055,-31.250000
6056,-31.250000
6057,-31.250000
6058,-31.250000
6059,-31.250000
6060,-31.250000
6061,-31.250000
6062,-31.250000
6063,-31.250000
6064,-31.250000
6065,-31.250000
6066,-31.250000
6067,-29.296875
6068,-31.250000
6069,-29.296875
6070,-31.250000
6071,-31.250000
6072,-29.296875
6073,-31.250000
6074,-31.250000
6075,-31.250000
6076,-29.296875
6077,-29.296875
6078,-29.296875
6079,-29.296875
6080,-31.250000
6081,-29.296875
6082,-29.296875
6083,-29.296875
6084,-29.296875
6085,-29.296875
6086,-29.296875
6087,-29.296875
6088,-29.296875
6089,-29.296875
6090,-27.343750
6091,-29.296875
6092,-29.296875
6093,-29.296875
6094,-27.343750
6095,-29.296875
6096,-27.343750
6097,-27.343750
6098,-27.343750
6099,-27.343750
6100,-27.343750
6101,-27.343750
6102,-27.343750
6103,-27.343750
6104,-27.343750
6105,-25.390625
6106,-25.390625
6107,-25.390625
6108,-25.390625
6109,-25.390625
6110,-25.390625
6111,-25.390625
6112,-25.390625
6113,-25.390625
6114,-25.390625
6115,-25.390625
6116,-25.390625
6117,-25.390625
6118,-23.437500
6119,-23.437500
6120,-23.437500
6121,-23.437500
6122,-23.437500
6123,-23.437500
6124,-23.437500
6125,-23.437500
6126,-23.437500
6127,-23.437500
6128,-21.484375
6129,-23.437500
6130,-23.437500
6131,-21.484375
6132,-21.484375
6133,-21.484375
6134,-21.484375
6135,-19.531250
6136,-21.484375
6137,-21.484375
6138,-21.484375
6139,-19.531250
6140,-17.578125
6141,-19.531250
6142,-19.531250
6143,-19.531250
6144,-19.531250
6145,-17.578125
6146,-19.531250
6147,-19.531250
6148,-17.578125
6149,-19.531250
6150,-17.578125
6151,-17.578125
6152,-17.578125
6153,-17.578125
6154,-17.578125
6155,-15.625000
6156,-15.625000
6157,-15.625000
6158,-15.625000
6159,-13.671875
6160,-15.625000
6161,-15.625000
6162,-13.671875
6163,-13.671875
6164,-13.671875
6165,-13.671875
6166,-13.671875
6167,-13.671875
6168,-13.671875
6169,-13.671875
6170,-11.718750
6171,-11.718750
6172,-11.718750
6173,-11.718750
6174,-11.718750
6175,-11.718750
6176,-11.718750
6177,-11.718750
6178,-9.765625
6179,-11.718750
6180,-9.765625
6181,-9.765625
6182,-9.765625
6183,-9.765625
6184,-9.765625
6185,-9.765625
6186,-7.812500
6187,-9.765625
6188,-9.765625
6189,-9.765625
6190,-7.812500
6191,-7.812500
6192,-7.812500
6193,-7.812500
6194,-7.812500
6195,-7.812500
6196,-5.859375
6197,-7.812500
6198,-7.812500
6199,-7.812500
6200,-7.812500
6201,-7.812500
6202,-5.859375
6203,-5.859375
6204,-5.859375
6205,-5.859375
6206,-5.859375
6207,-5.859375
6208,-5.859375
6209,-5.859375
6210,-5.859375
6211,-3.906250
6212,-5.859375
6213,-3.906250
6214,-5.859375
6215,-3.906250
6216,-3.906250
6217,-3.906250
6218,-3.906250
6219,-3.906250
6220,-3.906250
6221,-3.906250
6222,-3.906250
6223,-3.906250
6224,-1.953125
6225,-1.953125
6226,-1.953125
6227,-1.953125
6228,-1.953125
6229,-3.906250
6230,-1.953125
6231,-1.953125
6232,-1.953125
6233,-1.953125
6234,-1.953125
6235,-1.953125
6236,-1.953125
6237,-1.953125
6238,-1.953125
6239,-1.953125
6240,0.000000
6241,0.000000
6242,0.000000
6243,0.000000
6244,0.000000
6245,0.000000
6246,0.000000
6247,0.000000
6248,0.000000
6249,0.000000
6250,0.000000
6251,0.000000
6252,0.000000
6253,0.000000
6254,0.000000
6255,0.000000
6256,0.000000
6257,0.000000
6258,1.953125
6259,0.000000
6260,0.000000
6261,0.000000
6262,0.000000
6263,1.953125
6264,0.000000
6265,1.953125
6266,1.953125
6267,1.953125
6268,1.953125
6269,1.953125
6270,1.953125
6271,1.953125
6272,1.953125
6273,1.953125
6274,1.953125
6275,1.953125
6276,1.953125
6277,1.953125
6278,1.953125
6279,1.953125
6280,3.906250
6281,1.953125
6282,3.906250
6283,1.953125
6284,3.906250
6285,3.906250
6286,3.906250
6287,3.906250
6288,3.906250
6289,3.906250
6290,3.906250
6291,3.906250
6292,3.906250
6293,1.953125
6294,3.906250
6295,3.906250
6296,3.906250
6297,3.906250
6298,5.859375
6299,3.906250
6300,3.906250
6301,5.859375
6302,3.906250
6303,5.859375
6304,3.906250
6305,5.859375
6306,3.906250
6307,5.859375
6308,3.906250
6309,5.859375
6310,5.859375
6311,5.859375
6312,5.859375
6313,5.859375
6314,5.859375
6315,5.859375
6316,5.859375
6317,5.859375
6318,5.859375
6319,5.859375
6320,5.859375
6321,5.859375
6322,5.859375
6323,5.859375
6324,5.859375
6325,5.859375
6326,5.859375
6327,5.859375
6328,5.859375
6329,5.859375
6330,5.859375
6331,5.859375
6332,5.859375
6333,5.859375
6334,5.859375
6335,7.812500
6336,5.859375
6337,7.812500
6338,7.812500
6339,7.812500
6340,5.859375
6341,7.812500
6342,5.859375
6343,7.812500
6344,7.812500
6345,7.812500
6346,7.812500
6347,7.812500
6348,7.812500
6349,7.812500
6350,7.812500
6351,7.812500
6352,7.812500
6353,7.812500
6354,7.812500
6355,7.812500
6356,7.812500
6357,7.812500
6358,9.765625
6359,7.812500
6360,7.812500
6361,7.812500
6362,9.765625
6363,7.812500
6364,9.765625
6365,9.765625
6366,9.765625
6367,9.765625
6368,9.765625
6369,9.765625
6370,9.765625
6371,9.765625
6372,9.765625
6373,9.765625
6374,9.765625
6375,9.765625
6376,9.765625
6377,9.765625
6378,9.765625
6379,9.765625
6380,9.765625
6381,9.765625
6382,9.765625
6383,9.765625
6384,9.765625
6385,9.765625
6386,9.765625
6387,9.765625
6388,9.765625
6389,9.765625
6390,9.765625
6391,9.765625
6392,9.765625
6393,9.765625
6394,9.765625
6395,9.765625
6396,11.718750
6397,9.765625
6398,9.765625
6399,9.765625
6400,9.765625
6401,9.765625
6402,9.765625
6403,9.765625
6404,9.765625
6405,9.765625
6406,9.765625
6407,9.765625
6408,9.765625
6409,9.765625
6410,9.765625
6411,9.765625
6412,9.765625
6413,9.765625
6414,9.765625
6415,9.765625
6416,9.765625
6417,9.765625
6418,9.765625
6419,9.765625
6420,9.765625
6421,9.765625
6422,7.812500
6423,9.765625
6424,9.765625
6425,9.765625
6426,9.765625
6427,9.765625
6428,7.812500
6429,7.812500
6430,7.812500
6431,7.812500
6432,7.812500
6433,7.812500
6434,7.812500
6435,7.812500
6436,7.812500
6437,7.812500
6438,7.812500
6439,7.812500
6440,7.812500
6441,7.812500
6442,5.859375
6443,5.859375
6444,5.859375
6445,5.859375
6446,5.859375
6447,5.859375
6448,3.906250
6449,5.859375
6450,3.906250
6451,5.859375
6452,3.906250
6453,3.906250
6454,3.906250
6455,3.906250
6456,3.906250
6457,3.906250
6458,1.953125
6459,1.953125
6460,1.953125
6461,1.953125
6462,1.953125
6463,1.953125
6464,1.953125
6465,1.953125
6466,1.953125
6467,0.000000
6468,0.000000
6469,0.000000
6470,0.000000
6471,0.000000
6472,0.000000
6473,-1.953125
6474,0.000000
6475,-1.953125
6476,-1.953125
6477,-1.953125
6478,-1.953125
6479,-1.953125
6480,-3.906250
6481,-3.906250
6482,-3.906250
6483,-1.953125
6484,-3.906250
6485,-3.906250
6486,-3.906250
6487,-3.906250
6488,-5.859375
6489,-3.906250
6490,-5.859375
6491,-5.859375
6492,-5.859375
6493,-5.859375
6494,-5.859375
6495,-7.812500
6496,-5.859375
6497,-7.812500
6498,-7.812500
6499,-7.812500
6500,-7.812500
6501,-7.812500
6502,-7.812500
6503,-9.765625
6504,-9.765625
6505,-9.765625
6506,-9.765625
6507,-9.765625
6508,-9.765625
6509,-9.765625
6510,-9.765625
6511,-11.718750
6512,-11.718750
6513,-11.718750
6514,-11.718750
6515,-13.671875
6516,-13.671875
6517,-13.671875
6518,-13.671875
6519,-13.671875
6520,-13.671875
6521,-13.671875
6522,-15.625000
6523,-13.671875
6524,-15.625000
6525,-15.625000
6526,-15.625000
6527,-17.578125
6528,-15.625000
6529,-17.578125
6530,-17.578125
6531,-17.578125
6532,-17.578125
6533,-17.578125
6534,-17.578125
6535,-17.578125
6536,-17.578125
6537,-17.578125
6538,-19.531250
6539,-19.531250
6540,-19.531250
6541,-19.531250
6542,-19.531250
6543,-21.484375
6544,-19.531250
6545,-21.484375
6546,-21.484375
6547,-21.484375
6548,-21.484375
6549,-21.484375
6550,-21.484375
6551,-21.484375
6552,-21.484375
6553,-23.437500
6554,-23.437500
6555,-21.484375
6556,-23.437500
6557,-23.437500
6558,-23.437500
6559,-23.437500
6560,-23.437500
6561,-23.437500
6562,-23.437500
6563,-25.390625
6564,-25.390625
6565,-23.437500
6566,-25.390625
6567,-25.390625
6568,-25.390625
6569,-25.390625
6570,-25.390625
6571,-25.390625
6572,-27.343750
6573,-27.343750
6574,-27.343750
6575,-25.390625
6576,-27.343750
6577,-27.343750
6578,-27.343750
6579,-29.296875
6580,-27.343750
6581,-29.296875
6582,-27.343750
6583,-27.343750
6584,-27.343750
6585,-29.296875
6586,-29.296875
6587,-29.296875
6588,-29.296875
6589,-29.296875
6590,-29.296875
6591,-29.296875
6592,-29.296875
6593,-29.296875
6594,-29.296875
6595,-29.296875
6596,-29.296875
6597,-29.296875
6598,-29.296875
6599,-29.296875
6600,-29.296875
6601,-29.296875
6602,-29.296875
6603,-29.296875
6604,-29.296875
6605,-29.296875
6606,-29.296875
6607,-31.250000
6608,-29.296875
6609,-29.296875
6610,-29.296875
6611,-31.250000
6612,-31.250000
6613,-31.250000
6614,-31.250000
6615,-31.250000
6616,-31.250000
6617,-31.250000
6618,-31.250000
6619,-31.250000
6620,-31.250000
6621,-31.250000
6622,-29.296875
6623,-31.250000
6624,-31.250000
6625,-29.296875
6626,-31.250000
6627,-31.250000
6628,-31.250000
6629,-31.250000
6630,-31.250000
6631,-31.250000
6632,-31.250000
6633,-31.250000
6634,-31.250000
6635,-31.250000
6636,-31.250000
6637,-31.250000
6638,-31.250000
6639,-31.250000
6640,-31.250000
6641,-31.250000
6642,-31.250000
6643,-31.250000
6644,-31.250000
6645,-29.296875
6646,-31.250000
6647,-31.250000
6648,-31.250000
6649,-31.250000
6650,-31.250000
6651,-29.296875
6652,-31.250000
6653,-31.250000
6654,-31.250000
6655,-31.250000
6656,-31.250000
6657,-29.296875
6658,-29.296875
6659,-29.296875
6660,-29.296875
6661,-29.296875
6662,-29.296875
6663,-29.296875
6664,-29.296875
6665,-29.296875
6666,-29.296875
6667,-29.296875
6668,-29.296875
6669,-29.296875
6670,-29.296875
6671,-29.296875
6672,-29.296875
6673,-29.296875
6674,-27.343750
6675,-27.343750
6676,-27.343750
6677,-27.343750
6678,-27.343750
6679,-27.343750
6680,-27.343750
6681,-27.343750
6682,-27.343750
6683,-27.343750
6684,-25.390625
6685,-27.343750
6686,-27.343750
6687,-27.343750
6688,-27.343750
6689,-25.390625
6690,-25.390625
6691,-25.390625
6692,-25.390625
6693,-25.390625
6694,-25.390625
6695,-25.390625
6696,-25.390625
6697,-25.390625
6698,-25.390625
6699,-23.437500
6700,-23.437500
6701,-23.437500
6702,-23.437500
6703,-23.437500
6704,-23.437500
6705,-23.437500
6706,-23.437500
6707,-23.437500
6708,-23.437500
6709,-23.437500
6710,-23.437500
6711,-23.437500
6712,-23.437500
6713,-21.484375
6714,-21.484375
6715,-21.484375
6716,-21.484375
6717,-21.484375
6718,-21.484375
6719,-19.531250
6720,-21.484375
6721,-19.531250
6722,-21.484375
6723,-19.531250
6724,-19.531250
6725,-19.531250
6726,-19.531250
6727,-17.578125
6728,-19.531250
6729,-17.578125
6730,-19.531250
6731,-17.578125
6732,-17.578125
6733,-17.578125
6734,-17.578125
6735,-17.578125
6736,-17.578125
6737,-17.578125
6738,-17.578125
6739,-15.625000
6740,-15.625000
6741,-15.625000
6742,-15.625000
6743,-15.625000
6744,-15.625000
6745,-13.671875
6746,-13.671875
6747,-13.671875
6748,-13.671875
6749,-13.671875
6750,-13.671875
6751,-13.671875
6752,-13.671875
6753,-11.718750
6754,-11.718750
6755,-11.718750
6756,-11.718750
6757,-11.718750
6758,-11.718750
6759,-11.718750
6760,-11.718750
6761,-9.765625
6762,-11.718750
6763,-9.765625
6764,-9.765625
6765,-9.765625
6766,-9.765625
6767,-9.765625
6768,-9.765625
6769,-9.765625
6770,-9.765625
6771,-9.765625
6772,-7.812500
6773,-7.812500
6774,-9.765625
6775,-7.812500
6776,-7.812500
6777,-7.812500
6778,-7.812500
6779,-7.812500
6780,-7.812500
6781,-7.812500
6782,-7.812500
6783,-5.859375
6784,-7.812500
6785,-5.859375
6786,-7.812500
6787,-7.812500
6788,-5.859375
6789,-5.859375
6790,-5.859375
6791,-5.859375
6792,-5.859375
6793,-5.859375
6794,-5.859375
6795,-5.859375
6796,-5.859375
6797,-5.859375
6798,-3.906250
6799,-3.906250
6800,-3.906250
6801,-3.906250
6802,-3.906250
6803,-3.906250
6804,-3.906250
6805,-3.906250
6806,-3.906250
6807,-3.906250
6808,-3.906250
6809,-3.906250
6810,-1.953125
6811,-1.953125
6812,-1.953125
6813,-1.953125
6814,-1.953125
6815,-1.953125
6816,-1.953125
6817,-1.953125
6818,-1.953125
6819,-1.953125
6820,-1.953125
6821,0.000000
6822,-1.953125
6823,-1.953125
6824,-1.953125
6825,0.000000
6826,0.000000
6827,0.000000
6828,-1.953125
6829,0.000000
6830,-1.953125
6831,0.000000
6832,0.000000
6833,0.000000
6834,0.000000
6835,0.000000
6836,0.000000
6837,0.000000
6838,0.000000
6839,0.000000
6840,0.000000
6841,0.000000
6842,0.000000
6843,0.000000
6844,0.000000
6845,0.000000
6846,0.000000
6847,1.953125
6848,0.000000
6849,1.953125
6850,0.000000
6851,1.953125
6852,0.000000
6853,1.953125
6854,1.953125
6855,1.953125
6856,1.953125
6857,1.953125
6858,1.953125
6859,1.953125
6860,1.953125
6861,1.953125
6862,1.953125
6863,1.953125
6864,1.953125
6865,1.953125
6866,1.953125
6867,1.953125
6868,1.953125
6869,1.953125
6870,1.953125
6871,3.906250
6872,1.953125
6873,3.906250
6874,3.906250
6875,3.906250
6876,3.906250
6877,3.906250
6878,3.906250
6879,3.906250
6880,3.906250
6881,3.906250
6882,3.906250
6883,3.906250
6884,3.906250
6885,3.906250
6886,3.906250
6887,3.906250
6888,3.906250
6889,3.906250
6890,3.906250
6891,5.859375
6892,3.906250
6893,3.906250
6894,5.859375
6895,5.859375
6896,5.859375
6897,5.859375
6898,5.859375
6899,5.859375
6900,5.859375
6901,5.859375
6902,5.859375
6903,5.859375
6904,5.859375
6905,5.859375
6906,5.859375
6907,5.859375
6908,5.859375
6909,5.859375
6910,5.859375
6911,5.859375
6912,5.859375
6913,5.859375
6914,5.859375
6915,5.859375
6916,5.859375
6917,5.859375
6918,7.812500
6919,5.859375
6920,5.859375
6921,5.859375
6922,7.812500
6923,7.812500
6924,7.812500
6925,7.812500
6926,7.812500
6927,7.812500
6928,7.812500
6929,7.812500
6930,7.812500
6931,7.812500
6932,7.812500
6933,7.812500
6934,7.812500
6935,7.812500
6936,7.812500
6937,7.812500
6938,7.812500
6939,9.765625
6940,7.812500
6941,9.765625
6942,7.812500
6943,7.812500
6944,7.812500
6945,9.765625
6946,9.765625
6947,9.765625
6948,7.812500
6949,9.765625
6950,9.765625
6951,9.765625
6952,9.765625
6953,9.765625
6954,9.765625
6955,9.765625
6956,9.765625
6957,9.765625
6958,9.765625
6959,7.812500
6960,9.765625
6961,9.765625
6962,9.765625
6963,9.765625
6964,9.765625
6965,9.765625
6966,9.765625
6967,9.765625
6968,9.765625
6969,9.765625
6970,9.765625
6971,9.765625
6972,9.765625
6973,9.765625
6974,9.765625
6975,9.765625
6976,11.718750
6977,9.765625
6978,9.765625
6979,9.765625
6980,9.765625
6981,9.765625
6982,9.765625
6983,9.765625
6984,9.765625
6985,9.765625
6986,9.765625
6987,9.765625
6988,9.765625
6989,9.765625
6990,9.765625
6991,9.765625
6992,9.765625
6993,9.765625
6994,9.765625
6995,9.765625
6996,9.765625
6997,9.765625
6998,9.765625
6999,9.765625
7000,9.765625
7001,9.765625
7002,9.765625
7003,9.765625
7004,9.765625
7005,9.765625
7006,9.765625
7007,9.765625
7008,9.765625
7009,9.765625
7010,9.765625
7011,9.765625
7012,7.812500
7013,7.812500
7014,7.812500
7015,7.812500
7016,7.812500
7017,7.812500
7018,7.812500
7019,7.812500
7020,7.812500
7021,7.812500
7022,7.812500
7023,5.859375
7024,7.812500
7025,5.859375
7026,7.812500
7027,5.859375
7028,5.859375
7029,5.859375
7030,5.859375
7031,5.859375
7032,5.859375
7033,3.906250
7034,5.859375
7035,3.906250
7036,3.906250
7037,3.906250
7038,3.906250
7039,3.906250
7040,3.906250
7041,1.953125
7042,3.906250
7043,1.953125
7044,3.906250
7045,1.953125
7046,1.953125
7047,1.953125
7048,1.953125
7049,0.000000
7050,1.953125
7051,0.000000
7052,0.000000
7053,0.000000
7054,0.000000
7055,1.953125
7056,0.000000
7057,-1.953125
7058,-1.953125
7059,-1.953125
7060,-1.953125
7061,-1.953125
7062,-1.953125
7063,-1.953125
7064,-1.953125
7065,-1.953125
7066,-3.906250
7067,-3.906250
7068,-3.906250
7069,-3.906250
7070,-3.906250
7071,-3.906250
7072,-3.906250
7073,-5.859375
7074,-5.859375
7075,-5.859375
7076,-5.859375
7077,-5.859375
7078,-5.859375
7079,-5.859375
7080,-7.812500
7081,-7.812500
7082,-7.812500
7083,-7.812500
7084,-7.812500
7085,-7.812500
7086,-9.765625
7087,-9.765625
7088,-9.765625
7089,-9.765625
7090,-9.765625
7091,-9.765625
7092,-9.765625
7093,-11.718750
7094,-11.718750
7095,-11.718750
7096,-11.718750
7097,-11.718750
7098,-13.671875
7099,-13.671875
7100,-13.671875
7101,-13.671875
7102,-13.671875
7103,-13.671875
7104,-13.671875
7105,-15.625000
7106,-15.625000
7107,-15.625000
7108,-15.625000
7109,-15.625000
7110,-15.625000
7111,-15.625000
7112,-17.578125
7113,-17.578125
7114,-17.578125
7115,-17.578125
7116,-17.578125
7117,-17.578125
7118,-17.578125
7119,-19.531250
7120,-19.531250
7121,-19.531250
7122,-19.531250
7123,-19.531250
7124,-19.531250
7125,-19.531250
7126,-19.531250
7127,-19.531250
7128,-21.484375
7129,-21.484375
7130,-21.484375
7131,-21.484375
7132,-21.484375
7133,-21.484375
7134,-21.484375
7135,-21.484375
7136,-23.437500
7137,-23.437500
7138,-23.437500
7139,-23.437500
7140,-23.437500
7141,-23.437500
7142,-23.437500
7143,-23.437500
7144,-23.437500
7145,-25.390625
7146,-25.390625
7147,-25.390625
7148,-25.390625
7149,-25.390625
7150,-25.390625
7151,-25.390625
7152,-25.390625
7153,-27.343750
7154,-27.343750
7155,-25.390625
7156,-27.343750
7157,-27.343750
7158,-27.343750
7159,-27.343750
7160,-27.343750
7161,-27.343750
7162,-27.343750
7163,-27.343750
7164,-27.343750
7165,-27.343750
7166,-29.296875
7167,-29.296875
7168,-29.296875
7169,-29.296875
7170,-29.296875
7171,-29.296875
7172,-29.296875
7173,-29.296875
7174,-29.296875
7175,-29.296875
7176,-31.250000
7177,-29.296875
7178,-29.296875
7179,-29.296875
7180,-29.296875
7181,-29.296875
7182,-31.250000
7183,-29.296875
7184,-31.250000
7185,-31.250000
7186,-29.296875
7187,-31.250000
7188,-29.296875
7189,-31.250000
7190,-31.250000
7191,-31.250000
7192,-31.250000
7193,-31.250000
7194,-31.250000
7195,-31.250000
7196,-31.250000
7197,-31.250000
7198,-31.250000
7199,-31.250000
7200,-31.250000
7201,-31.250000
7202,-31.250000
7203,-31.250000
7204,-31.250000
7205,-31.250000
7206,-31.250000
7207,-31.250000
7208,-31.250000
7209,-31.250000
7210,-31.250000
7211,-31.250000
7212,-31.250000
7213,-31.250000
7214,-31.250000
7215,-31.250000
7216,-31.250000
7217,-31.250000
7218,-31.250000
7219,-31.250000
7220,-31.250000
7221,-31.250000
7222,-31.250000
7223,-31.250000
7224,-31.250000
7225,-31.250000
7226,-31.250000
7227,-31.250000
7228,-31.250000
7229,-31.250000
7230,-31.250000
7231,-31.250000
7232,-31.250000
7233,-31.250000
7234,-31.250000
7235,-31.250000
7236,-31.250000
7237,-31.250000
7238,-31.250000
7239,-31.250000
7240,-31.250000
7241,-31.250000
7242,-31.250000
7243,-31.250000
7244,-31.250000
7245,-31.250000
7246,-31.250000
7247,-29.296875
7248,-31.250000
7249,-29.296875
7250,-29.296875
7251,-29.296875
7252,-29.296875
7253,-29.296875
7254,-29.296875
7255,-29.296875
7256,-29.296875
7257,-29.296875
7258,-29.296875
7259,-29.296875
7260,-29.296875
7261,-27.343750
7262,-29.296875
7263,-27.343750
7264,-27.343750
7265,-27.343750
7266,-27.343750
7267,-27.343750
7268,-27.343750
7269,-27.343750
7270,-27.343750
7271,-27.343750
7272,-27.343750
7273,-25.390625
7274,-27.343750
7275,-27.343750
7276,-27.343750
7277,-25.390625
7278,-25.390625
7279,-25.390625
7280,-25.390625
7281,-25.390625
7282,-23.437500
7283,-25.390625
7284,-23.437500
7285,-23.437500
7286,-23.437500
7287,-23.437500
7288,-23.437500
7289,-23.437500
7290,-23.437500
7291,-23.437500
7292,-23.437500
7293,-23.437500
7294,-23.437500
7295,-23.437500
7296,-23.437500
7297,-21.484375
7298,-21.484375
7299,-21.484375
7300,-21.484375
7301,-21.484375
7302,-21.484375
7303,-21.484375
7304,-21.484375
7305,-21.484375
7306,-19.531250
7307,-19.531250
7308,-19.531250
7309,-19.531250
7310,-19.531250
7311,-19.531250
7312,-17.578125
7313,-19.531250
7314,-19.531250
7315,-17.578125
7316,-17.578125
7317,-17.578125
7318,-17.578125
7319,-17.578125
7320,-15.625000
7321,-15.625000
7322,-17.578125
7323,-15.625000
7324,-15.625000
7325,-15.625000
7326,-15.625000
7327,-15.625000
7328,-15.625000
7329,-13.671875
7330,-13.671875
7331,-13.671875
7332,-13.671875
7333,-13.671875
7334,-13.671875
7335,-13.671875
7336,-11.718750
7337,-11.718750
7338,-13.671875
7339,-13.671875
7340,-11.718750
7341,-11.718750
7342,-11.718750
7343,-11.718750
7344,-11.718750
7345,-11.718750
7346,-11.718750
7347,-9.765625
7348,-9.765625
7349,-9.765625
7350,-9.765625
7351,-9.765625
7352,-9.765625
7353,-9.765625
7354,-9.765625
7355,-9.765625
7356,-9.765625
7357,-9.765625
7358,-7.812500
7359,-7.812500
7360,-7.812500
7361,-7.812500
7362,-7.812500
7363,-7.812500
7364,-7.812500
7365,-7.812500
7366,-7.812500
7367,-7.812500
7368,-5.859375
7369,-5.859375
7370,-5.859375
7371,-5.859375
7372,-7.812500
7373,-5.859375
7374,-5.859375
7375,-5.859375
7376,-5.859375
7377,-5.859375
7378,-5.859375
7379,-3.906250
7380,-5.859375
7381,-3.906250
7382,-3.906250
7383,-3.906250
7384,-3.906250
7385,-3.906250
7386,-3.906250
7387,-3.906250
7388,-3.906250
7389,-3.906250
7390,-3.906250
7391,-3.906250
7392,-1.953125
7393,-1.953125
7394,-1.953125
7395,-1.953125
7396,-1.953125
7397,-1.953125
7398,-1.953125
7399,-1.953125
7400,-1.953125
7401,-1.953125
7402,-1.953125
7403,-1.953125
7404,-1.953125
7405,-1.953125
7406,-1.953125
7407,-1.953125
7408,-1.953125
7409,-1.953125
7410,0.000000
7411,-1.953125
7412,0.000000
7413,-1.953125
7414,0.000000
7415,0.000000
7416,0.000000
7417,0.000000
7418,0.000000
7419,0.000000
7420,0.000000
7421,0.000000
7422,0.000000
7423,0.000000
7424,0.000000
7425,0.000000
7426,0.000000
7427,0.000000
7428,0.000000
7429,0.000000
7430,0.000000
7431,0.000000
7432,0.000000
7433,0.000000
7434,1.953125
7435,0.000000
7436,1.953125
7437,1.953125
7438,1.953125
7439,1.953125
7440,1.953125
7441,1.953125
7442,1.953125
7443,1.953125
7444,1.953125
7445,1.953125
7446,3.906250
7447,1.953125
7448,1.953125
7449,1.953125
7450,1.953125
7451,3.906250
7452,3.906250
7453,3.906250
7454,3.906250
7455,3.906250
7456,3.906250
7457,3.906250
7458,3.906250
7459,3.906250
7460,3.906250
7461,3.906250
7462,3.906250
7463,3.906250
7464,3.906250
7465,3.906250
7466,3.906250
7467,3.906250
7468,3.906250
7469,3.906250
7470,3.906250
7471,5.859375
7472,3.906250
7473,5.859375
7474,5.859375
7475,3.906250
7476,3.906250
7477,3.906250
7478,5.859375
7479,5.859375
7480,5.859375
7481,5.859375
7482,5.859375
7483,5.859375
7484,5.859375
7485,5.859375
7486,5.859375
7487,5.859375
7488,5.859375
7489,5.859375
7490,5.859375
7491,5.859375
7492,5.859375
7493,5.859375
7494,5.859375
7495,5.859375
7496,5.859375
7497,5.859375
7498,5.859375
7499,5.859375
7500,7.812500
7501,5.859375
7502,5.859375
7503,5.859375
7504,7.812500
7505,7.812500
7506,7.812500
7507,7.812500
7508,7.812500
7509,7.812500
7510,7.812500
7511,7.812500
7512,7.812500
7513,7.812500
7514,7.812500
7515,7.812500
7516,7.812500
7517,7.812500
7518,7.812500
7519,7.812500
7520,9.765625
7521,9.765625
7522,7.812500
7523,7.812500
7524,9.765625
7525,7.812500
7526,9.765625
7527,9.765625
7528,9.765625
7529,9.765625
7530,9.765625
7531,9.765625
7532,9.765625
7533,9.765625
7534,9.765625
7535,9.765625
7536,9.765625
7537,9.765625
7538,9.765625
7539,9.765625
7540,9.765625
7541,9.765625
7542,9.765625
7543,9.765625
7544,9.765625
7545,9.765625
7546,9.765625
7547,9.765625
7548,9.765625
7549,9.765625
7550,9.765625
7551,9.765625
7552,9.765625
7553,9.765625
7554,9.765625
7555,9.765625
7556,9.765625
7557,9.765625
7558,9.765625
7559,9.765625
7560,9.765625
7561,9.765625
7562,9.765625
7563,9.765625
7564,11.718750
7565,9.765625
7566,9.765625
7567,9.765625
7568,9.765625
7569,9.765625
7570,9.765625
7571,11.718750
7572,9.765625
7573,9.765625
7574,9.765625
7575,9.765625
7576,9.765625
7577,9.765625
7578,11.718750
7579,11.718750
7580,9.765625
7581,9.765625
7582,9.765625
7583,9.765625
7584,9.765625
7585,9.765625
7586,7.812500
7587,9.765625
7588,9.765625
7589,9.765625
7590,9.765625
7591,7.812500
7592,9.765625
7593,9.765625
7594,7.812500
7595,9.765625
7596,7.812500
7597,9.765625
7598,7.812500
7599,7.812500
7600,7.812500
7601,7.812500
7602,7.812500
7603,5.859375
7604,5.859375
7605,7.812500
7606,5.859375
7607,5.859375
7608,7.812500
7609,5.859375
7610,5.859375
7611,5.859375
7612,5.859375
7613,5.859375
7614,5.859375
7615,3.906250
7616,3.906250
7617,5.859375
7618,3.906250
7619,3.906250
7620,3.906250
7621,3.906250
7622,3.906250
7623,3.906250
7624,3.906250
7625,3.906250
7626,1.953125
7627,1.953125
7628,1.953125
7629,1.953125
7630,1.953125
7631,-3.906250
7632,0.000000
7633,0.000000
7634,0.000000
7635,0.000000
7636,0.000000
7637,1.953125
7638,0.000000
7639,0.000000
7640,0.000000
7641,-1.953125
7642,-1.953125
7643,-1.953125
7644,-1.953125
7645,-1.953125
7646,-1.953125
7647,-1.953125
7648,-3.906250
7649,-3.906250
7650,-3.906250
7651,-3.906250
7652,-3.906250
7653,-3.906250
7654,-3.906250
7655,-3.906250
7656,-5.859375
7657,-5.859375
7658,-5.859375
7659,-5.859375
7660,-5.859375
7661,-5.859375
7662,-7.812500
7663,-7.812500
7664,-7.812500
7665,-7.812500
7666,-9.765625
7667,-7.812500
7668,-7.812500
7669,-9.765625
7670,-7.812500
7671,-9.765625
7672,-5.859375
7673,-11.718750
7674,-11.718750
7675,-11.718750
7676,-11.718750
7677,-11.718750
7678,-11.718750
7679,-13.671875
7680,-11.718750
7681,-13.671875
7682,-13.671875
7683,-13.671875
7684,-13.671875
7685,-13.671875
7686,-13.671875
7687,-13.671875
7688,-15.625000
7689,-15.625000
7690,-15.625000
7691,-15.625000
7692,-15.625000
7693,-17.578125
7694,-17.578125
7695,-15.625000
7696,-17.578125
7697,-17.578125
7698,-17.578125
7699,-17.578125
7700,-17.578125
7701,-19.531250
7702,-17.578125
7703,-17.578125
7704,-19.531250
7705,-19.531250
7706,-19.531250
7707,-19.531250
7708,-19.531250
7709,-19.531250
7710,-19.531250
7711,-21.484375
7712,-19.531250
7713,-21.484375
7714,-21.484375
7715,-21.484375
7716,-21.484375
7717,-23.437500
7718,-23.437500
7719,-23.437500
7720,-23.437500
7721,-23.437500
7722,-23.437500
7723,-23.437500
7724,-23.437500
7725,-23.437500
7726,-23.437500
7727,-23.437500
7728,-23.437500
7729,-25.390625
7730,-25.390625
7731,-25.390625
7732,-25.390625
7733,-27.343750
7734,-25.390625
7735,-27.343750
7736,-25.390625
7737,-25.390625
7738,-27.343750
7739,-27.343750
7740,-27.343750
7741,-27.343750
7742,-27.343750
7743,-27.343750
7744,-27.343750
7745,-27.343750
7746,-27.343750
7747,-29.296875
7748,-29.296875
7749,-29.296875
7750,-29.296875
7751,-29.296875
7752,-27.343750
7753,-29.296875
7754,-29.296875
7755,-29.296875
7756,-29.296875
7757,-29.296875
7758,-29.296875
7759,-29.296875
7760,-29.296875
7761,-29.296875
7762,-29.296875
7763,-31.250000
7764,-31.250000
7765,-31.250000
7766,-29.296875
7767,-31.250000
7768,-31.250000
7769,-31.250000
7770,-31.250000
7771,-31.250000
7772,-31.250000
7773,-31.250000
7774,-31.250000
7775,-31.250000
7776,-31.250000
7777,-31.250000
7778,-31.250000
7779,-31.250000
7780,-31.250000
7781,-31.250000
7782,-31.250000
7783,-31.250000
7784,-31.250000
7785,-31.250000
7786,-31.250000
7787,-31.250000
7788,-31.250000
7789,-31.250000
7790,-31.250000
7791,-31.250000
7792,-31.250000
7793,-31.250000
7794,-31.250000
7795,-31.250000
7796,-31.250000
7797,-31.250000
7798,-31.250000
7799,-31.250000
7800,-31.250000
7801,-31.250000
7802,-31.250000
7803,-31.250000
7804,-31.250000
7805,-31.250000
7806,-31.250000
7807,-31.250000
7808,-31.250000
7809,-31.250000
7810,-33.203125
7811,-31.250000
7812,-31.250000
7813,-31.250000
7814,-31.250000
7815,-31.250000
7816,-31.250000
7817,-31.250000
7818,-31.250000
7819,-31.250000
7820,-31.250000
7821,-31.250000
7822,-31.250000
7823,-31.250000
7824,-31.250000
7825,-31.250000
7826,-31.250000
7827,-29.296875
7828,-31.250000
7829,-29.296875
7830,-29.296875
7831,-29.296875
7832,-29.296875
7833,-29.296875
7834,-29.296875
7835,-29.296875
7836,-29.296875
7837,-29.296875
7838,-29.296875
7839,-29.296875
7840,-29.296875
7841,-29.296875
7842,-29.296875
7843,-31.250000
7844,-25.390625
7845,-29.296875
7846,-27.343750
7847,-27.343750
7848,-29.296875
7849,-27.343750
7850,-27.343750
7851,-27.343750
7852,-27.343750
7853,-27.343750
7854,-25.390625
7855,-27.343750
7856,-27.343750
7857,-25.390625
7858,-25.390625
7859,-25.390625
7860,-25.390625
7861,-25.390625
7862,-23.437500
7863,-25.390625
7864,-25.390625
7865,-23.437500
7866,-25.390625
7867,-25.390625
7868,-25.390625
7869,-23.437500
7870,-23.437500
7871,-23.437500
7872,-23.437500
7873,-23.437500
7874,-23.437500
7875,-23.437500
7876,-21.484375
7877,-23.437500
7878,-23.437500
7879,-21.484375
7880,-23.437500
7881,-19.531250
7882,-21.484375
7883,-21.484375
7884,-21.484375
7885,-21.484375
7886,-21.484375
7887,-21.484375
7888,-21.484375
7889,-19.531250
7890,-19.531250
7891,-19.531250
7892,-19.531250
7893,-17.578125
7894,-19.531250
7895,-19.531250
7896,-19.531250
7897,-17.578125
7898,-17.578125
7899,-17.578125
7900,-17.578125
7901,-17.578125
7902,-15.625000
7903,-15.625000
7904,-17.578125
7905,-15.625000
7906,-15.625000
7907,-15.625000
7908,-15.625000
7909,-15.625000
7910,-15.625000
7911,-13.671875
7912,-13.671875
7913,-13.671875
7914,-13.671875
7915,-13.671875
7916,-13.671875
7917,-13.671875
7918,-13.671875
7919,-11.718750
7920,-11.718750
7921,-11.718750
7922,-13.671875
7923,-11.718750
7924,-11.718750
7925,-11.718750
7926,-11.718750
7927,-11.718750
7928,-9.765625
7929,-9.765625
7930,-9.765625
7931,-9.765625
7932,-9.765625
7933,-9.765625
7934,-9.765625
7935,-9.765625
7936,-9.765625
7937,-9.765625
7938,-9.765625
7939,-9.765625
7940,-9.765625
7941,-7.812500
7942,-7.812500
7943,-7.812500
7944,-7.812500
7945,-7.812500
7946,-7.812500
7947,-7.812500
7948,-7.812500
7949,-7.812500
7950,-5.859375
7951,-5.859375
7952,-5.859375
7953,-5.859375
7954,-5.859375
7955,-5.859375
7956,-5.859375
7957,-5.859375
7958,-5.859375
7959,-5.859375
7960,-5.859375
7961,-5.859375
7962,-3.906250
7963,-3.906250
7964,-3.906250
7965,-3.906250
7966,-3.906250
7967,-3.906250
7968,-3.906250
7969,-3.906250
7970,-3.906250
7971,-1.953125
7972,-1.953125
7973,-1.953125
7974,-1.953125
7975,-1.953125
7976,-1.953125
7977,-1.953125
7978,-1.953125
7979,-1.953125
7980,-1.953125
7981,-1.953125
7982,-1.953125
7983,-1.953125
7984,-1.953125
7985,-1.953125
7986,-1.953125
7987,0.000000
7988,-1.953125
7989,0.000000
7990,0.000000
7991,0.000000
7992,0.000000
7993,0.000000
7994,0.000000
7995,0.000000
7996,0.000000
7997,0.000000
7998,0.000000
7999,0.000000
8000,0.000000
8001,0.000000
8002,0.000000
8003,0.000000
8004,0.000000
8005,0.000000
8006,0.000000
8007,1.953125
8008,0.000000
8009,0.000000
8010,0.000000
8011,0.000000
8012,1.953125
8013,1.953125
8014,1.953125
8015,1.953125
8016,1.953125
8017,1.953125
8018,0.000000
8019,1.953125
8020,1.953125
8021,1.953125
8022,1.953125
8023,1.953125
8024,1.953125
8025,1.953125
8026,1.953125
8027,1.953125
8028,1.953125
8029,1.953125
8030,3.906250
8031,3.906250
8032,3.906250
8033,3.906250
8034,3.906250
8035,3.906250
8036,3.906250
8037,3.906250
8038,3.906250
8039,3.906250
8040,3.906250
8041,3.906250
8042,3.906250
8043,3.906250
8044,3.906250
8045,3.906250
8046,3.906250
8047,3.906250
8048,3.906250
8049,3.906250
8050,5.859375
8051,5.859375
8052,3.906250
8053,3.906250
8054,5.859375
8055,5.859375
8056,5.859375
8057,3.906250
8058,5.859375
8059,5.859375
8060,5.859375
8061,5.859375
8062,5.859375
8063,5.859375
8064,5.859375
8065,5.859375
8066,5.859375
8067,5.859375
8068,5.859375
8069,5.859375
8070,5.859375
8071,5.859375
8072,5.859375
8073,7.812500
8074,5.859375
8075,5.859375
8076,5.859375
8077,7.812500
8078,7.812500
8079,5.859375
8080,7.812500
8081,5.859375
8082,5.859375
8083,7.812500
8084,7.812500
8085,7.812500
8086,7.812500
8087,7.812500
8088,7.812500
8089,5.859375
8090,7.812500
8091,7.812500
8092,7.812500
8093,7.812500
8094,7.812500
8095,7.812500
8096,7.812500
8097,9.765625
8098,9.765625
8099,7.812500
8100,9.765625
8101,9.765625
8102,7.812500
8103,9.765625
8104,9.765625
8105,9.765625
8106,9.765625
8107,9.765625
8108,9.765625
8109,9.765625
8110,9.765625
8111,9.765625
8112,9.765625
8113,9.765625
8114,9.765625
8115,9.765625
8116,9.765625
8117,9.765625
8118,9.765625
8119,9.765625
8120,9.765625
8121,9.765625
8122,9.765625
8123,9.765625
8124,9.765625
8125,9.765625
8126,9.765625
8127,9.765625
8128,9.765625
8129,9.765625
8130,9.765625
8131,11.718750
8132,11.718750
8133,9.765625
8134,9.765625
8135,9.765625
8136,9.765625
8137,9.765625
8138,9.765625
8139,9.765625
8140,11.718750
8141,9.765625
8142,9.765625
8143,9.765625
8144,9.765625
8145,9.765625
8146,11.718750
8147,9.765625
8148,9.765625
8149,9.765625
8150,9.765625
8151,9.765625
8152,9.765625
8153,9.765625
8154,9.765625
8155,9.765625
8156,11.718750
8157,9.765625
8158,9.765625
8159,11.718750
8160,9.765625
8161,11.718750
8162,11.718750
8163,9.765625
8164,9.765625
8165,9.765625
8166,9.765625
8167,9.765625
8168,9.765625
8169,9.765625
8170,9.765625
8171,9.765625
8172,7.812500
8173,9.765625
8174,9.765625
8175,9.765625
8176,9.765625
8177,9.765625
8178,7.812500
8179,7.812500
8180,7.812500
8181,7.812500
8182,7.812500
8183,7.812500
8184,7.812500
8185,7.812500
8186,5.859375
8187,7.812500
8188,7.812500
8189,5.859375
8190,5.859375
8191,5.859375
8192,5.859375
8193,5.859375
8194,5.859375
8195,5.859375
8196,5.859375
8197,3.906250
8198,3.906250
8199,5.859375
8200,3.906250
8201,3.906250
8202,3.906250
8203,1.953125
8204,1.953125
8205,3.906250
8206,1.953125
8207,1.953125
8208,1.953125
8209,1.953125
8210,1.953125
8211,1.953125
8212,1.953125
8213,0.000000
8214,0.000000
8215,0.000000
8216,0.000000
8217,0.000000
8218,0.000000
8219,0.000000
8220,0.000000
8221,-1.953125
8222,0.000000
8223,-1.953125
8224,-1.953125
8225,-1.953125
8226,-1.953125
8227,-1.953125
8228,-1.953125
8229,-1.953125
8230,-1.953125
8231,-3.906250
8232,-3.906250
8233,-3.906250
8234,-3.906250
8235,-3.906250
8236,-3.906250
8237,-5.859375
8238,-5.859375
8239,-5.859375
8240,-5.859375
8241,-5.859375
8242,-5.859375
8243,-5.859375
8244,-7.812500
8245,-7.812500
8246,-7.812500
8247,-7.812500
8248,-7.812500
8249,-7.812500
8250,-7.812500
8251,-9.765625
8252,-9.765625
8253,-9.765625
8254,-9.765625
8255,-11.718750
8256,-11.718750
8257,-11.718750
8258,-11.718750
8259,-11.718750
8260,-13.671875
8261,-13.671875
8262,-13.671875
8263,-13.671875
8264,-13.671875
8265,-13.671875
8266,-13.671875
8267,-13.671875
8268,-13.671875
8269,-15.625000
8270,-15.625000
8271,-15.625000
8272,-15.625000
8273,-15.625000
8274,-15.625000
8275,-15.625000
8276,-17.578125
8277,-17.578125
8278,-17.578125
8279,-17.578125
8280,-17.578125
8281,-17.578125
8282,-17.578125
8283,-17.578125
8284,-17.578125
8285,-19.531250
8286,-19.531250
8287,-19.531250
8288,-19.531250
8289,-19.531250
8290,-19.531250
8291,-21.484375
8292,-21.484375
8293,-21.484375
8294,-21.484375
8295,-21.484375
8296,-21.484375
8297,-21.484375
8298,-21.484375
8299,-21.484375
8300,-21.484375
8301,-21.484375
8302,-23.437500
8303,-23.437500
8304,-23.437500
8305,-23.437500
8306,-23.437500
8307,-23.437500
8308,-23.437500
8309,-25.390625
8310,-25.390625
8311,-25.390625
8312,-25.390625
8313,-25.390625
8314,-25.390625
8315,-25.390625
8316,-27.343750
8317,-25.390625
8318,-27.343750
8319,-27.343750
8320,-27.343750
8321,-27.343750
8322,-27.343750
8323,-27.343750
8324,-27.343750
8325,-27.343750
8326,-27.343750
8327,-27.343750
8328,-27.343750
8329,-29.296875
8330,-29.296875
8331,-27.343750
8332,-27.343750
8333,-29.296875
8334,-29.296875
8335,-29.296875
8336,-29.296875
8337,-29.296875
8338,-29.296875
8339,-29.296875
8340,-29.296875
8341,-29.296875
8342,-29.296875
8343,-29.296875
8344,-29.296875
8345,-29.296875
8346,-29.296875
8347,-31.250000
8348,-31.250000
8349,-29.296875
8350,-31.250000
8351,-29.296875
8352,-31.250000
8353,-31.250000
8354,-31.250000
8355,-31.250000
8356,-31.250000
8357,-29.296875
8358,-31.250000
8359,-31.250000
8360,-31.250000
8361,-31.250000
8362,-31.250000
8363,-31.250000
8364,-31.250000
8365,-31.250000
8366,-31.250000
8367,-31.250000
8368,-31.250000
8369,-31.250000
8370,-31.250000
8371,-31.250000
8372,-31.250000
8373,-31.250000
8374,-31.250000
8375,-31.250000
8376,-31.250000
8377,-31.250000
8378,-31.250000
8379,-31.250000
8380,-31.250000
8381,-31.250000
8382,-31.250000
8383,-31.250000
8384,-31.250000
8385,-31.250000
8386,-31.250000
8387,-31.250000
8388,-31.250000
8389,-31.250000
8390,-31.250000
8391,-31.250000
8392,-31.250000
8393,-31.250000
8394,-31.250000
8395,-31.250000
8396,-31.250000
8397,-31.250000
8398,-31.250000
8399,-31.250000
8400,-31.250000
8401,-31.250000
8402,-31.250000
8403,-31.250000
8404,-31.250000
8405,-31.250000
8406,-29.296875
8407,-29.296875
8408,-31.250000
8409,-29.296875
8410,-29.296875
8411,-29.296875
8412,-29.296875
8413,-29.296875
8414,-29.296875
8415,-29.296875
8416,-29.296875
8417,-29.296875
8418,-29.296875
8419,-29.296875
8420,-29.296875
8421,-29.296875
8422,-27.343750
8423,-29.296875
8424,-27.343750
8425,-27.343750
8426,-27.343750
8427,-27.343750
8428,-27.343750
8429,-27.343750
8430,-27.343750
8431,-27.343750
8432,-27.343750
8433,-27.343750
8434,-27.343750
8435,-27.343750
8436,-25.390625
8437,-25.390625
8438,-25.390625
8439,-25.390625
8440,-25.390625
8441,-25.390625
8442,-25.390625
8443,-25.390625
8444,-25.390625
8445,-25.390625
8446,-25.390625
8447,-25.390625
8448,-23.437500
8449,-25.390625
8450,-23.437500
8451,-23.437500
8452,-23.437500
8453,-23.437500
8454,-23.437500
8455,-21.484375
8456,-23.437500
8457,-23.437500
8458,-21.484375
8459,-23.437500
8460,-21.484375
8461,-21.484375
8462,-23.437500
8463,-21.484375
8464,-21.484375
8465,-21.484375
8466,-21.484375
8467,-19.531250
8468,-19.531250
8469,-19.531250
8470,-19.531250
8471,-19.531250
8472,-19.531250
8473,-19.531250
8474,-19.531250
8475,-17.578125
8476,-19.531250
8477,-17.578125
8478,-17.578125
8479,-17.578125
8480,-17.578125
8481,-17.578125
8482,-15.625000
8483,-17.578125
8484,-17.578125
8485,-15.625000
8486,-15.625000
8487,-15.625000
8488,-15.625000
8489,-15.625000
8490,-15.625000
8491,-13.671875
8492,-13.671875
8493,-13.671875
8494,-13.671875
8495,-13.671875
8496,-13.671875
8497,-13.671875
8498,-13.671875
8499,-11.718750
8500,-11.718750
8501,-11.718750
8502,-11.718750
8503,-11.718750
8504,-11.718750
8505,-11.718750
8506,-11.718750
8507,-11.718750
8508,-11.718750
8509,-11.718750
8510,-11.718750
8511,-9.765625
8512,-9.765625
8513,-9.765625
8514,-9.765625
8515,-9.765625
8516,-9.765625
8517,-9.765625
8518,-9.765625
8519,-9.765625
8520,-7.812500
8521,-7.812500
8522,-7.812500
8523,-7.812500
8524,-7.812500
8525,-7.812500
8526,-7.812500
8527,-7.812500
8528,-7.812500
8529,-5.859375
8530,-5.859375
8531,-5.859375
8532,-7.812500
8533,-5.859375
8534,-5.859375
8535,-5.859375
8536,-5.859375
8537,-5.859375
8538,-3.906250
8539,-3.906250
8540,-3.906250
8541,-3.906250
8542,-3.906250
8543,-3.906250
8544,-3.906250
8545,-3.906250
8546,-3.906250
8547,-3.906250
8548,-3.906250
8549,-3.906250
8550,-3.906250
8551,-1.953125
8552,-1.953125
8553,-1.953125
8554,-1.953125
8555,-1.953125
8556,-1.953125
8557,-1.953125
8558,-1.953125
8559,-1.953125
8560,0.000000
8561,-1.953125
8562,-1.953125
8563,-1.953125
8564,-1.953125
8565,0.000000
8566,-1.953125
8567,-1.953125
8568,0.000000
8569,0.000000
8570,0.000000
8571,0.000000
8572,0.000000
8573,0.000000
8574,0.000000
8575,0.000000
8576,0.000000
8577,0.000000
8578,0.000000
8579,0.000000
8580,0.000000
8581,0.000000
8582,0.000000
8583,1.953125
8584,0.000000
8585,0.000000
8586,0.000000
8587,0.000000
8588,0.000000
8589,0.000000
8590,0.000000
8591,1.953125
8592,0.000000
8593,0.000000
8594,0.000000
8595,1.953125
8596,1.953125
8597,1.953125
8598,1.953125
8599,1.953125
8600,1.953125
8601,1.953125
8602,0.000000
8603,1.953125
8604,1.953125
8605,1.953125
8606,3.906250
8607,1.953125
8608,1.953125
8609,1.953125
8610,3.906250
8611,3.906250
8612,3.906250
8613,3.906250
8614,3.906250
8615,3.906250
8616,3.906250
8617,3.906250
8618,3.906250
8619,3.906250
8620,3.906250
8621,3.906250
8622,3.906250
8623,3.906250
8624,3.906250
8625,3.906250
8626,3.906250
8627,3.906250
8628,3.906250
8629,3.906250
8630,3.906250
8631,5.859375
8632,5.859375
8633,5.859375
8634,3.906250
8635,3.906250
8636,3.906250
8637,5.859375
8638,5.859375
8639,5.859375
8640,5.859375
8641,5.859375
8642,5.859375
8643,5.859375
8644,5.859375
8645,5.859375
8646,5.859375
8647,5.859375
8648,5.859375
8649,5.859375
8650,5.859375
8651,5.859375
8652,5.859375
8653,5.859375
8654,7.812500
8655,5.859375
8656,5.859375
8657,5.859375
8658,5.859375
8659,5.859375
8660,5.859375
8661,7.812500
8662,5.859375
8663,5.859375
8664,7.812500
8665,7.812500
8666,5.859375
8667,7.812500
8668,7.812500
8669,7.812500
8670,7.812500
8671,7.812500
8672,7.812500
8673,7.812500
8674,7.812500
8675,7.812500
8676,7.812500
8677,7.812500
8678,7.812500
8679,7.812500
8680,9.765625
8681,7.812500
8682,7.812500
8683,7.812500
8684,7.812500
8685,9.765625
8686,9.765625
8687,7.812500
8688,7.812500
8689,9.765625
8690,9.765625
8691,9.765625
8692,9.765625
8693,7.812500
8694,9.765625
8695,9.765625
8696,9.765625
8697,9.765625
8698,9.765625
8699,9.765625
8700,9.765625
8701,9.765625
8702,9.765625
8703,9.765625
8704,9.765625
8705,9.765625
8706,11.718750
8707,9.765625
8708,9.765625
8709,9.765625
8710,9.765625
8711,9.765625
8712,9.765625
8713,9.765625
8714,9.765625
8715,9.765625
8716,9.765625
8717,9.765625
8718,9.765625
8719,9.765625
8720,9.765625
8721,9.765625
8722,9.765625
8723,9.765625
8724,9.765625
8725,9.765625
8726,9.765625
8727,9.765625
8728,9.765625
8729,9.765625
8730,9.765625
8731,9.765625
8732,9.765625
8733,9.765625
8734,9.765625
8735,9.765625
8736,9.765625
8737,9.765625
8738,9.765625
8739,9.765625
8740,9.765625
8741,9.765625
8742,9.765625
8743,9.765625
8744,9.765625
8745,9.765625
8746,9.765625
8747,9.765625
8748,9.765625
8749,9.765625
8750,9.765625
8751,9.765625
8752,9.765625
8753,9.765625
8754,7.812500
8755,7.812500
8756,7.812500
8757,9.765625
8758,7.812500
8759,7.812500
8760,7.812500
8761,7.812500
8762,7.812500
8763,7.812500
8764,7.812500
8765,7.812500
8766,7.812500
8767,7.812500
8768,7.812500
8769,7.812500
8770,5.859375
8771,5.859375
8772,5.859375
8773,5.859375
8774,5.859375
8775,5.859375
8776,5.859375
8777,3.906250
8778,5.859375
8779,5.859375
8780,3.906250
8781,3.906250
8782,3.906250
8783,3.906250
8784,3.906250
8785,3.906250
8786,3.906250
8787,1.953125
8788,3.906250
8789,1.953125
8790,1.953125
8791,1.953125
8792,1.953125
8793,1.953125
8794,1.953125
8795,1.953125
8796,1.953125
8797,1.953125
8798,0.000000
8799,0.000000
8800,0.000000
8801,0.000000
8802,0.000000
8803,0.000000
8804,-1.953125
8805,0.000000
8806,-1.953125
8807,-1.953125
8808,-1.953125
8809,-1.953125
8810,-1.953125
8811,-1.953125
8812,-1.953125
8813,-1.953125
8814,-3.906250
8815,-3.906250
8816,-3.906250
8817,-3.906250
8818,-3.906250
8819,-3.906250
8820,-3.906250
8821,-5.859375
8822,-5.859375
8823,-5.859375
8824,-5.859375
8825,-5.859375
8826,-5.859375
8827,-7.812500
8828,-7.812500
8829,-7.812500
8830,-7.812500
8831,-7.812500
8832,-7.812500
8833,-7.812500
8834,-9.765625
8835,-11.718750
8836,-9.765625
8837,-9.765625
8838,-9.765625
8839,-9.765625
8840,-9.765625
8841,-11.718750
8842,-11.718750
8843,-11.718750
8844,-11.718750
8845,-11.718750
8846,-13.671875
8847,-13.671875
8848,-13.671875
8849,-13.671875
8850,-13.671875
8851,-15.625000
8852,-13.671875
8853,-15.625000
8854,-15.625000
8855,-15.625000
8856,-15.625000
8857,-15.625000
8858,-17.578125
8859,-15.625000
8860,-15.625000
8861,-17.578125
8862,-17.578125
8863,-17.578125
8864,-17.578125
8865,-17.578125
8866,-17.578125
8867,-17.578125
8868,-17.578125
8869,-19.531250
8870,-19.531250
8871,-17.578125
8872,-19.531250
8873,-19.531250
8874,-21.484375
8875,-19.531250
8876,-19.531250
8877,-21.484375
8878,-21.484375
8879,-21.484375
8880,-21.484375
8881,-21.484375
8882,-21.484375
8883,-21.484375
8884,-21.484375
8885,-23.437500
8886,-23.437500
8887,-23.437500
8888,-23.437500
8889,-23.437500
8890,-23.437500
8891,-23.437500
8892,-23.437500
8893,-25.390625
8894,-23.437500
8895,-23.437500
8896,-25.390625
8897,-25.390625
8898,-25.390625
8899,-25.390625
8900,-25.390625
8901,-27.343750
8902,-25.390625
8903,-27.343750
8904,-27.343750
8905,-27.343750
8906,-27.343750
8907,-27.343750
8908,-27.343750
8909,-27.343750
8910,-27.343750
8911,-27.343750
8912,-27.343750
8913,-27.343750
8914,-27.343750
8915,-29.296875
8916,-27.343750
8917,-27.343750
8918,-29.296875
8919,-29.296875
8920,-29.296875
8921,-29.296875
8922,-29.296875
8923,-29.296875
8924,-29.296875
8925,-29.296875
8926,-29.296875
8927,-29.296875
8928,-29.296875
8929,-29.296875
8930,-29.296875
8931,-29.296875
8932,-29.296875
8933,-29.296875
8934,-29.296875
8935,-29.296875
8936,-29.296875
8937,-29.296875
8938,-29.296875
8939,-31.250000
8940,-29.296875
8941,-31.250000
8942,-29.296875
8943,-31.250000
8944,-31.250000
8945,-31.250000
8946,-31.250000
8947,-29.296875
8948,-29.296875
8949,-31.250000
8950,-31.250000
8951,-29.296875
8952,-31.250000
8953,-31.250000
8954,-31.250000
8955,-31.250000
8956,-31.250000
8957,-31.250000
8958,-29.296875
8959,-31.250000
8960,-31.250000
8961,-31.250000
8962,-31.250000
8963,-31.250000
8964,-31.250000
8965,-31.250000
8966,-31.250000
8967,-31.250000
8968,-31.250000
8969,-31.250000
8970,-31.250000
8971,-31.250000
8972,-31.250000
8973,-31.250000
8974,-31.250000
8975,-31.250000
8976,-31.250000
8977,-31.250000
8978,-31.250000
8979,-31.250000
8980,-29.296875
8981,-31.250000
8982,-31.250000
8983,-31.250000
8984,-31.250000
8985,-31.250000
8986,-31.250000
8987,-29.296875
8988,-29.296875
8989,-29.296875
8990,-29.296875
8991,-31.250000
8992,-29.296875
8993,-29.296875
8994,-29.296875
8995,-29.296875
8996,-29.296875
8997,-29.296875
8998,-29.296875
8999,-29.296875
9000,-29.296875
9001,-29.296875
9002,-29.296875
9003,-27.343750
9004,-29.296875
9005,-29.296875
9006,-27.343750
9007,-27.343750
9008,-27.343750
9009,-27.343750
9010,-27.343750
9011,-27.343750
9012,-27.343750
9013,-27.343750
9014,-27.343750
9015,-25.390625
9016,-27.343750
9017,-27.343750
9018,-25.390625
9019,-25.390625
9020,-27.343750
9021,-25.390625
9022,-25.390625
9023,-25.390625
9024,-25.390625
9025,-25.390625
9026,-25.390625
9027,-25.390625
9028,-25.390625
9029,-25.390625
9030,-25.390625
9031,-25.390625
9032,-23.437500
9033,-23.437500
9034,-23.437500
9035,-23.437500
9036,-23.437500
9037,-23.437500
9038,-23.437500
9039,-23.437500
9040,-21.484375
9041,-23.437500
9042,-23.437500
9043,-21.484375
9044,-21.484375
9045,-21.484375
9046,-21.484375
9047,-21.484375
9048,-21.484375
9049,-21.484375
9050,-21.484375
9051,-19.531250
9052,-19.531250
9053,-19.531250
9054,-19.531250
9055,-19.531250
9056,-19.531250
9057,-19.531250
9058,-19.531250
9059,-17.578125
9060,-19.531250
9061,-17.578125
9062,-17.578125
9063,-17.578125
9064,-17.578125
9065,-17.578125
9066,-15.625000
9067,-15.625000
9068,-15.625000
9069,-15.625000
9070,-15.625000
9071,-15.625000
9072,-15.625000
9073,-15.625000
9074,-15.625000
9075,-13.671875
9076,-13.671875
9077,-13.671875
9078,-13.671875
9079,-13.671875
9080,-13.671875
9081,-13.671875
9082,-13.671875
9083,-11.718750
9084,-13.671875
9085,-13.671875
9086,-11.718750
9087,-11.718750
9088,-11.718750
9089,-11.718750
9090,-11.718750
9091,-11.718750
9092,-11.718750
9093,-11.718750
9094,-9.765625
9095,-9.765625
9096,-9.765625
9097,-9.765625
9098,-9.765625
9099,-9.765625
9100,-9.765625
9101,-9.765625
9102,-9.765625
9103,-9.765625
9104,-7.812500
9105,-7.812500
9106,-7.812500
9107,-7.812500
9108,-7.812500
9109,-7.812500
9110,-7.812500
9111,-7.812500
9112,-5.859375
9113,-5.859375
9114,-7.812500
9115,-7.812500
9116,-5.859375
9117,-5.859375
9118,-5.859375
9119,-5.859375
9120,-5.859375
9121,-5.859375
9122,-5.859375
9123,-5.859375
9124,-3.906250
9125,-3.906250
9126,-3.906250
9127,-3.906250
9128,-3.906250
9129,-3.906250
9130,-3.906250
9131,-3.906250
9132,-3.906250
9133,-1.953125
9134,-1.953125
9135,-3.906250
9136,-3.906250
9137,-1.953125
9138,-1.953125
9139,-1.953125
9140,-1.953125
9141,-1.953125
9142,-1.953125
9143,-1.953125
9144,-1.953125
9145,-1.953125
9146,-1.953125
9147,-1.953125
9148,-1.953125
9149,-1.953125
9150,-1.953125
9151,-1.953125
9152,-1.953125
9153,0.000000
9154,-1.953125
9155,0.000000
9156,0.000000
9157,0.000000
9158,0.000000
9159,0.000000
9160,-1.953125
9161,0.000000
9162,0.000000
9163,0.000000
9164,0.000000
9165,0.000000
9166,0.000000
9167,0.000000
9168,0.000000
9169,0.000000
9170,0.000000
9171,0.000000
9172,0.000000
9173,0.000000
9174,1.953125
9175,0.000000
9176,0.000000
9177,0.000000
9178,1.953125
9179,1.953125
9180,1.953125
9181,1.953125
9182,1.953125
9183,1.953125
9184,1.953125
9185,1.953125
9186,1.953125
9187,1.953125
9188,1.953125
9189,3.906250
9190,1.953125
9191,1.953125
9192,1.953125
9193,3.906250
9194,3.906250
9195,1.953125
9196,3.906250
9197,3.906250
9198,3.906250
9199,3.906250
9200,3.906250
9201,3.906250
9202,3.906250
9203,3.906250
9204,3.906250
9205,3.906250
9206,3.906250
9207,3.906250
9208,3.906250
9209,3.906250
9210,3.906250
9211,3.906250
9212,5.859375
9213,3.906250
9214,3.906250
9215,3.906250
9216,3.906250
9217,5.859375
9218,5.859375
9219,5.859375
9220,5.859375
9221,3.906250
9222,3.906250
9223,5.859375
9224,3.906250
9225,5.859375
9226,5.859375
9227,5.859375
9228,5.859375
9229,5.859375
9230,5.859375
9231,5.859375
9232,5.859375
9233,5.859375
9234,5.859375
9235,5.859375
9236,5.859375
9237,5.859375
9238,5.859375
9239,7.812500
9240,5.859375
9241,5.859375
9242,5.859375
9243,5.859375
9244,5.859375
9245,5.859375
9246,5.859375
9247,7.812500
9248,7.812500
9249,7.812500
9250,5.859375
9251,7.812500
9252,7.812500
9253,7.812500
9254,7.812500
9255,7.812500
9256,7.812500
9257,7.812500
9258,7.812500
9259,7.812500
9260,7.812500
9261,7.812500
9262,7.812500
9263,7.812500
9264,7.812500
9265,9.765625
9266,7.812500
9267,7.812500
9268,7.812500
9269,9.765625
9270,7.812500
9271,7.812500
9272,9.765625
9273,7.812500
9274,9.765625
9275,9.765625
9276,9.765625
9277,9.765625
9278,9.765625
9279,9.765625
9280,9.765625
9281,9.765625
9282,9.765625
9283,9.765625
9284,9.765625
9285,9.765625
9286,9.765625
9287,9.765625
9288,9.765625
9289,9.765625
9290,9.765625
9291,9.765625
9292,9.765625
9293,9.765625
9294,9.765625
9295,9.765625
9296,9.765625
9297,9.765625
9298,9.765625
9299,9.765625
9300,9.765625
9301,9.765625
9302,9.765625
9303,9.765625
9304,9.765625
9305,9.765625
9306,9.765625
9307,9.765625
9308,9.765625
9309,9.765625
9310,9.765625
9311,9.765625
9312,9.765625
9313,9.765625
9314,9.765625
9315,9.765625
9316,9.765625
9317,9.765625
9318,11.718750
9319,9.765625
9320,9.765625
9321,9.765625
9322,9.765625
9323,11.718750
9324,9.765625
9325,9.765625
9326,9.765625
9327,9.765625
9328,9.765625
9329,9.765625
9330,9.765625
9331,9.765625
9332,9.765625
9333,9.765625
9334,9.765625
9335,9.765625
9336,9.765625
9337,9.765625
9338,9.765625
9339,9.765625
9340,7.812500
9341,9.765625
9342,7.812500
9343,7.812500
9344,7.812500
9345,7.812500
9346,7.812500
9347,7.812500
9348,7.812500
9349,7.812500
9350,7.812500
9351,7.812500
9352,7.812500
9353,7.812500
9354,5.859375
9355,5.859375
9356,5.859375
9357,5.859375
9358,5.859375
9359,5.859375
9360,5.859375
9361,3.906250
9362,5.859375
9363,5.859375
9364,3.906250
9365,3.906250
9366,3.906250
9367,3.906250
9368,3.906250
9369,3.906250
9370,3.906250
9371,3.906250
9372,1.953125
9373,3.906250
9374,1.953125
9375,1.953125
9376,1.953125
9377,1.953125
9378,1.953125
9379,1.953125
9380,1.953125
9381,0.000000
9382,0.000000
9383,0.000000
9384,0.000000
9385,0.000000
9386,0.000000
9387,0.000000
9388,0.000000
9389,-1.953125
9390,0.000000
9391,-1.953125
9392,-1.953125
9393,-1.953125
9394,-1.953125
9395,-1.953125
9396,-1.953125
9397,-3.906250
9398,-3.906250
9399,-1.953125
9400,-3.906250
9401,-3.906250
9402,-3.906250
9403,-3.906250
9404,-5.859375
9405,-5.859375
9406,-5.859375
9407,-5.859375
9408,-5.859375
9409,-5.859375
9410,-5.859375
9411,-7.812500
9412,-7.812500
9413,-7.812500
9414,-7.812500
9415,-7.812500
9416,-9.765625
9417,-9.765625
9418,-9.765625
9419,-9.765625
9420,-9.765625
9421,-11.718750
9422,-9.765625
9423,-11.718750
9424,-11.718750
9425,-11.718750
9426,-11.718750
9427,-11.718750
9428,-11.718750
9429,-11.718750
9430,-13.671875
9431,-13.671875
9432,-13.671875
9433,-13.671875
9434,-13.671875
9435,-15.625000
9436,-13.671875
9437,-15.625000
9438,-15.625000
9439,-15.625000
9440,-15.625000
9441,-15.625000
9442,-15.625000
9443,-17.578125
9444,-17.578125
9445,-17.578125
9446,-17.578125
9447,-17.578125
9448,-17.578125
9449,-19.531250
9450,-17.578125
9451,-17.578125
9452,-19.531250
9453,-19.531250
9454,-19.531250
9455,-19.531250
9456,-19.531250
9457,-21.484375
9458,-19.531250
9459,-19.531250
9460,-21.484375
9461,-21.484375
9462,-21.484375
9463,-21.484375
9464,-21.484375
9465,-21.484375
9466,-21.484375
9467,-21.484375
9468,-23.437500
9469,-21.484375
9470,-23.437500
9471,-23.437500
9472,-23.437500
9473,-23.437500
9474,-23.437500
9475,-25.390625
9476,-25.390625
9477,-25.390625
9478,-25.390625
9479,-25.390625
9480,-25.390625
9481,-25.390625
9482,-25.390625
9483,-25.390625
9484,-27.343750
9485,-25.390625
9486,-27.343750
9487,-25.390625
9488,-27.343750
9489,-27.343750
9490,-27.343750
9491,-27.343750
9492,-27.343750
9493,-29.296875
9494,-27.343750
9495,-27.343750
9496,-27.343750
9497,-29.296875
9498,-27.343750
9499,-27.343750
9500,-29.296875
9501,-29.296875
9502,-29.296875
9503,-29.296875
9504,-29.296875
9505,-29.296875
9506,-29.296875
9507,-29.296875
9508,-29.296875
9509,-29.296875
9510,-29.296875
9511,-29.296875
9512,-29.296875
9513,-29.296875
9514,-29.296875
9515,-31.250000
9516,-29.296875
9517,-29.296875
9518,-31.250000
9519,-29.296875
9520,-29.296875
9521,-29.296875
9522,-31.250000
9523,-31.250000
9524,-31.250000
9525,-31.250000
9526,-29.296875
9527,-29.296875
9528,-31.250000
9529,-31.250000
9530,-31.250000
9531,-29.296875
9532,-31.250000
9533,-31.250000
9534,-31.250000
9535,-31.250000
9536,-31.250000
9537,-31.250000
9538,-31.250000
9539,-31.250000
9540,-31.250000
9541,-31.250000
9542,-31.250000
9543,-31.250000
9544,-31.250000
9545,-29.296875
9546,-31.250000
9547,-31.250000
9548,-31.250000
9549,-31.250000
9550,-31.250000
9551,-31.250000
9552,-31.250000
9553,-31.250000
9554,-31.250000
9555,-31.250000
9556,-31.250000
9557,-31.250000
9558,-31.250000
9559,-31.250000
9560,-31.250000
9561,-29.296875
9562,-31.250000
9563,-31.250000
9564,-31.250000
9565,-31.250000
9566,-29.296875
9567,-31.250000
9568,-31.250000
9569,-31.250000
9570,-29.296875
9571,-29.296875
9572,-31.250000
9573,-29.296875
9574,-29.296875
9575,-29.296875
9576,-29.296875
9577,-29.296875
9578,-29.296875
9579,-29.296875
9580,-29.296875
9581,-29.296875
9582,-29.296875
9583,-29.296875
9584,-29.296875
9585,-29.296875
9586,-29.296875
9587,-29.296875
9588,-27.343750
9589,-29.296875
9590,-29.296875
9591,-27.343750
9592,-27.343750
9593,-27.343750
9594,-27.343750
9595,-27.343750
9596,-27.343750
9597,-27.343750
9598,-27.343750
9599,-27.343750
9600,-27.343750
9601,-27.343750
9602,-25.390625
9603,-25.390625
9604,-25.390625
9605,-25.390625
9606,-25.390625
9607,-25.390625
9608,-25.390625
9609,-25.390625
9610,-25.390625
9611,-25.390625
9612,-25.390625
9613,-25.390625
9614,-23.437500
9615,-23.437500
9616,-25.390625
9617,-23.437500
9618,-23.437500
9619,-23.437500
9620,-23.437500
9621,-23.437500
9622,-23.437500
9623,-23.437500
9624,-23.437500
9625,-23.437500
9626,-21.484375
9627,-21.484375
9628,-21.484375
9629,-21.484375
9630,-21.484375
9631,-21.484375
9632,-21.484375
9633,-21.484375
9634,-19.531250
9635,-19.531250
9636,-19.531250
9637,-19.531250
9638,-19.531250
9639,-19.531250
9640,-19.531250
9641,-19.531250
9642,-17.578125
9643,-17.578125
9644,-17.578125
9645,-17.578125
9646,-17.578125
9647,-17.578125
9648,-17.578125
9649,-15.625000
9650,-15.625000
9651,-15.625000
9652,-15.625000
9653,-15.625000
9654,-15.625000
9655,-15.625000
9656,-15.625000
9657,-13.671875
9658,-13.671875
9659,-15.625000
9660,-13.671875
9661,-13.671875
9662,-13.671875
9663,-13.671875
9664,-13.671875
9665,-13.671875
9666,-11.718750
9667,-11.718750
9668,-11.718750
9669,-11.718750
9670,-11.718750
9671,-11.718750
9672,-11.718750
9673,-11.718750
9674,-11.718750
9675,-11.718750
9676,-11.718750
9677,-9.765625
9678,-9.765625
9679,-9.765625
9680,-9.765625
9681,-9.765625
9682,-9.765625
9683,-9.765625
9684,-9.765625
9685,-9.765625
9686,-7.812500
9687,-7.812500
9688,-7.812500
9689,-7.812500
9690,-7.812500
9691,-7.812500
9692,-7.812500
9693,-7.812500
9694,-5.859375
9695,-7.812500
9696,-7.812500
9697,-5.859375
9698,-5.859375
9699,-5.859375
9700,-5.859375
9701,-5.859375
9702,-5.859375
9703,-5.859375
9704,-3.906250
9705,-3.906250
9706,-5.859375
9707,-3.906250
9708,-3.906250
9709,-5.859375
9710,-3.906250
9711,-3.906250
9712,-3.906250
9713,-3.906250
9714,-3.906250
9715,-3.906250
9716,-1.953125
9717,-3.906250
9718,-1.953125
9719,-1.953125
9720,-3.906250
9721,-1.953125
9722,-1.953125
9723,-1.953125
9724,-1.953125
9725,-1.953125
9726,-1.953125
9727,-1.953125
9728,-1.953125
9729,-1.953125
9730,-1.953125
9731,-1.953125
9732,0.000000
9733,-1.953125
9734,-1.953125
9735,0.000000
9736,0.000000
9737,0.000000
9738,0.000000
9739,0.000000
9740,0.000000
9741,0.000000
9742,0.000000
9743,0.000000
9744,0.000000
9745,0.000000
9746,0.000000
9747,0.000000
9748,0.000000
9749,0.000000
9750,0.000000
9751,0.000000
9752,0.000000
9753,0.000000
9754,1.953125
9755,1.953125
9756,0.000000
9757,1.953125
9758,1.953125
9759,1.953125
9760,1.953125
9761,0.000000
9762,1.953125
9763,1.953125
9764,1.953125
9765,1.953125
9766,1.953125
9767,1.953125
9768,1.953125
9769,1.953125
9770,1.953125
9771,1.953125
9772,1.953125
9773,1.953125
9774,3.906250
9775,3.906250
9776,3.906250
9777,1.953125
9778,1.953125
9779,3.906250
9780,3.906250
9781,3.906250
9782,3.906250
9783,3.906250
9784,3.906250
9785,3.906250
9786,3.906250
9787,3.906250
9788,3.906250
9789,3.906250
9790,3.906250
9791,3.906250
9792,3.906250
9793,3.906250
9794,3.906250
9795,3.906250
9796,5.859375
9797,3.906250
9798,3.906250
9799,5.859375
9800,3.906250
9801,3.906250
9802,3.906250
9803,3.906250
9804,5.859375
9805,3.906250
9806,3.906250
9807,5.859375
9808,5.859375
9809,5.859375
9810,5.859375
9811,5.859375
9812,5.859375
9813,5.859375
9814,5.859375
9815,5.859375
9816,5.859375
9817,5.859375
9818,5.859375
9819,5.859375
9820,5.859375
9821,5.859375
9822,5.859375
9823,5.859375
9824,5.859375
9825,5.859375
9826,5.859375
9827,5.859375
9828,5.859375
9829,5.859375
9830,7.812500
9831,5.859375
9832,7.812500
9833,5.859375
9834,7.812500
9835,7.812500
9836,7.812500
9837,7.812500
9838,7.812500
9839,5.859375
9840,7.812500
9841,7.812500
9842,7.812500
9843,7.812500
9844,7.812500
9845,7.812500
9846,7.812500
9847,7.812500
9848,7.812500
9849,7.812500
9850,7.812500
9851,7.812500
9852,7.812500
9853,7.812500
9854,9.765625
9855,9.765625
9856,9.765625
9857,9.765625
9858,9.765625
9859,9.765625
9860,7.812500
9861,9.765625
9862,9.765625
9863,9.765625
9864,9.765625
9865,9.765625
9866,9.765625
9867,9.765625
9868,9.765625
9869,9.765625
9870,9.765625
9871,9.765625
9872,9.765625
9873,9.765625
9874,7.812500
9875,9.765625
9876,9.765625
9877,9.765625
9878,9.765625
9879,9.765625
9880,9.765625
9881,9.765625
9882,9.765625
9883,9.765625
9884,9.765625
9885,9.765625
9886,9.765625
9887,9.765625
9888,9.765625
9889,9.765625
9890,9.765625
9891,9.765625
9892,9.765625
9893,9.765625
9894,9.765625
9895,9.765625
9896,9.765625
9897,9.765625
9898,9.765625
9899,9.765625
9900,9.765625
9901,9.765625
9902,9.765625
9903,9.765625
9904,9.765625
9905,11.718750
9906,9.765625
9907,9.765625
9908,9.765625
9909,9.765625
9910,9.765625
9911,9.765625
9912,9.765625
9913,9.765625
9914,9.765625
9915,9.765625
9916,9.765625
9917,9.765625
9918,9.765625
9919,7.812500
9920,9.765625
9921,9.765625
9922,7.812500
9923,9.765625
9924,9.765625
9925,7.812500
9926,7.812500
9927,7.812500
9928,7.812500
9929,7.812500
9930,7.812500
9931,7.812500
9932,7.812500
9933,5.859375
9934,7.812500
9935,5.859375
9936,5.859375
9937,5.859375
9938,5.859375
9939,5.859375
9940,5.859375
9941,5.859375
9942,5.859375
9943,5.859375
9944,3.906250
9945,5.859375
9946,3.906250
9947,3.906250
9948,5.859375
9949,3.906250
9950,3.906250
9951,3.906250
9952,3.906250
9953,3.906250
9954,3.906250
9955,1.953125
9956,3.906250
9957,1.953125
9958,1.953125
9959,1.953125
9960,1.953125
9961,1.953125
9962,1.953125
9963,1.953125
9964,0.000000
9965,0.000000
9966,1.953125
9967,0.000000
9968,0.000000
9969,0.000000
9970,0.000000
9971,0.000000
9972,-1.953125
9973,-3.906250
9974,-1.953125
9975,-1.953125
9976,-1.953125
9977,-1.953125
9978,-1.953125
9979,-3.906250
9980,-1.953125
9981,-3.906250
9982,-3.906250
9983,-3.906250
9984,-3.906250
9985,-3.906250
9986,-3.906250
9987,-5.859375
9988,-3.906250
9989,-5.859375
9990,-5.859375
9991,-5.859375
9992,-5.859375
9993,-5.859375
9994,-7.812500
9995,-7.812500
9996,-7.812500
9997,-7.812500
9998,-7.812500
9999,-9.765625
10000,-9.765625
