Channel              :,CH1
Frequency            :,  ?
Period               :,  ?
PK-PK                :,23.44mV
Probe attenuation    :,1X
Voltage per ADC value:,0.122070mV
Time interval        :,2.00000us

index,CH1_Voltage(mV)
1,-3.906250
2,-3.906250
3,-3.906250
4,-5.859375
5,-3.906250
6,-3.906250
7,-3.906250
8,-3.906250
9,-3.906250
10,-3.906250
11,-3.906250
12,-3.906250
13,-3.906250
14,-3.906250
15,-1.953125
16,-1.953125
17,-3.906250
18,-3.906250
19,-1.953125
20,-1.953125
21,-1.953125
22,-1.953125
23,-1.953125
24,-1.953125
25,-1.953125
26,-1.953125
27,-1.953125
28,-1.953125
29,-1.953125
30,0.000000
31,0.000000
32,-1.953125
33,0.000000
34,0.000000
35,-1.953125
36,0.000000
37,0.000000
38,0.000000
39,0.000000
40,0.000000
41,0.000000
42,0.000000
43,0.000000
44,0.000000
45,0.000000
46,0.000000
47,0.000000
48,0.000000
49,0.000000
50,0.000000
51,0.000000
52,0.000000
53,0.000000
54,0.000000
55,0.000000
56,0.000000
57,0.000000
58,0.000000
59,0.000000
60,0.000000
61,0.000000
62,0.000000
63,0.000000
64,0.000000
65,0.000000
66,0.000000
67,0.000000
68,1.953125
69,0.000000
70,0.000000
71,0.000000
72,0.000000
73,0.000000
74,0.000000
75,0.000000
76,0.000000
77,1.953125
78,0.000000
79,1.953125
80,0.000000
81,0.000000
82,0.000000
83,1.953125
84,0.000000
85,0.000000
86,0.000000
87,1.953125
88,1.953125
89,1.953125
90,0.000000
91,0.000000
92,1.953125
93,1.953125
94,1.953125
95,0.000000
96,0.000000
97,0.000000
98,0.000000
99,0.000000
100,0.000000
101,0.000000
102,0.000000
103,0.000000
104,0.000000
105,0.000000
106,0.000000
107,0.000000
108,0.000000
109,0.000000
110,0.000000
111,-1.953125
112,0.000000
113,0.000000
114,-1.953125
115,0.000000
116,-1.953125
117,-1.953125
118,-1.953125
119,-1.953125
120,-1.953125
121,-1.953125
122,-1.953125
123,-1.953125
124,-1.953125
125,-1.953125
126,-3.906250
127,-1.953125
128,-3.906250
129,-3.906250
130,-1.953125
131,-3.906250
132,-3.906250
133,-3.906250
134,-3.906250
135,-3.906250
136,-3.906250
137,-3.906250
138,-3.906250
139,-3.906250
140,-3.906250
141,-3.906250
142,-3.906250
143,-5.859375
144,-3.906250
145,-5.859375
146,-5.859375
147,-5.859375
148,-5.859375
149,-5.859375
150,-5.859375
151,-5.859375
152,-5.859375
153,-5.859375
154,-5.859375
155,-7.812500
156,-5.859375
157,-5.859375
158,-5.859375
159,-7.812500
160,-7.812500
161,-7.812500
162,-7.812500
163,-7.812500
164,-7.812500
165,-7.812500
166,-7.812500
167,-7.812500
168,-7.812500
169,-7.812500
170,-9.765625
171,-9.765625
172,-9.765625
173,-9.765625
174,-9.765625
175,-9.765625
176,-9.765625
177,-9.765625
178,-9.765625
179,-9.765625
180,-9.765625
181,-9.765625
182,-11.718750
183,-9.765625
184,-9.765625
185,-11.718750
186,-11.718750
187,-11.718750
188,-11.718750
189,-11.718750
190,-11.718750
191,-11.718750
192,-11.718750
193,-11.718750
194,-11.718750
195,-11.718750
196,-11.718750
197,-11.718750
198,-11.718750
199,-11.718750
200,-13.671875
201,-11.718750
202,-11.718750
203,-11.718750
204,-11.718750
205,-13.671875
206,-13.671875
207,-13.671875
208,-13.671875
209,-11.718750
210,-13.671875
211,-13.671875
212,-11.718750
213,-13.671875
214,-13.671875
215,-11.718750
216,-13.671875
217,-13.671875
218,-13.671875
219,-13.671875
220,-13.671875
221,-13.671875
222,-13.671875
223,-13.671875
224,-13.671875
225,-13.671875
226,-13.671875
227,-13.671875
228,-13.671875
229,-13.671875
230,-13.671875
231,-13.671875
232,-13.671875
233,-13.671875
234,-13.671875
235,-13.671875
236,-13.671875
237,-13.671875
238,-13.671875
239,-13.671875
240,-13.671875
241,-13.671875
242,-15.625000
243,-13.671875
244,-13.671875
245,-15.625000
246,-13.671875
247,-15.625000
248,-13.671875
249,-13.671875
250,-13.671875
251,-15.625000
252,-13.671875
253,-13.671875
254,-13.671875
255,-13.671875
256,-15.625000
257,-15.625000
258,-13.671875
259,-13.671875
260,-15.625000
261,-15.625000
262,-15.625000
263,-15.625000
264,-13.671875
265,-13.671875
266,-15.625000
267,-13.671875
268,-13.671875
269,-17.578125
270,-15.625000
271,-13.671875
272,-13.671875
273,-15.625000
274,-15.625000
275,-13.671875
276,-13.671875
277,-13.671875
278,-13.671875
279,-13.671875
280,-13.671875
281,-13.671875
282,-13.671875
283,-13.671875
284,-15.625000
285,-13.671875
286,-13.671875
287,-13.671875
288,-13.671875
289,-13.671875
290,-13.671875
291,-13.671875
292,-13.671875
293,-13.671875
294,-13.671875
295,-13.671875
296,-13.671875
297,-13.671875
298,-13.671875
299,-13.671875
300,-13.671875
301,-13.671875
302,-13.671875
303,-13.671875
304,-11.718750
305,-13.671875
306,-13.671875
307,-13.671875
308,-13.671875
309,-13.671875
310,-13.671875
311,-13.671875
312,-13.671875
313,-13.671875
314,-13.671875
315,-13.671875
316,-13.671875
317,-13.671875
318,-13.671875
319,-11.718750
320,-13.671875
321,-13.671875
322,-11.718750
323,-11.718750
324,-11.718750
325,-11.718750
326,-13.671875
327,-13.671875
328,-11.718750
329,-11.718750
330,-11.718750
331,-11.718750
332,-11.718750
333,-11.718750
334,-11.718750
335,-11.718750
336,-11.718750
337,-11.718750
338,-11.718750
339,-11.718750
340,-9.765625
341,-11.718750
342,-11.718750
343,-9.765625
344,-9.765625
345,-11.718750
346,-9.765625
347,-9.765625
348,-11.718750
349,-9.765625
350,-9.765625
351,-11.718750
352,-9.765625
353,-9.765625
354,-11.718750
355,-9.765625
356,-9.765625
357,-9.765625
358,-9.765625
359,-9.765625
360,-9.765625
361,-9.765625
362,-9.765625
363,-9.765625
364,-9.765625
365,-9.765625
366,-9.765625
367,-11.718750
368,-9.765625
369,-9.765625
370,-9.765625
371,-9.765625
372,-9.765625
373,-9.765625
374,-9.765625
375,-9.765625
376,-9.765625
377,-9.765625
378,-9.765625
379,-9.765625
380,-9.765625
381,-9.765625
382,-9.765625
383,-9.765625
384,-9.765625
385,-9.765625
386,-9.765625
387,-9.765625
388,-9.765625
389,-9.765625
390,-9.765625
391,-9.765625
392,-9.765625
393,-9.765625
394,-9.765625
395,-9.765625
396,-9.765625
397,-9.765625
398,-9.765625
399,-9.765625
400,-9.765625
401,-9.765625
402,-9.765625
403,-9.765625
404,-9.765625
405,-9.765625
406,-9.765625
407,-9.765625
408,-9.765625
409,-9.765625
410,-9.765625
411,-9.765625
412,-9.765625
413,-11.718750
414,-9.765625
415,-9.765625
416,-11.718750
417,-9.765625
418,-11.718750
419,-11.718750
420,-11.718750
421,-9.765625
422,-11.718750
423,-11.718750
424,-11.718750
425,-11.718750
426,-11.718750
427,-11.718750
428,-11.718750
429,-11.718750
430,-11.718750
431,-11.718750
432,-11.718750
433,-11.718750
434,-11.718750
435,-11.718750
436,-11.718750
437,-11.718750
438,-13.671875
439,-11.718750
440,-11.718750
441,-11.718750
442,-11.718750
443,-11.718750
444,-13.671875
445,-13.671875
446,-13.671875
447,-13.671875
448,-13.671875
449,-13.671875
450,-11.718750
451,-13.671875
452,-13.671875
453,-13.671875
454,-13.671875
455,-13.671875
456,-13.671875
457,-13.671875
458,-13.671875
459,-13.671875
460,-13.671875
461,-13.671875
462,-13.671875
463,-13.671875
464,-13.671875
465,-13.671875
466,-13.671875
467,-13.671875
468,-13.671875
469,-13.671875
470,-13.671875
471,-13.671875
472,-13.671875
473,-13.671875
474,-13.671875
475,-13.671875
476,-13.671875
477,-13.671875
478,-13.671875
479,-13.671875
480,-13.671875
481,-13.671875
482,-13.671875
483,-13.671875
484,-13.671875
485,-13.671875
486,-13.671875
487,-13.671875
488,-13.671875
489,-13.671875
490,-13.671875
491,-13.671875
492,-13.671875
493,-13.671875
494,-13.671875
495,-13.671875
496,-13.671875
497,-13.671875
498,-13.671875
499,-13.671875
500,-13.671875
501,-13.671875
502,-13.671875
503,-13.671875
504,-13.671875
505,-13.671875
506,-13.671875
507,-13.671875
508,-13.671875
509,-13.671875
510,-13.671875
511,-13.671875
512,-13.671875
513,-11.718750
514,-11.718750
515,-13.671875
516,-11.718750
517,-11.718750
518,-13.671875
519,-11.718750
520,-11.718750
521,-11.718750
522,-11.718750
523,-13.671875
524,-11.718750
525,-11.718750
526,-11.718750
527,-11.718750
528,-11.718750
529,-11.718750
530,-11.718750
531,-11.718750
532,-11.718750
533,-9.765625
534,-9.765625
535,-9.765625
536,-11.718750
537,-11.718750
538,-9.765625
539,-9.765625
540,-9.765625
541,-9.765625
542,-9.765625
543,-9.765625
544,-9.765625
545,-9.765625
546,-9.765625
547,-9.765625
548,-9.765625
549,-9.765625
550,-9.765625
551,-7.812500
552,-9.765625
553,-9.765625
554,-7.812500
555,-7.812500
556,-7.812500
557,-7.812500
558,-7.812500
559,-7.812500
560,-7.812500
561,-7.812500
562,-7.812500
563,-7.812500
564,-7.812500
565,-7.812500
566,-7.812500
567,-7.812500
568,-5.859375
569,-7.812500
570,-5.859375
571,-7.812500
572,-5.859375
573,-5.859375
574,-5.859375
575,-5.859375
576,-5.859375
577,-5.859375
578,-5.859375
579,-5.859375
580,-5.859375
581,-3.906250
582,-5.859375
583,-3.906250
584,-3.906250
585,-5.859375
586,-3.906250
587,-3.906250
588,-3.906250
589,-3.906250
590,-3.906250
591,-3.906250
592,-3.906250
593,-3.906250
594,-3.906250
595,-3.906250
596,-1.953125
597,-3.906250
598,-3.906250
599,-1.953125
600,-1.953125
601,-3.906250
602,-1.953125
603,-1.953125
604,-1.953125
605,-1.953125
606,-1.953125
607,-1.953125
608,-1.953125
609,-1.953125
610,-1.953125
611,-1.953125
612,-1.953125
613,-1.953125
614,-1.953125
615,-1.953125
616,-1.953125
617,0.000000
618,-1.953125
619,0.000000
620,0.000000
621,-1.953125
622,0.000000
623,0.000000
624,-1.953125
625,0.000000
626,0.000000
627,0.000000
628,0.000000
629,0.000000
630,0.000000
631,0.000000
632,0.000000
633,0.000000
634,0.000000
635,0.000000
636,0.000000
637,0.000000
638,0.000000
639,0.000000
640,0.000000
641,0.000000
642,0.000000
643,0.000000
644,0.000000
645,0.000000
646,0.000000
647,0.000000
648,0.000000
649,0.000000
650,0.000000
651,0.000000
652,0.000000
653,0.000000
654,0.000000
655,1.953125
656,0.000000
657,0.000000
658,1.953125
659,1.953125
660,0.000000
661,0.000000
662,1.953125
663,0.000000
664,0.000000
665,0.000000
666,0.000000
667,0.000000
668,1.953125
669,1.953125
670,0.000000
671,0.000000
672,0.000000
673,0.000000
674,0.000000
675,1.953125
676,0.000000
677,0.000000
678,0.000000
679,0.000000
680,0.000000
681,0.000000
682,0.000000
683,0.000000
684,0.000000
685,0.000000
686,1.953125
687,0.000000
688,0.000000
689,0.000000
690,0.000000
691,0.000000
692,0.000000
693,-1.953125
694,-1.953125
695,-1.953125
696,-1.953125
697,0.000000
698,-1.953125
699,-1.953125
700,-1.953125
701,-1.953125
702,-1.953125
703,-1.953125
704,-1.953125
705,-1.953125
706,-1.953125
707,-1.953125
708,-1.953125
709,-3.906250
710,-3.906250
711,-1.953125
712,-3.906250
713,-3.906250
714,-3.906250
715,-3.906250
716,-3.906250
717,-3.906250
718,-3.906250
719,-3.906250
720,-3.906250
721,-3.906250
722,-3.906250
723,-3.906250
724,-3.906250
725,-3.906250
726,-3.906250
727,-3.906250
728,-5.859375
729,-5.859375
730,-5.859375
731,-5.859375
732,-5.859375
733,-5.859375
734,-5.859375
735,-5.859375
736,-5.859375
737,-5.859375
738,-7.812500
739,-7.812500
740,-5.859375
741,-5.859375
742,-7.812500
743,-7.812500
744,-5.859375
745,-7.812500
746,-7.812500
747,-7.812500
748,-7.812500
749,-7.812500
750,-7.812500
751,-7.812500
752,-9.765625
753,-7.812500
754,-7.812500
755,-9.765625
756,-9.765625
757,-7.812500
758,-9.765625
759,-9.765625
760,-9.765625
761,-9.765625
762,-9.765625
763,-9.765625
764,-9.765625
765,-9.765625
766,-9.765625
767,-9.765625
768,-9.765625
769,-11.718750
770,-9.765625
771,-11.718750
772,-11.718750
773,-11.718750
774,-11.718750
775,-11.718750
776,-11.718750
777,-11.718750
778,-11.718750
779,-11.718750
780,-11.718750
781,-11.718750
782,-11.718750
783,-11.718750
784,-11.718750
785,-11.718750
786,-11.718750
787,-11.718750
788,-13.671875
789,-11.718750
790,-11.718750
791,-13.671875
792,-11.718750
793,-13.671875
794,-13.671875
795,-13.671875
796,-11.718750
797,-13.671875
798,-13.671875
799,-13.671875
800,-11.718750
801,-13.671875
802,-13.671875
803,-13.671875
804,-11.718750
805,-13.671875
806,-13.671875
807,-13.671875
808,-13.671875
809,-13.671875
810,-13.671875
811,-13.671875
812,-13.671875
813,-13.671875
814,-13.671875
815,-13.671875
816,-13.671875
817,-13.671875
818,-13.671875
819,-13.671875
820,-13.671875
821,-13.671875
822,-13.671875
823,-13.671875
824,-13.671875
825,-15.625000
826,-13.671875
827,-13.671875
828,-13.671875
829,-13.671875
830,-13.671875
831,-13.671875
832,-13.671875
833,-13.671875
834,-13.671875
835,-13.671875
836,-13.671875
837,-13.671875
838,-15.625000
839,-13.671875
840,-13.671875
841,-15.625000
842,-15.625000
843,-13.671875
844,-15.625000
845,-15.625000
846,-15.625000
847,-13.671875
848,-13.671875
849,-15.625000
850,-13.671875
851,-13.671875
852,-15.625000
853,-13.671875
854,-13.671875
855,-13.671875
856,-11.718750
857,-13.671875
858,-13.671875
859,-15.625000
860,-13.671875
861,-13.671875
862,-13.671875
863,-13.671875
864,-13.671875
865,-13.671875
866,-13.671875
867,-13.671875
868,-13.671875
869,-13.671875
870,-13.671875
871,-13.671875
872,-13.671875
873,-13.671875
874,-13.671875
875,-13.671875
876,-13.671875
877,-13.671875
878,-13.671875
879,-13.671875
880,-13.671875
881,-13.671875
882,-13.671875
883,-15.625000
884,-13.671875
885,-11.718750
886,-13.671875
887,-13.671875
888,-11.718750
889,-13.671875
890,-13.671875
891,-11.718750
892,-13.671875
893,-13.671875
894,-13.671875
895,-13.671875
896,-13.671875
897,-13.671875
898,-13.671875
899,-13.671875
900,-13.671875
901,-13.671875
902,-13.671875
903,-13.671875
904,-13.671875
905,-13.671875
906,-13.671875
907,-13.671875
908,-11.718750
909,-13.671875
910,-11.718750
911,-11.718750
912,-13.671875
913,-11.718750
914,-11.718750
915,-13.671875
916,-11.718750
917,-11.718750
918,-11.718750
919,-11.718750
920,-11.718750
921,-11.718750
922,-11.718750
923,-11.718750
924,-11.718750
925,-11.718750
926,-9.765625
927,-11.718750
928,-9.765625
929,-11.718750
930,-11.718750
931,-9.765625
932,-11.718750
933,-11.718750
934,-9.765625
935,-9.765625
936,-9.765625
937,-9.765625
938,-9.765625
939,-9.765625
940,-9.765625
941,-9.765625
942,-9.765625
943,-9.765625
944,-9.765625
945,-9.765625
946,-9.765625
947,-9.765625
948,-9.765625
949,-9.765625
950,-9.765625
951,-9.765625
952,-9.765625
953,-9.765625
954,-9.765625
955,-9.765625
956,-9.765625
957,-9.765625
958,-9.765625
959,-9.765625
960,-11.718750
961,-9.765625
962,-9.765625
963,-9.765625
964,-11.718750
965,-9.765625
966,-9.765625
967,-9.765625
968,-9.765625
969,-9.765625
970,-9.765625
971,-9.765625
972,-9.765625
973,-9.765625
974,-9.765625
975,-9.765625
976,-9.765625
977,-9.765625
978,-9.765625
979,-9.765625
980,-9.765625
981,-9.765625
982,-9.765625
983,-9.765625
984,-9.765625
985,-11.718750
986,-9.765625
987,-9.765625
988,-9.765625
989,-11.718750
990,-11.718750
991,-9.765625
992,-9.765625
993,-11.718750
994,-11.718750
995,-11.718750
996,-9.765625
997,-9.765625
998,-11.718750
999,-11.718750
1000,-9.765625
1001,-11.718750
1002,-11.718750
1003,-11.718750
1004,-9.765625
1005,-11.718750
1006,-11.718750
1007,-11.718750
1008,-11.718750
1009,-11.718750
1010,-11.718750
1011,-11.718750
1012,-11.718750
1013,-11.718750
1014,-11.718750
1015,-11.718750
1016,-11.718750
1017,-13.671875
1018,-11.718750
1019,-11.718750
1020,-13.671875
1021,-11.718750
1022,-11.718750
1023,-13.671875
1024,-13.671875
1025,-11.718750
1026,-11.718750
1027,-13.671875
1028,-13.671875
1029,-11.718750
1030,-13.671875
1031,-13.671875
1032,-11.718750
1033,-13.671875
1034,-13.671875
1035,-13.671875
1036,-13.671875
1037,-13.671875
1038,-13.671875
1039,-13.671875
1040,-13.671875
1041,-13.671875
1042,-13.671875
1043,-13.671875
1044,-13.671875
1045,-13.671875
1046,-13.671875
1047,-13.671875
1048,-13.671875
1049,-13.671875
1050,-13.671875
1051,-13.671875
1052,-13.671875
1053,-13.671875
1054,-13.671875
1055,-13.671875
1056,-13.671875
1057,-13.671875
1058,-13.671875
1059,-13.671875
1060,-13.671875
1061,-13.671875
1062,-13.671875
1063,-13.671875
1064,-13.671875
1065,-13.671875
1066,-13.671875
1067,-13.671875
1068,-13.671875
1069,-13.671875
1070,-13.671875
1071,-13.671875
1072,-13.671875
1073,-13.671875
1074,-13.671875
1075,-13.671875
1076,-13.671875
1077,-13.671875
1078,-13.671875
1079,-13.671875
1080,-13.671875
1081,-13.671875
1082,-13.671875
1083,-13.671875
1084,-13.671875
1085,-13.671875
1086,-13.671875
1087,-13.671875
1088,-13.671875
1089,-13.671875
1090,-13.671875
1091,-13.671875
1092,-13.671875
1093,-13.671875
1094,-13.671875
1095,-13.671875
1096,-13.671875
1097,-13.671875
1098,-11.718750
1099,-11.718750
1100,-13.671875
1101,-13.671875
1102,-11.718750
1103,-11.718750
1104,-13.671875
1105,-11.718750
1106,-11.718750
1107,-11.718750
1108,-11.718750
1109,-11.718750
1110,-11.718750
1111,-11.718750
1112,-11.718750
1113,-11.718750
1114,-11.718750
1115,-11.718750
1116,-11.718750
1117,-11.718750
1118,-9.765625
1119,-9.765625
1120,-9.765625
1121,-11.718750
1122,-9.765625
1123,-9.765625
1124,-9.765625
1125,-9.765625
1126,-9.765625
1127,-9.765625
1128,-9.765625
1129,-9.765625
1130,-9.765625
1131,-9.765625
1132,-9.765625
1133,-9.765625
1134,-9.765625
1135,-9.765625
1136,-7.812500
1137,-7.812500
1138,-7.812500
1139,-7.812500
1140,-7.812500
1141,-7.812500
1142,-7.812500
1143,-7.812500
1144,-7.812500
1145,-7.812500
1146,-7.812500
1147,-7.812500
1148,-7.812500
1149,-7.812500
1150,-7.812500
1151,-7.812500
1152,-7.812500
1153,-7.812500
1154,-7.812500
1155,-7.812500
1156,-5.859375
1157,-5.859375
1158,-7.812500
1159,-5.859375
1160,-5.859375
1161,-5.859375
1162,-5.859375
1163,-5.859375
1164,-5.859375
1165,-5.859375
1166,-5.859375
1167,-3.906250
1168,-5.859375
1169,-3.906250
1170,-3.906250
1171,-5.859375
1172,-3.906250
1173,-5.859375
1174,-3.906250
1175,-3.906250
1176,-3.906250
1177,-3.906250
1178,-3.906250
1179,-3.906250
1180,-1.953125
1181,-3.906250
1182,-3.906250
1183,-1.953125
1184,-1.953125
1185,-3.906250
1186,-1.953125
1187,-1.953125
1188,-3.906250
1189,-3.906250
1190,-1.953125
1191,-1.953125
1192,-1.953125
1193,-1.953125
1194,-1.953125
1195,0.000000
1196,-1.953125
1197,-1.953125
1198,0.000000
1199,-1.953125
1200,-1.953125
1201,0.000000
1202,-1.953125
1203,-1.953125
1204,-1.953125
1205,0.000000
1206,0.000000
1207,0.000000
1208,0.000000
1209,0.000000
1210,0.000000
1211,0.000000
1212,0.000000
1213,0.000000
1214,0.000000
1215,0.000000
1216,0.000000
1217,0.000000
1218,0.000000
1219,0.000000
1220,0.000000
1221,0.000000
1222,0.000000
1223,0.000000
1224,0.000000
1225,0.000000
1226,0.000000
1227,0.000000
1228,0.000000
1229,0.000000
1230,0.000000
1231,0.000000
1232,0.000000
1233,0.000000
1234,0.000000
1235,0.000000
1236,0.000000
1237,0.000000
1238,0.000000
1239,0.000000
1240,0.000000
1241,0.000000
1242,0.000000
1243,0.000000
1244,0.000000
1245,1.953125
1246,0.000000
1247,0.000000
1248,0.000000
1249,1.953125
1250,0.000000
1251,0.000000
1252,0.000000
1253,0.000000
1254,1.953125
1255,0.000000
1256,1.953125
1257,0.000000
1258,1.953125
1259,1.953125
1260,0.000000
1261,0.000000
1262,0.000000
1263,0.000000
1264,0.000000
1265,1.953125
1266,0.000000
1267,0.000000
1268,0.000000
1269,0.000000
1270,0.000000
1271,0.000000
1272,0.000000
1273,0.000000
1274,0.000000
1275,0.000000
1276,-1.953125
1277,0.000000
1278,0.000000
1279,0.000000
1280,-1.953125
1281,-1.953125
1282,-1.953125
1283,-1.953125
1284,-1.953125
1285,-1.953125
1286,0.000000
1287,-1.953125
1288,-1.953125
1289,-1.953125
1290,-1.953125
1291,-1.953125
1292,-1.953125
1293,-1.953125
1294,-3.906250
1295,-1.953125
1296,-1.953125
1297,-3.906250
1298,-3.906250
1299,-3.906250
1300,-3.906250
1301,-3.906250
1302,-3.906250
1303,-3.906250
1304,-3.906250
1305,-3.906250
1306,-3.906250
1307,-3.906250
1308,-3.906250
1309,-3.906250
1310,-3.906250
1311,-5.859375
1312,-3.906250
1313,-3.906250
1314,-5.859375
1315,-5.859375
1316,-5.859375
1317,-5.859375
1318,-5.859375
1319,-5.859375
1320,-5.859375
1321,-5.859375
1322,-5.859375
1323,-5.859375
1324,-5.859375
1325,-7.812500
1326,-5.859375
1327,-5.859375
1328,-7.812500
1329,-7.812500
1330,-7.812500
1331,-7.812500
1332,-7.812500
1333,-7.812500
1334,-7.812500
1335,-7.812500
1336,-7.812500
1337,-7.812500
1338,-7.812500
1339,-9.765625
1340,-9.765625
1341,-7.812500
1342,-9.765625
1343,-9.765625
1344,-9.765625
1345,-9.765625
1346,-9.765625
1347,-9.765625
1348,-9.765625
1349,-9.765625
1350,-9.765625
1351,-9.765625
1352,-9.765625
1353,-9.765625
1354,-9.765625
1355,-11.718750
1356,-11.718750
1357,-9.765625
1358,-11.718750
1359,-11.718750
1360,-9.765625
1361,-9.765625
1362,-11.718750
1363,-11.718750
1364,-11.718750
1365,-11.718750
1366,-11.718750
1367,-11.718750
1368,-11.718750
1369,-11.718750
1370,-11.718750
1371,-11.718750
1372,-11.718750
1373,-11.718750
1374,-11.718750
1375,-11.718750
1376,-11.718750
1377,-11.718750
1378,-11.718750
1379,-11.718750
1380,-13.671875
1381,-11.718750
1382,-11.718750
1383,-13.671875
1384,-13.671875
1385,-13.671875
1386,-13.671875
1387,-13.671875
1388,-11.718750
1389,-13.671875
1390,-13.671875
1391,-13.671875
1392,-13.671875
1393,-13.671875
1394,-13.671875
1395,-13.671875
1396,-13.671875
1397,-13.671875
1398,-13.671875
1399,-13.671875
1400,-13.671875
1401,-13.671875
1402,-13.671875
1403,-13.671875
1404,-13.671875
1405,-13.671875
1406,-13.671875
1407,-15.625000
1408,-13.671875
1409,-13.671875
1410,-11.718750
1411,-13.671875
1412,-13.671875
1413,-13.671875
1414,-13.671875
1415,-13.671875
1416,-13.671875
1417,-13.671875
1418,-13.671875
1419,-13.671875
1420,-13.671875
1421,-13.671875
1422,-13.671875
1423,-13.671875
1424,-13.671875
1425,-13.671875
1426,-13.671875
1427,-13.671875
1428,-13.671875
1429,-13.671875
1430,-13.671875
1431,-13.671875
1432,-13.671875
1433,-13.671875
1434,-15.625000
1435,-15.625000
1436,-13.671875
1437,-13.671875
1438,-13.671875
1439,-13.671875
1440,-13.671875
1441,-13.671875
1442,-13.671875
1443,-13.671875
1444,-13.671875
1445,-13.671875
1446,-13.671875
1447,-13.671875
1448,-13.671875
1449,-13.671875
1450,-13.671875
1451,-13.671875
1452,-13.671875
1453,-13.671875
1454,-13.671875
1455,-13.671875
1456,-13.671875
1457,-13.671875
1458,-13.671875
1459,-13.671875
1460,-13.671875
1461,-13.671875
1462,-13.671875
1463,-13.671875
1464,-13.671875
1465,-13.671875
1466,-13.671875
1467,-13.671875
1468,-13.671875
1469,-13.671875
1470,-13.671875
1471,-13.671875
1472,-13.671875
1473,-13.671875
1474,-13.671875
1475,-15.625000
1476,-13.671875
1477,-13.671875
1478,-11.718750
1479,-13.671875
1480,-13.671875
1481,-13.671875
1482,-13.671875
1483,-11.718750
1484,-13.671875
1485,-13.671875
1486,-13.671875
1487,-13.671875
1488,-13.671875
1489,-13.671875
1490,-11.718750
1491,-13.671875
1492,-13.671875
1493,-11.718750
1494,-11.718750
1495,-11.718750
1496,-13.671875
1497,-11.718750
1498,-11.718750
1499,-11.718750
1500,-11.718750
1501,-11.718750
1502,-11.718750
1503,-11.718750
1504,-11.718750
1505,-11.718750
1506,-11.718750
1507,-11.718750
1508,-11.718750
1509,-11.718750
1510,-11.718750
1511,-11.718750
1512,-11.718750
1513,-11.718750
1514,-11.718750
1515,-11.718750
1516,-11.718750
1517,-9.765625
1518,-11.718750
1519,-11.718750
1520,-9.765625
1521,-11.718750
1522,-11.718750
1523,-9.765625
1524,-9.765625
1525,-11.718750
1526,-9.765625
1527,-9.765625
1528,-11.718750
1529,-9.765625
1530,-9.765625
1531,-9.765625
1532,-9.765625
1533,-11.718750
1534,-9.765625
1535,-9.765625
1536,-11.718750
1537,-9.765625
1538,-9.765625
1539,-11.718750
1540,-11.718750
1541,-9.765625
1542,-9.765625
1543,-9.765625
1544,-11.718750
1545,-9.765625
1546,-9.765625
1547,-9.765625
1548,-9.765625
1549,-9.765625
1550,-9.765625
1551,-9.765625
1552,-11.718750
1553,-11.718750
1554,-9.765625
1555,-11.718750
1556,-9.765625
1557,-9.765625
1558,-9.765625
1559,-11.718750
1560,-9.765625
1561,-9.765625
1562,-9.765625
1563,-11.718750
1564,-9.765625
1565,-9.765625
1566,-11.718750
1567,-11.718750
1568,-9.765625
1569,-9.765625
1570,-9.765625
1571,-9.765625
1572,-9.765625
1573,-9.765625
1574,-9.765625
1575,-9.765625
1576,-11.718750
1577,-11.718750
1578,-11.718750
1579,-11.718750
1580,-9.765625
1581,-9.765625
1582,-11.718750
1583,-9.765625
1584,-11.718750
1585,-11.718750
1586,-11.718750
1587,-11.718750
1588,-11.718750
1589,-11.718750
1590,-11.718750
1591,-11.718750
1592,-11.718750
1593,-11.718750
1594,-11.718750
1595,-11.718750
1596,-11.718750
1597,-11.718750
1598,-11.718750
1599,-11.718750
1600,-13.671875
1601,-11.718750
1602,-11.718750
1603,-13.671875
1604,-11.718750
1605,-11.718750
1606,-13.671875
1607,-13.671875
1608,-11.718750
1609,-13.671875
1610,-13.671875
1611,-13.671875
1612,-13.671875
1613,-13.671875
1614,-13.671875
1615,-13.671875
1616,-13.671875
1617,-13.671875
1618,-13.671875
1619,-13.671875
1620,-13.671875
1621,-13.671875
1622,-13.671875
1623,-13.671875
1624,-13.671875
1625,-13.671875
1626,-13.671875
1627,-13.671875
1628,-13.671875
1629,-13.671875
1630,-13.671875
1631,-13.671875
1632,-13.671875
1633,-13.671875
1634,-11.718750
1635,-13.671875
1636,-13.671875
1637,-13.671875
1638,-13.671875
1639,-11.718750
1640,-13.671875
1641,-13.671875
1642,-11.718750
1643,-13.671875
1644,-13.671875
1645,-11.718750
1646,-13.671875
1647,-13.671875
1648,-13.671875
1649,-13.671875
1650,-13.671875
1651,-13.671875
1652,-13.671875
1653,-13.671875
1654,-13.671875
1655,-13.671875
1656,-13.671875
1657,-13.671875
1658,-13.671875
1659,-13.671875
1660,-13.671875
1661,-13.671875
1662,-13.671875
1663,-13.671875
1664,-13.671875
1665,-13.671875
1666,-13.671875
1667,-13.671875
1668,-13.671875
1669,-13.671875
1670,-13.671875
1671,-13.671875
1672,-13.671875
1673,-13.671875
1674,-13.671875
1675,-13.671875
1676,-13.671875
1677,-13.671875
1678,-13.671875
1679,-13.671875
1680,-13.671875
1681,-11.718750
1682,-11.718750
1683,-13.671875
1684,-11.718750
1685,-11.718750
1686,-11.718750
1687,-13.671875
1688,-11.718750
1689,-11.718750
1690,-11.718750
1691,-11.718750
1692,-11.718750
1693,-11.718750
1694,-9.765625
1695,-11.718750
1696,-11.718750
1697,-11.718750
1698,-9.765625
1699,-11.718750
1700,-11.718750
1701,-9.765625
1702,-11.718750
1703,-11.718750
1704,-9.765625
1705,-9.765625
1706,-9.765625
1707,-9.765625
1708,-9.765625
1709,-9.765625
1710,-9.765625
1711,-9.765625
1712,-9.765625
1713,-9.765625
1714,-9.765625
1715,-9.765625
1716,-9.765625
1717,-9.765625
1718,-9.765625
1719,-9.765625
1720,-7.812500
1721,-7.812500
1722,-7.812500
1723,-7.812500
1724,-7.812500
1725,-7.812500
1726,-7.812500
1727,-7.812500
1728,-7.812500
1729,-7.812500
1730,-7.812500
1731,-7.812500
1732,-7.812500
1733,-7.812500
1734,-5.859375
1735,-5.859375
1736,-7.812500
1737,-5.859375
1738,-5.859375
1739,-5.859375
1740,-5.859375
1741,-5.859375
1742,-5.859375
1743,-5.859375
1744,-5.859375
1745,-5.859375
1746,-3.906250
1747,-5.859375
1748,-5.859375
1749,-5.859375
1750,-3.906250
1751,-3.906250
1752,-5.859375
1753,-3.906250
1754,-3.906250
1755,-3.906250
1756,-3.906250
1757,-3.906250
1758,-3.906250
1759,-3.906250
1760,-3.906250
1761,-1.953125
1762,-3.906250
1763,-1.953125
1764,-3.906250
1765,-1.953125
1766,-1.953125
1767,-1.953125
1768,-1.953125
1769,-1.953125
1770,-1.953125
1771,-1.953125
1772,-1.953125
1773,-1.953125
1774,-1.953125
1775,-1.953125
1776,-1.953125
1777,0.000000
1778,-1.953125
1779,-1.953125
1780,0.000000
1781,-1.953125
1782,0.000000
1783,0.000000
1784,0.000000
1785,0.000000
1786,0.000000
1787,-1.953125
1788,0.000000
1789,0.000000
1790,0.000000
1791,0.000000
1792,0.000000
1793,0.000000
1794,0.000000
1795,0.000000
1796,0.000000
1797,0.000000
1798,0.000000
1799,0.000000
1800,0.000000
1801,0.000000
1802,0.000000
1803,0.000000
1804,0.000000
1805,0.000000
1806,0.000000
1807,0.000000
1808,0.000000
1809,0.000000
1810,0.000000
1811,0.000000
1812,0.000000
1813,0.000000
1814,0.000000
1815,0.000000
1816,0.000000
1817,0.000000
1818,0.000000
1819,1.953125
1820,0.000000
1821,0.000000
1822,0.000000
1823,1.953125
1824,0.000000
1825,1.953125
1826,0.000000
1827,0.000000
1828,1.953125
1829,1.953125
1830,0.000000
1831,0.000000
1832,1.953125
1833,1.953125
1834,1.953125
1835,0.000000
1836,0.000000
1837,1.953125
1838,1.953125
1839,0.000000
1840,0.000000
1841,0.000000
1842,1.953125
1843,0.000000
1844,0.000000
1845,0.000000
1846,0.000000
1847,0.000000
1848,0.000000
1849,0.000000
1850,0.000000
1851,0.000000
1852,0.000000
1853,0.000000
1854,0.000000
1855,0.000000
1856,0.000000
1857,0.000000
1858,0.000000
1859,0.000000
1860,0.000000
1861,0.000000
1862,-1.953125
1863,-1.953125
1864,0.000000
1865,-1.953125
1866,-1.953125
1867,-1.953125
1868,-1.953125
1869,0.000000
1870,-1.953125
1871,-1.953125
1872,-1.953125
1873,-1.953125
1874,-1.953125
1875,-1.953125
1876,-1.953125
1877,-3.906250
1878,-3.906250
1879,-3.906250
1880,-3.906250
1881,-3.906250
1882,-3.906250
1883,-3.906250
1884,-3.906250
1885,-3.906250
1886,-3.906250
1887,-3.906250
1888,-3.906250
1889,-3.906250
1890,-3.906250
1891,-3.906250
1892,-3.906250
1893,-3.906250
1894,-5.859375
1895,-5.859375
1896,-5.859375
1897,-5.859375
1898,-5.859375
1899,-5.859375
1900,-5.859375
1901,-5.859375
1902,-5.859375
1903,-5.859375
1904,-5.859375
1905,-5.859375
1906,-5.859375
1907,-7.812500
1908,-7.812500
1909,-5.859375
1910,-5.859375
1911,-7.812500
1912,-7.812500
1913,-7.812500
1914,-7.812500
1915,-7.812500
1916,-7.812500
1917,-7.812500
1918,-7.812500
1919,-7.812500
1920,-9.765625
1921,-7.812500
1922,-7.812500
1923,-9.765625
1924,-9.765625
1925,-9.765625
1926,-9.765625
1927,-9.765625
1928,-9.765625
1929,-9.765625
1930,-9.765625
1931,-9.765625
1932,-11.718750
1933,-11.718750
1934,-9.765625
1935,-9.765625
1936,-9.765625
1937,-9.765625
1938,-11.718750
1939,-11.718750
1940,-11.718750
1941,-9.765625
1942,-11.718750
1943,-11.718750
1944,-11.718750
1945,-11.718750
1946,-11.718750
1947,-11.718750
1948,-11.718750
1949,-11.718750
1950,-11.718750
1951,-11.718750
1952,-11.718750
1953,-11.718750
1954,-11.718750
1955,-11.718750
1956,-11.718750
1957,-11.718750
1958,-11.718750
1959,-13.671875
1960,-11.718750
1961,-11.718750
1962,-13.671875
1963,-13.671875
1964,-13.671875
1965,-13.671875
1966,-11.718750
1967,-13.671875
1968,-13.671875
1969,-13.671875
1970,-13.671875
1971,-13.671875
1972,-13.671875
1973,-13.671875
1974,-13.671875
1975,-13.671875
1976,-13.671875
1977,-13.671875
1978,-13.671875
1979,-13.671875
1980,-13.671875
1981,-13.671875
1982,-13.671875
1983,-13.671875
1984,-13.671875
1985,-13.671875
1986,-13.671875
1987,-15.625000
1988,-13.671875
1989,-13.671875
1990,-13.671875
1991,-13.671875
1992,-13.671875
1993,-13.671875
1994,-13.671875
1995,-13.671875
1996,-13.671875
1997,-13.671875
1998,-13.671875
1999,-15.625000
2000,-15.625000
2001,-13.671875
2002,-15.625000
2003,-15.625000
2004,-13.671875
2005,-13.671875
2006,-15.625000
2007,-13.671875
2008,-15.625000
2009,-13.671875
2010,-13.671875
2011,-13.671875
2012,-15.625000
2013,-13.671875
2014,-15.625000
2015,-15.625000
2016,-15.625000
2017,-15.625000
2018,-13.671875
2019,-13.671875
2020,-15.625000
2021,-15.625000
2022,-13.671875
2023,-13.671875
2024,-15.625000
2025,-13.671875
2026,-13.671875
2027,-13.671875
2028,-13.671875
2029,-15.625000
2030,-15.625000
2031,-15.625000
2032,-13.671875
2033,-13.671875
2034,-15.625000
2035,-13.671875
2036,-13.671875
2037,-15.625000
2038,-13.671875
2039,-13.671875
2040,-15.625000
2041,-13.671875
2042,-15.625000
2043,-15.625000
2044,-13.671875
2045,-13.671875
2046,-13.671875
2047,-13.671875
2048,-13.671875
2049,-15.625000
2050,-15.625000
2051,-13.671875
2052,-13.671875
2053,-13.671875
2054,-13.671875
2055,-13.671875
2056,-13.671875
2057,-13.671875
2058,-13.671875
2059,-13.671875
2060,-13.671875
2061,-13.671875
2062,-13.671875
2063,-13.671875
2064,-13.671875
2065,-13.671875
2066,-13.671875
2067,-13.671875
2068,-13.671875
2069,-13.671875
2070,-13.671875
2071,-13.671875
2072,-13.671875
2073,-13.671875
2074,-13.671875
2075,-13.671875
2076,-13.671875
2077,-13.671875
2078,-11.718750
2079,-13.671875
2080,-11.718750
2081,-11.718750
2082,-11.718750
2083,-11.718750
2084,-11.718750
2085,-11.718750
2086,-11.718750
2087,-11.718750
2088,-11.718750
2089,-11.718750
2090,-11.718750
2091,-11.718750
2092,-11.718750
2093,-11.718750
2094,-11.718750
2095,-9.765625
2096,-11.718750
2097,-11.718750
2098,-11.718750
2099,-11.718750
2100,-11.718750
2101,-11.718750
2102,-11.718750
2103,-9.765625
2104,-11.718750
2105,-11.718750
2106,-9.765625
2107,-11.718750
2108,-9.765625
2109,-11.718750
2110,-11.718750
2111,-11.718750
2112,-9.765625
2113,-11.718750
2114,-9.765625
2115,-9.765625
2116,-9.765625
2117,-11.718750
2118,-9.765625
2119,-9.765625
2120,-9.765625
2121,-9.765625
2122,-9.765625
2123,-11.718750
2124,-9.765625
2125,-9.765625
2126,-9.765625
2127,-9.765625
2128,-9.765625
2129,-9.765625
2130,-9.765625
2131,-11.718750
2132,-9.765625
2133,-9.765625
2134,-9.765625
2135,-9.765625
2136,-9.765625
2137,-9.765625
2138,-9.765625
2139,-9.765625
2140,-9.765625
2141,-9.765625
2142,-9.765625
2143,-9.765625
2144,-9.765625
2145,-9.765625
2146,-9.765625
2147,-11.718750
2148,-9.765625
2149,-9.765625
2150,-9.765625
2151,-9.765625
2152,-9.765625
2153,-9.765625
2154,-9.765625
2155,-9.765625
2156,-9.765625
2157,-9.765625
2158,-11.718750
2159,-11.718750
2160,-9.765625
2161,-9.765625
2162,-11.718750
2163,-9.765625
2164,-9.765625
2165,-11.718750
2166,-11.718750
2167,-11.718750
2168,-11.718750
2169,-11.718750
2170,-11.718750
2171,-11.718750
2172,-11.718750
2173,-11.718750
2174,-11.718750
2175,-11.718750
2176,-11.718750
2177,-11.718750
2178,-11.718750
2179,-11.718750
2180,-11.718750
2181,-11.718750
2182,-11.718750
2183,-11.718750
2184,-11.718750
2185,-11.718750
2186,-13.671875
2187,-11.718750
2188,-13.671875
2189,-13.671875
2190,-13.671875
2191,-13.671875
2192,-13.671875
2193,-13.671875
2194,-11.718750
2195,-13.671875
2196,-13.671875
2197,-13.671875
2198,-13.671875
2199,-13.671875
2200,-13.671875
2201,-13.671875
2202,-13.671875
2203,-13.671875
2204,-13.671875
2205,-11.718750
2206,-13.671875
2207,-13.671875
2208,-13.671875
2209,-13.671875
2210,-13.671875
2211,-13.671875
2212,-13.671875
2213,-13.671875
2214,-13.671875
2215,-15.625000
2216,-13.671875
2217,-13.671875
2218,-13.671875
2219,-13.671875
2220,-13.671875
2221,-13.671875
2222,-13.671875
2223,-13.671875
2224,-13.671875
2225,-13.671875
2226,-13.671875
2227,-13.671875
2228,-13.671875
2229,-13.671875
2230,-13.671875
2231,-13.671875
2232,-13.671875
2233,-13.671875
2234,-13.671875
2235,-13.671875
2236,-13.671875
2237,-13.671875
2238,-13.671875
2239,-13.671875
2240,-13.671875
2241,-13.671875
2242,-13.671875
2243,-13.671875
2244,-11.718750
2245,-13.671875
2246,-13.671875
2247,-13.671875
2248,-13.671875
2249,-13.671875
2250,-13.671875
2251,-13.671875
2252,-13.671875
2253,-13.671875
2254,-13.671875
2255,-11.718750
2256,-11.718750
2257,-13.671875
2258,-11.718750
2259,-11.718750
2260,-13.671875
2261,-13.671875
2262,-13.671875
2263,-11.718750
2264,-11.718750
2265,-13.671875
2266,-11.718750
2267,-11.718750
2268,-11.718750
2269,-11.718750
2270,-11.718750
2271,-11.718750
2272,-11.718750
2273,-11.718750
2274,-11.718750
2275,-11.718750
2276,-11.718750
2277,-11.718750
2278,-11.718750
2279,-11.718750
2280,-11.718750
2281,-11.718750
2282,-11.718750
2283,-9.765625
2284,-9.765625
2285,-9.765625
2286,-9.765625
2287,-9.765625
2288,-9.765625
2289,-9.765625
2290,-9.765625
2291,-9.765625
2292,-9.765625
2293,-9.765625
2294,-9.765625
2295,-9.765625
2296,-9.765625
2297,-9.765625
2298,-9.765625
2299,-9.765625
2300,-7.812500
2301,-9.765625
2302,-7.812500
2303,-7.812500
2304,-7.812500
2305,-7.812500
2306,-7.812500
2307,-7.812500
2308,-7.812500
2309,-7.812500
2310,-7.812500
2311,-7.812500
2312,-7.812500
2313,-7.812500
2314,-7.812500
2315,-7.812500
2316,-7.812500
2317,-7.812500
2318,-7.812500
2319,-5.859375
2320,-5.859375
2321,-5.859375
2322,-5.859375
2323,-5.859375
2324,-5.859375
2325,-5.859375
2326,-5.859375
2327,-5.859375
2328,-3.906250
2329,-5.859375
2330,-3.906250
2331,-3.906250
2332,-3.906250
2333,-3.906250
2334,-3.906250
2335,-3.906250
2336,-3.906250
2337,-3.906250
2338,-3.906250
2339,-3.906250
2340,-3.906250
2341,-3.906250
2342,-1.953125
2343,-3.906250
2344,-3.906250
2345,-1.953125
2346,-1.953125
2347,-1.953125
2348,-1.953125
2349,-1.953125
2350,-1.953125
2351,-1.953125
2352,-1.953125
2353,-1.953125
2354,-1.953125
2355,-1.953125
2356,-1.953125
2357,0.000000
2358,-1.953125
2359,-1.953125
2360,-1.953125
2361,-1.953125
2362,0.000000
2363,-1.953125
2364,-1.953125
2365,0.000000
2366,0.000000
2367,-1.953125
2368,-1.953125
2369,0.000000
2370,0.000000
2371,0.000000
2372,0.000000
2373,0.000000
2374,0.000000
2375,0.000000
2376,0.000000
2377,0.000000
2378,0.000000
2379,0.000000
2380,0.000000
2381,0.000000
2382,0.000000
2383,0.000000
2384,0.000000
2385,0.000000
2386,0.000000
2387,1.953125
2388,1.953125
2389,0.000000
2390,0.000000
2391,1.953125
2392,0.000000
2393,0.000000
2394,0.000000
2395,0.000000
2396,1.953125
2397,1.953125
2398,0.000000
2399,0.000000
2400,0.000000
2401,3.906250
2402,1.953125
2403,0.000000
2404,0.000000
2405,0.000000
2406,1.953125
2407,1.953125
2408,0.000000
2409,1.953125
2410,1.953125
2411,0.000000
2412,1.953125
2413,1.953125
2414,0.000000
2415,1.953125
2416,0.000000
2417,0.000000
2418,1.953125
2419,1.953125
2420,0.000000
2421,1.953125
2422,0.000000
2423,0.000000
2424,0.000000
2425,0.000000
2426,0.000000
2427,0.000000
2428,0.000000
2429,0.000000
2430,0.000000
2431,0.000000
2432,0.000000
2433,0.000000
2434,0.000000
2435,0.000000
2436,0.000000
2437,0.000000
2438,0.000000
2439,0.000000
2440,0.000000
2441,0.000000
2442,-1.953125
2443,0.000000
2444,-1.953125
2445,-1.953125
2446,-1.953125
2447,-1.953125
2448,-1.953125
2449,-1.953125
2450,-1.953125
2451,-1.953125
2452,-1.953125
2453,-1.953125
2454,-1.953125
2455,-1.953125
2456,-1.953125
2457,-1.953125
2458,-1.953125
2459,-3.906250
2460,-1.953125
2461,-3.906250
2462,-3.906250
2463,-1.953125
2464,-3.906250
2465,-3.906250
2466,-3.906250
2467,-3.906250
2468,-3.906250
2469,-3.906250
2470,-3.906250
2471,-3.906250
2472,-5.859375
2473,-3.906250
2474,-3.906250
2475,-3.906250
2476,-5.859375
2477,-5.859375
2478,-5.859375
2479,-5.859375
2480,-5.859375
2481,-5.859375
2482,-5.859375
2483,-5.859375
2484,-5.859375
2485,-5.859375
2486,-5.859375
2487,-5.859375
2488,-5.859375
2489,-5.859375
2490,-5.859375
2491,-7.812500
2492,-7.812500
2493,-7.812500
2494,-7.812500
2495,-7.812500
2496,-7.812500
2497,-7.812500
2498,-7.812500
2499,-7.812500
2500,-7.812500
2501,-7.812500
2502,-7.812500
2503,-7.812500
2504,-9.765625
2505,-9.765625
2506,-9.765625
2507,-9.765625
2508,-9.765625
2509,-9.765625
2510,-9.765625
2511,-9.765625
2512,-9.765625
2513,-9.765625
2514,-9.765625
2515,-9.765625
2516,-11.718750
2517,-9.765625
2518,-11.718750
2519,-11.718750
2520,-11.718750
2521,-11.718750
2522,-11.718750
2523,-11.718750
2524,-11.718750
2525,-11.718750
2526,-11.718750
2527,-11.718750
2528,-11.718750
2529,-11.718750
2530,-11.718750
2531,-11.718750
2532,-9.765625
2533,-11.718750
2534,-11.718750
2535,-13.671875
2536,-11.718750
2537,-11.718750
2538,-13.671875
2539,-11.718750
2540,-13.671875
2541,-11.718750
2542,-13.671875
2543,-13.671875
2544,-11.718750
2545,-13.671875
2546,-13.671875
2547,-13.671875
2548,-13.671875
2549,-13.671875
2550,-13.671875
2551,-13.671875
2552,-13.671875
2553,-13.671875
2554,-13.671875
2555,-13.671875
2556,-13.671875
2557,-13.671875
2558,-13.671875
2559,-13.671875
2560,-13.671875
2561,-13.671875
2562,-13.671875
2563,-13.671875
2564,-15.625000
2565,-13.671875
2566,-11.718750
2567,-13.671875
2568,-15.625000
2569,-15.625000
2570,-13.671875
2571,-13.671875
2572,-13.671875
2573,-13.671875
2574,-13.671875
2575,-13.671875
2576,-15.625000
2577,-15.625000
2578,-13.671875
2579,-15.625000
2580,-15.625000
2581,-13.671875
2582,-15.625000
2583,-13.671875
2584,-15.625000
2585,-15.625000
2586,-13.671875
2587,-15.625000
2588,-15.625000
2589,-13.671875
2590,-15.625000
2591,-13.671875
2592,-15.625000
2593,-15.625000
2594,-13.671875
2595,-15.625000
2596,-13.671875
2597,-13.671875
2598,-13.671875
2599,-15.625000
2600,-9.765625
2601,-15.625000
2602,-15.625000
2603,-13.671875
2604,-13.671875
2605,-15.625000
2606,-13.671875
2607,-13.671875
2608,-13.671875
2609,-13.671875
2610,-13.671875
2611,-13.671875
2612,-13.671875
2613,-13.671875
2614,-13.671875
2615,-13.671875
2616,-15.625000
2617,-13.671875
2618,-11.718750
2619,-13.671875
2620,-13.671875
2621,-15.625000
2622,-13.671875
2623,-13.671875
2624,-13.671875
2625,-13.671875
2626,-15.625000
2627,-13.671875
2628,-13.671875
2629,-15.625000
2630,-13.671875
2631,-15.625000
2632,-13.671875
2633,-9.765625
2634,-13.671875
2635,-13.671875
2636,-13.671875
2637,-13.671875
2638,-13.671875
2639,-13.671875
2640,-13.671875
2641,-13.671875
2642,-13.671875
2643,-13.671875
2644,-13.671875
2645,-13.671875
2646,-13.671875
2647,-13.671875
2648,-13.671875
2649,-13.671875
2650,-13.671875
2651,-13.671875
2652,-9.765625
2653,-13.671875
2654,-13.671875
2655,-11.718750
2656,-11.718750
2657,-13.671875
2658,-13.671875
2659,-13.671875
2660,-11.718750
2661,-11.718750
2662,-11.718750
2663,-11.718750
2664,-11.718750
2665,-11.718750
2666,-11.718750
2667,-11.718750
2668,-11.718750
2669,-11.718750
2670,-11.718750
2671,-11.718750
2672,-11.718750
2673,-11.718750
2674,-11.718750
2675,-11.718750
2676,-9.765625
2677,-11.718750
2678,-11.718750
2679,-11.718750
2680,-11.718750
2681,-9.765625
2682,-11.718750
2683,-9.765625
2684,-9.765625
2685,-9.765625
2686,-11.718750
2687,-9.765625
2688,-9.765625
2689,-9.765625
2690,-9.765625
2691,-9.765625
2692,-9.765625
2693,-9.765625
2694,-9.765625
2695,-9.765625
2696,-9.765625
2697,-9.765625
2698,-9.765625
2699,-9.765625
2700,-9.765625
2701,-9.765625
2702,-9.765625
2703,-9.765625
2704,-9.765625
2705,-11.718750
2706,-9.765625
2707,-9.765625
2708,-9.765625
2709,-9.765625
2710,-9.765625
2711,-9.765625
2712,-9.765625
2713,-9.765625
2714,-9.765625
2715,-9.765625
2716,-9.765625
2717,-9.765625
2718,-9.765625
2719,-9.765625
2720,-9.765625
2721,-9.765625
2722,-9.765625
2723,-9.765625
2724,-9.765625
2725,-9.765625
2726,-9.765625
2727,-9.765625
2728,-9.765625
2729,-9.765625
2730,-9.765625
2731,-9.765625
2732,-11.718750
2733,-9.765625
2734,-9.765625
2735,-9.765625
2736,-9.765625
2737,-11.718750
2738,-9.765625
2739,-9.765625
2740,-9.765625
2741,-9.765625
2742,-11.718750
2743,-9.765625
2744,-11.718750
2745,-9.765625
2746,-11.718750
2747,-11.718750
2748,-9.765625
2749,-11.718750
2750,-11.718750
2751,-11.718750
2752,-11.718750
2753,-11.718750
2754,-11.718750
2755,-11.718750
2756,-11.718750
2757,-11.718750
2758,-11.718750
2759,-11.718750
2760,-11.718750
2761,-11.718750
2762,-11.718750
2763,-11.718750
2764,-11.718750
2765,-11.718750
2766,-11.718750
2767,-11.718750
2768,-11.718750
2769,-11.718750
2770,-11.718750
2771,-11.718750
2772,-11.718750
2773,-13.671875
2774,-13.671875
2775,-11.718750
2776,-13.671875
2777,-11.718750
2778,-13.671875
2779,-13.671875
2780,-11.718750
2781,-13.671875
2782,-13.671875
2783,-13.671875
2784,-13.671875
2785,-13.671875
2786,-13.671875
2787,-13.671875
2788,-13.671875
2789,-13.671875
2790,-13.671875
2791,-13.671875
2792,-13.671875
2793,-13.671875
2794,-13.671875
2795,-13.671875
2796,-13.671875
2797,-13.671875
2798,-13.671875
2799,-13.671875
2800,-13.671875
2801,-13.671875
2802,-13.671875
2803,-13.671875
2804,-11.718750
2805,-13.671875
2806,-15.625000
2807,-13.671875
2808,-13.671875
2809,-13.671875
2810,-13.671875
2811,-13.671875
2812,-13.671875
2813,-13.671875
2814,-13.671875
2815,-13.671875
2816,-13.671875
2817,-13.671875
2818,-13.671875
2819,-13.671875
2820,-13.671875
2821,-13.671875
2822,-13.671875
2823,-13.671875
2824,-13.671875
2825,-13.671875
2826,-13.671875
2827,-13.671875
2828,-13.671875
2829,-13.671875
2830,-13.671875
2831,-13.671875
2832,-13.671875
2833,-13.671875
2834,-13.671875
2835,-13.671875
2836,-13.671875
2837,-13.671875
2838,-13.671875
2839,-11.718750
2840,-15.625000
2841,-11.718750
2842,-13.671875
2843,-13.671875
2844,-13.671875
2845,-11.718750
2846,-13.671875
2847,-11.718750
2848,-11.718750
2849,-11.718750
2850,-11.718750
2851,-11.718750
2852,-11.718750
2853,-11.718750
2854,-11.718750
2855,-11.718750
2856,-11.718750
2857,-11.718750
2858,-11.718750
2859,-11.718750
2860,-11.718750
2861,-11.718750
2862,-11.718750
2863,-11.718750
2864,-9.765625
2865,-11.718750
2866,-9.765625
2867,-9.765625
2868,-9.765625
2869,-11.718750
2870,-9.765625
2871,-9.765625
2872,-9.765625
2873,-9.765625
2874,-9.765625
2875,-9.765625
2876,-9.765625
2877,-9.765625
2878,-9.765625
2879,-9.765625
2880,-9.765625
2881,-9.765625
2882,-9.765625
2883,-9.765625
2884,-9.765625
2885,-7.812500
2886,-7.812500
2887,-7.812500
2888,-7.812500
2889,-7.812500
2890,-7.812500
2891,-7.812500
2892,-7.812500
2893,-7.812500
2894,-7.812500
2895,-7.812500
2896,-7.812500
2897,-7.812500
2898,-7.812500
2899,-5.859375
2900,-5.859375
2901,-5.859375
2902,-7.812500
2903,-5.859375
2904,-5.859375
2905,-5.859375
2906,-5.859375
2907,-5.859375
2908,-5.859375
2909,-5.859375
2910,-5.859375
2911,-5.859375
2912,-5.859375
2913,-5.859375
2914,-5.859375
2915,-3.906250
2916,-5.859375
2917,-5.859375
2918,-5.859375
2919,-3.906250
2920,-3.906250
2921,-3.906250
2922,-3.906250
2923,-3.906250
2924,-3.906250
2925,-1.953125
2926,-3.906250
2927,-1.953125
2928,-3.906250
2929,-3.906250
2930,-1.953125
2931,-1.953125
2932,-1.953125
2933,-1.953125
2934,-1.953125
2935,-1.953125
2936,-1.953125
2937,-1.953125
2938,-1.953125
2939,-1.953125
2940,-1.953125
2941,-1.953125
2942,-1.953125
2943,-1.953125
2944,-1.953125
2945,0.000000
2946,0.000000
2947,0.000000
2948,0.000000
2949,0.000000
2950,-1.953125
2951,-1.953125
2952,0.000000
2953,0.000000
2954,0.000000
2955,0.000000
2956,0.000000
2957,0.000000
2958,0.000000
2959,0.000000
2960,0.000000
2961,0.000000
2962,0.000000
2963,0.000000
2964,0.000000
2965,0.000000
2966,0.000000
2967,0.000000
2968,0.000000
2969,0.000000
2970,0.000000
2971,0.000000
2972,1.953125
2973,0.000000
2974,0.000000
2975,1.953125
2976,0.000000
2977,0.000000
2978,0.000000
2979,1.953125
2980,0.000000
2981,0.000000
2982,1.953125
2983,0.000000
2984,0.000000
2985,0.000000
2986,1.953125
2987,1.953125
2988,1.953125
2989,1.953125
2990,1.953125
2991,1.953125
2992,1.953125
2993,1.953125
2994,1.953125
2995,1.953125
2996,1.953125
2997,0.000000
2998,0.000000
2999,0.000000
3000,1.953125
3001,0.000000
3002,1.953125
3003,0.000000
3004,1.953125
3005,0.000000
3006,0.000000
3007,0.000000
3008,0.000000
3009,0.000000
3010,0.000000
3011,0.000000
3012,0.000000
3013,0.000000
3014,0.000000
3015,0.000000
3016,0.000000
3017,0.000000
3018,0.000000
3019,-1.953125
3020,0.000000
3021,0.000000
3022,0.000000
3023,-1.953125
3024,-1.953125
3025,0.000000
3026,-1.953125
3027,-1.953125
3028,-1.953125
3029,-1.953125
3030,-1.953125
3031,0.000000
3032,-1.953125
3033,-1.953125
3034,-1.953125
3035,-1.953125
3036,-1.953125
3037,-3.906250
3038,-1.953125
3039,-1.953125
3040,-1.953125
3041,-1.953125
3042,-3.906250
3043,-1.953125
3044,-3.906250
3045,-3.906250
3046,-3.906250
3047,-3.906250
3048,-3.906250
3049,-3.906250
3050,-3.906250
3051,-3.906250
3052,-3.906250
3053,-3.906250
3054,-3.906250
3055,-3.906250
3056,-3.906250
3057,-3.906250
3058,-5.859375
3059,-5.859375
3060,-5.859375
3061,-5.859375
3062,-5.859375
3063,-5.859375
3064,-5.859375
3065,-5.859375
3066,-5.859375
3067,-5.859375
3068,-5.859375
3069,-5.859375
3070,-5.859375
3071,-7.812500
3072,-5.859375
3073,-7.812500
3074,-7.812500
3075,-7.812500
3076,-7.812500
3077,-7.812500
3078,-7.812500
3079,-7.812500
3080,-7.812500
3081,-7.812500
3082,-9.765625
3083,-9.765625
3084,-9.765625
3085,-7.812500
3086,-9.765625
3087,-9.765625
3088,-9.765625
3089,-9.765625
3090,-9.765625
3091,-9.765625
3092,-9.765625
3093,-9.765625
3094,-9.765625
3095,-9.765625
3096,-9.765625
3097,-9.765625
3098,-9.765625
3099,-11.718750
3100,-11.718750
3101,-11.718750
3102,-11.718750
3103,-11.718750
3104,-11.718750
3105,-11.718750
3106,-11.718750
3107,-11.718750
3108,-11.718750
3109,-11.718750
3110,-11.718750
3111,-11.718750
3112,-11.718750
3113,-11.718750
3114,-11.718750
3115,-11.718750
3116,-11.718750
3117,-11.718750
3118,-11.718750
3119,-11.718750
3120,-11.718750
3121,-11.718750
3122,-11.718750
3123,-11.718750
3124,-11.718750
3125,-11.718750
3126,-13.671875
3127,-13.671875
3128,-11.718750
3129,-13.671875
3130,-13.671875
3131,-11.718750
3132,-13.671875
3133,-13.671875
3134,-13.671875
3135,-11.718750
3136,-15.625000
3137,-15.625000
3138,-13.671875
3139,-13.671875
3140,-13.671875
3141,-13.671875
3142,-13.671875
3143,-13.671875
3144,-13.671875
3145,-13.671875
3146,-13.671875
3147,-13.671875
3148,-13.671875
3149,-15.625000
3150,-13.671875
3151,-13.671875
3152,-13.671875
3153,-15.625000
3154,-13.671875
3155,-13.671875
3156,-13.671875
3157,-15.625000
3158,-13.671875
3159,-15.625000
3160,-15.625000
3161,-15.625000
3162,-15.625000
3163,-13.671875
3164,-15.625000
3165,-13.671875
3166,-15.625000
3167,-15.625000
3168,-15.625000
3169,-13.671875
3170,-15.625000
3171,-15.625000
3172,-13.671875
3173,-15.625000
3174,-15.625000
3175,-15.625000
3176,-15.625000
3177,-15.625000
3178,-15.625000
3179,-13.671875
3180,-13.671875
3181,-13.671875
3182,-15.625000
3183,-15.625000
3184,-13.671875
3185,-15.625000
3186,-13.671875
3187,-15.625000
3188,-13.671875
3189,-15.625000
3190,-13.671875
3191,-13.671875
3192,-13.671875
3193,-13.671875
3194,-15.625000
3195,-13.671875
3196,-15.625000
3197,-13.671875
3198,-13.671875
3199,-13.671875
3200,-13.671875
3201,-13.671875
3202,-13.671875
3203,-13.671875
3204,-13.671875
3205,-13.671875
3206,-13.671875
3207,-13.671875
3208,-13.671875
3209,-13.671875
3210,-13.671875
3211,-13.671875
3212,-13.671875
3213,-15.625000
3214,-13.671875
3215,-13.671875
3216,-13.671875
3217,-13.671875
3218,-13.671875
3219,-13.671875
3220,-13.671875
3221,-13.671875
3222,-13.671875
3223,-13.671875
3224,-13.671875
3225,-13.671875
3226,-13.671875
3227,-13.671875
3228,-13.671875
3229,-13.671875
3230,-13.671875
3231,-13.671875
3232,-13.671875
3233,-13.671875
3234,-13.671875
3235,-13.671875
3236,-11.718750
3237,-11.718750
3238,-13.671875
3239,-11.718750
3240,-13.671875
3241,-11.718750
3242,-11.718750
3243,-11.718750
3244,-11.718750
3245,-11.718750
3246,-11.718750
3247,-11.718750
3248,-11.718750
3249,-11.718750
3250,-11.718750
3251,-11.718750
3252,-11.718750
3253,-11.718750
3254,-9.765625
3255,-11.718750
3256,-11.718750
3257,-11.718750
3258,-9.765625
3259,-11.718750
3260,-9.765625
3261,-11.718750
3262,-9.765625
3263,-11.718750
3264,-9.765625
3265,-11.718750
3266,-9.765625
3267,-9.765625
3268,-9.765625
3269,-9.765625
3270,-9.765625
3271,-9.765625
3272,-9.765625
3273,-9.765625
3274,-9.765625
3275,-9.765625
3276,-9.765625
3277,-9.765625
3278,-9.765625
3279,-9.765625
3280,-9.765625
3281,-9.765625
3282,-9.765625
3283,-9.765625
3284,-9.765625
3285,-9.765625
3286,-9.765625
3287,-9.765625
3288,-9.765625
3289,-9.765625
3290,-9.765625
3291,-9.765625
3292,-9.765625
3293,-9.765625
3294,-9.765625
3295,-9.765625
3296,-9.765625
3297,-9.765625
3298,-9.765625
3299,-9.765625
3300,-9.765625
3301,-9.765625
3302,-9.765625
3303,-9.765625
3304,-9.765625
3305,-9.765625
3306,-9.765625
3307,-9.765625
3308,-9.765625
3309,-9.765625
3310,-9.765625
3311,-9.765625
3312,-9.765625
3313,-9.765625
3314,-9.765625
3315,-9.765625
3316,-9.765625
3317,-9.765625
3318,-9.765625
3319,-11.718750
3320,-9.765625
3321,-9.765625
3322,-9.765625
3323,-9.765625
3324,-9.765625
3325,-11.718750
3326,-9.765625
3327,-9.765625
3328,-9.765625
3329,-9.765625
3330,-9.765625
3331,-9.765625
3332,-9.765625
3333,-11.718750
3334,-11.718750
3335,-9.765625
3336,-11.718750
3337,-11.718750
3338,-11.718750
3339,-11.718750
3340,-11.718750
3341,-11.718750
3342,-11.718750
3343,-11.718750
3344,-11.718750
3345,-11.718750
3346,-11.718750
3347,-11.718750
3348,-11.718750
3349,-11.718750
3350,-11.718750
3351,-11.718750
3352,-11.718750
3353,-11.718750
3354,-13.671875
3355,-11.718750
3356,-11.718750
3357,-11.718750
3358,-13.671875
3359,-13.671875
3360,-13.671875
3361,-11.718750
3362,-11.718750
3363,-11.718750
3364,-13.671875
3365,-13.671875
3366,-13.671875
3367,-11.718750
3368,-13.671875
3369,-13.671875
3370,-13.671875
3371,-11.718750
3372,-13.671875
3373,-13.671875
3374,-13.671875
3375,-13.671875
3376,-13.671875
3377,-13.671875
3378,-11.718750
3379,-13.671875
3380,-13.671875
3381,-13.671875
3382,-13.671875
3383,-13.671875
3384,-13.671875
3385,-13.671875
3386,-13.671875
3387,-11.718750
3388,-13.671875
3389,-13.671875
3390,-13.671875
3391,-13.671875
3392,-13.671875
3393,-13.671875
3394,-13.671875
3395,-13.671875
3396,-13.671875
3397,-13.671875
3398,-13.671875
3399,-13.671875
3400,-13.671875
3401,-13.671875
3402,-13.671875
3403,-13.671875
3404,-13.671875
3405,-13.671875
3406,-13.671875
3407,-13.671875
3408,-13.671875
3409,-13.671875
3410,-13.671875
3411,-13.671875
3412,-13.671875
3413,-11.718750
3414,-13.671875
3415,-13.671875
3416,-13.671875
3417,-13.671875
3418,-13.671875
3419,-13.671875
3420,-13.671875
3421,-11.718750
3422,-13.671875
3423,-13.671875
3424,-13.671875
3425,-13.671875
3426,-11.718750
3427,-11.718750
3428,-13.671875
3429,-13.671875
3430,-11.718750
3431,-11.718750
3432,-11.718750
3433,-11.718750
3434,-11.718750
3435,-11.718750
3436,-11.718750
3437,-11.718750
3438,-11.718750
3439,-11.718750
3440,-11.718750
3441,-11.718750
3442,-11.718750
3443,-11.718750
3444,-11.718750
3445,-11.718750
3446,-11.718750
3447,-9.765625
3448,-11.718750
3449,-11.718750
3450,-9.765625
3451,-9.765625
3452,-9.765625
3453,-9.765625
3454,-9.765625
3455,-9.765625
3456,-9.765625
3457,-9.765625
3458,-9.765625
3459,-9.765625
3460,-9.765625
3461,-9.765625
3462,-9.765625
3463,-9.765625
3464,-9.765625
3465,-9.765625
3466,-9.765625
3467,-9.765625
3468,-9.765625
3469,-7.812500
3470,-9.765625
3471,-7.812500
3472,-7.812500
3473,-7.812500
3474,-7.812500
3475,-7.812500
3476,-7.812500
3477,-7.812500
3478,-7.812500
3479,-7.812500
3480,-7.812500
3481,-7.812500
3482,-7.812500
3483,-5.859375
3484,-7.812500
3485,-7.812500
3486,-7.812500
3487,-5.859375
3488,-5.859375
3489,-5.859375
3490,-5.859375
3491,-5.859375
3492,-5.859375
3493,-5.859375
3494,-5.859375
3495,-5.859375
3496,-5.859375
3497,-3.906250
3498,-5.859375
3499,-3.906250
3500,-3.906250
3501,-3.906250
3502,-3.906250
3503,-3.906250
3504,-3.906250
3505,-3.906250
3506,-3.906250
3507,-3.906250
3508,-3.906250
3509,-3.906250
3510,-1.953125
3511,-3.906250
3512,-3.906250
3513,-1.953125
3514,-1.953125
3515,-1.953125
3516,-1.953125
3517,-1.953125
3518,-1.953125
3519,-1.953125
3520,-1.953125
3521,-1.953125
3522,-1.953125
3523,-1.953125
3524,-1.953125
3525,-1.953125
3526,-1.953125
3527,-1.953125
3528,-1.953125
3529,0.000000
3530,0.000000
3531,-1.953125
3532,0.000000
3533,0.000000
3534,0.000000
3535,-1.953125
3536,0.000000
3537,-1.953125
3538,0.000000
3539,0.000000
3540,0.000000
3541,0.000000
3542,0.000000
3543,0.000000
3544,0.000000
3545,0.000000
3546,0.000000
3547,0.000000
3548,0.000000
3549,0.000000
3550,0.000000
3551,0.000000
3552,0.000000
3553,0.000000
3554,0.000000
3555,0.000000
3556,0.000000
3557,0.000000
3558,0.000000
3559,0.000000
3560,1.953125
3561,0.000000
3562,1.953125
3563,0.000000
3564,0.000000
3565,1.953125
3566,0.000000
3567,0.000000
3568,1.953125
3569,1.953125
3570,0.000000
3571,0.000000
3572,1.953125
3573,1.953125
3574,1.953125
3575,0.000000
3576,1.953125
3577,1.953125
3578,0.000000
3579,1.953125
3580,0.000000
3581,1.953125
3582,0.000000
3583,0.000000
3584,0.000000
3585,0.000000
3586,0.000000
3587,0.000000
3588,0.000000
3589,1.953125
3590,0.000000
3591,0.000000
3592,0.000000
3593,0.000000
3594,0.000000
3595,0.000000
3596,0.000000
3597,0.000000
3598,0.000000
3599,0.000000
3600,0.000000
3601,0.000000
3602,0.000000
3603,0.000000
3604,0.000000
3605,-1.953125
3606,0.000000
3607,0.000000
3608,-1.953125
3609,-1.953125
3610,-1.953125
3611,-1.953125
3612,-1.953125
3613,-1.953125
3614,-1.953125
3615,-1.953125
3616,-1.953125
3617,-1.953125
3618,-1.953125
3619,-1.953125
3620,-1.953125
3621,-1.953125
3622,-1.953125
3623,-3.906250
3624,-1.953125
3625,-3.906250
3626,-1.953125
3627,-1.953125
3628,-3.906250
3629,-3.906250
3630,-3.906250
3631,-3.906250
3632,-3.906250
3633,-3.906250
3634,-3.906250
3635,-3.906250
3636,-3.906250
3637,-3.906250
3638,-3.906250
3639,-3.906250
3640,-5.859375
3641,-5.859375
3642,-5.859375
3643,-3.906250
3644,-5.859375
3645,-5.859375
3646,-5.859375
3647,-5.859375
3648,-5.859375
3649,-5.859375
3650,-5.859375
3651,-5.859375
3652,-5.859375
3653,-5.859375
3654,-7.812500
3655,-7.812500
3656,-5.859375
3657,-7.812500
3658,-7.812500
3659,-7.812500
3660,-7.812500
3661,-7.812500
3662,-7.812500
3663,-7.812500
3664,-7.812500
3665,-7.812500
3666,-9.765625
3667,-9.765625
3668,-9.765625
3669,-9.765625
3670,-9.765625
3671,-9.765625
3672,-7.812500
3673,-9.765625
3674,-9.765625
3675,-9.765625
3676,-9.765625
3677,-9.765625
3678,-11.718750
3679,-9.765625
3680,-9.765625
3681,-9.765625
3682,-11.718750
3683,-11.718750
3684,-11.718750
3685,-9.765625
3686,-11.718750
3687,-11.718750
3688,-11.718750
3689,-11.718750
3690,-11.718750
3691,-11.718750
3692,-11.718750
3693,-11.718750
3694,-11.718750
3695,-11.718750
3696,-11.718750
3697,-11.718750
3698,-11.718750
3699,-11.718750
3700,-13.671875
3701,-11.718750
3702,-11.718750
3703,-11.718750
3704,-11.718750
3705,-13.671875
3706,-11.718750
3707,-11.718750
3708,-11.718750
3709,-13.671875
3710,-11.718750
3711,-11.718750
3712,-13.671875
3713,-13.671875
3714,-13.671875
3715,-13.671875
3716,-13.671875
3717,-13.671875
3718,-13.671875
3719,-13.671875
3720,-13.671875
3721,-13.671875
3722,-13.671875
3723,-13.671875
3724,-13.671875
3725,-13.671875
3726,-13.671875
3727,-13.671875
3728,-13.671875
3729,-13.671875
3730,-13.671875
3731,-13.671875
3732,-13.671875
3733,-13.671875
3734,-13.671875
3735,-13.671875
3736,-13.671875
3737,-13.671875
3738,-13.671875
3739,-13.671875
3740,-13.671875
3741,-15.625000
3742,-13.671875
3743,-13.671875
3744,-13.671875
3745,-13.671875
3746,-15.625000
3747,-15.625000
3748,-13.671875
3749,-15.625000
3750,-13.671875
3751,-15.625000
3752,-15.625000
3753,-13.671875
3754,-13.671875
3755,-15.625000
3756,-13.671875
3757,-13.671875
3758,-13.671875
3759,-15.625000
3760,-13.671875
3761,-13.671875
3762,-13.671875
3763,-13.671875
3764,-15.625000
3765,-13.671875
3766,-13.671875
3767,-13.671875
3768,-15.625000
3769,-13.671875
3770,-15.625000
3771,-13.671875
3772,-13.671875
3773,-15.625000
3774,-13.671875
3775,-13.671875
3776,-13.671875
3777,-13.671875
3778,-13.671875
3779,-13.671875
3780,-13.671875
3781,-13.671875
3782,-13.671875
3783,-15.625000
3784,-13.671875
3785,-13.671875
3786,-13.671875
3787,-13.671875
3788,-13.671875
3789,-13.671875
3790,-13.671875
3791,-13.671875
3792,-13.671875
3793,-13.671875
3794,-13.671875
3795,-13.671875
3796,-13.671875
3797,-13.671875
3798,-13.671875
3799,-13.671875
3800,-13.671875
3801,-13.671875
3802,-13.671875
3803,-13.671875
3804,-13.671875
3805,-13.671875
3806,-13.671875
3807,-13.671875
3808,-13.671875
3809,-11.718750
3810,-13.671875
3811,-13.671875
3812,-13.671875
3813,-13.671875
3814,-11.718750
3815,-13.671875
3816,-13.671875
3817,-13.671875
3818,-13.671875
3819,-11.718750
3820,-11.718750
3821,-11.718750
3822,-11.718750
3823,-11.718750
3824,-11.718750
3825,-11.718750
3826,-11.718750
3827,-11.718750
3828,-11.718750
3829,-11.718750
3830,-11.718750
3831,-11.718750
3832,-9.765625
3833,-11.718750
3834,-11.718750
3835,-11.718750
3836,-11.718750
3837,-9.765625
3838,-11.718750
3839,-11.718750
3840,-11.718750
3841,-9.765625
3842,-11.718750
3843,-9.765625
3844,-11.718750
3845,-9.765625
3846,-9.765625
3847,-9.765625
3848,-9.765625
3849,-9.765625
3850,-9.765625
3851,-9.765625
3852,-9.765625
3853,-9.765625
3854,-9.765625
3855,-9.765625
3856,-9.765625
3857,-9.765625
3858,-9.765625
3859,-9.765625
3860,-9.765625
3861,-9.765625
3862,-9.765625
3863,-9.765625
3864,-9.765625
3865,-9.765625
3866,-9.765625
3867,-9.765625
3868,-9.765625
3869,-9.765625
3870,-9.765625
3871,-9.765625
3872,-9.765625
3873,-9.765625
3874,-9.765625
3875,-9.765625
3876,-9.765625
3877,-9.765625
3878,-9.765625
3879,-9.765625
3880,-9.765625
3881,-9.765625
3882,-9.765625
3883,-9.765625
3884,-9.765625
3885,-9.765625
3886,-9.765625
3887,-9.765625
3888,-9.765625
3889,-9.765625
3890,-9.765625
3891,-9.765625
3892,-9.765625
3893,-9.765625
3894,-9.765625
3895,-9.765625
3896,-9.765625
3897,-9.765625
3898,-9.765625
3899,-9.765625
3900,-9.765625
3901,-9.765625
3902,-9.765625
3903,-9.765625
3904,-9.765625
3905,-9.765625
3906,-9.765625
3907,-11.718750
3908,-11.718750
3909,-11.718750
3910,-9.765625
3911,-9.765625
3912,-11.718750
3913,-11.718750
3914,-11.718750
3915,-9.765625
3916,-11.718750
3917,-11.718750
3918,-11.718750
3919,-11.718750
3920,-11.718750
3921,-11.718750
3922,-11.718750
3923,-11.718750
3924,-11.718750
3925,-11.718750
3926,-11.718750
3927,-11.718750
3928,-11.718750
3929,-11.718750
3930,-11.718750
3931,-13.671875
3932,-11.718750
3933,-13.671875
3934,-11.718750
3935,-11.718750
3936,-11.718750
3937,-13.671875
3938,-13.671875
3939,-11.718750
3940,-11.718750
3941,-13.671875
3942,-11.718750
3943,-13.671875
3944,-13.671875
3945,-13.671875
3946,-13.671875
3947,-13.671875
3948,-13.671875
3949,-13.671875
3950,-13.671875
3951,-13.671875
3952,-13.671875
3953,-11.718750
3954,-13.671875
3955,-13.671875
3956,-13.671875
3957,-13.671875
3958,-13.671875
3959,-13.671875
3960,-13.671875
3961,-11.718750
3962,-13.671875
3963,-13.671875
3964,-13.671875
3965,-13.671875
3966,-13.671875
3967,-13.671875
3968,-13.671875
3969,-13.671875
3970,-13.671875
3971,-13.671875
3972,-13.671875
3973,-13.671875
3974,-13.671875
3975,-13.671875
3976,-13.671875
3977,-13.671875
3978,-13.671875
3979,-13.671875
3980,-13.671875
3981,-13.671875
3982,-13.671875
3983,-13.671875
3984,-13.671875
3985,-13.671875
3986,-13.671875
3987,-13.671875
3988,-13.671875
3989,-13.671875
3990,-13.671875
3991,-13.671875
3992,-13.671875
3993,-13.671875
3994,-13.671875
3995,-13.671875
3996,-13.671875
3997,-13.671875
3998,-13.671875
3999,-13.671875
4000,-13.671875
4001,-13.671875
4002,-13.671875
4003,-13.671875
4004,-13.671875
4005,-13.671875
4006,-11.718750
4007,-13.671875
4008,-13.671875
4009,-13.671875
4010,-13.671875
4011,-13.671875
4012,-11.718750
4013,-11.718750
4014,-11.718750
4015,-11.718750
4016,-11.718750
4017,-11.718750
4018,-11.718750
4019,-11.718750
4020,-11.718750
4021,-11.718750
4022,-11.718750
4023,-11.718750
4024,-11.718750
4025,-11.718750
4026,-11.718750
4027,-11.718750
4028,-11.718750
4029,-9.765625
4030,-11.718750
4031,-9.765625
4032,-9.765625
4033,-9.765625
4034,-11.718750
4035,-9.765625
4036,-11.718750
4037,-9.765625
4038,-9.765625
4039,-9.765625
4040,-9.765625
4041,-9.765625
4042,-9.765625
4043,-9.765625
4044,-9.765625
4045,-9.765625
4046,-9.765625
4047,-9.765625
4048,-9.765625
4049,-9.765625
4050,-9.765625
4051,-9.765625
4052,-7.812500
4053,-9.765625
4054,-7.812500
4055,-7.812500
4056,-7.812500
4057,-7.812500
4058,-7.812500
4059,-9.765625
4060,-7.812500
4061,-7.812500
4062,-7.812500
4063,-7.812500
4064,-7.812500
4065,-7.812500
4066,-7.812500
4067,-5.859375
4068,-7.812500
4069,-5.859375
4070,-5.859375
4071,-5.859375
4072,-5.859375
4073,-5.859375
4074,-5.859375
4075,-5.859375
4076,-5.859375
4077,-5.859375
4078,-5.859375
4079,-5.859375
4080,-3.906250
4081,-3.906250
4082,-3.906250
4083,-3.906250
4084,-3.906250
4085,-3.906250
4086,-3.906250
4087,-3.906250
4088,-3.906250
4089,-3.906250
4090,-3.906250
4091,-3.906250
4092,-3.906250
4093,-3.906250
4094,-1.953125
4095,-3.906250
4096,-1.953125
4097,-1.953125
4098,-1.953125
4099,-1.953125
4100,-1.953125
4101,-1.953125
4102,-1.953125
4103,-1.953125
4104,-1.953125
4105,-1.953125
4106,-1.953125
4107,-1.953125
4108,-1.953125
4109,0.000000
4110,-1.953125
4111,-1.953125
4112,-1.953125
4113,-1.953125
4114,0.000000
4115,0.000000
4116,0.000000
4117,0.000000
4118,0.000000
4119,-1.953125
4120,0.000000
4121,0.000000
4122,0.000000
4123,0.000000
4124,0.000000
4125,0.000000
4126,0.000000
4127,0.000000
4128,0.000000
4129,0.000000
4130,0.000000
4131,0.000000
4132,0.000000
4133,0.000000
4134,0.000000
4135,0.000000
4136,1.953125
4137,0.000000
4138,0.000000
4139,0.000000
4140,0.000000
4141,0.000000
4142,0.000000
4143,0.000000
4144,0.000000
4145,0.000000
4146,0.000000
4147,1.953125
4148,0.000000
4149,0.000000
4150,1.953125
4151,1.953125
4152,1.953125
4153,0.000000
4154,1.953125
4155,1.953125
4156,1.953125
4157,1.953125
4158,1.953125
4159,0.000000
4160,1.953125
4161,0.000000
4162,1.953125
4163,0.000000
4164,1.953125
4165,1.953125
4166,1.953125
4167,0.000000
4168,0.000000
4169,0.000000
4170,1.953125
4171,0.000000
4172,0.000000
4173,0.000000
4174,1.953125
4175,0.000000
4176,0.000000
4177,0.000000
4178,0.000000
4179,0.000000
4180,0.000000
4181,0.000000
4182,0.000000
4183,0.000000
4184,0.000000
4185,0.000000
4186,0.000000
4187,0.000000
4188,0.000000
4189,0.000000
4190,-1.953125
4191,0.000000
4192,0.000000
4193,-1.953125
4194,0.000000
4195,-1.953125
4196,-1.953125
4197,-1.953125
4198,-1.953125
4199,-1.953125
4200,-1.953125
4201,-1.953125
4202,-1.953125
4203,-1.953125
4204,-1.953125
4205,-1.953125
4206,-1.953125
4207,-3.906250
4208,-1.953125
4209,-3.906250
4210,-3.906250
4211,-1.953125
4212,-3.906250
4213,-3.906250
4214,-3.906250
4215,-3.906250
4216,-3.906250
4217,-3.906250
4218,-3.906250
4219,-3.906250
4220,-3.906250
4221,-3.906250
4222,-3.906250
4223,-3.906250
4224,-3.906250
4225,-3.906250
4226,-5.859375
4227,-3.906250
4228,-5.859375
4229,-5.859375
4230,-5.859375
4231,-5.859375
4232,-5.859375
4233,-5.859375
4234,-5.859375
4235,-5.859375
4236,-5.859375
4237,-5.859375
4238,-5.859375
4239,-7.812500
4240,-5.859375
4241,-7.812500
4242,-7.812500
4243,-7.812500
4244,-7.812500
4245,-7.812500
4246,-7.812500
4247,-7.812500
4248,-7.812500
4249,-9.765625
4250,-9.765625
4251,-9.765625
4252,-7.812500
4253,-9.765625
4254,-9.765625
4255,-9.765625
4256,-9.765625
4257,-9.765625
4258,-9.765625
4259,-9.765625
4260,-11.718750
4261,-9.765625
4262,-11.718750
4263,-9.765625
4264,-11.718750
4265,-9.765625
4266,-9.765625
4267,-9.765625
4268,-11.718750
4269,-11.718750
4270,-11.718750
4271,-9.765625
4272,-11.718750
4273,-11.718750
4274,-11.718750
4275,-11.718750
4276,-11.718750
4277,-11.718750
4278,-11.718750
4279,-11.718750
4280,-11.718750
4281,-11.718750
4282,-11.718750
4283,-11.718750
4284,-11.718750
4285,-11.718750
4286,-11.718750
4287,-13.671875
4288,-11.718750
4289,-11.718750
4290,-13.671875
4291,-11.718750
4292,-13.671875
4293,-13.671875
4294,-11.718750
4295,-11.718750
4296,-11.718750
4297,-11.718750
4298,-13.671875
4299,-11.718750
4300,-13.671875
4301,-13.671875
4302,-13.671875
4303,-13.671875
4304,-15.625000
4305,-13.671875
4306,-13.671875
4307,-13.671875
4308,-13.671875
4309,-13.671875
4310,-13.671875
4311,-13.671875
4312,-13.671875
4313,-13.671875
4314,-13.671875
4315,-13.671875
4316,-13.671875
4317,-13.671875
4318,-13.671875
4319,-13.671875
4320,-15.625000
4321,-15.625000
4322,-13.671875
4323,-13.671875
4324,-13.671875
4325,-15.625000
4326,-15.625000
4327,-13.671875
4328,-13.671875
4329,-13.671875
4330,-13.671875
4331,-17.578125
4332,-13.671875
4333,-15.625000
4334,-15.625000
4335,-13.671875
4336,-13.671875
4337,-13.671875
4338,-9.765625
4339,-13.671875
4340,-15.625000
4341,-13.671875
4342,-15.625000
4343,-13.671875
4344,-15.625000
4345,-13.671875
4346,-11.718750
4347,-11.718750
4348,-13.671875
4349,-13.671875
4350,-13.671875
4351,-15.625000
4352,-13.671875
4353,-13.671875
4354,-13.671875
4355,-15.625000
4356,-13.671875
4357,-13.671875
4358,-13.671875
4359,-15.625000
4360,-15.625000
4361,-15.625000
4362,-13.671875
4363,-13.671875
4364,-13.671875
4365,-13.671875
4366,-15.625000
4367,-13.671875
4368,-13.671875
4369,-13.671875
4370,-15.625000
4371,-13.671875
4372,-15.625000
4373,-13.671875
4374,-15.625000
4375,-13.671875
4376,-13.671875
4377,-13.671875
4378,-13.671875
4379,-13.671875
4380,-15.625000
4381,-13.671875
4382,-13.671875
4383,-13.671875
4384,-13.671875
4385,-13.671875
4386,-13.671875
4387,-13.671875
4388,-15.625000
4389,-13.671875
4390,-13.671875
4391,-13.671875
4392,-13.671875
4393,-13.671875
4394,-11.718750
4395,-13.671875
4396,-11.718750
4397,-13.671875
4398,-13.671875
4399,-11.718750
4400,-11.718750
4401,-11.718750
4402,-11.718750
4403,-13.671875
4404,-13.671875
4405,-11.718750
4406,-11.718750
4407,-11.718750
4408,-11.718750
4409,-11.718750
4410,-11.718750
4411,-11.718750
4412,-11.718750
4413,-11.718750
4414,-11.718750
4415,-11.718750
4416,-11.718750
4417,-11.718750
4418,-11.718750
4419,-11.718750
4420,-11.718750
4421,-11.718750
4422,-11.718750
4423,-11.718750
4424,-9.765625
4425,-11.718750
4426,-9.765625
4427,-11.718750
4428,-9.765625
4429,-9.765625
4430,-9.765625
4431,-11.718750
4432,-9.765625
4433,-11.718750
4434,-9.765625
4435,-9.765625
4436,-9.765625
4437,-9.765625
4438,-9.765625
4439,-11.718750
4440,-9.765625
4441,-9.765625
4442,-9.765625
4443,-9.765625
4444,-9.765625
4445,-9.765625
4446,-11.718750
4447,-9.765625
4448,-9.765625
4449,-9.765625
4450,-9.765625
4451,-9.765625
4452,-9.765625
4453,-9.765625
4454,-9.765625
4455,-9.765625
4456,-9.765625
4457,-9.765625
4458,-9.765625
4459,-9.765625
4460,-9.765625
4461,-9.765625
4462,-9.765625
4463,-9.765625
4464,-9.765625
4465,-9.765625
4466,-9.765625
4467,-9.765625
4468,-9.765625
4469,-9.765625
4470,-9.765625
4471,-9.765625
4472,-9.765625
4473,-9.765625
4474,-9.765625
4475,-9.765625
4476,-9.765625
4477,-9.765625
4478,-9.765625
4479,-9.765625
4480,-9.765625
4481,-9.765625
4482,-9.765625
4483,-9.765625
4484,-9.765625
4485,-9.765625
4486,-9.765625
4487,-9.765625
4488,-9.765625
4489,-9.765625
4490,-11.718750
4491,-11.718750
4492,-11.718750
4493,-9.765625
4494,-11.718750
4495,-11.718750
4496,-11.718750
4497,-11.718750
4498,-11.718750
4499,-11.718750
4500,-11.718750
4501,-11.718750
4502,-11.718750
4503,-11.718750
4504,-11.718750
4505,-11.718750
4506,-11.718750
4507,-11.718750
4508,-11.718750
4509,-11.718750
4510,-11.718750
4511,-11.718750
4512,-11.718750
4513,-11.718750
4514,-11.718750
4515,-13.671875
4516,-11.718750
4517,-11.718750
4518,-11.718750
4519,-13.671875
4520,-13.671875
4521,-13.671875
4522,-11.718750
4523,-13.671875
4524,-11.718750
4525,-15.625000
4526,-13.671875
4527,-13.671875
4528,-13.671875
4529,-13.671875
4530,-13.671875
4531,-13.671875
4532,-13.671875
4533,-13.671875
4534,-15.625000
4535,-13.671875
4536,-13.671875
4537,-13.671875
4538,-13.671875
4539,-15.625000
4540,-13.671875
4541,-13.671875
4542,-13.671875
4543,-13.671875
4544,-13.671875
4545,-13.671875
4546,-13.671875
4547,-13.671875
4548,-13.671875
4549,-13.671875
4550,-13.671875
4551,-13.671875
4552,-13.671875
4553,-13.671875
4554,-13.671875
4555,-13.671875
4556,-13.671875
4557,-13.671875
4558,-13.671875
4559,-13.671875
4560,-13.671875
4561,-13.671875
4562,-13.671875
4563,-13.671875
4564,-13.671875
4565,-13.671875
4566,-13.671875
4567,-11.718750
4568,-13.671875
4569,-13.671875
4570,-13.671875
4571,-13.671875
4572,-11.718750
4573,-13.671875
4574,-13.671875
4575,-13.671875
4576,-13.671875
4577,-13.671875
4578,-13.671875
4579,-13.671875
4580,-13.671875
4581,-13.671875
4582,-13.671875
4583,-13.671875
4584,-13.671875
4585,-13.671875
4586,-13.671875
4587,-13.671875
4588,-11.718750
4589,-11.718750
4590,-11.718750
4591,-11.718750
4592,-13.671875
4593,-11.718750
4594,-11.718750
4595,-11.718750
4596,-13.671875
4597,-11.718750
4598,-11.718750
4599,-11.718750
4600,-11.718750
4601,-11.718750
4602,-11.718750
4603,-11.718750
4604,-11.718750
4605,-11.718750
4606,-11.718750
4607,-11.718750
4608,-11.718750
4609,-9.765625
4610,-11.718750
4611,-11.718750
4612,-11.718750
4613,-9.765625
4614,-9.765625
4615,-9.765625
4616,-9.765625
4617,-9.765625
4618,-11.718750
4619,-9.765625
4620,-9.765625
4621,-9.765625
4622,-9.765625
4623,-9.765625
4624,-9.765625
4625,-9.765625
4626,-9.765625
4627,-9.765625
4628,-9.765625
4629,-9.765625
4630,-7.812500
4631,-9.765625
4632,-9.765625
4633,-9.765625
4634,-7.812500
4635,-9.765625
4636,-7.812500
4637,-7.812500
4638,-7.812500
4639,-7.812500
4640,-7.812500
4641,-7.812500
4642,-7.812500
4643,-7.812500
4644,-7.812500
4645,-7.812500
4646,-5.859375
4647,-7.812500
4648,-7.812500
4649,-7.812500
4650,-5.859375
4651,-7.812500
4652,-5.859375
4653,-5.859375
4654,-5.859375
4655,-5.859375
4656,-5.859375
4657,-5.859375
4658,-5.859375
4659,-5.859375
4660,-3.906250
4661,-3.906250
4662,-3.906250
4663,-3.906250
4664,-3.906250
4665,-3.906250
4666,-3.906250
4667,-3.906250
4668,-3.906250
4669,-3.906250
4670,-3.906250
4671,-3.906250
4672,-3.906250
4673,-1.953125
4674,-1.953125
4675,-3.906250
4676,-1.953125
4677,-1.953125
4678,-1.953125
4679,-1.953125
4680,-1.953125
4681,-1.953125
4682,-1.953125
4683,-1.953125
4684,-1.953125
4685,-1.953125
4686,-1.953125
4687,-1.953125
4688,-1.953125
4689,-1.953125
4690,-1.953125
4691,-1.953125
4692,-1.953125
4693,-1.953125
4694,-1.953125
4695,0.000000
4696,-1.953125
4697,0.000000
4698,0.000000
4699,0.000000
4700,0.000000
4701,0.000000
4702,0.000000
4703,0.000000
4704,0.000000
4705,0.000000
4706,0.000000
4707,0.000000
4708,0.000000
4709,0.000000
4710,0.000000
4711,0.000000
4712,0.000000
4713,0.000000
4714,0.000000
4715,0.000000
4716,0.000000
4717,0.000000
4718,0.000000
4719,1.953125
4720,1.953125
4721,1.953125
4722,1.953125
4723,0.000000
4724,0.000000
4725,1.953125
4726,0.000000
4727,1.953125
4728,1.953125
4729,1.953125
4730,1.953125
4731,1.953125
4732,1.953125
4733,1.953125
4734,1.953125
4735,1.953125
4736,1.953125
4737,0.000000
4738,1.953125
4739,1.953125
4740,1.953125
4741,0.000000
4742,1.953125
4743,1.953125
4744,1.953125
4745,1.953125
4746,1.953125
4747,0.000000
4748,1.953125
4749,1.953125
4750,0.000000
4751,0.000000
4752,1.953125
4753,0.000000
4754,0.000000
4755,1.953125
4756,0.000000
4757,0.000000
4758,0.000000
4759,0.000000
4760,0.000000
4761,0.000000
4762,0.000000
4763,0.000000
4764,0.000000
4765,0.000000
4766,0.000000
4767,0.000000
4768,0.000000
4769,-1.953125
4770,0.000000
4771,0.000000
4772,0.000000
4773,0.000000
4774,-1.953125
4775,-1.953125
4776,-1.953125
4777,-1.953125
4778,-1.953125
4779,-1.953125
4780,-1.953125
4781,-1.953125
4782,-1.953125
4783,-1.953125
4784,-1.953125
4785,-1.953125
4786,-1.953125
4787,-1.953125
4788,-1.953125
4789,-3.906250
4790,-1.953125
4791,-1.953125
4792,-1.953125
4793,-3.906250
4794,-3.906250
4795,-3.906250
4796,-3.906250
4797,-3.906250
4798,-1.953125
4799,-3.906250
4800,-3.906250
4801,-3.906250
4802,-5.859375
4803,-3.906250
4804,-3.906250
4805,-3.906250
4806,-3.906250
4807,-5.859375
4808,-5.859375
4809,-5.859375
4810,-5.859375
4811,-5.859375
4812,-5.859375
4813,-5.859375
4814,-5.859375
4815,-7.812500
4816,-5.859375
4817,-5.859375
4818,-5.859375
4819,-7.812500
4820,-5.859375
4821,-7.812500
4822,-7.812500
4823,-7.812500
4824,-7.812500
4825,-7.812500
4826,-7.812500
4827,-7.812500
4828,-7.812500
4829,-7.812500
4830,-7.812500
4831,-7.812500
4832,-9.765625
4833,-9.765625
4834,-9.765625
4835,-9.765625
4836,-9.765625
4837,-9.765625
4838,-9.765625
4839,-9.765625
4840,-9.765625
4841,-9.765625
4842,-9.765625
4843,-9.765625
4844,-9.765625
4845,-9.765625
4846,-9.765625
4847,-11.718750
4848,-11.718750
4849,-11.718750
4850,-11.718750
4851,-9.765625
4852,-9.765625
4853,-11.718750
4854,-11.718750
4855,-11.718750
4856,-11.718750
4857,-11.718750
4858,-11.718750
4859,-11.718750
4860,-11.718750
4861,-11.718750
4862,-11.718750
4863,-11.718750
4864,-11.718750
4865,-11.718750
4866,-11.718750
4867,-11.718750
4868,-11.718750
4869,-11.718750
4870,-11.718750
4871,-11.718750
4872,-13.671875
4873,-11.718750
4874,-13.671875
4875,-11.718750
4876,-13.671875
4877,-13.671875
4878,-13.671875
4879,-13.671875
4880,-13.671875
4881,-13.671875
4882,-13.671875
4883,-13.671875
4884,-13.671875
4885,-13.671875
4886,-13.671875
4887,-13.671875
4888,-13.671875
4889,-13.671875
4890,-13.671875
4891,-13.671875
4892,-13.671875
4893,-13.671875
4894,-13.671875
4895,-13.671875
4896,-13.671875
4897,-13.671875
4898,-13.671875
4899,-13.671875
4900,-13.671875
4901,-13.671875
4902,-13.671875
4903,-13.671875
4904,-15.625000
4905,-13.671875
4906,-13.671875
4907,-13.671875
4908,-13.671875
4909,-13.671875
4910,-13.671875
4911,-13.671875
4912,-13.671875
4913,-13.671875
4914,-13.671875
4915,-15.625000
4916,-13.671875
4917,-13.671875
4918,-13.671875
4919,-13.671875
4920,-13.671875
4921,-15.625000
4922,-13.671875
4923,-13.671875
4924,-13.671875
4925,-15.625000
4926,-13.671875
4927,-15.625000
4928,-13.671875
4929,-13.671875
4930,-13.671875
4931,-15.625000
4932,-13.671875
4933,-13.671875
4934,-13.671875
4935,-13.671875
4936,-13.671875
4937,-13.671875
4938,-13.671875
4939,-13.671875
4940,-13.671875
4941,-13.671875
4942,-13.671875
4943,-13.671875
4944,-13.671875
4945,-13.671875
4946,-13.671875
4947,-13.671875
4948,-13.671875
4949,-13.671875
4950,-15.625000
4951,-13.671875
4952,-13.671875
4953,-13.671875
4954,-13.671875
4955,-13.671875
4956,-11.718750
4957,-13.671875
4958,-13.671875
4959,-13.671875
4960,-13.671875
4961,-13.671875
4962,-13.671875
4963,-13.671875
4964,-13.671875
4965,-13.671875
4966,-13.671875
4967,-13.671875
4968,-13.671875
4969,-13.671875
4970,-13.671875
4971,-13.671875
4972,-13.671875
4973,-13.671875
4974,-13.671875
4975,-13.671875
4976,-13.671875
4977,-13.671875
4978,-13.671875
4979,-13.671875
4980,-13.671875
4981,-13.671875
4982,-11.718750
4983,-11.718750
4984,-11.718750
4985,-11.718750
4986,-11.718750
4987,-11.718750
4988,-11.718750
4989,-11.718750
4990,-11.718750
4991,-11.718750
4992,-11.718750
4993,-11.718750
4994,-11.718750
4995,-11.718750
4996,-11.718750
4997,-11.718750
4998,-11.718750
4999,-11.718750
5000,-11.718750
5001,-11.718750
5002,-11.718750
5003,-9.765625
5004,-11.718750
5005,-11.718750
5006,-11.718750
5007,-9.765625
5008,-9.765625
5009,-9.765625
5010,-9.765625
5011,-11.718750
5012,-9.765625
5013,-9.765625
5014,-9.765625
5015,-9.765625
5016,-9.765625
5017,-9.765625
5018,-9.765625
5019,-9.765625
5020,-9.765625
5021,-9.765625
5022,-9.765625
5023,-9.765625
5024,-9.765625
5025,-9.765625
5026,-9.765625
5027,-9.765625
5028,-9.765625
5029,-9.765625
5030,-9.765625
5031,-9.765625
5032,-9.765625
5033,-9.765625
5034,-9.765625
5035,-9.765625
5036,-9.765625
5037,-9.765625
5038,-9.765625
5039,-9.765625
5040,-9.765625
5041,-9.765625
5042,-9.765625
5043,-9.765625
5044,-9.765625
5045,-9.765625
5046,-9.765625
5047,-9.765625
5048,-9.765625
5049,-9.765625
5050,-9.765625
5051,-9.765625
5052,-9.765625
5053,-9.765625
5054,-9.765625
5055,-9.765625
5056,-9.765625
5057,-9.765625
5058,-9.765625
5059,-9.765625
5060,-9.765625
5061,-9.765625
5062,-9.765625
5063,-9.765625
5064,-9.765625
5065,-9.765625
5066,-9.765625
5067,-11.718750
5068,-9.765625
5069,-9.765625
5070,-9.765625
5071,-9.765625
5072,-9.765625
5073,-11.718750
5074,-9.765625
5075,-11.718750
5076,-11.718750
5077,-11.718750
5078,-11.718750
5079,-11.718750
5080,-11.718750
5081,-11.718750
5082,-11.718750
5083,-11.718750
5084,-11.718750
5085,-11.718750
5086,-11.718750
5087,-11.718750
5088,-11.718750
5089,-13.671875
5090,-11.718750
5091,-11.718750
5092,-11.718750
5093,-11.718750
5094,-11.718750
5095,-11.718750
5096,-11.718750
5097,-13.671875
5098,-11.718750
5099,-11.718750
5100,-11.718750
5101,-11.718750
5102,-11.718750
5103,-13.671875
5104,-13.671875
5105,-11.718750
5106,-11.718750
5107,-13.671875
5108,-13.671875
5109,-13.671875
5110,-13.671875
5111,-13.671875
5112,-13.671875
5113,-13.671875
5114,-11.718750
5115,-13.671875
5116,-13.671875
5117,-13.671875
5118,-13.671875
5119,-11.718750
5120,-13.671875
5121,-13.671875
5122,-13.671875
5123,-13.671875
5124,-13.671875
5125,-13.671875
5126,-13.671875
5127,-13.671875
5128,-13.671875
5129,-13.671875
5130,-13.671875
5131,-13.671875
5132,-13.671875
5133,-13.671875
5134,-13.671875
5135,-13.671875
5136,-13.671875
5137,-13.671875
5138,-13.671875
5139,-13.671875
5140,-13.671875
5141,-13.671875
5142,-13.671875
5143,-13.671875
5144,-13.671875
5145,-13.671875
5146,-13.671875
5147,-13.671875
5148,-13.671875
5149,-13.671875
5150,-13.671875
5151,-13.671875
5152,-13.671875
5153,-13.671875
5154,-13.671875
5155,-13.671875
5156,-13.671875
5157,-13.671875
5158,-13.671875
5159,-13.671875
5160,-13.671875
5161,-13.671875
5162,-13.671875
5163,-13.671875
5164,-13.671875
5165,-13.671875
5166,-11.718750
5167,-13.671875
5168,-13.671875
5169,-13.671875
5170,-13.671875
5171,-13.671875
5172,-13.671875
5173,-13.671875
5174,-13.671875
5175,-11.718750
5176,-13.671875
5177,-11.718750
5178,-11.718750
5179,-11.718750
5180,-11.718750
5181,-11.718750
5182,-11.718750
5183,-11.718750
5184,-11.718750
5185,-11.718750
5186,-11.718750
5187,-11.718750
5188,-11.718750
5189,-11.718750
5190,-11.718750
5191,-11.718750
5192,-9.765625
5193,-11.718750
5194,-9.765625
5195,-11.718750
5196,-9.765625
5197,-9.765625
5198,-11.718750
5199,-9.765625
5200,-9.765625
5201,-9.765625
5202,-9.765625
5203,-9.765625
5204,-9.765625
5205,-9.765625
5206,-9.765625
5207,-9.765625
5208,-9.765625
5209,-9.765625
5210,-9.765625
5211,-9.765625
5212,-7.812500
5213,-9.765625
5214,-9.765625
5215,-9.765625
5216,-9.765625
5217,-7.812500
5218,-7.812500
5219,-7.812500
5220,-7.812500
5221,-7.812500
5222,-7.812500
5223,-7.812500
5224,-7.812500
5225,-7.812500
5226,-7.812500
5227,-5.859375
5228,-7.812500
5229,-7.812500
5230,-7.812500
5231,-7.812500
5232,-5.859375
5233,-5.859375
5234,-5.859375
5235,-5.859375
5236,-5.859375
5237,-5.859375
5238,-5.859375
5239,-5.859375
5240,-5.859375
5241,-5.859375
5242,-5.859375
5243,-5.859375
5244,-3.906250
5245,-3.906250
5246,-5.859375
5247,-3.906250
5248,-3.906250
5249,-3.906250
5250,-3.906250
5251,-3.906250
5252,-3.906250
5253,-3.906250
5254,-3.906250
5255,-3.906250
5256,-1.953125
5257,-1.953125
5258,-1.953125
5259,-1.953125
5260,-1.953125
5261,-1.953125
5262,-1.953125
5263,-1.953125
5264,-1.953125
5265,-1.953125
5266,-1.953125
5267,-1.953125
5268,-1.953125
5269,-1.953125
5270,-1.953125
5271,-1.953125
5272,-1.953125
5273,0.000000
5274,-1.953125
5275,0.000000
5276,-1.953125
5277,-1.953125
5278,-1.953125
5279,-1.953125
5280,0.000000
5281,-1.953125
5282,0.000000
5283,0.000000
5284,0.000000
5285,0.000000
5286,0.000000
5287,0.000000
5288,0.000000
5289,0.000000
5290,0.000000
5291,0.000000
5292,0.000000
5293,0.000000
5294,0.000000
5295,0.000000
5296,0.000000
5297,0.000000
5298,0.000000
5299,0.000000
5300,0.000000
5301,0.000000
5302,0.000000
5303,0.000000
5304,0.000000
5305,0.000000
5306,0.000000
5307,0.000000
5308,1.953125
5309,1.953125
5310,1.953125
5311,0.000000
5312,0.000000
5313,1.953125
5314,0.000000
5315,1.953125
5316,1.953125
5317,1.953125
5318,1.953125
5319,1.953125
5320,1.953125
5321,0.000000
5322,1.953125
5323,1.953125
5324,1.953125
5325,1.953125
5326,1.953125
5327,1.953125
5328,1.953125
5329,0.000000
5330,0.000000
5331,1.953125
5332,0.000000
5333,1.953125
5334,1.953125
5335,1.953125
5336,0.000000
5337,0.000000
5338,0.000000
5339,0.000000
5340,0.000000
5341,1.953125
5342,0.000000
5343,0.000000
5344,0.000000
5345,1.953125
5346,0.000000
5347,0.000000
5348,0.000000
5349,0.000000
5350,0.000000
5351,0.000000
5352,-1.953125
5353,0.000000
5354,-1.953125
5355,-1.953125
5356,-1.953125
5357,0.000000
5358,-1.953125
5359,-1.953125
5360,-1.953125
5361,-1.953125
5362,-1.953125
5363,-1.953125
5364,-1.953125
5365,-1.953125
5366,-1.953125
5367,-1.953125
5368,-1.953125
5369,-1.953125
5370,-1.953125
5371,-1.953125
5372,-1.953125
5373,-1.953125
5374,-1.953125
5375,-1.953125
5376,-3.906250
5377,-1.953125
5378,-3.906250
5379,-3.906250
5380,-1.953125
5381,-3.906250
5382,-3.906250
5383,-3.906250
5384,-3.906250
5385,-3.906250
5386,-5.859375
5387,-3.906250
5388,-5.859375
5389,-3.906250
5390,-5.859375
5391,-3.906250
5392,-5.859375
5393,-3.906250
5394,-5.859375
5395,-5.859375
5396,-5.859375
5397,-5.859375
5398,-5.859375
5399,-5.859375
5400,-5.859375
5401,-5.859375
5402,-5.859375
5403,-5.859375
5404,-5.859375
5405,-7.812500
5406,-7.812500
5407,-7.812500
5408,-7.812500
5409,-7.812500
5410,-7.812500
5411,-7.812500
5412,-7.812500
5413,-7.812500
5414,-7.812500
5415,-9.765625
5416,-7.812500
5417,-9.765625
5418,-9.765625
5419,-9.765625
5420,-9.765625
5421,-9.765625
5422,-9.765625
5423,-9.765625
5424,-9.765625
5425,-9.765625
5426,-9.765625
5427,-9.765625
5428,-9.765625
5429,-9.765625
5430,-9.765625
5431,-9.765625
5432,-9.765625
5433,-11.718750
5434,-9.765625
5435,-9.765625
5436,-11.718750
5437,-11.718750
5438,-11.718750
5439,-11.718750
5440,-11.718750
5441,-11.718750
5442,-11.718750
5443,-9.765625
5444,-11.718750
5445,-11.718750
5446,-11.718750
5447,-11.718750
5448,-11.718750
5449,-11.718750
5450,-11.718750
5451,-11.718750
5452,-11.718750
5453,-11.718750
5454,-11.718750
5455,-11.718750
5456,-11.718750
5457,-11.718750
5458,-11.718750
5459,-13.671875
5460,-13.671875
5461,-13.671875
5462,-13.671875
5463,-13.671875
5464,-11.718750
5465,-13.671875
5466,-13.671875
5467,-13.671875
5468,-13.671875
5469,-13.671875
5470,-13.671875
5471,-13.671875
5472,-13.671875
5473,-13.671875
5474,-15.625000
5475,-13.671875
5476,-15.625000
5477,-13.671875
5478,-13.671875
5479,-13.671875
5480,-13.671875
5481,-15.625000
5482,-13.671875
5483,-13.671875
5484,-13.671875
5485,-13.671875
5486,-13.671875
5487,-15.625000
5488,-15.625000
5489,-13.671875
5490,-13.671875
5491,-13.671875
5492,-13.671875
5493,-13.671875
5494,-13.671875
5495,-13.671875
5496,-13.671875
5497,-15.625000
5498,-13.671875
5499,-15.625000
5500,-13.671875
5501,-13.671875
5502,-13.671875
5503,-13.671875
5504,-13.671875
5505,-13.671875
5506,-13.671875
5507,-13.671875
5508,-13.671875
5509,-13.671875
5510,-15.625000
5511,-15.625000
5512,-13.671875
5513,-13.671875
5514,-13.671875
5515,-13.671875
5516,-13.671875
5517,-13.671875
5518,-15.625000
5519,-13.671875
5520,-13.671875
5521,-13.671875
5522,-13.671875
5523,-13.671875
5524,-13.671875
5525,-13.671875
5526,-15.625000
5527,-15.625000
5528,-13.671875
5529,-15.625000
5530,-15.625000
5531,-13.671875
5532,-15.625000
5533,-13.671875
5534,-13.671875
5535,-15.625000
5536,-15.625000
5537,-13.671875
5538,-13.671875
5539,-13.671875
5540,-13.671875
5541,-15.625000
5542,-13.671875
5543,-13.671875
5544,-13.671875
5545,-13.671875
5546,-13.671875
5547,-13.671875
5548,-13.671875
5549,-13.671875
5550,-13.671875
5551,-13.671875
5552,-13.671875
5553,-13.671875
5554,-13.671875
5555,-13.671875
5556,-13.671875
5557,-13.671875
5558,-13.671875
5559,-13.671875
5560,-13.671875
5561,-13.671875
5562,-13.671875
5563,-11.718750
5564,-11.718750
5565,-13.671875
5566,-11.718750
5567,-13.671875
5568,-11.718750
5569,-13.671875
5570,-11.718750
5571,-11.718750
5572,-11.718750
5573,-11.718750
5574,-11.718750
5575,-11.718750
5576,-11.718750
5577,-11.718750
5578,-11.718750
5579,-11.718750
5580,-11.718750
5581,-11.718750
5582,-11.718750
5583,-11.718750
5584,-11.718750
5585,-11.718750
5586,-11.718750
5587,-11.718750
5588,-11.718750
5589,-11.718750
5590,-11.718750
5591,-11.718750
5592,-11.718750
5593,-11.718750
5594,-11.718750
5595,-9.765625
5596,-9.765625
5597,-11.718750
5598,-11.718750
5599,-9.765625
5600,-11.718750
5601,-9.765625
5602,-11.718750
5603,-9.765625
5604,-11.718750
5605,-9.765625
5606,-9.765625
5607,-9.765625
5608,-9.765625
5609,-9.765625
5610,-9.765625
5611,-9.765625
5612,-9.765625
5613,-9.765625
5614,-9.765625
5615,-9.765625
5616,-9.765625
5617,-9.765625
5618,-9.765625
5619,-9.765625
5620,-9.765625
5621,-9.765625
5622,-9.765625
5623,-9.765625
5624,-9.765625
5625,-9.765625
5626,-9.765625
5627,-9.765625
5628,-9.765625
5629,-9.765625
5630,-9.765625
5631,-9.765625
5632,-9.765625
5633,-9.765625
5634,-9.765625
5635,-9.765625
5636,-9.765625
5637,-9.765625
5638,-9.765625
5639,-9.765625
5640,-9.765625
5641,-9.765625
5642,-9.765625
5643,-9.765625
5644,-9.765625
5645,-9.765625
5646,-9.765625
5647,-9.765625
5648,-9.765625
5649,-9.765625
5650,-11.718750
5651,-9.765625
5652,-9.765625
5653,-9.765625
5654,-11.718750
5655,-11.718750
5656,-9.765625
5657,-11.718750
5658,-9.765625
5659,-11.718750
5660,-11.718750
5661,-11.718750
5662,-11.718750
5663,-11.718750
5664,-11.718750
5665,-11.718750
5666,-11.718750
5667,-11.718750
5668,-11.718750
5669,-11.718750
5670,-11.718750
5671,-11.718750
5672,-11.718750
5673,-11.718750
5674,-13.671875
5675,-11.718750
5676,-11.718750
5677,-11.718750
5678,-11.718750
5679,-11.718750
5680,-11.718750
5681,-11.718750
5682,-13.671875
5683,-13.671875
5684,-11.718750
5685,-11.718750
5686,-13.671875
5687,-13.671875
5688,-13.671875
5689,-11.718750
5690,-11.718750
5691,-13.671875
5692,-13.671875
5693,-11.718750
5694,-13.671875
5695,-13.671875
5696,-13.671875
5697,-11.718750
5698,-13.671875
5699,-13.671875
5700,-13.671875
5701,-13.671875
5702,-13.671875
5703,-13.671875
5704,-13.671875
5705,-13.671875
5706,-13.671875
5707,-13.671875
5708,-13.671875
5709,-13.671875
5710,-13.671875
5711,-13.671875
5712,-13.671875
5713,-13.671875
5714,-13.671875
5715,-13.671875
5716,-13.671875
5717,-13.671875
5718,-13.671875
5719,-13.671875
5720,-13.671875
5721,-13.671875
5722,-13.671875
5723,-13.671875
5724,-13.671875
5725,-13.671875
5726,-13.671875
5727,-13.671875
5728,-13.671875
5729,-13.671875
5730,-13.671875
5731,-13.671875
5732,-13.671875
5733,-13.671875
5734,-13.671875
5735,-13.671875
5736,-13.671875
5737,-13.671875
5738,-13.671875
5739,-13.671875
5740,-13.671875
5741,-13.671875
5742,-13.671875
5743,-11.718750
5744,-13.671875
5745,-13.671875
5746,-13.671875
5747,-13.671875
5748,-13.671875
5749,-13.671875
5750,-13.671875
5751,-11.718750
5752,-11.718750
5753,-11.718750
5754,-13.671875
5755,-11.718750
5756,-13.671875
5757,-11.718750
5758,-11.718750
5759,-11.718750
5760,-11.718750
5761,-11.718750
5762,-11.718750
5763,-13.671875
5764,-11.718750
5765,-11.718750
5766,-11.718750
5767,-11.718750
5768,-11.718750
5769,-11.718750
5770,-11.718750
5771,-11.718750
5772,-11.718750
5773,-11.718750
5774,-11.718750
5775,-9.765625
5776,-11.718750
5777,-11.718750
5778,-11.718750
5779,-9.765625
5780,-9.765625
5781,-9.765625
5782,-9.765625
5783,-9.765625
5784,-9.765625
5785,-9.765625
5786,-9.765625
5787,-9.765625
5788,-9.765625
5789,-7.812500
5790,-9.765625
5791,-9.765625
5792,-9.765625
5793,-9.765625
5794,-9.765625
5795,-9.765625
5796,-9.765625
5797,-9.765625
5798,-7.812500
5799,-7.812500
5800,-9.765625
5801,-7.812500
5802,-7.812500
5803,-7.812500
5804,-7.812500
5805,-7.812500
5806,-7.812500
5807,-7.812500
5808,-7.812500
5809,-7.812500
5810,-7.812500
5811,-7.812500
5812,-7.812500
5813,-5.859375
5814,-5.859375
5815,-7.812500
5816,-5.859375
5817,-5.859375
5818,-5.859375
5819,-5.859375
5820,-5.859375
5821,-5.859375
5822,-5.859375
5823,-5.859375
5824,-3.906250
5825,-3.906250
5826,-5.859375
5827,-5.859375
5828,-3.906250
5829,-3.906250
5830,-3.906250
5831,-3.906250
5832,-3.906250
5833,-3.906250
5834,-3.906250
5835,-3.906250
5836,-3.906250
5837,-3.906250
5838,-1.953125
5839,-3.906250
5840,-3.906250
5841,-1.953125
5842,-1.953125
5843,-1.953125
5844,-1.953125
5845,-1.953125
5846,-1.953125
5847,-1.953125
5848,-1.953125
5849,-1.953125
5850,-1.953125
5851,-1.953125
5852,-1.953125
5853,-1.953125
5854,-1.953125
5855,0.000000
5856,-1.953125
5857,0.000000
5858,-1.953125
5859,0.000000
5860,-1.953125
5861,-1.953125
5862,0.000000
5863,0.000000
5864,0.000000
5865,0.000000
5866,0.000000
5867,0.000000
5868,0.000000
5869,0.000000
5870,0.000000
5871,0.000000
5872,0.000000
5873,0.000000
5874,0.000000
5875,0.000000
5876,0.000000
5877,0.000000
5878,0.000000
5879,0.000000
5880,0.000000
5881,1.953125
5882,1.953125
5883,0.000000
5884,0.000000
5885,1.953125
5886,0.000000
5887,1.953125
5888,0.000000
5889,0.000000
5890,1.953125
5891,1.953125
5892,1.953125
5893,0.000000
5894,1.953125
5895,0.000000
5896,0.000000
5897,1.953125
5898,1.953125
5899,1.953125
5900,0.000000
5901,0.000000
5902,1.953125
5903,0.000000
5904,1.953125
5905,0.000000
5906,1.953125
5907,1.953125
5908,1.953125
5909,0.000000
5910,0.000000
5911,1.953125
5912,0.000000
5913,1.953125
5914,0.000000
5915,0.000000
5916,0.000000
5917,0.000000
5918,0.000000
5919,0.000000
5920,0.000000
5921,0.000000
5922,0.000000
5923,0.000000
5924,0.000000
5925,0.000000
5926,0.000000
5927,0.000000
5928,0.000000
5929,0.000000
5930,0.000000
5931,0.000000
5932,0.000000
5933,0.000000
5934,0.000000
5935,-1.953125
5936,-1.953125
5937,0.000000
5938,-1.953125
5939,0.000000
5940,0.000000
5941,-1.953125
5942,-1.953125
5943,-1.953125
5944,-1.953125
5945,-1.953125
5946,-1.953125
5947,-1.953125
5948,-1.953125
5949,-1.953125
5950,-1.953125
5951,-1.953125
5952,-1.953125
5953,-1.953125
5954,-1.953125
5955,-3.906250
5956,-1.953125
5957,-1.953125
5958,-3.906250
5959,-1.953125
5960,-3.906250
5961,-3.906250
5962,-3.906250
5963,-3.906250
5964,-3.906250
5965,-3.906250
5966,-3.906250
5967,-3.906250
5968,-3.906250
5969,-3.906250
5970,-5.859375
5971,-3.906250
5972,-5.859375
5973,-5.859375
5974,-5.859375
5975,-5.859375
5976,-3.906250
5977,-5.859375
5978,-5.859375
5979,-5.859375
5980,-7.812500
5981,-5.859375
5982,-5.859375
5983,-5.859375
5984,-5.859375
5985,-7.812500
5986,-5.859375
5987,-5.859375
5988,-7.812500
5989,-7.812500
5990,-7.812500
5991,-7.812500
5992,-7.812500
5993,-7.812500
5994,-7.812500
5995,-7.812500
5996,-7.812500
5997,-9.765625
5998,-9.765625
5999,-9.765625
6000,-9.765625
6001,-7.812500
6002,-9.765625
6003,-9.765625
6004,-9.765625
6005,-9.765625
6006,-9.765625
6007,-9.765625
6008,-9.765625
6009,-9.765625
6010,-9.765625
6011,-9.765625
6012,-9.765625
6013,-9.765625
6014,-9.765625
6015,-11.718750
6016,-11.718750
6017,-11.718750
6018,-9.765625
6019,-9.765625
6020,-11.718750
6021,-11.718750
6022,-11.718750
6023,-11.718750
6024,-11.718750
6025,-11.718750
6026,-11.718750
6027,-11.718750
6028,-11.718750
6029,-11.718750
6030,-11.718750
6031,-11.718750
6032,-11.718750
6033,-11.718750
6034,-11.718750
6035,-13.671875
6036,-11.718750
6037,-11.718750
6038,-13.671875
6039,-11.718750
6040,-11.718750
6041,-11.718750
6042,-13.671875
6043,-13.671875
6044,-13.671875
6045,-13.671875
6046,-11.718750
6047,-13.671875
6048,-13.671875
6049,-13.671875
6050,-13.671875
6051,-13.671875
6052,-13.671875
6053,-13.671875
6054,-13.671875
6055,-13.671875
6056,-13.671875
6057,-13.671875
6058,-13.671875
6059,-13.671875
6060,-13.671875
6061,-13.671875
6062,-13.671875
6063,-13.671875
6064,-13.671875
6065,-13.671875
6066,-13.671875
6067,-13.671875
6068,-13.671875
6069,-13.671875
6070,-15.625000
6071,-15.625000
6072,-13.671875
6073,-15.625000
6074,-13.671875
6075,-13.671875
6076,-13.671875
6077,-15.625000
6078,-15.625000
6079,-13.671875
6080,-15.625000
6081,-13.671875
6082,-13.671875
6083,-13.671875
6084,-13.671875
6085,-15.625000
6086,-15.625000
6087,-13.671875
6088,-13.671875
6089,-13.671875
6090,-15.625000
6091,-15.625000
6092,-13.671875
6093,-15.625000
6094,-13.671875
6095,-15.625000
6096,-13.671875
6097,-13.671875
6098,-15.625000
6099,-13.671875
6100,-13.671875
6101,-13.671875
6102,-15.625000
6103,-13.671875
6104,-13.671875
6105,-13.671875
6106,-13.671875
6107,-13.671875
6108,-13.671875
6109,-13.671875
6110,-15.625000
6111,-15.625000
6112,-13.671875
6113,-15.625000
6114,-13.671875
6115,-15.625000
6116,-15.625000
6117,-13.671875
6118,-13.671875
6119,-13.671875
6120,-15.625000
6121,-15.625000
6122,-13.671875
6123,-15.625000
6124,-13.671875
6125,-13.671875
6126,-13.671875
6127,-13.671875
6128,-13.671875
6129,-13.671875
6130,-13.671875
6131,-13.671875
6132,-13.671875
6133,-13.671875
6134,-13.671875
6135,-13.671875
6136,-13.671875
6137,-13.671875
6138,-13.671875
6139,-13.671875
6140,-13.671875
6141,-13.671875
6142,-11.718750
6143,-13.671875
6144,-13.671875
6145,-13.671875
6146,-13.671875
6147,-11.718750
6148,-11.718750
6149,-11.718750
6150,-11.718750
6151,-11.718750
6152,-11.718750
6153,-11.718750
6154,-11.718750
6155,-11.718750
6156,-11.718750
6157,-11.718750
6158,-11.718750
6159,-11.718750
6160,-11.718750
6161,-11.718750
6162,-11.718750
6163,-11.718750
6164,-11.718750
6165,-11.718750
6166,-11.718750
6167,-11.718750
6168,-11.718750
6169,-11.718750
6170,-11.718750
6171,-11.718750
6172,-11.718750
6173,-11.718750
6174,-11.718750
6175,-11.718750
6176,-11.718750
6177,-9.765625
6178,-9.765625
6179,-11.718750
6180,-11.718750
6181,-11.718750
6182,-9.765625
6183,-9.765625
6184,-11.718750
6185,-9.765625
6186,-9.765625
6187,-9.765625
6188,-11.718750
6189,-11.718750
6190,-9.765625
6191,-9.765625
6192,-9.765625
6193,-9.765625
6194,-11.718750
6195,-9.765625
6196,-9.765625
6197,-9.765625
6198,-9.765625
6199,-9.765625
6200,-9.765625
6201,-9.765625
6202,-7.812500
6203,-9.765625
6204,-9.765625
6205,-9.765625
6206,-9.765625
6207,-9.765625
6208,-9.765625
6209,-9.765625
6210,-9.765625
6211,-9.765625
6212,-9.765625
6213,-9.765625
6214,-9.765625
6215,-9.765625
6216,-9.765625
6217,-9.765625
6218,-9.765625
6219,-9.765625
6220,-9.765625
6221,-9.765625
6222,-9.765625
6223,-9.765625
6224,-9.765625
6225,-9.765625
6226,-9.765625
6227,-9.765625
6228,-9.765625
6229,-9.765625
6230,-9.765625
6231,-9.765625
6232,-9.765625
6233,-9.765625
6234,-11.718750
6235,-9.765625
6236,-9.765625
6237,-11.718750
6238,-9.765625
6239,-11.718750
6240,-9.765625
6241,-11.718750
6242,-11.718750
6243,-11.718750
6244,-11.718750
6245,-11.718750
6246,-11.718750
6247,-9.765625
6248,-11.718750
6249,-11.718750
6250,-11.718750
6251,-11.718750
6252,-11.718750
6253,-11.718750
6254,-11.718750
6255,-11.718750
6256,-11.718750
6257,-11.718750
6258,-11.718750
6259,-11.718750
6260,-11.718750
6261,-11.718750
6262,-11.718750
6263,-11.718750
6264,-13.671875
6265,-11.718750
6266,-11.718750
6267,-11.718750
6268,-11.718750
6269,-11.718750
6270,-13.671875
6271,-11.718750
6272,-13.671875
6273,-11.718750
6274,-15.625000
6275,-13.671875
6276,-11.718750
6277,-11.718750
6278,-13.671875
6279,-13.671875
6280,-13.671875
6281,-13.671875
6282,-13.671875
6283,-13.671875
6284,-13.671875
6285,-11.718750
6286,-13.671875
6287,-13.671875
6288,-13.671875
6289,-13.671875
6290,-13.671875
6291,-11.718750
6292,-13.671875
6293,-13.671875
6294,-11.718750
6295,-13.671875
6296,-13.671875
6297,-13.671875
6298,-13.671875
6299,-13.671875
6300,-13.671875
6301,-13.671875
6302,-13.671875
6303,-13.671875
6304,-15.625000
6305,-13.671875
6306,-13.671875
6307,-13.671875
6308,-13.671875
6309,-13.671875
6310,-13.671875
6311,-13.671875
6312,-13.671875
6313,-15.625000
6314,-13.671875
6315,-13.671875
6316,-13.671875
6317,-13.671875
6318,-13.671875
6319,-13.671875
6320,-13.671875
6321,-13.671875
6322,-13.671875
6323,-13.671875
6324,-13.671875
6325,-13.671875
6326,-13.671875
6327,-13.671875
6328,-13.671875
6329,-13.671875
6330,-13.671875
6331,-13.671875
6332,-11.718750
6333,-11.718750
6334,-11.718750
6335,-13.671875
6336,-11.718750
6337,-11.718750
6338,-13.671875
6339,-11.718750
6340,-11.718750
6341,-11.718750
6342,-11.718750
6343,-11.718750
6344,-11.718750
6345,-11.718750
6346,-11.718750
6347,-11.718750
6348,-11.718750
6349,-9.765625
6350,-11.718750
6351,-11.718750
6352,-11.718750
6353,-11.718750
6354,-11.718750
6355,-11.718750
6356,-11.718750
6357,-9.765625
6358,-9.765625
6359,-11.718750
6360,-9.765625
6361,-11.718750
6362,-9.765625
6363,-9.765625
6364,-11.718750
6365,-9.765625
6366,-9.765625
6367,-9.765625
6368,-9.765625
6369,-9.765625
6370,-9.765625
6371,-9.765625
6372,-9.765625
6373,-9.765625
6374,-9.765625
6375,-9.765625
6376,-9.765625
6377,-9.765625
6378,-7.812500
6379,-9.765625
6380,-9.765625
6381,-7.812500
6382,-7.812500
6383,-9.765625
6384,-7.812500
6385,-7.812500
6386,-7.812500
6387,-7.812500
6388,-7.812500
6389,-7.812500
6390,-7.812500
6391,-7.812500
6392,-7.812500
6393,-7.812500
6394,-7.812500
6395,-5.859375
6396,-5.859375
6397,-7.812500
6398,-5.859375
6399,-5.859375
6400,-5.859375
6401,-5.859375
6402,-5.859375
6403,-5.859375
6404,-5.859375
6405,-3.906250
6406,-3.906250
6407,-5.859375
6408,-3.906250
6409,-3.906250
6410,-3.906250
6411,-3.906250
6412,-3.906250
6413,-3.906250
6414,-3.906250
6415,-3.906250
6416,-3.906250
6417,-3.906250
6418,-3.906250
6419,-3.906250
6420,-3.906250
6421,-3.906250
6422,-3.906250
6423,-1.953125
6424,-1.953125
6425,-3.906250
6426,-1.953125
6427,-1.953125
6428,-1.953125
6429,-1.953125
6430,-1.953125
6431,-1.953125
6432,-1.953125
6433,-1.953125
6434,-1.953125
6435,-1.953125
6436,-1.953125
6437,-1.953125
6438,-1.953125
6439,-1.953125
6440,0.000000
6441,-1.953125
6442,-1.953125
6443,0.000000
6444,0.000000
6445,-1.953125
6446,0.000000
6447,0.000000
6448,-1.953125
6449,0.000000
6450,0.000000
6451,0.000000
6452,0.000000
6453,0.000000
6454,0.000000
6455,0.000000
6456,0.000000
6457,0.000000
6458,0.000000
6459,0.000000
6460,0.000000
6461,0.000000
6462,0.000000
6463,0.000000
6464,0.000000
6465,0.000000
6466,0.000000
6467,0.000000
6468,0.000000
6469,0.000000
6470,0.000000
6471,0.000000
6472,0.000000
6473,0.000000
6474,0.000000
6475,0.000000
6476,0.000000
6477,1.953125
6478,1.953125
6479,1.953125
6480,1.953125
6481,0.000000
6482,0.000000
6483,1.953125
6484,1.953125
6485,1.953125
6486,0.000000
6487,1.953125
6488,0.000000
6489,0.000000
6490,1.953125
6491,0.000000
6492,0.000000
6493,0.000000
6494,0.000000
6495,1.953125
6496,1.953125
6497,0.000000
6498,0.000000
6499,0.000000
6500,0.000000
6501,0.000000
6502,0.000000
6503,0.000000
6504,0.000000
6505,0.000000
6506,0.000000
6507,0.000000
6508,0.000000
6509,0.000000
6510,0.000000
6511,0.000000
6512,-1.953125
6513,0.000000
6514,0.000000
6515,-1.953125
6516,0.000000
6517,0.000000
6518,0.000000
6519,-1.953125
6520,-1.953125
6521,0.000000
6522,-1.953125
6523,-1.953125
6524,-1.953125
6525,-1.953125
6526,-1.953125
6527,-1.953125
6528,-1.953125
6529,-1.953125
6530,-1.953125
6531,-1.953125
6532,-1.953125
6533,-1.953125
6534,-1.953125
6535,-1.953125
6536,-1.953125
6537,-1.953125
6538,-3.906250
6539,-1.953125
6540,-3.906250
6541,-3.906250
6542,-3.906250
6543,-3.906250
6544,-3.906250
6545,-3.906250
6546,-3.906250
6547,-3.906250
6548,-3.906250
6549,-3.906250
6550,-5.859375
6551,-3.906250
6552,-3.906250
6553,-3.906250
6554,-5.859375
6555,-5.859375
6556,-5.859375
6557,-5.859375
6558,-5.859375
6559,-5.859375
6560,-5.859375
6561,-5.859375
6562,-5.859375
6563,-5.859375
6564,-5.859375
6565,-5.859375
6566,-5.859375
6567,-7.812500
6568,-7.812500
6569,-7.812500
6570,-7.812500
6571,-7.812500
6572,-7.812500
6573,-7.812500
6574,-7.812500
6575,-7.812500
6576,-7.812500
6577,-7.812500
6578,-7.812500
6579,-9.765625
6580,-9.765625
6581,-9.765625
6582,-9.765625
6583,-9.765625
6584,-9.765625
6585,-9.765625
6586,-9.765625
6587,-9.765625
6588,-9.765625
6589,-9.765625
6590,-9.765625
6591,-9.765625
6592,-9.765625
6593,-11.718750
6594,-9.765625
6595,-9.765625
6596,-9.765625
6597,-9.765625
6598,-9.765625
6599,-11.718750
6600,-9.765625
6601,-11.718750
6602,-9.765625
6603,-11.718750
6604,-11.718750
6605,-11.718750
6606,-11.718750
6607,-11.718750
6608,-11.718750
6609,-11.718750
6610,-11.718750
6611,-11.718750
6612,-11.718750
6613,-11.718750
6614,-11.718750
6615,-11.718750
6616,-11.718750
6617,-11.718750
6618,-11.718750
6619,-13.671875
6620,-11.718750
6621,-11.718750
6622,-13.671875
6623,-11.718750
6624,-13.671875
6625,-11.718750
6626,-13.671875
6627,-13.671875
6628,-13.671875
6629,-13.671875
6630,-13.671875
6631,-13.671875
6632,-13.671875
6633,-13.671875
6634,-13.671875
6635,-13.671875
6636,-13.671875
6637,-13.671875
6638,-13.671875
6639,-13.671875
6640,-13.671875
6641,-13.671875
6642,-13.671875
6643,-13.671875
6644,-13.671875
6645,-13.671875
6646,-13.671875
6647,-15.625000
6648,-13.671875
6649,-13.671875
6650,-13.671875
6651,-13.671875
6652,-13.671875
6653,-13.671875
6654,-13.671875
6655,-13.671875
6656,-13.671875
6657,-13.671875
6658,-13.671875
6659,-13.671875
6660,-13.671875
6661,-13.671875
6662,-13.671875
6663,-13.671875
6664,-13.671875
6665,-15.625000
6666,-13.671875
6667,-13.671875
6668,-13.671875
6669,-13.671875
6670,-13.671875
6671,-13.671875
6672,-13.671875
6673,-13.671875
6674,-13.671875
6675,-13.671875
6676,-13.671875
6677,-13.671875
6678,-13.671875
6679,-13.671875
6680,-15.625000
6681,-13.671875
6682,-13.671875
6683,-13.671875
6684,-13.671875
6685,-15.625000
6686,-13.671875
6687,-13.671875
6688,-13.671875
6689,-13.671875
6690,-13.671875
6691,-13.671875
6692,-13.671875
6693,-15.625000
6694,-13.671875
6695,-13.671875
6696,-13.671875
6697,-13.671875
6698,-13.671875
6699,-13.671875
6700,-13.671875
6701,-13.671875
6702,-13.671875
6703,-13.671875
6704,-13.671875
6705,-13.671875
6706,-13.671875
6707,-13.671875
6708,-13.671875
6709,-13.671875
6710,-13.671875
6711,-13.671875
6712,-13.671875
6713,-13.671875
6714,-13.671875
6715,-13.671875
6716,-13.671875
6717,-13.671875
6718,-13.671875
6719,-13.671875
6720,-13.671875
6721,-13.671875
6722,-13.671875
6723,-13.671875
6724,-13.671875
6725,-13.671875
6726,-13.671875
6727,-11.718750
6728,-13.671875
6729,-11.718750
6730,-11.718750
6731,-11.718750
6732,-11.718750
6733,-11.718750
6734,-11.718750
6735,-11.718750
6736,-11.718750
6737,-11.718750
6738,-11.718750
6739,-11.718750
6740,-11.718750
6741,-11.718750
6742,-11.718750
6743,-11.718750
6744,-11.718750
6745,-11.718750
6746,-11.718750
6747,-11.718750
6748,-11.718750
6749,-11.718750
6750,-11.718750
6751,-11.718750
6752,-11.718750
6753,-11.718750
6754,-11.718750
6755,-9.765625
6756,-11.718750
6757,-9.765625
6758,-9.765625
6759,-11.718750
6760,-9.765625
6761,-9.765625
6762,-9.765625
6763,-11.718750
6764,-9.765625
6765,-9.765625
6766,-11.718750
6767,-9.765625
6768,-9.765625
6769,-9.765625
6770,-9.765625
6771,-9.765625
6772,-9.765625
6773,-9.765625
6774,-9.765625
6775,-9.765625
6776,-9.765625
6777,-9.765625
6778,-9.765625
6779,-9.765625
6780,-9.765625
6781,-9.765625
6782,-9.765625
6783,-9.765625
6784,-9.765625
6785,-9.765625
6786,-9.765625
6787,-9.765625
6788,-9.765625
6789,-9.765625
6790,-9.765625
6791,-9.765625
6792,-9.765625
6793,-9.765625
6794,-9.765625
6795,-9.765625
6796,-9.765625
6797,-9.765625
6798,-9.765625
6799,-9.765625
6800,-9.765625
6801,-9.765625
6802,-9.765625
6803,-9.765625
6804,-9.765625
6805,-9.765625
6806,-9.765625
6807,-9.765625
6808,-9.765625
6809,-9.765625
6810,-9.765625
6811,-9.765625
6812,-9.765625
6813,-9.765625
6814,-9.765625
6815,-9.765625
6816,-9.765625
6817,-9.765625
6818,-9.765625
6819,-11.718750
6820,-11.718750
6821,-9.765625
6822,-11.718750
6823,-9.765625
6824,-11.718750
6825,-11.718750
6826,-11.718750
6827,-11.718750
6828,-11.718750
6829,-11.718750
6830,-11.718750
6831,-11.718750
6832,-11.718750
6833,-11.718750
6834,-11.718750
6835,-11.718750
6836,-11.718750
6837,-11.718750
6838,-11.718750
6839,-11.718750
6840,-11.718750
6841,-11.718750
6842,-11.718750
6843,-11.718750
6844,-13.671875
6845,-11.718750
6846,-11.718750
6847,-13.671875
6848,-11.718750
6849,-11.718750
6850,-11.718750
6851,-11.718750
6852,-11.718750
6853,-11.718750
6854,-11.718750
6855,-13.671875
6856,-11.718750
6857,-13.671875
6858,-13.671875
6859,-11.718750
6860,-13.671875
6861,-13.671875
6862,-13.671875
6863,-11.718750
6864,-13.671875
6865,-13.671875
6866,-13.671875
6867,-13.671875
6868,-13.671875
6869,-13.671875
6870,-11.718750
6871,-13.671875
6872,-13.671875
6873,-13.671875
6874,-13.671875
6875,-13.671875
6876,-13.671875
6877,-13.671875
6878,-13.671875
6879,-13.671875
6880,-13.671875
6881,-13.671875
6882,-13.671875
6883,-13.671875
6884,-13.671875
6885,-13.671875
6886,-13.671875
6887,-15.625000
6888,-13.671875
6889,-13.671875
6890,-13.671875
6891,-13.671875
6892,-13.671875
6893,-13.671875
6894,-13.671875
6895,-15.625000
6896,-13.671875
6897,-13.671875
6898,-13.671875
6899,-13.671875
6900,-13.671875
6901,-13.671875
6902,-13.671875
6903,-13.671875
6904,-13.671875
6905,-13.671875
6906,-13.671875
6907,-13.671875
6908,-13.671875
6909,-13.671875
6910,-13.671875
6911,-13.671875
6912,-13.671875
6913,-13.671875
6914,-13.671875
6915,-13.671875
6916,-13.671875
6917,-11.718750
6918,-13.671875
6919,-13.671875
6920,-13.671875
6921,-13.671875
6922,-11.718750
6923,-11.718750
6924,-11.718750
6925,-11.718750
6926,-11.718750
6927,-11.718750
6928,-13.671875
6929,-11.718750
6930,-11.718750
6931,-11.718750
6932,-11.718750
6933,-11.718750
6934,-11.718750
6935,-11.718750
6936,-11.718750
6937,-11.718750
6938,-11.718750
6939,-9.765625
6940,-9.765625
6941,-11.718750
6942,-9.765625
6943,-11.718750
6944,-11.718750
6945,-11.718750
6946,-9.765625
6947,-9.765625
6948,-11.718750
6949,-9.765625
6950,-9.765625
6951,-9.765625
6952,-9.765625
6953,-9.765625
6954,-9.765625
6955,-9.765625
6956,-9.765625
6957,-9.765625
6958,-9.765625
6959,-9.765625
6960,-9.765625
6961,-9.765625
6962,-9.765625
6963,-9.765625
6964,-9.765625
6965,-7.812500
6966,-7.812500
6967,-7.812500
6968,-9.765625
6969,-7.812500
6970,-7.812500
6971,-7.812500
6972,-7.812500
6973,-7.812500
6974,-7.812500
6975,-7.812500
6976,-7.812500
6977,-7.812500
6978,-7.812500
6979,-5.859375
6980,-5.859375
6981,-7.812500
6982,-5.859375
6983,-5.859375
6984,-5.859375
6985,-5.859375
6986,-5.859375
6987,-5.859375
6988,-5.859375
6989,-5.859375
6990,-5.859375
6991,-5.859375
6992,-3.906250
6993,-3.906250
6994,-3.906250
6995,-3.906250
6996,-3.906250
6997,-3.906250
6998,-3.906250
6999,-3.906250
7000,-3.906250
7001,-3.906250
7002,-3.906250
7003,-3.906250
7004,-3.906250
7005,-3.906250
7006,-3.906250
7007,-3.906250
7008,-1.953125
7009,-3.906250
7010,-3.906250
7011,-1.953125
7012,-1.953125
7013,-1.953125
7014,-1.953125
7015,-1.953125
7016,-1.953125
7017,-1.953125
7018,-1.953125
7019,-1.953125
7020,-1.953125
7021,-1.953125
7022,-1.953125
7023,-1.953125
7024,-1.953125
7025,-1.953125
7026,-1.953125
7027,-1.953125
7028,-1.953125
7029,0.000000
7030,0.000000
7031,-1.953125
7032,0.000000
7033,0.000000
7034,0.000000
7035,0.000000
7036,0.000000
7037,-3.906250
7038,0.000000
7039,0.000000
7040,0.000000
7041,0.000000
7042,0.000000
7043,0.000000
7044,0.000000
7045,0.000000
7046,0.000000
7047,0.000000
7048,0.000000
7049,0.000000
7050,0.000000
7051,0.000000
7052,0.000000
7053,0.000000
7054,0.000000
7055,-3.906250
7056,0.000000
7057,1.953125
7058,0.000000
7059,0.000000
7060,0.000000
7061,0.000000
7062,1.953125
7063,0.000000
7064,1.953125
7065,1.953125
7066,0.000000
7067,1.953125
7068,1.953125
7069,1.953125
7070,1.953125
7071,0.000000
7072,1.953125
7073,0.000000
7074,1.953125
7075,1.953125
7076,0.000000
7077,0.000000
7078,0.000000
7079,0.000000
7080,0.000000
7081,0.000000
7082,0.000000
7083,0.000000
7084,0.000000
7085,0.000000
7086,0.000000
7087,3.906250
7088,-1.953125
7089,0.000000
7090,0.000000
7091,0.000000
7092,0.000000
7093,0.000000
7094,0.000000
7095,0.000000
7096,0.000000
7097,0.000000
7098,0.000000
7099,0.000000
7100,0.000000
7101,-1.953125
7102,-1.953125
7103,-1.953125
7104,-1.953125
7105,0.000000
7106,-1.953125
7107,-1.953125
7108,-1.953125
7109,-1.953125
7110,-1.953125
7111,-1.953125
7112,-1.953125
7113,-1.953125
7114,-1.953125
7115,-1.953125
7116,-1.953125
7117,-1.953125
7118,-1.953125
7119,-1.953125
7120,-1.953125
7121,-1.953125
7122,-1.953125
7123,-1.953125
7124,-1.953125
7125,-3.906250
7126,-1.953125
7127,-1.953125
7128,-3.906250
7129,-3.906250
7130,-3.906250
7131,-3.906250
7132,-3.906250
7133,-3.906250
7134,-3.906250
7135,-3.906250
7136,-3.906250
7137,-3.906250
7138,-3.906250
7139,-5.859375
7140,-5.859375
7141,-5.859375
7142,-3.906250
7143,-5.859375
7144,-5.859375
7145,-5.859375
7146,-5.859375
7147,-5.859375
7148,-5.859375
7149,-5.859375
7150,-5.859375
7151,-7.812500
7152,-5.859375
7153,-7.812500
7154,-7.812500
7155,-7.812500
7156,-7.812500
7157,-7.812500
7158,-7.812500
7159,-7.812500
7160,-7.812500
7161,-9.765625
7162,-7.812500
7163,-7.812500
7164,-7.812500
7165,-9.765625
7166,-9.765625
7167,-7.812500
7168,-9.765625
7169,-9.765625
7170,-9.765625
7171,-9.765625
7172,-9.765625
7173,-9.765625
7174,-9.765625
7175,-9.765625
7176,-9.765625
7177,-9.765625
7178,-9.765625
7179,-9.765625
7180,-9.765625
7181,-9.765625
7182,-9.765625
7183,-11.718750
7184,-9.765625
7185,-9.765625
7186,-11.718750
7187,-9.765625
7188,-11.718750
7189,-11.718750
7190,-11.718750
7191,-11.718750
7192,-11.718750
7193,-11.718750
7194,-11.718750
7195,-11.718750
7196,-11.718750
7197,-11.718750
7198,-11.718750
7199,-11.718750
7200,-11.718750
7201,-11.718750
7202,-11.718750
7203,-11.718750
7204,-11.718750
7205,-11.718750
7206,-11.718750
7207,-11.718750
7208,-13.671875
7209,-13.671875
7210,-13.671875
7211,-13.671875
7212,-13.671875
7213,-13.671875
7214,-13.671875
7215,-13.671875
7216,-13.671875
7217,-13.671875
7218,-13.671875
7219,-13.671875
7220,-13.671875
7221,-13.671875
7222,-13.671875
7223,-13.671875
7224,-13.671875
7225,-13.671875
7226,-13.671875
7227,-13.671875
7228,-13.671875
7229,-13.671875
7230,-13.671875
7231,-13.671875
7232,-13.671875
7233,-13.671875
7234,-13.671875
7235,-13.671875
7236,-13.671875
7237,-13.671875
7238,-13.671875
7239,-13.671875
7240,-13.671875
7241,-13.671875
7242,-13.671875
7243,-13.671875
7244,-13.671875
7245,-13.671875
7246,-13.671875
7247,-15.625000
7248,-13.671875
7249,-13.671875
7250,-13.671875
7251,-15.625000
7252,-13.671875
7253,-13.671875
7254,-15.625000
7255,-13.671875
7256,-13.671875
7257,-13.671875
7258,-13.671875
7259,-13.671875
7260,-15.625000
7261,-15.625000
7262,-13.671875
7263,-13.671875
7264,-13.671875
7265,-13.671875
7266,-13.671875
7267,-13.671875
7268,-15.625000
7269,-13.671875
7270,-13.671875
7271,-15.625000
7272,-13.671875
7273,-15.625000
7274,-13.671875
7275,-15.625000
7276,-15.625000
7277,-13.671875
7278,-15.625000
7279,-15.625000
7280,-13.671875
7281,-15.625000
7282,-13.671875
7283,-13.671875
7284,-13.671875
7285,-13.671875
7286,-13.671875
7287,-13.671875
7288,-15.625000
7289,-13.671875
7290,-13.671875
7291,-13.671875
7292,-13.671875
7293,-13.671875
7294,-13.671875
7295,-13.671875
7296,-13.671875
7297,-13.671875
7298,-13.671875
7299,-13.671875
7300,-13.671875
7301,-13.671875
7302,-13.671875
7303,-13.671875
7304,-13.671875
7305,-13.671875
7306,-13.671875
7307,-13.671875
7308,-13.671875
7309,-13.671875
7310,-13.671875
7311,-13.671875
7312,-11.718750
7313,-13.671875
7314,-11.718750
7315,-13.671875
7316,-11.718750
7317,-11.718750
7318,-11.718750
7319,-11.718750
7320,-11.718750
7321,-11.718750
7322,-13.671875
7323,-11.718750
7324,-11.718750
7325,-11.718750
7326,-11.718750
7327,-11.718750
7328,-11.718750
7329,-11.718750
7330,-11.718750
7331,-11.718750
7332,-11.718750
7333,-11.718750
7334,-11.718750
7335,-11.718750
7336,-11.718750
7337,-11.718750
7338,-11.718750
7339,-11.718750
7340,-11.718750
7341,-11.718750
7342,-9.765625
7343,-11.718750
7344,-11.718750
7345,-11.718750
7346,-11.718750
7347,-11.718750
7348,-11.718750
7349,-9.765625
7350,-9.765625
7351,-11.718750
7352,-11.718750
7353,-11.718750
7354,-9.765625
7355,-9.765625
7356,-11.718750
7357,-9.765625
7358,-9.765625
7359,-9.765625
7360,-9.765625
7361,-9.765625
7362,-9.765625
7363,-9.765625
7364,-9.765625
7365,-9.765625
7366,-9.765625
7367,-9.765625
7368,-9.765625
7369,-9.765625
7370,-9.765625
7371,-9.765625
7372,-9.765625
7373,-9.765625
7374,-9.765625
7375,-9.765625
7376,-9.765625
7377,-9.765625
7378,-9.765625
7379,-9.765625
7380,-9.765625
7381,-9.765625
7382,-9.765625
7383,-9.765625
7384,-9.765625
7385,-9.765625
7386,-11.718750
7387,-9.765625
7388,-9.765625
7389,-9.765625
7390,-9.765625
7391,-11.718750
7392,-9.765625
7393,-9.765625
7394,-9.765625
7395,-9.765625
7396,-9.765625
7397,-11.718750
7398,-9.765625
7399,-9.765625
7400,-9.765625
7401,-11.718750
7402,-9.765625
7403,-11.718750
7404,-11.718750
7405,-11.718750
7406,-11.718750
7407,-9.765625
7408,-11.718750
7409,-11.718750
7410,-11.718750
7411,-11.718750
7412,-11.718750
7413,-11.718750
7414,-11.718750
7415,-11.718750
7416,-11.718750
7417,-11.718750
7418,-11.718750
7419,-11.718750
7420,-11.718750
7421,-11.718750
7422,-11.718750
7423,-11.718750
7424,-11.718750
7425,-11.718750
7426,-13.671875
7427,-11.718750
7428,-11.718750
7429,-13.671875
7430,-11.718750
7431,-11.718750
7432,-11.718750
7433,-13.671875
7434,-11.718750
7435,-11.718750
7436,-13.671875
7437,-13.671875
7438,-11.718750
7439,-13.671875
7440,-11.718750
7441,-11.718750
7442,-11.718750
7443,-13.671875
7444,-11.718750
7445,-11.718750
7446,-13.671875
7447,-11.718750
7448,-11.718750
7449,-13.671875
7450,-13.671875
7451,-13.671875
7452,-13.671875
7453,-13.671875
7454,-13.671875
7455,-13.671875
7456,-13.671875
7457,-13.671875
7458,-13.671875
7459,-13.671875
7460,-13.671875
7461,-13.671875
7462,-13.671875
7463,-13.671875
7464,-13.671875
7465,-13.671875
7466,-13.671875
7467,-13.671875
7468,-13.671875
7469,-13.671875
7470,-13.671875
7471,-13.671875
7472,-13.671875
7473,-13.671875
7474,-13.671875
7475,-13.671875
7476,-13.671875
7477,-13.671875
7478,-13.671875
7479,-13.671875
7480,-13.671875
7481,-13.671875
7482,-13.671875
7483,-13.671875
7484,-13.671875
7485,-13.671875
7486,-13.671875
7487,-13.671875
7488,-13.671875
7489,-13.671875
7490,-13.671875
7491,-13.671875
7492,-13.671875
7493,-13.671875
7494,-13.671875
7495,-11.718750
7496,-13.671875
7497,-13.671875
7498,-13.671875
7499,-13.671875
7500,-11.718750
7501,-13.671875
7502,-11.718750
7503,-11.718750
7504,-11.718750
7505,-11.718750
7506,-11.718750
7507,-11.718750
7508,-11.718750
7509,-11.718750
7510,-11.718750
7511,-11.718750
7512,-11.718750
7513,-11.718750
7514,-11.718750
7515,-11.718750
7516,-11.718750
7517,-11.718750
7518,-11.718750
7519,-11.718750
7520,-11.718750
7521,-11.718750
7522,-9.765625
7523,-11.718750
7524,-11.718750
7525,-9.765625
7526,-9.765625
7527,-11.718750
7528,-9.765625
7529,-9.765625
7530,-9.765625
7531,-11.718750
7532,-9.765625
7533,-9.765625
7534,-9.765625
7535,-9.765625
7536,-9.765625
7537,-9.765625
7538,-9.765625
7539,-9.765625
7540,-9.765625
7541,-9.765625
7542,-9.765625
7543,-9.765625
7544,-9.765625
7545,-9.765625
7546,-9.765625
7547,-7.812500
7548,-9.765625
7549,-7.812500
7550,-7.812500
7551,-7.812500
7552,-7.812500
7553,-7.812500
7554,-7.812500
7555,-7.812500
7556,-7.812500
7557,-7.812500
7558,-7.812500
7559,-7.812500
7560,-5.859375
7561,-5.859375
7562,-7.812500
7563,-5.859375
7564,-5.859375
7565,-5.859375
7566,-5.859375
7567,-5.859375
7568,-5.859375
7569,-5.859375
7570,-5.859375
7571,-5.859375
7572,-5.859375
7573,-5.859375
7574,-3.906250
7575,-5.859375
7576,-3.906250
7577,-3.906250
7578,-3.906250
7579,-3.906250
7580,-3.906250
7581,-3.906250
7582,-3.906250
7583,-3.906250
7584,-3.906250
7585,-3.906250
7586,-3.906250
7587,-3.906250
7588,-1.953125
7589,-3.906250
7590,-1.953125
7591,-1.953125
7592,-1.953125
7593,-1.953125
7594,-3.906250
7595,-1.953125
7596,-1.953125
7597,-1.953125
7598,-1.953125
7599,-1.953125
7600,-1.953125
7601,-1.953125
7602,-1.953125
7603,0.000000
7604,-1.953125
7605,-1.953125
7606,-1.953125
7607,-1.953125
7608,-1.953125
7609,-1.953125
7610,0.000000
7611,0.000000
7612,-1.953125
7613,-1.953125
7614,0.000000
7615,0.000000
7616,0.000000
7617,0.000000
7618,0.000000
7619,0.000000
7620,0.000000
7621,0.000000
7622,0.000000
7623,0.000000
7624,0.000000
7625,0.000000
7626,0.000000
7627,0.000000
7628,0.000000
7629,0.000000
7630,0.000000
7631,0.000000
7632,0.000000
7633,0.000000
7634,0.000000
7635,0.000000
7636,1.953125
7637,1.953125
7638,1.953125
7639,0.000000
7640,0.000000
7641,1.953125
7642,0.000000
7643,0.000000
7644,0.000000
7645,0.000000
7646,0.000000
7647,1.953125
7648,1.953125
7649,1.953125
7650,0.000000
7651,1.953125
7652,0.000000
7653,0.000000
7654,0.000000
7655,0.000000
7656,0.000000
7657,0.000000
7658,1.953125
7659,0.000000
7660,0.000000
7661,0.000000
7662,0.000000
7663,0.000000
7664,0.000000
7665,1.953125
7666,0.000000
7667,0.000000
7668,0.000000
7669,0.000000
7670,0.000000
7671,0.000000
7672,0.000000
7673,0.000000
7674,0.000000
7675,0.000000
7676,0.000000
7677,0.000000
7678,0.000000
7679,-1.953125
7680,0.000000
7681,0.000000
7682,-1.953125
7683,0.000000
7684,0.000000
7685,-1.953125
7686,-1.953125
7687,0.000000
7688,-1.953125
7689,-1.953125
7690,-1.953125
7691,-1.953125
7692,-1.953125
7693,-1.953125
7694,-1.953125
7695,-1.953125
7696,-1.953125
7697,-1.953125
7698,-1.953125
7699,-1.953125
7700,-3.906250
7701,-1.953125
7702,-1.953125
7703,-3.906250
7704,-1.953125
7705,-3.906250
7706,-3.906250
7707,-1.953125
7708,-3.906250
7709,-3.906250
7710,-3.906250
7711,-3.906250
7712,-3.906250
7713,-3.906250
7714,-3.906250
7715,-3.906250
7716,-3.906250
7717,-3.906250
7718,-3.906250
7719,-3.906250
7720,-5.859375
7721,-5.859375
7722,-5.859375
7723,-5.859375
7724,-5.859375
7725,-5.859375
7726,-5.859375
7727,-5.859375
7728,-7.812500
7729,-5.859375
7730,-5.859375
7731,-5.859375
7732,-5.859375
7733,-7.812500
7734,-7.812500
7735,-7.812500
7736,-7.812500
7737,-7.812500
7738,-7.812500
7739,-7.812500
7740,-7.812500
7741,-7.812500
7742,-7.812500
7743,-9.765625
7744,-7.812500
7745,-7.812500
7746,-9.765625
7747,-9.765625
7748,-9.765625
7749,-9.765625
7750,-9.765625
7751,-9.765625
7752,-9.765625
7753,-9.765625
7754,-9.765625
7755,-9.765625
7756,-9.765625
7757,-9.765625
7758,-9.765625
7759,-9.765625
7760,-9.765625
7761,-11.718750
7762,-9.765625
7763,-11.718750
7764,-11.718750
7765,-9.765625
7766,-11.718750
7767,-9.765625
7768,-11.718750
7769,-11.718750
7770,-11.718750
7771,-11.718750
7772,-11.718750
7773,-11.718750
7774,-11.718750
7775,-11.718750
7776,-11.718750
7777,-11.718750
7778,-11.718750
7779,-11.718750
7780,-11.718750
7781,-11.718750
7782,-11.718750
7783,-11.718750
7784,-11.718750
7785,-11.718750
7786,-13.671875
7787,-11.718750
7788,-13.671875
7789,-13.671875
7790,-11.718750
7791,-13.671875
7792,-13.671875
7793,-13.671875
7794,-13.671875
7795,-13.671875
7796,-11.718750
7797,-13.671875
7798,-13.671875
7799,-13.671875
7800,-13.671875
7801,-13.671875
7802,-13.671875
7803,-13.671875
7804,-13.671875
7805,-13.671875
7806,-13.671875
7807,-13.671875
7808,-13.671875
7809,-13.671875
7810,-13.671875
7811,-13.671875
7812,-13.671875
7813,-13.671875
7814,-13.671875
7815,-13.671875
7816,-13.671875
7817,-13.671875
7818,-13.671875
7819,-13.671875
7820,-13.671875
7821,-13.671875
7822,-13.671875
7823,-13.671875
7824,-13.671875
7825,-13.671875
7826,-13.671875
7827,-13.671875
7828,-13.671875
7829,-13.671875
7830,-11.718750
7831,-13.671875
7832,-13.671875
7833,-13.671875
7834,-13.671875
7835,-15.625000
7836,-13.671875
7837,-13.671875
7838,-13.671875
7839,-13.671875
7840,-13.671875
7841,-13.671875
7842,-13.671875
7843,-13.671875
7844,-15.625000
7845,-15.625000
7846,-13.671875
7847,-15.625000
7848,-13.671875
7849,-13.671875
7850,-15.625000
7851,-13.671875
7852,-13.671875
7853,-15.625000
7854,-13.671875
7855,-13.671875
7856,-13.671875
7857,-13.671875
7858,-13.671875
7859,-13.671875
7860,-15.625000
7861,-15.625000
7862,-15.625000
7863,-13.671875
7864,-15.625000
7865,-15.625000
7866,-15.625000
7867,-15.625000
7868,-13.671875
7869,-15.625000
7870,-13.671875
7871,-13.671875
7872,-15.625000
7873,-13.671875
7874,-13.671875
7875,-13.671875
7876,-13.671875
7877,-15.625000
7878,-13.671875
7879,-13.671875
7880,-13.671875
7881,-13.671875
7882,-13.671875
7883,-13.671875
7884,-13.671875
7885,-13.671875
7886,-13.671875
7887,-13.671875
7888,-13.671875
7889,-13.671875
7890,-13.671875
7891,-13.671875
7892,-13.671875
7893,-11.718750
7894,-11.718750
7895,-13.671875
7896,-11.718750
7897,-11.718750
7898,-11.718750
7899,-11.718750
7900,-11.718750
7901,-13.671875
7902,-11.718750
7903,-11.718750
7904,-11.718750
7905,-11.718750
7906,-11.718750
7907,-11.718750
7908,-11.718750
7909,-11.718750
7910,-11.718750
7911,-11.718750
7912,-11.718750
7913,-11.718750
7914,-11.718750
7915,-11.718750
7916,-11.718750
7917,-9.765625
7918,-11.718750
7919,-11.718750
7920,-11.718750
7921,-11.718750
7922,-9.765625
7923,-11.718750
7924,-11.718750
7925,-9.765625
7926,-11.718750
7927,-11.718750
7928,-9.765625
7929,-9.765625
7930,-11.718750
7931,-9.765625
7932,-9.765625
7933,-9.765625
7934,-11.718750
7935,-9.765625
7936,-9.765625
7937,-9.765625
7938,-9.765625
7939,-9.765625
7940,-9.765625
7941,-9.765625
7942,-9.765625
7943,-9.765625
7944,-9.765625
7945,-9.765625
7946,-9.765625
7947,-9.765625
7948,-9.765625
7949,-9.765625
7950,-9.765625
7951,-9.765625
7952,-9.765625
7953,-9.765625
7954,-9.765625
7955,-9.765625
7956,-9.765625
7957,-9.765625
7958,-9.765625
7959,-9.765625
7960,-9.765625
7961,-9.765625
7962,-9.765625
7963,-9.765625
7964,-9.765625
7965,-9.765625
7966,-9.765625
7967,-9.765625
7968,-9.765625
7969,-9.765625
7970,-9.765625
7971,-9.765625
7972,-9.765625
7973,-9.765625
7974,-9.765625
7975,-9.765625
7976,-9.765625
7977,-9.765625
7978,-9.765625
7979,-9.765625
7980,-9.765625
7981,-11.718750
7982,-9.765625
7983,-9.765625
7984,-9.765625
7985,-11.718750
7986,-11.718750
7987,-11.718750
7988,-11.718750
7989,-11.718750
7990,-11.718750
7991,-11.718750
7992,-11.718750
7993,-11.718750
7994,-11.718750
7995,-11.718750
7996,-11.718750
7997,-11.718750
7998,-11.718750
7999,-11.718750
8000,-11.718750
8001,-11.718750
8002,-11.718750
8003,-11.718750
8004,-11.718750
8005,-11.718750
8006,-11.718750
8007,-11.718750
8008,-11.718750
8009,-11.718750
8010,-11.718750
8011,-11.718750
8012,-11.718750
8013,-11.718750
8014,-11.718750
8015,-13.671875
8016,-11.718750
8017,-11.718750
8018,-11.718750
8019,-11.718750
8020,-13.671875
8021,-11.718750
8022,-11.718750
8023,-11.718750
8024,-13.671875
8025,-13.671875
8026,-13.671875
8027,-13.671875
8028,-13.671875
8029,-13.671875
8030,-13.671875
8031,-13.671875
8032,-13.671875
8033,-13.671875
8034,-13.671875
8035,-13.671875
8036,-13.671875
8037,-13.671875
8038,-11.718750
8039,-13.671875
8040,-13.671875
8041,-13.671875
8042,-13.671875
8043,-13.671875
8044,-13.671875
8045,-13.671875
8046,-13.671875
8047,-13.671875
8048,-13.671875
8049,-13.671875
8050,-13.671875
8051,-13.671875
8052,-13.671875
8053,-13.671875
8054,-15.625000
8055,-13.671875
8056,-15.625000
8057,-13.671875
8058,-13.671875
8059,-13.671875
8060,-13.671875
8061,-13.671875
8062,-13.671875
8063,-11.718750
8064,-13.671875
8065,-13.671875
8066,-13.671875
8067,-13.671875
8068,-13.671875
8069,-13.671875
8070,-13.671875
8071,-13.671875
8072,-13.671875
8073,-13.671875
8074,-13.671875
8075,-13.671875
8076,-13.671875
8077,-13.671875
8078,-13.671875
8079,-13.671875
8080,-13.671875
8081,-13.671875
8082,-13.671875
8083,-13.671875
8084,-13.671875
8085,-11.718750
8086,-11.718750
8087,-11.718750
8088,-11.718750
8089,-13.671875
8090,-11.718750
8091,-11.718750
8092,-11.718750
8093,-11.718750
8094,-11.718750
8095,-11.718750
8096,-11.718750
8097,-11.718750
8098,-11.718750
8099,-11.718750
8100,-11.718750
8101,-11.718750
8102,-11.718750
8103,-11.718750
8104,-11.718750
8105,-11.718750
8106,-9.765625
8107,-11.718750
8108,-11.718750
8109,-11.718750
8110,-11.718750
8111,-9.765625
8112,-9.765625
8113,-9.765625
8114,-9.765625
8115,-11.718750
8116,-9.765625
8117,-9.765625
8118,-9.765625
8119,-9.765625
8120,-9.765625
8121,-9.765625
8122,-9.765625
8123,-9.765625
8124,-9.765625
8125,-9.765625
8126,-9.765625
8127,-9.765625
8128,-7.812500
8129,-9.765625
8130,-9.765625
8131,-9.765625
8132,-7.812500
8133,-9.765625
8134,-7.812500
8135,-7.812500
8136,-7.812500
8137,-7.812500
8138,-9.765625
8139,-7.812500
8140,-7.812500
8141,-7.812500
8142,-7.812500
8143,-7.812500
8144,-5.859375
8145,-5.859375
8146,-5.859375
8147,-5.859375
8148,-7.812500
8149,-5.859375
8150,-5.859375
8151,-5.859375
8152,-5.859375
8153,-5.859375
8154,-5.859375
8155,-3.906250
8156,-5.859375
8157,-3.906250
8158,-3.906250
8159,-3.906250
8160,-3.906250
8161,-3.906250
8162,-3.906250
8163,-3.906250
8164,-3.906250
8165,-3.906250
8166,-3.906250
8167,-3.906250
8168,-3.906250
8169,-3.906250
8170,-3.906250
8171,-1.953125
8172,-1.953125
8173,-1.953125
8174,-1.953125
8175,-1.953125
8176,-1.953125
8177,-1.953125
8178,-1.953125
8179,-1.953125
8180,-1.953125
8181,-1.953125
8182,-1.953125
8183,-1.953125
8184,-1.953125
8185,-1.953125
8186,-1.953125
8187,-1.953125
8188,-1.953125
8189,0.000000
8190,-1.953125
8191,-1.953125
8192,-1.953125
8193,0.000000
8194,0.000000
8195,-1.953125
8196,-1.953125
8197,0.000000
8198,0.000000
8199,0.000000
8200,0.000000
8201,0.000000
8202,0.000000
8203,0.000000
8204,0.000000
8205,0.000000
8206,1.953125
8207,0.000000
8208,0.000000
8209,0.000000
8210,0.000000
8211,0.000000
8212,0.000000
8213,0.000000
8214,0.000000
8215,0.000000
8216,0.000000
8217,1.953125
8218,0.000000
8219,1.953125
8220,0.000000
8221,0.000000
8222,1.953125
8223,0.000000
8224,3.906250
8225,0.000000
8226,1.953125
8227,1.953125
8228,1.953125
8229,0.000000
8230,1.953125
8231,1.953125
8232,1.953125
8233,1.953125
8234,0.000000
8235,1.953125
8236,1.953125
8237,1.953125
8238,1.953125
8239,1.953125
8240,1.953125
8241,1.953125
8242,0.000000
8243,0.000000
8244,0.000000
8245,1.953125
8246,0.000000
8247,0.000000
8248,1.953125
8249,0.000000
8250,0.000000
8251,0.000000
8252,0.000000
8253,0.000000
8254,0.000000
8255,0.000000
8256,0.000000
8257,0.000000
8258,0.000000
8259,0.000000
8260,0.000000
8261,0.000000
8262,0.000000
8263,0.000000
8264,0.000000
8265,0.000000
8266,0.000000
8267,0.000000
8268,0.000000
8269,0.000000
8270,-1.953125
8271,0.000000
8272,0.000000
8273,-1.953125
8274,0.000000
8275,0.000000
8276,-1.953125
8277,-1.953125
8278,-1.953125
8279,-1.953125
8280,-1.953125
8281,-1.953125
8282,-1.953125
8283,-1.953125
8284,-1.953125
8285,-1.953125
8286,-1.953125
8287,-1.953125
8288,-1.953125
8289,-3.906250
8290,-1.953125
8291,-3.906250
8292,-3.906250
8293,-3.906250
8294,-3.906250
8295,-3.906250
8296,-3.906250
8297,-3.906250
8298,-3.906250
8299,-3.906250
8300,-3.906250
8301,-3.906250
8302,-3.906250
8303,-3.906250
8304,-3.906250
8305,-5.859375
8306,-3.906250
8307,-5.859375
8308,-5.859375
8309,-5.859375
8310,-5.859375
8311,-5.859375
8312,-5.859375
8313,-5.859375
8314,-5.859375
8315,-5.859375
8316,-7.812500
8317,-5.859375
8318,-7.812500
8319,-7.812500
8320,-7.812500
8321,-7.812500
8322,-7.812500
8323,-7.812500
8324,-7.812500
8325,-7.812500
8326,-7.812500
8327,-7.812500
8328,-9.765625
8329,-7.812500
8330,-7.812500
8331,-7.812500
8332,-7.812500
8333,-9.765625
8334,-9.765625
8335,-9.765625
8336,-9.765625
8337,-9.765625
8338,-9.765625
8339,-9.765625
8340,-9.765625
8341,-9.765625
8342,-9.765625
8343,-9.765625
8344,-9.765625
8345,-9.765625
8346,-11.718750
8347,-9.765625
8348,-9.765625
8349,-9.765625
8350,-11.718750
8351,-11.718750
8352,-11.718750
8353,-11.718750
8354,-9.765625
8355,-11.718750
8356,-11.718750
8357,-11.718750
8358,-11.718750
8359,-11.718750
8360,-11.718750
8361,-11.718750
8362,-11.718750
8363,-11.718750
8364,-11.718750
8365,-13.671875
8366,-13.671875
8367,-13.671875
8368,-11.718750
8369,-11.718750
8370,-13.671875
8371,-11.718750
8372,-11.718750
8373,-13.671875
8374,-13.671875
8375,-11.718750
8376,-13.671875
8377,-13.671875
8378,-13.671875
8379,-13.671875
8380,-13.671875
8381,-13.671875
8382,-13.671875
8383,-13.671875
8384,-13.671875
8385,-13.671875
8386,-13.671875
8387,-13.671875
8388,-13.671875
8389,-13.671875
8390,-13.671875
8391,-13.671875
8392,-13.671875
8393,-13.671875
8394,-13.671875
8395,-13.671875
8396,-13.671875
8397,-15.625000
8398,-13.671875
8399,-13.671875
8400,-13.671875
8401,-13.671875
8402,-13.671875
8403,-13.671875
8404,-13.671875
8405,-13.671875
8406,-13.671875
8407,-13.671875
8408,-15.625000
8409,-13.671875
8410,-15.625000
8411,-15.625000
8412,-13.671875
8413,-13.671875
8414,-15.625000
8415,-13.671875
8416,-15.625000
8417,-13.671875
8418,-13.671875
8419,-15.625000
8420,-13.671875
8421,-15.625000
8422,-13.671875
8423,-15.625000
8424,-13.671875
8425,-13.671875
8426,-13.671875
8427,-15.625000
8428,-13.671875
8429,-13.671875
8430,-13.671875
8431,-13.671875
8432,-15.625000
8433,-13.671875
8434,-13.671875
8435,-15.625000
8436,-15.625000
8437,-15.625000
8438,-13.671875
8439,-13.671875
8440,-15.625000
8441,-15.625000
8442,-13.671875
8443,-13.671875
8444,-13.671875
8445,-13.671875
8446,-15.625000
8447,-13.671875
8448,-13.671875
8449,-13.671875
8450,-15.625000
8451,-15.625000
8452,-13.671875
8453,-13.671875
8454,-15.625000
8455,-13.671875
8456,-13.671875
8457,-13.671875
8458,-13.671875
8459,-13.671875
8460,-15.625000
8461,-13.671875
8462,-13.671875
8463,-13.671875
8464,-13.671875
8465,-13.671875
8466,-13.671875
8467,-13.671875
8468,-13.671875
8469,-13.671875
8470,-13.671875
8471,-13.671875
8472,-13.671875
8473,-13.671875
8474,-11.718750
8475,-13.671875
8476,-13.671875
8477,-11.718750
8478,-11.718750
8479,-13.671875
8480,-11.718750
8481,-11.718750
8482,-11.718750
8483,-11.718750
8484,-13.671875
8485,-11.718750
8486,-11.718750
8487,-11.718750
8488,-11.718750
8489,-11.718750
8490,-11.718750
8491,-11.718750
8492,-11.718750
8493,-11.718750
8494,-11.718750
8495,-11.718750
8496,-11.718750
8497,-11.718750
8498,-11.718750
8499,-11.718750
8500,-11.718750
8501,-11.718750
8502,-11.718750
8503,-11.718750
8504,-11.718750
8505,-9.765625
8506,-11.718750
8507,-11.718750
8508,-9.765625
8509,-11.718750
8510,-9.765625
8511,-11.718750
8512,-11.718750
8513,-9.765625
8514,-11.718750
8515,-9.765625
8516,-11.718750
8517,-11.718750
8518,-9.765625
8519,-9.765625
8520,-11.718750
8521,-9.765625
8522,-9.765625
8523,-9.765625
8524,-9.765625
8525,-9.765625
8526,-9.765625
8527,-9.765625
8528,-11.718750
8529,-9.765625
8530,-9.765625
8531,-9.765625
8532,-9.765625
8533,-9.765625
8534,-9.765625
8535,-9.765625
8536,-9.765625
8537,-9.765625
8538,-9.765625
8539,-9.765625
8540,-9.765625
8541,-9.765625
8542,-9.765625
8543,-9.765625
8544,-9.765625
8545,-9.765625
8546,-9.765625
8547,-9.765625
8548,-9.765625
8549,-9.765625
8550,-9.765625
8551,-11.718750
8552,-9.765625
8553,-9.765625
8554,-9.765625
8555,-9.765625
8556,-9.765625
8557,-11.718750
8558,-9.765625
8559,-9.765625
8560,-9.765625
8561,-9.765625
8562,-9.765625
8563,-9.765625
8564,-11.718750
8565,-11.718750
8566,-11.718750
8567,-9.765625
8568,-9.765625
8569,-11.718750
8570,-11.718750
8571,-9.765625
8572,-9.765625
8573,-11.718750
8574,-11.718750
8575,-11.718750
8576,-11.718750
8577,-11.718750
8578,-11.718750
8579,-11.718750
8580,-11.718750
8581,-11.718750
8582,-9.765625
8583,-11.718750
8584,-11.718750
8585,-11.718750
8586,-11.718750
8587,-11.718750
8588,-11.718750
8589,-11.718750
8590,-11.718750
8591,-11.718750
8592,-11.718750
8593,-11.718750
8594,-11.718750
8595,-13.671875
8596,-11.718750
8597,-11.718750
8598,-11.718750
8599,-11.718750
8600,-13.671875
8601,-11.718750
8602,-11.718750
8603,-11.718750
8604,-11.718750
8605,-13.671875
8606,-13.671875
8607,-11.718750
8608,-13.671875
8609,-13.671875
8610,-11.718750
8611,-13.671875
8612,-11.718750
8613,-11.718750
8614,-13.671875
8615,-13.671875
8616,-11.718750
8617,-11.718750
8618,-13.671875
8619,-13.671875
8620,-13.671875
8621,-13.671875
8622,-13.671875
8623,-13.671875
8624,-13.671875
8625,-13.671875
8626,-13.671875
8627,-13.671875
8628,-13.671875
8629,-13.671875
8630,-13.671875
8631,-13.671875
8632,-13.671875
8633,-13.671875
8634,-13.671875
8635,-13.671875
8636,-13.671875
8637,-13.671875
8638,-13.671875
8639,-13.671875
8640,-13.671875
8641,-13.671875
8642,-13.671875
8643,-13.671875
8644,-13.671875
8645,-13.671875
8646,-13.671875
8647,-13.671875
8648,-13.671875
8649,-13.671875
8650,-15.625000
8651,-13.671875
8652,-13.671875
8653,-13.671875
8654,-13.671875
8655,-13.671875
8656,-13.671875
8657,-13.671875
8658,-13.671875
8659,-13.671875
8660,-13.671875
8661,-13.671875
8662,-13.671875
8663,-11.718750
8664,-13.671875
8665,-13.671875
8666,-11.718750
8667,-13.671875
8668,-11.718750
8669,-13.671875
8670,-11.718750
8671,-11.718750
8672,-11.718750
8673,-11.718750
8674,-11.718750
8675,-11.718750
8676,-11.718750
8677,-11.718750
8678,-11.718750
8679,-11.718750
8680,-11.718750
8681,-11.718750
8682,-11.718750
8683,-11.718750
8684,-11.718750
8685,-11.718750
8686,-9.765625
8687,-11.718750
8688,-11.718750
8689,-11.718750
8690,-11.718750
8691,-11.718750
8692,-11.718750
8693,-11.718750
8694,-9.765625
8695,-9.765625
8696,-11.718750
8697,-9.765625
8698,-9.765625
8699,-9.765625
8700,-9.765625
8701,-9.765625
8702,-9.765625
8703,-9.765625
8704,-9.765625
8705,-9.765625
8706,-9.765625
8707,-9.765625
8708,-9.765625
8709,-9.765625
8710,-9.765625
8711,-9.765625
8712,-9.765625
8713,-9.765625
8714,-7.812500
8715,-7.812500
8716,-9.765625
8717,-7.812500
8718,-7.812500
8719,-7.812500
8720,-7.812500
8721,-7.812500
8722,-7.812500
8723,-7.812500
8724,-7.812500
8725,-7.812500
8726,-5.859375
8727,-5.859375
8728,-7.812500
8729,-5.859375
8730,-5.859375
8731,-5.859375
8732,-5.859375
8733,-7.812500
8734,-5.859375
8735,-5.859375
8736,-5.859375
8737,-5.859375
8738,-5.859375
8739,-5.859375
8740,-3.906250
8741,-3.906250
8742,-3.906250
8743,-3.906250
8744,-3.906250
8745,-3.906250
8746,-3.906250
8747,-3.906250
8748,-3.906250
8749,-3.906250
8750,-3.906250
8751,-3.906250
8752,-1.953125
8753,-1.953125
8754,-3.906250
8755,-1.953125
8756,-1.953125
8757,-1.953125
8758,-1.953125
8759,-1.953125
8760,-1.953125
8761,-1.953125
8762,-1.953125
8763,-1.953125
8764,-1.953125
8765,-1.953125
8766,-1.953125
8767,-1.953125
8768,-1.953125
8769,-1.953125
8770,-1.953125
8771,-1.953125
8772,-1.953125
8773,-1.953125
8774,-1.953125
8775,-1.953125
8776,0.000000
8777,0.000000
8778,0.000000
8779,0.000000
8780,0.000000
8781,0.000000
8782,0.000000
8783,0.000000
8784,0.000000
8785,0.000000
8786,0.000000
8787,0.000000
8788,0.000000
8789,0.000000
8790,1.953125
8791,0.000000
8792,0.000000
8793,1.953125
8794,0.000000
8795,0.000000
8796,0.000000
8797,0.000000
8798,0.000000
8799,1.953125
8800,1.953125
8801,1.953125
8802,1.953125
8803,1.953125
8804,0.000000
8805,1.953125
8806,1.953125
8807,1.953125
8808,1.953125
8809,1.953125
8810,1.953125
8811,1.953125
8812,0.000000
8813,1.953125
8814,1.953125
8815,0.000000
8816,0.000000
8817,1.953125
8818,1.953125
8819,1.953125
8820,0.000000
8821,1.953125
8822,1.953125
8823,1.953125
8824,1.953125
8825,0.000000
8826,0.000000
8827,0.000000
8828,0.000000
8829,1.953125
8830,0.000000
8831,0.000000
8832,0.000000
8833,0.000000
8834,0.000000
8835,0.000000
8836,0.000000
8837,0.000000
8838,0.000000
8839,0.000000
8840,0.000000
8841,0.000000
8842,0.000000
8843,0.000000
8844,0.000000
8845,0.000000
8846,0.000000
8847,0.000000
8848,0.000000
8849,0.000000
8850,-1.953125
8851,0.000000
8852,0.000000
8853,0.000000
8854,0.000000
8855,-1.953125
8856,-1.953125
8857,-1.953125
8858,0.000000
8859,-1.953125
8860,-1.953125
8861,-1.953125
8862,-1.953125
8863,-1.953125
8864,-1.953125
8865,-1.953125
8866,-1.953125
8867,-1.953125
8868,-1.953125
8869,-1.953125
8870,-1.953125
8871,-1.953125
8872,-3.906250
8873,-1.953125
8874,-3.906250
8875,-3.906250
8876,-3.906250
8877,-3.906250
8878,-3.906250
8879,-3.906250
8880,-3.906250
8881,-3.906250
8882,-3.906250
8883,-3.906250
8884,-3.906250
8885,-5.859375
8886,-5.859375
8887,-5.859375
8888,-5.859375
8889,-5.859375
8890,-5.859375
8891,-5.859375
8892,-5.859375
8893,-5.859375
8894,-7.812500
8895,-7.812500
8896,-5.859375
8897,-7.812500
8898,-7.812500
8899,-7.812500
8900,-7.812500
8901,-7.812500
8902,-7.812500
8903,-7.812500
8904,-7.812500
8905,-7.812500
8906,-7.812500
8907,-9.765625
8908,-7.812500
8909,-7.812500
8910,-9.765625
8911,-9.765625
8912,-9.765625
8913,-9.765625
8914,-9.765625
8915,-9.765625
8916,-9.765625
8917,-9.765625
8918,-9.765625
8919,-9.765625
8920,-9.765625
8921,-9.765625
8922,-9.765625
8923,-9.765625
8924,-9.765625
8925,-11.718750
8926,-9.765625
8927,-11.718750
8928,-11.718750
8929,-11.718750
8930,-11.718750
8931,-9.765625
8932,-11.718750
8933,-11.718750
8934,-11.718750
8935,-11.718750
8936,-11.718750
8937,-11.718750
8938,-11.718750
8939,-11.718750
8940,-11.718750
8941,-11.718750
8942,-11.718750
8943,-11.718750
8944,-11.718750
8945,-11.718750
8946,-13.671875
8947,-11.718750
8948,-11.718750
8949,-13.671875
8950,-11.718750
8951,-11.718750
8952,-13.671875
8953,-13.671875
8954,-13.671875
8955,-13.671875
8956,-13.671875
8957,-13.671875
8958,-13.671875
8959,-13.671875
8960,-13.671875
8961,-13.671875
8962,-13.671875
8963,-13.671875
8964,-13.671875
8965,-13.671875
8966,-13.671875
8967,-13.671875
8968,-13.671875
8969,-13.671875
8970,-15.625000
8971,-13.671875
8972,-13.671875
8973,-15.625000
8974,-15.625000
8975,-13.671875
8976,-13.671875
8977,-15.625000
8978,-13.671875
8979,-13.671875
8980,-13.671875
8981,-15.625000
8982,-13.671875
8983,-15.625000
8984,-13.671875
8985,-13.671875
8986,-15.625000
8987,-13.671875
8988,-13.671875
8989,-15.625000
8990,-15.625000
8991,-13.671875
8992,-13.671875
8993,-13.671875
8994,-13.671875
8995,-15.625000
8996,-15.625000
8997,-13.671875
8998,-15.625000
8999,-15.625000
9000,-15.625000
9001,-15.625000
9002,-15.625000
9003,-15.625000
9004,-15.625000
9005,-13.671875
9006,-15.625000
9007,-15.625000
9008,-15.625000
9009,-13.671875
9010,-15.625000
9011,-15.625000
9012,-13.671875
9013,-13.671875
9014,-15.625000
9015,-13.671875
9016,-15.625000
9017,-15.625000
9018,-15.625000
9019,-15.625000
9020,-15.625000
9021,-15.625000
9022,-15.625000
9023,-15.625000
9024,-15.625000
9025,-15.625000
9026,-15.625000
9027,-15.625000
9028,-15.625000
9029,-15.625000
9030,-13.671875
9031,-15.625000
9032,-15.625000
9033,-15.625000
9034,-15.625000
9035,-13.671875
9036,-15.625000
9037,-13.671875
9038,-15.625000
9039,-15.625000
9040,-13.671875
9041,-13.671875
9042,-13.671875
9043,-13.671875
9044,-13.671875
9045,-13.671875
9046,-13.671875
9047,-13.671875
9048,-13.671875
9049,-13.671875
9050,-13.671875
9051,-13.671875
9052,-13.671875
9053,-13.671875
9054,-13.671875
9055,-11.718750
9056,-13.671875
9057,-13.671875
9058,-11.718750
9059,-13.671875
9060,-13.671875
9061,-13.671875
9062,-11.718750
9063,-11.718750
9064,-11.718750
9065,-11.718750
9066,-11.718750
9067,-11.718750
9068,-11.718750
9069,-11.718750
9070,-11.718750
9071,-11.718750
9072,-11.718750
9073,-11.718750
9074,-11.718750
9075,-11.718750
9076,-11.718750
9077,-11.718750
9078,-11.718750
9079,-11.718750
9080,-11.718750
9081,-11.718750
9082,-11.718750
9083,-9.765625
9084,-11.718750
9085,-11.718750
9086,-11.718750
9087,-9.765625
9088,-11.718750
9089,-9.765625
9090,-9.765625
9091,-11.718750
9092,-9.765625
9093,-9.765625
9094,-9.765625
9095,-9.765625
9096,-9.765625
9097,-9.765625
9098,-9.765625
9099,-9.765625
9100,-9.765625
9101,-9.765625
9102,-9.765625
9103,-9.765625
9104,-9.765625
9105,-9.765625
9106,-9.765625
9107,-11.718750
9108,-9.765625
9109,-9.765625
9110,-9.765625
9111,-9.765625
9112,-9.765625
9113,-9.765625
9114,-9.765625
9115,-9.765625
9116,-9.765625
9117,-9.765625
9118,-9.765625
9119,-9.765625
9120,-9.765625
9121,-9.765625
9122,-9.765625
9123,-9.765625
9124,-9.765625
9125,-9.765625
9126,-9.765625
9127,-9.765625
9128,-9.765625
9129,-9.765625
9130,-9.765625
9131,-9.765625
9132,-9.765625
9133,-9.765625
9134,-9.765625
9135,-9.765625
9136,-9.765625
9137,-9.765625
9138,-9.765625
9139,-9.765625
9140,-9.765625
9141,-9.765625
9142,-9.765625
9143,-9.765625
9144,-9.765625
9145,-9.765625
9146,-9.765625
9147,-9.765625
9148,-11.718750
9149,-11.718750
9150,-9.765625
9151,-11.718750
9152,-9.765625
9153,-9.765625
9154,-11.718750
9155,-9.765625
9156,-11.718750
9157,-11.718750
9158,-11.718750
9159,-9.765625
9160,-11.718750
9161,-11.718750
9162,-9.765625
9163,-11.718750
9164,-11.718750
9165,-11.718750
9166,-11.718750
9167,-11.718750
9168,-11.718750
9169,-11.718750
9170,-11.718750
9171,-11.718750
9172,-11.718750
9173,-11.718750
9174,-11.718750
9175,-11.718750
9176,-11.718750
9177,-11.718750
9178,-11.718750
9179,-13.671875
9180,-11.718750
9181,-11.718750
9182,-11.718750
9183,-11.718750
9184,-11.718750
9185,-11.718750
9186,-13.671875
9187,-11.718750
9188,-11.718750
9189,-13.671875
9190,-13.671875
9191,-11.718750
9192,-13.671875
9193,-13.671875
9194,-11.718750
9195,-11.718750
9196,-13.671875
9197,-13.671875
9198,-13.671875
9199,-13.671875
9200,-13.671875
9201,-13.671875
9202,-13.671875
9203,-11.718750
9204,-13.671875
9205,-13.671875
9206,-13.671875
9207,-11.718750
9208,-13.671875
9209,-13.671875
9210,-13.671875
9211,-13.671875
9212,-13.671875
9213,-13.671875
9214,-13.671875
9215,-13.671875
9216,-13.671875
9217,-13.671875
9218,-13.671875
9219,-13.671875
9220,-13.671875
9221,-13.671875
9222,-13.671875
9223,-13.671875
9224,-13.671875
9225,-13.671875
9226,-13.671875
9227,-13.671875
9228,-13.671875
9229,-13.671875
9230,-13.671875
9231,-13.671875
9232,-13.671875
9233,-13.671875
9234,-13.671875
9235,-13.671875
9236,-13.671875
9237,-13.671875
9238,-13.671875
9239,-13.671875
9240,-13.671875
9241,-13.671875
9242,-13.671875
9243,-13.671875
9244,-13.671875
9245,-11.718750
9246,-11.718750
9247,-11.718750
9248,-13.671875
9249,-13.671875
9250,-11.718750
9251,-13.671875
9252,-11.718750
9253,-11.718750
9254,-11.718750
9255,-11.718750
9256,-13.671875
9257,-13.671875
9258,-11.718750
9259,-11.718750
9260,-11.718750
9261,-11.718750
9262,-11.718750
9263,-11.718750
9264,-11.718750
9265,-11.718750
9266,-11.718750
9267,-11.718750
9268,-11.718750
9269,-11.718750
9270,-11.718750
9271,-9.765625
9272,-9.765625
9273,-9.765625
9274,-11.718750
9275,-9.765625
9276,-11.718750
9277,-9.765625
9278,-9.765625
9279,-9.765625
9280,-9.765625
9281,-9.765625
9282,-9.765625
9283,-9.765625
9284,-9.765625
9285,-9.765625
9286,-9.765625
9287,-9.765625
9288,-9.765625
9289,-9.765625
9290,-9.765625
9291,-9.765625
9292,-9.765625
9293,-9.765625
9294,-7.812500
9295,-9.765625
9296,-9.765625
9297,-9.765625
9298,-7.812500
9299,-7.812500
9300,-7.812500
9301,-7.812500
9302,-7.812500
9303,-7.812500
9304,-7.812500
9305,-7.812500
9306,-7.812500
9307,-7.812500
9308,-5.859375
9309,-7.812500
9310,-5.859375
9311,-5.859375
9312,-5.859375
9313,-7.812500
9314,-5.859375
9315,-5.859375
9316,-5.859375
9317,-5.859375
9318,-5.859375
9319,-5.859375
9320,-5.859375
9321,-3.906250
9322,-5.859375
9323,-3.906250
9324,-5.859375
9325,-5.859375
9326,-3.906250
9327,-3.906250
9328,-3.906250
9329,-3.906250
9330,-3.906250
9331,-3.906250
9332,-3.906250
9333,-3.906250
9334,-3.906250
9335,-3.906250
9336,-3.906250
9337,-3.906250
9338,-3.906250
9339,-3.906250
9340,-1.953125
9341,-1.953125
9342,-3.906250
9343,-1.953125
9344,-1.953125
9345,-1.953125
9346,-1.953125
9347,-1.953125
9348,-1.953125
9349,-1.953125
9350,-1.953125
9351,-1.953125
9352,-1.953125
9353,-1.953125
9354,-1.953125
9355,-1.953125
9356,0.000000
9357,0.000000
9358,-1.953125
9359,0.000000
9360,0.000000
9361,0.000000
9362,0.000000
9363,0.000000
9364,0.000000
9365,0.000000
9366,0.000000
9367,0.000000
9368,0.000000
9369,0.000000
9370,0.000000
9371,0.000000
9372,0.000000
9373,0.000000
9374,5.859375
9375,-3.906250
9376,0.000000
9377,1.953125
9378,-3.906250
9379,0.000000
9380,1.953125
9381,0.000000
9382,1.953125
9383,0.000000
9384,0.000000
9385,0.000000
9386,0.000000
9387,0.000000
9388,0.000000
9389,1.953125
9390,1.953125
9391,0.000000
9392,1.953125
9393,1.953125
9394,0.000000
9395,0.000000
9396,1.953125
9397,1.953125
9398,0.000000
9399,1.953125
9400,1.953125
9401,0.000000
9402,0.000000
9403,0.000000
9404,0.000000
9405,1.953125
9406,1.953125
9407,3.906250
9408,-1.953125
9409,0.000000
9410,0.000000
9411,-1.953125
9412,0.000000
9413,0.000000
9414,0.000000
9415,0.000000
9416,0.000000
9417,0.000000
9418,0.000000
9419,0.000000
9420,0.000000
9421,0.000000
9422,0.000000
9423,0.000000
9424,-1.953125
9425,0.000000
9426,0.000000
9427,0.000000
9428,-1.953125
9429,0.000000
9430,0.000000
9431,0.000000
9432,-1.953125
9433,-1.953125
9434,0.000000
9435,-1.953125
9436,-1.953125
9437,0.000000
9438,-1.953125
9439,0.000000
9440,0.000000
9441,-1.953125
9442,-1.953125
9443,-1.953125
9444,-1.953125
9445,-1.953125
9446,-1.953125
9447,-1.953125
9448,-1.953125
9449,-1.953125
9450,-1.953125
9451,-1.953125
9452,-1.953125
9453,-1.953125
9454,-3.906250
9455,-1.953125
9456,-1.953125
9457,-3.906250
9458,-3.906250
9459,-3.906250
9460,-1.953125
9461,-3.906250
9462,-3.906250
9463,-3.906250
9464,-3.906250
9465,-3.906250
9466,-3.906250
9467,-3.906250
9468,-5.859375
9469,-5.859375
9470,-3.906250
9471,-5.859375
9472,-5.859375
9473,-5.859375
9474,-5.859375
9475,-5.859375
9476,-7.812500
9477,-5.859375
9478,-7.812500
9479,-5.859375
9480,-5.859375
9481,-7.812500
9482,-7.812500
9483,-7.812500
9484,-7.812500
9485,-7.812500
9486,-7.812500
9487,-7.812500
9488,-7.812500
9489,-7.812500
9490,-7.812500
9491,-9.765625
9492,-9.765625
9493,-9.765625
9494,-7.812500
9495,-9.765625
9496,-9.765625
9497,-9.765625
9498,-9.765625
9499,-9.765625
9500,-9.765625
9501,-9.765625
9502,-9.765625
9503,-9.765625
9504,-9.765625
9505,-9.765625
9506,-9.765625
9507,-9.765625
9508,-9.765625
9509,-9.765625
9510,-9.765625
9511,-9.765625
9512,-9.765625
9513,-9.765625
9514,-11.718750
9515,-11.718750
9516,-11.718750
9517,-11.718750
9518,-11.718750
9519,-11.718750
9520,-11.718750
9521,-11.718750
9522,-11.718750
9523,-11.718750
9524,-11.718750
9525,-11.718750
9526,-11.718750
9527,-11.718750
9528,-11.718750
9529,-11.718750
9530,-11.718750
9531,-11.718750
9532,-13.671875
9533,-13.671875
9534,-11.718750
9535,-13.671875
9536,-13.671875
9537,-13.671875
9538,-13.671875
9539,-11.718750
9540,-13.671875
9541,-11.718750
9542,-13.671875
9543,-13.671875
9544,-13.671875
9545,-13.671875
9546,-13.671875
9547,-13.671875
9548,-13.671875
9549,-13.671875
9550,-13.671875
9551,-13.671875
9552,-13.671875
9553,-13.671875
9554,-13.671875
9555,-13.671875
9556,-13.671875
9557,-13.671875
9558,-13.671875
9559,-13.671875
9560,-13.671875
9561,-13.671875
9562,-13.671875
9563,-13.671875
9564,-13.671875
9565,-13.671875
9566,-15.625000
9567,-15.625000
9568,-13.671875
9569,-15.625000
9570,-13.671875
9571,-13.671875
9572,-13.671875
9573,-15.625000
9574,-13.671875
9575,-13.671875
9576,-15.625000
9577,-13.671875
9578,-13.671875
9579,-13.671875
9580,-13.671875
9581,-13.671875
9582,-13.671875
9583,-13.671875
9584,-13.671875
9585,-15.625000
9586,-15.625000
9587,-15.625000
9588,-13.671875
9589,-15.625000
9590,-15.625000
9591,-13.671875
9592,-13.671875
9593,-15.625000
9594,-13.671875
9595,-13.671875
9596,-15.625000
9597,-13.671875
9598,-13.671875
9599,-13.671875
9600,-15.625000
9601,-13.671875
9602,-13.671875
9603,-13.671875
9604,-13.671875
9605,-13.671875
9606,-13.671875
9607,-13.671875
9608,-13.671875
9609,-13.671875
9610,-13.671875
9611,-15.625000
9612,-13.671875
9613,-13.671875
9614,-15.625000
9615,-13.671875
9616,-13.671875
9617,-13.671875
9618,-13.671875
9619,-13.671875
9620,-15.625000
9621,-13.671875
9622,-13.671875
9623,-13.671875
9624,-13.671875
9625,-13.671875
9626,-13.671875
9627,-13.671875
9628,-13.671875
9629,-13.671875
9630,-13.671875
9631,-13.671875
9632,-13.671875
9633,-13.671875
9634,-13.671875
9635,-13.671875
9636,-11.718750
9637,-13.671875
9638,-13.671875
9639,-11.718750
9640,-13.671875
9641,-11.718750
9642,-11.718750
9643,-11.718750
9644,-11.718750
9645,-11.718750
9646,-11.718750
9647,-11.718750
9648,-11.718750
9649,-11.718750
9650,-11.718750
9651,-11.718750
9652,-11.718750
9653,-11.718750
9654,-11.718750
9655,-11.718750
9656,-11.718750
9657,-11.718750
9658,-11.718750
9659,-11.718750
9660,-11.718750
9661,-11.718750
9662,-11.718750
9663,-9.765625
9664,-11.718750
9665,-11.718750
9666,-11.718750
9667,-9.765625
9668,-9.765625
9669,-9.765625
9670,-9.765625
9671,-11.718750
9672,-9.765625
9673,-9.765625
9674,-9.765625
9675,-9.765625
9676,-9.765625
9677,-9.765625
9678,-9.765625
9679,-9.765625
9680,-9.765625
9681,-9.765625
9682,-9.765625
9683,-9.765625
9684,-9.765625
9685,-9.765625
9686,-9.765625
9687,-9.765625
9688,-9.765625
9689,-9.765625
9690,-9.765625
9691,-9.765625
9692,-9.765625
9693,-9.765625
9694,-9.765625
9695,-9.765625
9696,-9.765625
9697,-9.765625
9698,-9.765625
9699,-9.765625
9700,-9.765625
9701,-9.765625
9702,-9.765625
9703,-9.765625
9704,-9.765625
9705,-9.765625
9706,-9.765625
9707,-9.765625
9708,-9.765625
9709,-9.765625
9710,-9.765625
9711,-9.765625
9712,-9.765625
9713,-9.765625
9714,-9.765625
9715,-9.765625
9716,-9.765625
9717,-9.765625
9718,-9.765625
9719,-11.718750
9720,-9.765625
9721,-9.765625
9722,-9.765625
9723,-9.765625
9724,-9.765625
9725,-9.765625
9726,-11.718750
9727,-9.765625
9728,-9.765625
9729,-9.765625
9730,-9.765625
9731,-9.765625
9732,-9.765625
9733,-11.718750
9734,-11.718750
9735,-9.765625
9736,-11.718750
9737,-11.718750
9738,-11.718750
9739,-11.718750
9740,-11.718750
9741,-11.718750
9742,-11.718750
9743,-11.718750
9744,-11.718750
9745,-11.718750
9746,-11.718750
9747,-11.718750
9748,-11.718750
9749,-11.718750
9750,-11.718750
9751,-11.718750
9752,-11.718750
9753,-11.718750
9754,-11.718750
9755,-11.718750
9756,-11.718750
9757,-11.718750
9758,-11.718750
9759,-11.718750
9760,-11.718750
9761,-13.671875
9762,-11.718750
9763,-11.718750
9764,-11.718750
9765,-11.718750
9766,-13.671875
9767,-13.671875
9768,-13.671875
9769,-11.718750
9770,-11.718750
9771,-11.718750
9772,-13.671875
9773,-11.718750
9774,-13.671875
9775,-13.671875
9776,-13.671875
9777,-11.718750
9778,-13.671875
9779,-13.671875
9780,-13.671875
9781,-13.671875
9782,-13.671875
9783,-13.671875
9784,-13.671875
9785,-13.671875
9786,-13.671875
9787,-13.671875
9788,-13.671875
9789,-13.671875
9790,-13.671875
9791,-13.671875
9792,-13.671875
9793,-13.671875
9794,-13.671875
9795,-13.671875
9796,-13.671875
9797,-13.671875
9798,-13.671875
9799,-13.671875
9800,-13.671875
9801,-13.671875
9802,-13.671875
9803,-13.671875
9804,-13.671875
9805,-13.671875
9806,-13.671875
9807,-13.671875
9808,-13.671875
9809,-13.671875
9810,-13.671875
9811,-13.671875
9812,-13.671875
9813,-13.671875
9814,-13.671875
9815,-13.671875
9816,-13.671875
9817,-13.671875
9818,-13.671875
9819,-13.671875
9820,-13.671875
9821,-13.671875
9822,-13.671875
9823,-13.671875
9824,-13.671875
9825,-13.671875
9826,-13.671875
9827,-13.671875
9828,-13.671875
9829,-13.671875
9830,-13.671875
9831,-13.671875
9832,-13.671875
9833,-11.718750
9834,-13.671875
9835,-13.671875
9836,-11.718750
9837,-13.671875
9838,-13.671875
9839,-11.718750
9840,-11.718750
9841,-11.718750
9842,-11.718750
9843,-11.718750
9844,-11.718750
9845,-11.718750
9846,-11.718750
9847,-11.718750
9848,-11.718750
9849,-11.718750
9850,-11.718750
9851,-11.718750
9852,-11.718750
9853,-11.718750
9854,-11.718750
9855,-11.718750
9856,-11.718750
9857,-11.718750
9858,-11.718750
9859,-11.718750
9860,-9.765625
9861,-11.718750
9862,-11.718750
9863,-11.718750
9864,-9.765625
9865,-9.765625
9866,-9.765625
9867,-9.765625
9868,-9.765625
9869,-9.765625
9870,-9.765625
9871,-9.765625
9872,-9.765625
9873,-9.765625
9874,-9.765625
9875,-9.765625
9876,-9.765625
9877,-9.765625
9878,-9.765625
9879,-9.765625
9880,-7.812500
9881,-7.812500
9882,-7.812500
9883,-9.765625
9884,-7.812500
9885,-7.812500
9886,-7.812500
9887,-7.812500
9888,-7.812500
9889,-7.812500
9890,-7.812500
9891,-5.859375
9892,-5.859375
9893,-7.812500
9894,-5.859375
9895,-5.859375
9896,-5.859375
9897,-5.859375
9898,-5.859375
9899,-5.859375
9900,-5.859375
9901,-5.859375
9902,-5.859375
9903,-5.859375
9904,-5.859375
9905,-5.859375
9906,-3.906250
9907,-5.859375
9908,-5.859375
9909,-3.906250
9910,-5.859375
9911,-3.906250
9912,-3.906250
9913,-3.906250
9914,-3.906250
9915,-3.906250
9916,-3.906250
9917,-3.906250
9918,-3.906250
9919,-3.906250
9920,-3.906250
9921,-3.906250
9922,-3.906250
9923,-3.906250
9924,-1.953125
9925,-1.953125
9926,-1.953125
9927,-1.953125
9928,-1.953125
9929,-1.953125
9930,-1.953125
9931,-1.953125
9932,-1.953125
9933,-1.953125
9934,-1.953125
9935,-1.953125
9936,-1.953125
9937,-1.953125
9938,0.000000
9939,-1.953125
9940,-1.953125
9941,0.000000
9942,-1.953125
9943,0.000000
9944,0.000000
9945,0.000000
9946,0.000000
9947,0.000000
9948,0.000000
9949,0.000000
9950,0.000000
9951,0.000000
9952,0.000000
9953,0.000000
9954,0.000000
9955,0.000000
9956,0.000000
9957,0.000000
9958,0.000000
9959,0.000000
9960,0.000000
9961,0.000000
9962,0.000000
9963,0.000000
9964,0.000000
9965,0.000000
9966,1.953125
9967,1.953125
9968,0.000000
9969,1.953125
9970,0.000000
9971,0.000000
9972,1.953125
9973,1.953125
9974,1.953125
9975,0.000000
9976,1.953125
9977,1.953125
9978,1.953125
9979,1.953125
9980,0.000000
9981,0.000000
9982,1.953125
9983,1.953125
9984,1.953125
9985,0.000000
9986,1.953125
9987,1.953125
9988,1.953125
9989,0.000000
9990,1.953125
9991,0.000000
9992,0.000000
9993,0.000000
9994,0.000000
9995,0.000000
9996,0.000000
9997,0.000000
9998,0.000000
9999,0.000000
10000,0.000000
