Channel              :,CH1
Frequency            :,858.4Hz
Period               :,1.165ms
PK-PK                :,125.0mV
Probe attenuation    :,1X
Voltage per ADC value:,0.122070mV
Time interval        :,2.00000us

index,CH1_Voltage(mV)
1,31.250000
2,31.250000
3,29.296875
4,29.296875
5,27.343750
6,27.343750
7,27.343750
8,27.343750
9,25.390625
10,27.343750
11,25.390625
12,25.390625
13,25.390625
14,23.437500
15,23.437500
16,23.437500
17,21.484375
18,21.484375
19,21.484375
20,21.484375
21,21.484375
22,19.531250
23,19.531250
24,17.578125
25,17.578125
26,17.578125
27,15.625000
28,15.625000
29,15.625000
30,15.625000
31,13.671875
32,11.718750
33,11.718750
34,11.718750
35,11.718750
36,11.718750
37,9.765625
38,9.765625
39,9.765625
40,9.765625
41,7.812500
42,7.812500
43,5.859375
44,5.859375
45,5.859375
46,3.906250
47,3.906250
48,3.906250
49,1.953125
50,1.953125
51,1.953125
52,1.953125
53,0.000000
54,-1.953125
55,0.000000
56,-1.953125
57,-1.953125
58,-3.906250
59,-3.906250
60,-3.906250
61,-3.906250
62,-5.859375
63,-5.859375
64,-7.812500
65,-7.812500
66,-7.812500
67,-9.765625
68,-9.765625
69,-9.765625
70,-9.765625
71,-11.718750
72,-11.718750
73,-13.671875
74,-13.671875
75,-13.671875
76,-15.625000
77,-15.625000
78,-15.625000
79,-17.578125
80,-17.578125
81,-17.578125
82,-19.531250
83,-19.531250
84,-21.484375
85,-21.484375
86,-21.484375
87,-21.484375
88,-23.437500
89,-23.437500
90,-23.437500
91,-25.390625
92,-25.390625
93,-27.343750
94,-27.343750
95,-27.343750
96,-27.343750
97,-29.296875
98,-29.296875
99,-31.250000
100,-31.250000
101,-31.250000
102,-31.250000
103,-33.203125
104,-33.203125
105,-33.203125
106,-35.156250
107,-35.156250
108,-35.156250
109,-37.109375
110,-37.109375
111,-37.109375
112,-39.062500
113,-39.062500
114,-39.062500
115,-41.015625
116,-41.015625
117,-41.015625
118,-41.015625
119,-42.968750
120,-42.968750
121,-42.968750
122,-42.968750
123,-42.968750
124,-44.921875
125,-44.921875
126,-46.875000
127,-46.875000
128,-46.875000
129,-46.875000
130,-46.875000
131,-48.828125
132,-48.828125
133,-48.828125
134,-50.781250
135,-50.781250
136,-50.781250
137,-50.781250
138,-50.781250
139,-52.734375
140,-52.734375
141,-52.734375
142,-52.734375
143,-54.687500
144,-54.687500
145,-54.687500
146,-54.687500
147,-54.687500
148,-56.640625
149,-56.640625
150,-56.640625
151,-56.640625
152,-56.640625
153,-58.593750
154,-58.593750
155,-60.546875
156,-60.546875
157,-58.593750
158,-60.546875
159,-60.546875
160,-60.546875
161,-60.546875
162,-62.500000
163,-62.500000
164,-62.500000
165,-62.500000
166,-62.500000
167,-62.500000
168,-64.453125
169,-64.453125
170,-64.453125
171,-64.453125
172,-66.406250
173,-66.406250
174,-66.406250
175,-66.406250
176,-66.406250
177,-66.406250
178,-68.359375
179,-68.359375
180,-66.406250
181,-66.406250
182,-68.359375
183,-68.359375
184,-68.359375
185,-68.359375
186,-68.359375
187,-68.359375
188,-70.312500
189,-70.312500
190,-68.359375
191,-68.359375
192,-70.312500
193,-70.312500
194,-70.312500
195,-70.312500
196,-70.312500
197,-70.312500
198,-70.312500
199,-70.312500
200,-70.312500
201,-70.312500
202,-70.312500
203,-70.312500
204,-70.312500
205,-70.312500
206,-70.312500
207,-70.312500
208,-70.312500
209,-72.265625
210,-70.312500
211,-70.312500
212,-70.312500
213,-72.265625
214,-70.312500
215,-70.312500
216,-70.312500
217,-72.265625
218,-72.265625
219,-70.312500
220,-70.312500
221,-72.265625
222,-70.312500
223,-70.312500
224,-70.312500
225,-70.312500
226,-70.312500
227,-70.312500
228,-70.312500
229,-70.312500
230,-70.312500
231,-70.312500
232,-70.312500
233,-70.312500
234,-70.312500
235,-70.312500
236,-68.359375
237,-68.359375
238,-68.359375
239,-68.359375
240,-68.359375
241,-68.359375
242,-66.406250
243,-66.406250
244,-68.359375
245,-66.406250
246,-66.406250
247,-66.406250
248,-66.406250
249,-66.406250
250,-66.406250
251,-64.453125
252,-64.453125
253,-64.453125
254,-64.453125
255,-64.453125
256,-62.500000
257,-62.500000
258,-62.500000
259,-60.546875
260,-60.546875
261,-60.546875
262,-60.546875
263,-60.546875
264,-58.593750
265,-58.593750
266,-58.593750
267,-58.593750
268,-58.593750
269,-58.593750
270,-56.640625
271,-56.640625
272,-56.640625
273,-56.640625
274,-54.687500
275,-54.687500
276,-54.687500
277,-54.687500
278,-52.734375
279,-52.734375
280,-52.734375
281,-52.734375
282,-50.781250
283,-50.781250
284,-50.781250
285,-50.781250
286,-48.828125
287,-48.828125
288,-48.828125
289,-48.828125
290,-46.875000
291,-46.875000
292,-46.875000
293,-46.875000
294,-44.921875
295,-42.968750
296,-44.921875
297,-42.968750
298,-42.968750
299,-42.968750
300,-41.015625
301,-41.015625
302,-41.015625
303,-41.015625
304,-39.062500
305,-39.062500
306,-37.109375
307,-37.109375
308,-37.109375
309,-35.156250
310,-37.109375
311,-35.156250
312,-33.203125
313,-33.203125
314,-33.203125
315,-33.203125
316,-31.250000
317,-31.250000
318,-31.250000
319,-29.296875
320,-29.296875
321,-29.296875
322,-27.343750
323,-27.343750
324,-25.390625
325,-25.390625
326,-25.390625
327,-25.390625
328,-23.437500
329,-23.437500
330,-21.484375
331,-21.484375
332,-21.484375
333,-21.484375
334,-19.531250
335,-19.531250
336,-19.531250
337,-17.578125
338,-17.578125
339,-15.625000
340,-15.625000
341,-15.625000
342,-13.671875
343,-13.671875
344,-13.671875
345,-13.671875
346,-11.718750
347,-11.718750
348,-11.718750
349,-9.765625
350,-9.765625
351,-9.765625
352,-7.812500
353,-5.859375
354,-7.812500
355,-7.812500
356,-5.859375
357,-5.859375
358,-3.906250
359,-3.906250
360,-1.953125
361,-1.953125
362,-1.953125
363,-1.953125
364,-1.953125
365,0.000000
366,0.000000
367,0.000000
368,1.953125
369,1.953125
370,1.953125
371,3.906250
372,3.906250
373,3.906250
374,5.859375
375,5.859375
376,5.859375
377,7.812500
378,9.765625
379,7.812500
380,9.765625
381,9.765625
382,9.765625
383,9.765625
384,11.718750
385,11.718750
386,11.718750
387,13.671875
388,13.671875
389,13.671875
390,15.625000
391,15.625000
392,15.625000
393,15.625000
394,17.578125
395,17.578125
396,17.578125
397,17.578125
398,19.531250
399,19.531250
400,19.531250
401,21.484375
402,21.484375
403,21.484375
404,21.484375
405,21.484375
406,23.437500
407,23.437500
408,23.437500
409,25.390625
410,25.390625
411,25.390625
412,27.343750
413,25.390625
414,27.343750
415,27.343750
416,27.343750
417,27.343750
418,29.296875
419,29.296875
420,29.296875
421,29.296875
422,29.296875
423,31.250000
424,31.250000
425,31.250000
426,31.250000
427,33.203125
428,33.203125
429,33.203125
430,33.203125
431,33.203125
432,35.156250
433,35.156250
434,35.156250
435,35.156250
436,35.156250
437,37.109375
438,37.109375
439,37.109375
440,37.109375
441,39.062500
442,39.062500
443,39.062500
444,39.062500
445,39.062500
446,39.062500
447,41.015625
448,41.015625
449,41.015625
450,41.015625
451,41.015625
452,41.015625
453,41.015625
454,41.015625
455,42.968750
456,42.968750
457,42.968750
458,44.921875
459,42.968750
460,44.921875
461,44.921875
462,44.921875
463,44.921875
464,44.921875
465,44.921875
466,46.875000
467,46.875000
468,46.875000
469,46.875000
470,46.875000
471,46.875000
472,46.875000
473,46.875000
474,46.875000
475,48.828125
476,46.875000
477,46.875000
478,46.875000
479,46.875000
480,48.828125
481,48.828125
482,48.828125
483,48.828125
484,48.828125
485,48.828125
486,48.828125
487,48.828125
488,48.828125
489,48.828125
490,48.828125
491,48.828125
492,48.828125
493,48.828125
494,48.828125
495,48.828125
496,48.828125
497,48.828125
498,48.828125
499,50.781250
500,48.828125
501,50.781250
502,50.781250
503,48.828125
504,50.781250
505,50.781250
506,50.781250
507,50.781250
508,48.828125
509,50.781250
510,48.828125
511,50.781250
512,50.781250
513,50.781250
514,50.781250
515,50.781250
516,48.828125
517,50.781250
518,50.781250
519,50.781250
520,50.781250
521,50.781250
522,48.828125
523,48.828125
524,48.828125
525,48.828125
526,48.828125
527,48.828125
528,48.828125
529,48.828125
530,48.828125
531,46.875000
532,48.828125
533,46.875000
534,48.828125
535,46.875000
536,46.875000
537,46.875000
538,46.875000
539,44.921875
540,46.875000
541,46.875000
542,46.875000
543,44.921875
544,44.921875
545,44.921875
546,44.921875
547,44.921875
548,44.921875
549,44.921875
550,42.968750
551,42.968750
552,42.968750
553,42.968750
554,42.968750
555,42.968750
556,41.015625
557,41.015625
558,41.015625
559,41.015625
560,41.015625
561,39.062500
562,39.062500
563,39.062500
564,39.062500
565,39.062500
566,39.062500
567,39.062500
568,37.109375
569,37.109375
570,37.109375
571,37.109375
572,35.156250
573,35.156250
574,35.156250
575,35.156250
576,35.156250
577,35.156250
578,33.203125
579,33.203125
580,33.203125
581,33.203125
582,33.203125
583,31.250000
584,31.250000
585,31.250000
586,29.296875
587,29.296875
588,29.296875
589,29.296875
590,27.343750
591,27.343750
592,27.343750
593,27.343750
594,25.390625
595,25.390625
596,25.390625
597,25.390625
598,23.437500
599,23.437500
600,23.437500
601,21.484375
602,21.484375
603,21.484375
604,19.531250
605,19.531250
606,19.531250
607,19.531250
608,17.578125
609,17.578125
610,17.578125
611,17.578125
612,15.625000
613,15.625000
614,13.671875
615,13.671875
616,13.671875
617,13.671875
618,11.718750
619,11.718750
620,9.765625
621,9.765625
622,9.765625
623,7.812500
624,7.812500
625,7.812500
626,5.859375
627,5.859375
628,5.859375
629,3.906250
630,3.906250
631,3.906250
632,1.953125
633,1.953125
634,1.953125
635,1.953125
636,0.000000
637,0.000000
638,-1.953125
639,-1.953125
640,-1.953125
641,-1.953125
642,-3.906250
643,-3.906250
644,-3.906250
645,-5.859375
646,-5.859375
647,-7.812500
648,-7.812500
649,-7.812500
650,-7.812500
651,-9.765625
652,-9.765625
653,-11.718750
654,-11.718750
655,-11.718750
656,-13.671875
657,-13.671875
658,-13.671875
659,-15.625000
660,-15.625000
661,-15.625000
662,-17.578125
663,-17.578125
664,-17.578125
665,-19.531250
666,-19.531250
667,-19.531250
668,-21.484375
669,-21.484375
670,-23.437500
671,-23.437500
672,-23.437500
673,-25.390625
674,-25.390625
675,-25.390625
676,-25.390625
677,-27.343750
678,-29.296875
679,-29.296875
680,-29.296875
681,-31.250000
682,-31.250000
683,-31.250000
684,-31.250000
685,-33.203125
686,-33.203125
687,-33.203125
688,-33.203125
689,-35.156250
690,-35.156250
691,-35.156250
692,-37.109375
693,-37.109375
694,-39.062500
695,-39.062500
696,-39.062500
697,-39.062500
698,-39.062500
699,-41.015625
700,-41.015625
701,-42.968750
702,-42.968750
703,-42.968750
704,-44.921875
705,-44.921875
706,-44.921875
707,-44.921875
708,-44.921875
709,-44.921875
710,-46.875000
711,-46.875000
712,-46.875000
713,-48.828125
714,-48.828125
715,-48.828125
716,-48.828125
717,-50.781250
718,-50.781250
719,-50.781250
720,-50.781250
721,-50.781250
722,-52.734375
723,-52.734375
724,-52.734375
725,-52.734375
726,-54.687500
727,-56.640625
728,-54.687500
729,-54.687500
730,-56.640625
731,-56.640625
732,-56.640625
733,-58.593750
734,-58.593750
735,-58.593750
736,-58.593750
737,-58.593750
738,-60.546875
739,-60.546875
740,-60.546875
741,-60.546875
742,-60.546875
743,-62.500000
744,-62.500000
745,-62.500000
746,-62.500000
747,-62.500000
748,-64.453125
749,-64.453125
750,-64.453125
751,-64.453125
752,-64.453125
753,-66.406250
754,-64.453125
755,-64.453125
756,-66.406250
757,-66.406250
758,-66.406250
759,-68.359375
760,-66.406250
761,-66.406250
762,-66.406250
763,-68.359375
764,-68.359375
765,-68.359375
766,-68.359375
767,-68.359375
768,-70.312500
769,-68.359375
770,-68.359375
771,-70.312500
772,-70.312500
773,-70.312500
774,-70.312500
775,-70.312500
776,-70.312500
777,-70.312500
778,-70.312500
779,-70.312500
780,-70.312500
781,-72.265625
782,-70.312500
783,-70.312500
784,-72.265625
785,-72.265625
786,-72.265625
787,-70.312500
788,-72.265625
789,-72.265625
790,-72.265625
791,-72.265625
792,-72.265625
793,-72.265625
794,-72.265625
795,-72.265625
796,-72.265625
797,-72.265625
798,-72.265625
799,-72.265625
800,-72.265625
801,-72.265625
802,-72.265625
803,-70.312500
804,-72.265625
805,-70.312500
806,-70.312500
807,-72.265625
808,-70.312500
809,-70.312500
810,-70.312500
811,-70.312500
812,-70.312500
813,-70.312500
814,-70.312500
815,-70.312500
816,-70.312500
817,-70.312500
818,-68.359375
819,-70.312500
820,-68.359375
821,-68.359375
822,-68.359375
823,-68.359375
824,-68.359375
825,-68.359375
826,-68.359375
827,-68.359375
828,-66.406250
829,-66.406250
830,-66.406250
831,-66.406250
832,-64.453125
833,-64.453125
834,-64.453125
835,-64.453125
836,-64.453125
837,-64.453125
838,-62.500000
839,-62.500000
840,-62.500000
841,-62.500000
842,-62.500000
843,-60.546875
844,-60.546875
845,-60.546875
846,-60.546875
847,-58.593750
848,-60.546875
849,-58.593750
850,-58.593750
851,-58.593750
852,-58.593750
853,-58.593750
854,-56.640625
855,-54.687500
856,-56.640625
857,-54.687500
858,-56.640625
859,-54.687500
860,-52.734375
861,-52.734375
862,-52.734375
863,-52.734375
864,-52.734375
865,-50.781250
866,-50.781250
867,-50.781250
868,-48.828125
869,-48.828125
870,-48.828125
871,-48.828125
872,-46.875000
873,-46.875000
874,-46.875000
875,-46.875000
876,-44.921875
877,-44.921875
878,-44.921875
879,-42.968750
880,-42.968750
881,-42.968750
882,-42.968750
883,-41.015625
884,-41.015625
885,-41.015625
886,-41.015625
887,-39.062500
888,-37.109375
889,-37.109375
890,-37.109375
891,-37.109375
892,-35.156250
893,-35.156250
894,-35.156250
895,-33.203125
896,-33.203125
897,-33.203125
898,-31.250000
899,-31.250000
900,-31.250000
901,-29.296875
902,-29.296875
903,-27.343750
904,-27.343750
905,-27.343750
906,-27.343750
907,-25.390625
908,-25.390625
909,-23.437500
910,-23.437500
911,-23.437500
912,-21.484375
913,-21.484375
914,-21.484375
915,-19.531250
916,-21.484375
917,-19.531250
918,-17.578125
919,-17.578125
920,-17.578125
921,-17.578125
922,-15.625000
923,-13.671875
924,-15.625000
925,-13.671875
926,-13.671875
927,-13.671875
928,-11.718750
929,-11.718750
930,-11.718750
931,-9.765625
932,-9.765625
933,-9.765625
934,-9.765625
935,-7.812500
936,-7.812500
937,-5.859375
938,-5.859375
939,-5.859375
940,-3.906250
941,-3.906250
942,-3.906250
943,-3.906250
944,-1.953125
945,0.000000
946,0.000000
947,0.000000
948,0.000000
949,0.000000
950,1.953125
951,1.953125
952,1.953125
953,3.906250
954,3.906250
955,3.906250
956,5.859375
957,5.859375
958,5.859375
959,7.812500
960,7.812500
961,7.812500
962,9.765625
963,9.765625
964,9.765625
965,9.765625
966,11.718750
967,11.718750
968,11.718750
969,13.671875
970,13.671875
971,15.625000
972,15.625000
973,15.625000
974,15.625000
975,15.625000
976,17.578125
977,17.578125
978,17.578125
979,17.578125
980,19.531250
981,19.531250
982,19.531250
983,19.531250
984,21.484375
985,23.437500
986,21.484375
987,23.437500
988,23.437500
989,23.437500
990,23.437500
991,25.390625
992,25.390625
993,25.390625
994,25.390625
995,27.343750
996,27.343750
997,27.343750
998,29.296875
999,29.296875
1000,29.296875
1001,29.296875
1002,29.296875
1003,29.296875
1004,31.250000
1005,31.250000
1006,31.250000
1007,31.250000
1008,33.203125
1009,33.203125
1010,33.203125
1011,33.203125
1012,33.203125
1013,35.156250
1014,35.156250
1015,35.156250
1016,35.156250
1017,35.156250
1018,37.109375
1019,37.109375
1020,37.109375
1021,37.109375
1022,37.109375
1023,39.062500
1024,39.062500
1025,39.062500
1026,39.062500
1027,39.062500
1028,39.062500
1029,41.015625
1030,41.015625
1031,41.015625
1032,41.015625
1033,41.015625
1034,41.015625
1035,42.968750
1036,42.968750
1037,42.968750
1038,42.968750
1039,42.968750
1040,42.968750
1041,44.921875
1042,44.921875
1043,44.921875
1044,44.921875
1045,44.921875
1046,44.921875
1047,44.921875
1048,46.875000
1049,46.875000
1050,46.875000
1051,44.921875
1052,46.875000
1053,46.875000
1054,46.875000
1055,46.875000
1056,46.875000
1057,46.875000
1058,46.875000
1059,46.875000
1060,48.828125
1061,48.828125
1062,46.875000
1063,48.828125
1064,48.828125
1065,48.828125
1066,48.828125
1067,48.828125
1068,48.828125
1069,48.828125
1070,48.828125
1071,48.828125
1072,48.828125
1073,48.828125
1074,48.828125
1075,48.828125
1076,48.828125
1077,50.781250
1078,48.828125
1079,50.781250
1080,48.828125
1081,48.828125
1082,50.781250
1083,50.781250
1084,50.781250
1085,48.828125
1086,50.781250
1087,50.781250
1088,50.781250
1089,50.781250
1090,48.828125
1091,50.781250
1092,50.781250
1093,50.781250
1094,50.781250
1095,50.781250
1096,50.781250
1097,50.781250
1098,50.781250
1099,50.781250
1100,50.781250
1101,48.828125
1102,48.828125
1103,48.828125
1104,50.781250
1105,48.828125
1106,48.828125
1107,48.828125
1108,48.828125
1109,48.828125
1110,48.828125
1111,48.828125
1112,48.828125
1113,48.828125
1114,48.828125
1115,46.875000
1116,46.875000
1117,46.875000
1118,46.875000
1119,46.875000
1120,46.875000
1121,46.875000
1122,46.875000
1123,46.875000
1124,46.875000
1125,46.875000
1126,46.875000
1127,44.921875
1128,44.921875
1129,44.921875
1130,44.921875
1131,42.968750
1132,44.921875
1133,42.968750
1134,42.968750
1135,42.968750
1136,42.968750
1137,42.968750
1138,41.015625
1139,41.015625
1140,41.015625
1141,41.015625
1142,41.015625
1143,41.015625
1144,39.062500
1145,39.062500
1146,39.062500
1147,39.062500
1148,39.062500
1149,37.109375
1150,37.109375
1151,37.109375
1152,37.109375
1153,37.109375
1154,37.109375
1155,35.156250
1156,35.156250
1157,35.156250
1158,35.156250
1159,35.156250
1160,33.203125
1161,33.203125
1162,33.203125
1163,33.203125
1164,31.250000
1165,31.250000
1166,31.250000
1167,31.250000
1168,31.250000
1169,31.250000
1170,29.296875
1171,29.296875
1172,29.296875
1173,27.343750
1174,27.343750
1175,27.343750
1176,25.390625
1177,27.343750
1178,25.390625
1179,25.390625
1180,23.437500
1181,23.437500
1182,23.437500
1183,21.484375
1184,21.484375
1185,21.484375
1186,21.484375
1187,19.531250
1188,19.531250
1189,19.531250
1190,19.531250
1191,17.578125
1192,15.625000
1193,15.625000
1194,15.625000
1195,15.625000
1196,13.671875
1197,13.671875
1198,13.671875
1199,11.718750
1200,11.718750
1201,11.718750
1202,9.765625
1203,9.765625
1204,9.765625
1205,9.765625
1206,7.812500
1207,7.812500
1208,7.812500
1209,7.812500
1210,5.859375
1211,5.859375
1212,3.906250
1213,3.906250
1214,1.953125
1215,1.953125
1216,1.953125
1217,1.953125
1218,0.000000
1219,0.000000
1220,0.000000
1221,-1.953125
1222,-1.953125
1223,-1.953125
1224,-3.906250
1225,-3.906250
1226,-3.906250
1227,-5.859375
1228,-5.859375
1229,-5.859375
1230,-7.812500
1231,-7.812500
1232,-7.812500
1233,-9.765625
1234,-9.765625
1235,-11.718750
1236,-11.718750
1237,-11.718750
1238,-11.718750
1239,-13.671875
1240,-13.671875
1241,-13.671875
1242,-15.625000
1243,-15.625000
1244,-17.578125
1245,-17.578125
1246,-19.531250
1247,-17.578125
1248,-19.531250
1249,-19.531250
1250,-21.484375
1251,-21.484375
1252,-21.484375
1253,-23.437500
1254,-23.437500
1255,-23.437500
1256,-25.390625
1257,-25.390625
1258,-25.390625
1259,-27.343750
1260,-27.343750
1261,-29.296875
1262,-29.296875
1263,-29.296875
1264,-31.250000
1265,-31.250000
1266,-31.250000
1267,-33.203125
1268,-33.203125
1269,-33.203125
1270,-33.203125
1271,-35.156250
1272,-35.156250
1273,-37.109375
1274,-37.109375
1275,-37.109375
1276,-37.109375
1277,-39.062500
1278,-39.062500
1279,-39.062500
1280,-39.062500
1281,-41.015625
1282,-41.015625
1283,-42.968750
1284,-42.968750
1285,-42.968750
1286,-42.968750
1287,-44.921875
1288,-44.921875
1289,-44.921875
1290,-44.921875
1291,-44.921875
1292,-46.875000
1293,-46.875000
1294,-46.875000
1295,-46.875000
1296,-48.828125
1297,-48.828125
1298,-48.828125
1299,-48.828125
1300,-50.781250
1301,-50.781250
1302,-50.781250
1303,-52.734375
1304,-52.734375
1305,-52.734375
1306,-54.687500
1307,-54.687500
1308,-54.687500
1309,-54.687500
1310,-54.687500
1311,-56.640625
1312,-56.640625
1313,-56.640625
1314,-56.640625
1315,-56.640625
1316,-58.593750
1317,-58.593750
1318,-58.593750
1319,-58.593750
1320,-60.546875
1321,-60.546875
1322,-60.546875
1323,-60.546875
1324,-60.546875
1325,-62.500000
1326,-62.500000
1327,-62.500000
1328,-62.500000
1329,-62.500000
1330,-62.500000
1331,-64.453125
1332,-64.453125
1333,-64.453125
1334,-64.453125
1335,-66.406250
1336,-66.406250
1337,-66.406250
1338,-66.406250
1339,-66.406250
1340,-66.406250
1341,-66.406250
1342,-68.359375
1343,-68.359375
1344,-68.359375
1345,-68.359375
1346,-68.359375
1347,-68.359375
1348,-68.359375
1349,-68.359375
1350,-68.359375
1351,-70.312500
1352,-70.312500
1353,-68.359375
1354,-70.312500
1355,-70.312500
1356,-70.312500
1357,-70.312500
1358,-70.312500
1359,-70.312500
1360,-70.312500
1361,-70.312500
1362,-72.265625
1363,-70.312500
1364,-70.312500
1365,-70.312500
1366,-72.265625
1367,-70.312500
1368,-70.312500
1369,-70.312500
1370,-72.265625
1371,-72.265625
1372,-72.265625
1373,-72.265625
1374,-72.265625
1375,-72.265625
1376,-72.265625
1377,-72.265625
1378,-72.265625
1379,-72.265625
1380,-72.265625
1381,-72.265625
1382,-70.312500
1383,-72.265625
1384,-72.265625
1385,-72.265625
1386,-70.312500
1387,-70.312500
1388,-72.265625
1389,-70.312500
1390,-72.265625
1391,-70.312500
1392,-70.312500
1393,-70.312500
1394,-70.312500
1395,-70.312500
1396,-70.312500
1397,-70.312500
1398,-70.312500
1399,-70.312500
1400,-70.312500
1401,-68.359375
1402,-68.359375
1403,-68.359375
1404,-68.359375
1405,-68.359375
1406,-68.359375
1407,-68.359375
1408,-66.406250
1409,-68.359375
1410,-66.406250
1411,-66.406250
1412,-66.406250
1413,-66.406250
1414,-66.406250
1415,-64.453125
1416,-64.453125
1417,-64.453125
1418,-64.453125
1419,-64.453125
1420,-64.453125
1421,-62.500000
1422,-62.500000
1423,-62.500000
1424,-62.500000
1425,-62.500000
1426,-60.546875
1427,-60.546875
1428,-60.546875
1429,-60.546875
1430,-60.546875
1431,-58.593750
1432,-58.593750
1433,-58.593750
1434,-58.593750
1435,-56.640625
1436,-56.640625
1437,-56.640625
1438,-56.640625
1439,-54.687500
1440,-54.687500
1441,-54.687500
1442,-54.687500
1443,-54.687500
1444,-52.734375
1445,-52.734375
1446,-52.734375
1447,-50.781250
1448,-50.781250
1449,-50.781250
1450,-50.781250
1451,-48.828125
1452,-48.828125
1453,-48.828125
1454,-46.875000
1455,-46.875000
1456,-46.875000
1457,-46.875000
1458,-44.921875
1459,-44.921875
1460,-44.921875
1461,-42.968750
1462,-42.968750
1463,-42.968750
1464,-42.968750
1465,-41.015625
1466,-41.015625
1467,-39.062500
1468,-39.062500
1469,-39.062500
1470,-39.062500
1471,-37.109375
1472,-37.109375
1473,-35.156250
1474,-35.156250
1475,-35.156250
1476,-35.156250
1477,-33.203125
1478,-33.203125
1479,-33.203125
1480,-33.203125
1481,-31.250000
1482,-31.250000
1483,-29.296875
1484,-29.296875
1485,-29.296875
1486,-27.343750
1487,-27.343750
1488,-27.343750
1489,-25.390625
1490,-25.390625
1491,-25.390625
1492,-23.437500
1493,-23.437500
1494,-23.437500
1495,-23.437500
1496,-21.484375
1497,-21.484375
1498,-19.531250
1499,-19.531250
1500,-19.531250
1501,-17.578125
1502,-17.578125
1503,-17.578125
1504,-17.578125
1505,-17.578125
1506,-15.625000
1507,-13.671875
1508,-13.671875
1509,-13.671875
1510,-11.718750
1511,-11.718750
1512,-11.718750
1513,-9.765625
1514,-9.765625
1515,-9.765625
1516,-9.765625
1517,-7.812500
1518,-7.812500
1519,-5.859375
1520,-5.859375
1521,-5.859375
1522,-5.859375
1523,-3.906250
1524,-3.906250
1525,-3.906250
1526,-1.953125
1527,-1.953125
1528,-1.953125
1529,0.000000
1530,0.000000
1531,0.000000
1532,1.953125
1533,1.953125
1534,3.906250
1535,3.906250
1536,3.906250
1537,3.906250
1538,5.859375
1539,7.812500
1540,9.765625
1541,7.812500
1542,7.812500
1543,7.812500
1544,9.765625
1545,9.765625
1546,9.765625
1547,11.718750
1548,11.718750
1549,11.718750
1550,11.718750
1551,13.671875
1552,13.671875
1553,13.671875
1554,15.625000
1555,15.625000
1556,13.671875
1557,19.531250
1558,17.578125
1559,17.578125
1560,17.578125
1561,19.531250
1562,19.531250
1563,19.531250
1564,21.484375
1565,19.531250
1566,21.484375
1567,21.484375
1568,23.437500
1569,23.437500
1570,23.437500
1571,23.437500
1572,23.437500
1573,25.390625
1574,23.437500
1575,25.390625
1576,25.390625
1577,27.343750
1578,27.343750
1579,27.343750
1580,27.343750
1581,27.343750
1582,29.296875
1583,27.343750
1584,29.296875
1585,29.296875
1586,31.250000
1587,31.250000
1588,31.250000
1589,35.156250
1590,33.203125
1591,33.203125
1592,33.203125
1593,33.203125
1594,33.203125
1595,35.156250
1596,35.156250
1597,35.156250
1598,35.156250
1599,37.109375
1600,35.156250
1601,37.109375
1602,37.109375
1603,37.109375
1604,37.109375
1605,39.062500
1606,39.062500
1607,39.062500
1608,39.062500
1609,39.062500
1610,39.062500
1611,39.062500
1612,41.015625
1613,41.015625
1614,41.015625
1615,41.015625
1616,42.968750
1617,42.968750
1618,42.968750
1619,42.968750
1620,42.968750
1621,42.968750
1622,44.921875
1623,42.968750
1624,44.921875
1625,44.921875
1626,44.921875
1627,44.921875
1628,44.921875
1629,44.921875
1630,44.921875
1631,46.875000
1632,46.875000
1633,46.875000
1634,46.875000
1635,46.875000
1636,46.875000
1637,46.875000
1638,46.875000
1639,48.828125
1640,46.875000
1641,46.875000
1642,48.828125
1643,48.828125
1644,46.875000
1645,48.828125
1646,48.828125
1647,48.828125
1648,48.828125
1649,48.828125
1650,48.828125
1651,50.781250
1652,48.828125
1653,48.828125
1654,50.781250
1655,48.828125
1656,50.781250
1657,48.828125
1658,48.828125
1659,50.781250
1660,50.781250
1661,48.828125
1662,50.781250
1663,50.781250
1664,50.781250
1665,50.781250
1666,50.781250
1667,50.781250
1668,50.781250
1669,50.781250
1670,50.781250
1671,50.781250
1672,50.781250
1673,50.781250
1674,50.781250
1675,50.781250
1676,50.781250
1677,50.781250
1678,50.781250
1679,50.781250
1680,50.781250
1681,50.781250
1682,48.828125
1683,50.781250
1684,50.781250
1685,48.828125
1686,48.828125
1687,48.828125
1688,48.828125
1689,48.828125
1690,48.828125
1691,48.828125
1692,48.828125
1693,48.828125
1694,48.828125
1695,48.828125
1696,48.828125
1697,46.875000
1698,46.875000
1699,48.828125
1700,46.875000
1701,46.875000
1702,46.875000
1703,46.875000
1704,46.875000
1705,46.875000
1706,46.875000
1707,44.921875
1708,44.921875
1709,44.921875
1710,46.875000
1711,44.921875
1712,44.921875
1713,44.921875
1714,44.921875
1715,42.968750
1716,42.968750
1717,42.968750
1718,42.968750
1719,42.968750
1720,42.968750
1721,42.968750
1722,41.015625
1723,41.015625
1724,41.015625
1725,41.015625
1726,39.062500
1727,39.062500
1728,39.062500
1729,39.062500
1730,39.062500
1731,39.062500
1732,39.062500
1733,37.109375
1734,41.015625
1735,37.109375
1736,35.156250
1737,35.156250
1738,35.156250
1739,35.156250
1740,35.156250
1741,35.156250
1742,33.203125
1743,33.203125
1744,33.203125
1745,33.203125
1746,33.203125
1747,31.250000
1748,31.250000
1749,31.250000
1750,31.250000
1751,31.250000
1752,29.296875
1753,29.296875
1754,27.343750
1755,27.343750
1756,27.343750
1757,27.343750
1758,27.343750
1759,25.390625
1760,25.390625
1761,25.390625
1762,23.437500
1763,23.437500
1764,23.437500
1765,23.437500
1766,21.484375
1767,21.484375
1768,21.484375
1769,19.531250
1770,19.531250
1771,19.531250
1772,19.531250
1773,17.578125
1774,17.578125
1775,15.625000
1776,15.625000
1777,15.625000
1778,15.625000
1779,13.671875
1780,13.671875
1781,11.718750
1782,11.718750
1783,11.718750
1784,11.718750
1785,9.765625
1786,9.765625
1787,7.812500
1788,7.812500
1789,7.812500
1790,7.812500
1791,5.859375
1792,5.859375
1793,5.859375
1794,3.906250
1795,3.906250
1796,3.906250
1797,1.953125
1798,1.953125
1799,1.953125
1800,0.000000
1801,0.000000
1802,0.000000
1803,0.000000
1804,-1.953125
1805,-1.953125
1806,-3.906250
1807,-3.906250
1808,-5.859375
1809,-5.859375
1810,-5.859375
1811,-5.859375
1812,-5.859375
1813,-7.812500
1814,-7.812500
1815,-9.765625
1816,-9.765625
1817,-9.765625
1818,-11.718750
1819,-11.718750
1820,-11.718750
1821,-13.671875
1822,-13.671875
1823,-13.671875
1824,-15.625000
1825,-15.625000
1826,-17.578125
1827,-17.578125
1828,-17.578125
1829,-19.531250
1830,-19.531250
1831,-19.531250
1832,-19.531250
1833,-21.484375
1834,-23.437500
1835,-23.437500
1836,-23.437500
1837,-25.390625
1838,-25.390625
1839,-25.390625
1840,-25.390625
1841,-27.343750
1842,-27.343750
1843,-27.343750
1844,-29.296875
1845,-29.296875
1846,-29.296875
1847,-31.250000
1848,-31.250000
1849,-31.250000
1850,-31.250000
1851,-33.203125
1852,-35.156250
1853,-33.203125
1854,-35.156250
1855,-35.156250
1856,-37.109375
1857,-37.109375
1858,-37.109375
1859,-37.109375
1860,-39.062500
1861,-39.062500
1862,-39.062500
1863,-41.015625
1864,-41.015625
1865,-41.015625
1866,-42.968750
1867,-41.015625
1868,-42.968750
1869,-42.968750
1870,-42.968750
1871,-44.921875
1872,-44.921875
1873,-46.875000
1874,-46.875000
1875,-46.875000
1876,-46.875000
1877,-46.875000
1878,-48.828125
1879,-48.828125
1880,-48.828125
1881,-50.781250
1882,-50.781250
1883,-50.781250
1884,-50.781250
1885,-50.781250
1886,-50.781250
1887,-52.734375
1888,-52.734375
1889,-52.734375
1890,-54.687500
1891,-54.687500
1892,-54.687500
1893,-54.687500
1894,-54.687500
1895,-56.640625
1896,-56.640625
1897,-56.640625
1898,-58.593750
1899,-58.593750
1900,-58.593750
1901,-58.593750
1902,-58.593750
1903,-60.546875
1904,-60.546875
1905,-60.546875
1906,-60.546875
1907,-60.546875
1908,-60.546875
1909,-62.500000
1910,-62.500000
1911,-62.500000
1912,-62.500000
1913,-64.453125
1914,-64.453125
1915,-64.453125
1916,-64.453125
1917,-64.453125
1918,-66.406250
1919,-64.453125
1920,-66.406250
1921,-66.406250
1922,-66.406250
1923,-66.406250
1924,-66.406250
1925,-66.406250
1926,-66.406250
1927,-68.359375
1928,-68.359375
1929,-68.359375
1930,-68.359375
1931,-68.359375
1932,-68.359375
1933,-68.359375
1934,-68.359375
1935,-66.406250
1936,-68.359375
1937,-68.359375
1938,-68.359375
1939,-70.312500
1940,-70.312500
1941,-70.312500
1942,-70.312500
1943,-70.312500
1944,-70.312500
1945,-70.312500
1946,-70.312500
1947,-70.312500
1948,-70.312500
1949,-70.312500
1950,-70.312500
1951,-70.312500
1952,-70.312500
1953,-70.312500
1954,-70.312500
1955,-72.265625
1956,-72.265625
1957,-70.312500
1958,-70.312500
1959,-70.312500
1960,-72.265625
1961,-72.265625
1962,-70.312500
1963,-70.312500
1964,-70.312500
1965,-70.312500
1966,-70.312500
1967,-70.312500
1968,-70.312500
1969,-70.312500
1970,-70.312500
1971,-70.312500
1972,-70.312500
1973,-70.312500
1974,-70.312500
1975,-70.312500
1976,-70.312500
1977,-70.312500
1978,-70.312500
1979,-70.312500
1980,-70.312500
1981,-70.312500
1982,-68.359375
1983,-68.359375
1984,-68.359375
1985,-68.359375
1986,-68.359375
1987,-68.359375
1988,-68.359375
1989,-66.406250
1990,-66.406250
1991,-66.406250
1992,-66.406250
1993,-66.406250
1994,-66.406250
1995,-64.453125
1996,-64.453125
1997,-64.453125
1998,-66.406250
1999,-64.453125
2000,-64.453125
2001,-62.500000
2002,-62.500000
2003,-62.500000
2004,-62.500000
2005,-60.546875
2006,-62.500000
2007,-62.500000
2008,-60.546875
2009,-60.546875
2010,-60.546875
2011,-58.593750
2012,-58.593750
2013,-58.593750
2014,-58.593750
2015,-56.640625
2016,-56.640625
2017,-56.640625
2018,-56.640625
2019,-56.640625
2020,-56.640625
2021,-54.687500
2022,-54.687500
2023,-54.687500
2024,-52.734375
2025,-54.687500
2026,-52.734375
2027,-52.734375
2028,-52.734375
2029,-52.734375
2030,-50.781250
2031,-50.781250
2032,-48.828125
2033,-50.781250
2034,-48.828125
2035,-46.875000
2036,-46.875000
2037,-46.875000
2038,-46.875000
2039,-46.875000
2040,-44.921875
2041,-44.921875
2042,-44.921875
2043,-42.968750
2044,-42.968750
2045,-42.968750
2046,-41.015625
2047,-41.015625
2048,-41.015625
2049,-41.015625
2050,-39.062500
2051,-39.062500
2052,-37.109375
2053,-37.109375
2054,-37.109375
2055,-37.109375
2056,-35.156250
2057,-35.156250
2058,-35.156250
2059,-35.156250
2060,-35.156250
2061,-31.250000
2062,-31.250000
2063,-33.203125
2064,-31.250000
2065,-31.250000
2066,-31.250000
2067,-29.296875
2068,-29.296875
2069,-27.343750
2070,-27.343750
2071,-25.390625
2072,-25.390625
2073,-25.390625
2074,-23.437500
2075,-23.437500
2076,-21.484375
2077,-23.437500
2078,-21.484375
2079,-21.484375
2080,-19.531250
2081,-19.531250
2082,-19.531250
2083,-19.531250
2084,-17.578125
2085,-17.578125
2086,-17.578125
2087,-15.625000
2088,-15.625000
2089,-13.671875
2090,-13.671875
2091,-13.671875
2092,-11.718750
2093,-11.718750
2094,-11.718750
2095,-11.718750
2096,-9.765625
2097,-9.765625
2098,-9.765625
2099,-7.812500
2100,-7.812500
2101,-7.812500
2102,-5.859375
2103,-5.859375
2104,-5.859375
2105,-5.859375
2106,-3.906250
2107,-3.906250
2108,-1.953125
2109,-1.953125
2110,-1.953125
2111,0.000000
2112,0.000000
2113,0.000000
2114,1.953125
2115,1.953125
2116,1.953125
2117,3.906250
2118,3.906250
2119,3.906250
2120,3.906250
2121,5.859375
2122,5.859375
2123,5.859375
2124,7.812500
2125,7.812500
2126,7.812500
2127,9.765625
2128,7.812500
2129,9.765625
2130,11.718750
2131,9.765625
2132,11.718750
2133,11.718750
2134,11.718750
2135,13.671875
2136,13.671875
2137,13.671875
2138,15.625000
2139,15.625000
2140,17.578125
2141,17.578125
2142,17.578125
2143,17.578125
2144,19.531250
2145,19.531250
2146,19.531250
2147,19.531250
2148,21.484375
2149,21.484375
2150,21.484375
2151,21.484375
2152,23.437500
2153,23.437500
2154,23.437500
2155,23.437500
2156,23.437500
2157,25.390625
2158,25.390625
2159,25.390625
2160,27.343750
2161,27.343750
2162,27.343750
2163,27.343750
2164,27.343750
2165,29.296875
2166,29.296875
2167,29.296875
2168,29.296875
2169,31.250000
2170,31.250000
2171,27.343750
2172,31.250000
2173,33.203125
2174,33.203125
2175,33.203125
2176,33.203125
2177,33.203125
2178,35.156250
2179,33.203125
2180,35.156250
2181,35.156250
2182,35.156250
2183,35.156250
2184,37.109375
2185,37.109375
2186,39.062500
2187,37.109375
2188,37.109375
2189,39.062500
2190,39.062500
2191,39.062500
2192,39.062500
2193,39.062500
2194,41.015625
2195,41.015625
2196,41.015625
2197,41.015625
2198,41.015625
2199,41.015625
2200,41.015625
2201,42.968750
2202,42.968750
2203,42.968750
2204,42.968750
2205,42.968750
2206,42.968750
2207,44.921875
2208,42.968750
2209,44.921875
2210,44.921875
2211,44.921875
2212,44.921875
2213,44.921875
2214,46.875000
2215,44.921875
2216,44.921875
2217,46.875000
2218,46.875000
2219,46.875000
2220,46.875000
2221,46.875000
2222,46.875000
2223,46.875000
2224,46.875000
2225,46.875000
2226,46.875000
2227,46.875000
2228,46.875000
2229,48.828125
2230,48.828125
2231,48.828125
2232,48.828125
2233,48.828125
2234,48.828125
2235,48.828125
2236,48.828125
2237,48.828125
2238,48.828125
2239,48.828125
2240,48.828125
2241,48.828125
2242,50.781250
2243,48.828125
2244,50.781250
2245,48.828125
2246,50.781250
2247,48.828125
2248,48.828125
2249,48.828125
2250,50.781250
2251,48.828125
2252,50.781250
2253,48.828125
2254,48.828125
2255,48.828125
2256,48.828125
2257,50.781250
2258,48.828125
2259,48.828125
2260,50.781250
2261,48.828125
2262,48.828125
2263,48.828125
2264,48.828125
2265,50.781250
2266,48.828125
2267,48.828125
2268,48.828125
2269,48.828125
2270,48.828125
2271,48.828125
2272,48.828125
2273,48.828125
2274,48.828125
2275,48.828125
2276,48.828125
2277,46.875000
2278,48.828125
2279,48.828125
2280,46.875000
2281,46.875000
2282,46.875000
2283,46.875000
2284,46.875000
2285,44.921875
2286,46.875000
2287,46.875000
2288,46.875000
2289,44.921875
2290,44.921875
2291,44.921875
2292,44.921875
2293,44.921875
2294,44.921875
2295,44.921875
2296,42.968750
2297,42.968750
2298,41.015625
2299,42.968750
2300,42.968750
2301,41.015625
2302,41.015625
2303,42.968750
2304,42.968750
2305,41.015625
2306,41.015625
2307,41.015625
2308,41.015625
2309,39.062500
2310,39.062500
2311,39.062500
2312,39.062500
2313,39.062500
2314,39.062500
2315,37.109375
2316,37.109375
2317,37.109375
2318,37.109375
2319,35.156250
2320,35.156250
2321,35.156250
2322,35.156250
2323,33.203125
2324,33.203125
2325,33.203125
2326,33.203125
2327,31.250000
2328,33.203125
2329,31.250000
2330,31.250000
2331,31.250000
2332,31.250000
2333,29.296875
2334,29.296875
2335,29.296875
2336,29.296875
2337,27.343750
2338,27.343750
2339,27.343750
2340,27.343750
2341,25.390625
2342,25.390625
2343,25.390625
2344,23.437500
2345,25.390625
2346,23.437500
2347,25.390625
2348,21.484375
2349,21.484375
2350,19.531250
2351,21.484375
2352,19.531250
2353,19.531250
2354,19.531250
2355,17.578125
2356,17.578125
2357,17.578125
2358,15.625000
2359,15.625000
2360,15.625000
2361,13.671875
2362,13.671875
2363,13.671875
2364,11.718750
2365,11.718750
2366,13.671875
2367,11.718750
2368,9.765625
2369,9.765625
2370,9.765625
2371,9.765625
2372,7.812500
2373,7.812500
2374,5.859375
2375,5.859375
2376,5.859375
2377,3.906250
2378,3.906250
2379,3.906250
2380,3.906250
2381,1.953125
2382,1.953125
2383,0.000000
2384,-1.953125
2385,0.000000
2386,-1.953125
2387,-1.953125
2388,-1.953125
2389,-1.953125
2390,-3.906250
2391,-3.906250
2392,-5.859375
2393,-5.859375
2394,-5.859375
2395,-7.812500
2396,-7.812500
2397,-7.812500
2398,-9.765625
2399,-9.765625
2400,-9.765625
2401,-11.718750
2402,-11.718750
2403,-13.671875
2404,-13.671875
2405,-13.671875
2406,-13.671875
2407,-15.625000
2408,-15.625000
2409,-15.625000
2410,-17.578125
2411,-17.578125
2412,-19.531250
2413,-19.531250
2414,-19.531250
2415,-19.531250
2416,-21.484375
2417,-21.484375
2418,-21.484375
2419,-23.437500
2420,-23.437500
2421,-25.390625
2422,-25.390625
2423,-25.390625
2424,-27.343750
2425,-27.343750
2426,-27.343750
2427,-27.343750
2428,-29.296875
2429,-29.296875
2430,-29.296875
2431,-31.250000
2432,-31.250000
2433,-31.250000
2434,-33.203125
2435,-33.203125
2436,-33.203125
2437,-35.156250
2438,-35.156250
2439,-35.156250
2440,-37.109375
2441,-37.109375
2442,-37.109375
2443,-39.062500
2444,-39.062500
2445,-39.062500
2446,-39.062500
2447,-41.015625
2448,-41.015625
2449,-41.015625
2450,-41.015625
2451,-42.968750
2452,-42.968750
2453,-42.968750
2454,-44.921875
2455,-44.921875
2456,-44.921875
2457,-44.921875
2458,-46.875000
2459,-46.875000
2460,-46.875000
2461,-46.875000
2462,-48.828125
2463,-48.828125
2464,-48.828125
2465,-50.781250
2466,-50.781250
2467,-50.781250
2468,-50.781250
2469,-50.781250
2470,-52.734375
2471,-52.734375
2472,-52.734375
2473,-52.734375
2474,-54.687500
2475,-54.687500
2476,-54.687500
2477,-54.687500
2478,-56.640625
2479,-54.687500
2480,-56.640625
2481,-56.640625
2482,-58.593750
2483,-56.640625
2484,-58.593750
2485,-58.593750
2486,-58.593750
2487,-60.546875
2488,-60.546875
2489,-60.546875
2490,-60.546875
2491,-60.546875
2492,-60.546875
2493,-62.500000
2494,-62.500000
2495,-62.500000
2496,-62.500000
2497,-62.500000
2498,-62.500000
2499,-64.453125
2500,-64.453125
2501,-64.453125
2502,-64.453125
2503,-64.453125
2504,-64.453125
2505,-66.406250
2506,-66.406250
2507,-68.359375
2508,-66.406250
2509,-66.406250
2510,-66.406250
2511,-66.406250
2512,-68.359375
2513,-66.406250
2514,-68.359375
2515,-68.359375
2516,-68.359375
2517,-68.359375
2518,-68.359375
2519,-68.359375
2520,-68.359375
2521,-70.312500
2522,-70.312500
2523,-70.312500
2524,-72.265625
2525,-70.312500
2526,-70.312500
2527,-70.312500
2528,-70.312500
2529,-70.312500
2530,-70.312500
2531,-70.312500
2532,-70.312500
2533,-70.312500
2534,-70.312500
2535,-70.312500
2536,-70.312500
2537,-72.265625
2538,-70.312500
2539,-72.265625
2540,-70.312500
2541,-70.312500
2542,-70.312500
2543,-72.265625
2544,-70.312500
2545,-70.312500
2546,-70.312500
2547,-70.312500
2548,-70.312500
2549,-70.312500
2550,-72.265625
2551,-70.312500
2552,-70.312500
2553,-70.312500
2554,-70.312500
2555,-70.312500
2556,-70.312500
2557,-70.312500
2558,-70.312500
2559,-70.312500
2560,-70.312500
2561,-70.312500
2562,-70.312500
2563,-70.312500
2564,-68.359375
2565,-70.312500
2566,-68.359375
2567,-68.359375
2568,-68.359375
2569,-68.359375
2570,-68.359375
2571,-68.359375
2572,-66.406250
2573,-66.406250
2574,-66.406250
2575,-66.406250
2576,-66.406250
2577,-66.406250
2578,-66.406250
2579,-64.453125
2580,-64.453125
2581,-66.406250
2582,-64.453125
2583,-64.453125
2584,-64.453125
2585,-64.453125
2586,-64.453125
2587,-62.500000
2588,-62.500000
2589,-62.500000
2590,-62.500000
2591,-60.546875
2592,-60.546875
2593,-60.546875
2594,-60.546875
2595,-58.593750
2596,-60.546875
2597,-58.593750
2598,-58.593750
2599,-56.640625
2600,-56.640625
2601,-56.640625
2602,-56.640625
2603,-56.640625
2604,-54.687500
2605,-54.687500
2606,-54.687500
2607,-54.687500
2608,-52.734375
2609,-52.734375
2610,-52.734375
2611,-52.734375
2612,-52.734375
2613,-50.781250
2614,-50.781250
2615,-50.781250
2616,-50.781250
2617,-48.828125
2618,-48.828125
2619,-48.828125
2620,-46.875000
2621,-46.875000
2622,-46.875000
2623,-44.921875
2624,-44.921875
2625,-44.921875
2626,-44.921875
2627,-42.968750
2628,-42.968750
2629,-42.968750
2630,-42.968750
2631,-41.015625
2632,-41.015625
2633,-41.015625
2634,-41.015625
2635,-39.062500
2636,-39.062500
2637,-37.109375
2638,-37.109375
2639,-37.109375
2640,-37.109375
2641,-35.156250
2642,-35.156250
2643,-33.203125
2644,-33.203125
2645,-33.203125
2646,-31.250000
2647,-31.250000
2648,-31.250000
2649,-29.296875
2650,-29.296875
2651,-29.296875
2652,-27.343750
2653,-27.343750
2654,-25.390625
2655,-25.390625
2656,-25.390625
2657,-25.390625
2658,-25.390625
2659,-23.437500
2660,-21.484375
2661,-21.484375
2662,-21.484375
2663,-21.484375
2664,-21.484375
2665,-19.531250
2666,-19.531250
2667,-19.531250
2668,-17.578125
2669,-17.578125
2670,-15.625000
2671,-15.625000
2672,-15.625000
2673,-13.671875
2674,-13.671875
2675,-11.718750
2676,-13.671875
2677,-11.718750
2678,-11.718750
2679,-9.765625
2680,-9.765625
2681,-9.765625
2682,-9.765625
2683,-7.812500
2684,-7.812500
2685,-7.812500
2686,-5.859375
2687,-5.859375
2688,-5.859375
2689,-3.906250
2690,-3.906250
2691,-3.906250
2692,-1.953125
2693,-1.953125
2694,-1.953125
2695,0.000000
2696,0.000000
2697,0.000000
2698,1.953125
2699,1.953125
2700,1.953125
2701,3.906250
2702,3.906250
2703,3.906250
2704,5.859375
2705,5.859375
2706,5.859375
2707,7.812500
2708,7.812500
2709,7.812500
2710,7.812500
2711,9.765625
2712,9.765625
2713,9.765625
2714,11.718750
2715,11.718750
2716,11.718750
2717,13.671875
2718,13.671875
2719,13.671875
2720,13.671875
2721,15.625000
2722,15.625000
2723,15.625000
2724,15.625000
2725,17.578125
2726,17.578125
2727,17.578125
2728,19.531250
2729,19.531250
2730,19.531250
2731,19.531250
2732,21.484375
2733,21.484375
2734,21.484375
2735,21.484375
2736,23.437500
2737,23.437500
2738,23.437500
2739,25.390625
2740,25.390625
2741,25.390625
2742,25.390625
2743,27.343750
2744,27.343750
2745,27.343750
2746,27.343750
2747,27.343750
2748,29.296875
2749,29.296875
2750,29.296875
2751,29.296875
2752,31.250000
2753,31.250000
2754,31.250000
2755,31.250000
2756,31.250000
2757,31.250000
2758,35.156250
2759,33.203125
2760,33.203125
2761,33.203125
2762,33.203125
2763,35.156250
2764,35.156250
2765,35.156250
2766,37.109375
2767,35.156250
2768,37.109375
2769,37.109375
2770,37.109375
2771,37.109375
2772,37.109375
2773,37.109375
2774,39.062500
2775,39.062500
2776,39.062500
2777,41.015625
2778,41.015625
2779,41.015625
2780,41.015625
2781,41.015625
2782,42.968750
2783,41.015625
2784,42.968750
2785,42.968750
2786,42.968750
2787,42.968750
2788,42.968750
2789,42.968750
2790,44.921875
2791,44.921875
2792,44.921875
2793,44.921875
2794,44.921875
2795,44.921875
2796,46.875000
2797,44.921875
2798,46.875000
2799,46.875000
2800,46.875000
2801,46.875000
2802,46.875000
2803,46.875000
2804,46.875000
2805,46.875000
2806,46.875000
2807,46.875000
2808,46.875000
2809,48.828125
2810,48.828125
2811,48.828125
2812,48.828125
2813,48.828125
2814,48.828125
2815,48.828125
2816,48.828125
2817,48.828125
2818,48.828125
2819,48.828125
2820,48.828125
2821,48.828125
2822,48.828125
2823,48.828125
2824,50.781250
2825,48.828125
2826,48.828125
2827,48.828125
2828,50.781250
2829,48.828125
2830,50.781250
2831,48.828125
2832,48.828125
2833,50.781250
2834,50.781250
2835,50.781250
2836,50.781250
2837,50.781250
2838,50.781250
2839,50.781250
2840,50.781250
2841,50.781250
2842,50.781250
2843,50.781250
2844,50.781250
2845,48.828125
2846,50.781250
2847,50.781250
2848,50.781250
2849,48.828125
2850,48.828125
2851,48.828125
2852,50.781250
2853,48.828125
2854,48.828125
2855,48.828125
2856,48.828125
2857,48.828125
2858,48.828125
2859,48.828125
2860,48.828125
2861,48.828125
2862,48.828125
2863,46.875000
2864,46.875000
2865,46.875000
2866,46.875000
2867,46.875000
2868,46.875000
2869,46.875000
2870,46.875000
2871,44.921875
2872,44.921875
2873,46.875000
2874,44.921875
2875,44.921875
2876,44.921875
2877,44.921875
2878,44.921875
2879,42.968750
2880,44.921875
2881,42.968750
2882,42.968750
2883,42.968750
2884,42.968750
2885,42.968750
2886,41.015625
2887,41.015625
2888,41.015625
2889,41.015625
2890,41.015625
2891,39.062500
2892,41.015625
2893,41.015625
2894,39.062500
2895,39.062500
2896,39.062500
2897,39.062500
2898,37.109375
2899,37.109375
2900,37.109375
2901,37.109375
2902,37.109375
2903,35.156250
2904,35.156250
2905,35.156250
2906,35.156250
2907,35.156250
2908,33.203125
2909,33.203125
2910,33.203125
2911,33.203125
2912,31.250000
2913,31.250000
2914,31.250000
2915,31.250000
2916,29.296875
2917,29.296875
2918,29.296875
2919,29.296875
2920,29.296875
2921,27.343750
2922,27.343750
2923,27.343750
2924,27.343750
2925,25.390625
2926,25.390625
2927,25.390625
2928,23.437500
2929,23.437500
2930,23.437500
2931,23.437500
2932,21.484375
2933,21.484375
2934,21.484375
2935,21.484375
2936,19.531250
2937,19.531250
2938,17.578125
2939,17.578125
2940,17.578125
2941,17.578125
2942,15.625000
2943,15.625000
2944,13.671875
2945,13.671875
2946,13.671875
2947,11.718750
2948,11.718750
2949,9.765625
2950,9.765625
2951,11.718750
2952,9.765625
2953,7.812500
2954,7.812500
2955,7.812500
2956,7.812500
2957,5.859375
2958,5.859375
2959,3.906250
2960,3.906250
2961,1.953125
2962,3.906250
2963,1.953125
2964,1.953125
2965,1.953125
2966,0.000000
2967,0.000000
2968,0.000000
2969,-1.953125
2970,-1.953125
2971,-1.953125
2972,-3.906250
2973,-3.906250
2974,-5.859375
2975,-5.859375
2976,-5.859375
2977,-5.859375
2978,-7.812500
2979,-7.812500
2980,-7.812500
2981,-9.765625
2982,-9.765625
2983,-9.765625
2984,-11.718750
2985,-11.718750
2986,-13.671875
2987,-13.671875
2988,-13.671875
2989,-15.625000
2990,-15.625000
2991,-17.578125
2992,-17.578125
2993,-17.578125
2994,-17.578125
2995,-17.578125
2996,-19.531250
2997,-19.531250
2998,-21.484375
2999,-21.484375
3000,-21.484375
3001,-23.437500
3002,-23.437500
3003,-25.390625
3004,-25.390625
3005,-25.390625
3006,-27.343750
3007,-27.343750
3008,-27.343750
3009,-27.343750
3010,-29.296875
3011,-29.296875
3012,-31.250000
3013,-31.250000
3014,-31.250000
3015,-33.203125
3016,-33.203125
3017,-35.156250
3018,-35.156250
3019,-35.156250
3020,-35.156250
3021,-35.156250
3022,-37.109375
3023,-37.109375
3024,-37.109375
3025,-39.062500
3026,-39.062500
3027,-39.062500
3028,-41.015625
3029,-41.015625
3030,-41.015625
3031,-41.015625
3032,-42.968750
3033,-42.968750
3034,-42.968750
3035,-42.968750
3036,-44.921875
3037,-44.921875
3038,-44.921875
3039,-46.875000
3040,-46.875000
3041,-46.875000
3042,-46.875000
3043,-46.875000
3044,-48.828125
3045,-48.828125
3046,-48.828125
3047,-48.828125
3048,-50.781250
3049,-50.781250
3050,-50.781250
3051,-50.781250
3052,-52.734375
3053,-52.734375
3054,-52.734375
3055,-52.734375
3056,-54.687500
3057,-54.687500
3058,-54.687500
3059,-54.687500
3060,-56.640625
3061,-56.640625
3062,-56.640625
3063,-56.640625
3064,-56.640625
3065,-58.593750
3066,-58.593750
3067,-58.593750
3068,-60.546875
3069,-60.546875
3070,-60.546875
3071,-60.546875
3072,-60.546875
3073,-62.500000
3074,-62.500000
3075,-62.500000
3076,-62.500000
3077,-62.500000
3078,-62.500000
3079,-62.500000
3080,-64.453125
3081,-64.453125
3082,-64.453125
3083,-64.453125
3084,-66.406250
3085,-66.406250
3086,-66.406250
3087,-66.406250
3088,-66.406250
3089,-66.406250
3090,-68.359375
3091,-66.406250
3092,-68.359375
3093,-66.406250
3094,-68.359375
3095,-68.359375
3096,-66.406250
3097,-68.359375
3098,-68.359375
3099,-68.359375
3100,-68.359375
3101,-68.359375
3102,-70.312500
3103,-70.312500
3104,-70.312500
3105,-70.312500
3106,-70.312500
3107,-70.312500
3108,-70.312500
3109,-70.312500
3110,-70.312500
3111,-70.312500
3112,-72.265625
3113,-72.265625
3114,-70.312500
3115,-70.312500
3116,-70.312500
3117,-70.312500
3118,-70.312500
3119,-72.265625
3120,-72.265625
3121,-72.265625
3122,-72.265625
3123,-72.265625
3124,-72.265625
3125,-72.265625
3126,-72.265625
3127,-72.265625
3128,-72.265625
3129,-72.265625
3130,-72.265625
3131,-72.265625
3132,-72.265625
3133,-72.265625
3134,-72.265625
3135,-68.359375
3136,-70.312500
3137,-72.265625
3138,-72.265625
3139,-70.312500
3140,-70.312500
3141,-70.312500
3142,-70.312500
3143,-70.312500
3144,-70.312500
3145,-68.359375
3146,-70.312500
3147,-70.312500
3148,-70.312500
3149,-70.312500
3150,-70.312500
3151,-68.359375
3152,-68.359375
3153,-68.359375
3154,-68.359375
3155,-68.359375
3156,-66.406250
3157,-66.406250
3158,-66.406250
3159,-66.406250
3160,-66.406250
3161,-66.406250
3162,-64.453125
3163,-64.453125
3164,-64.453125
3165,-64.453125
3166,-64.453125
3167,-64.453125
3168,-62.500000
3169,-64.453125
3170,-62.500000
3171,-62.500000
3172,-62.500000
3173,-60.546875
3174,-60.546875
3175,-62.500000
3176,-60.546875
3177,-60.546875
3178,-58.593750
3179,-58.593750
3180,-58.593750
3181,-58.593750
3182,-58.593750
3183,-56.640625
3184,-56.640625
3185,-56.640625
3186,-54.687500
3187,-54.687500
3188,-54.687500
3189,-54.687500
3190,-54.687500
3191,-52.734375
3192,-54.687500
3193,-52.734375
3194,-52.734375
3195,-50.781250
3196,-50.781250
3197,-50.781250
3198,-50.781250
3199,-48.828125
3200,-48.828125
3201,-48.828125
3202,-48.828125
3203,-46.875000
3204,-46.875000
3205,-46.875000
3206,-44.921875
3207,-44.921875
3208,-44.921875
3209,-42.968750
3210,-42.968750
3211,-42.968750
3212,-42.968750
3213,-42.968750
3214,-41.015625
3215,-39.062500
3216,-39.062500
3217,-39.062500
3218,-39.062500
3219,-37.109375
3220,-37.109375
3221,-37.109375
3222,-37.109375
3223,-35.156250
3224,-35.156250
3225,-33.203125
3226,-33.203125
3227,-33.203125
3228,-31.250000
3229,-31.250000
3230,-31.250000
3231,-31.250000
3232,-29.296875
3233,-29.296875
3234,-27.343750
3235,-27.343750
3236,-27.343750
3237,-25.390625
3238,-25.390625
3239,-25.390625
3240,-23.437500
3241,-21.484375
3242,-23.437500
3243,-23.437500
3244,-21.484375
3245,-21.484375
3246,-19.531250
3247,-19.531250
3248,-19.531250
3249,-19.531250
3250,-17.578125
3251,-17.578125
3252,-17.578125
3253,-15.625000
3254,-15.625000
3255,-13.671875
3256,-13.671875
3257,-11.718750
3258,-13.671875
3259,-11.718750
3260,-13.671875
3261,-11.718750
3262,-9.765625
3263,-9.765625
3264,-7.812500
3265,-7.812500
3266,-7.812500
3267,-5.859375
3268,-5.859375
3269,-5.859375
3270,-5.859375
3271,-5.859375
3272,-3.906250
3273,-3.906250
3274,-1.953125
3275,-1.953125
3276,-1.953125
3277,0.000000
3278,0.000000
3279,0.000000
3280,0.000000
3281,1.953125
3282,1.953125
3283,1.953125
3284,3.906250
3285,3.906250
3286,7.812500
3287,5.859375
3288,5.859375
3289,5.859375
3290,7.812500
3291,7.812500
3292,9.765625
3293,9.765625
3294,9.765625
3295,9.765625
3296,9.765625
3297,11.718750
3298,11.718750
3299,13.671875
3300,13.671875
3301,13.671875
3302,13.671875
3303,13.671875
3304,15.625000
3305,15.625000
3306,15.625000
3307,17.578125
3308,17.578125
3309,17.578125
3310,17.578125
3311,19.531250
3312,19.531250
3313,21.484375
3314,21.484375
3315,21.484375
3316,21.484375
3317,21.484375
3318,23.437500
3319,23.437500
3320,23.437500
3321,25.390625
3322,25.390625
3323,25.390625
3324,25.390625
3325,27.343750
3326,27.343750
3327,27.343750
3328,27.343750
3329,31.250000
3330,27.343750
3331,29.296875
3332,29.296875
3333,29.296875
3334,29.296875
3335,31.250000
3336,31.250000
3337,31.250000
3338,31.250000
3339,33.203125
3340,33.203125
3341,33.203125
3342,33.203125
3343,33.203125
3344,33.203125
3345,35.156250
3346,35.156250
3347,35.156250
3348,35.156250
3349,35.156250
3350,35.156250
3351,37.109375
3352,37.109375
3353,39.062500
3354,37.109375
3355,39.062500
3356,39.062500
3357,39.062500
3358,39.062500
3359,41.015625
3360,39.062500
3361,41.015625
3362,41.015625
3363,41.015625
3364,41.015625
3365,42.968750
3366,42.968750
3367,41.015625
3368,42.968750
3369,42.968750
3370,42.968750
3371,42.968750
3372,42.968750
3373,42.968750
3374,44.921875
3375,44.921875
3376,44.921875
3377,44.921875
3378,44.921875
3379,44.921875
3380,44.921875
3381,44.921875
3382,46.875000
3383,46.875000
3384,46.875000
3385,44.921875
3386,46.875000
3387,46.875000
3388,46.875000
3389,46.875000
3390,46.875000
3391,46.875000
3392,48.828125
3393,48.828125
3394,48.828125
3395,48.828125
3396,48.828125
3397,48.828125
3398,48.828125
3399,48.828125
3400,48.828125
3401,48.828125
3402,48.828125
3403,48.828125
3404,48.828125
3405,48.828125
3406,48.828125
3407,48.828125
3408,48.828125
3409,48.828125
3410,50.781250
3411,48.828125
3412,50.781250
3413,48.828125
3414,50.781250
3415,48.828125
3416,50.781250
3417,50.781250
3418,48.828125
3419,50.781250
3420,50.781250
3421,50.781250
3422,50.781250
3423,48.828125
3424,50.781250
3425,50.781250
3426,50.781250
3427,48.828125
3428,48.828125
3429,48.828125
3430,50.781250
3431,50.781250
3432,48.828125
3433,48.828125
3434,48.828125
3435,48.828125
3436,48.828125
3437,48.828125
3438,48.828125
3439,48.828125
3440,48.828125
3441,48.828125
3442,48.828125
3443,48.828125
3444,48.828125
3445,48.828125
3446,46.875000
3447,46.875000
3448,46.875000
3449,46.875000
3450,46.875000
3451,46.875000
3452,46.875000
3453,46.875000
3454,46.875000
3455,44.921875
3456,44.921875
3457,44.921875
3458,44.921875
3459,44.921875
3460,44.921875
3461,44.921875
3462,42.968750
3463,42.968750
3464,42.968750
3465,42.968750
3466,42.968750
3467,42.968750
3468,41.015625
3469,41.015625
3470,42.968750
3471,41.015625
3472,41.015625
3473,41.015625
3474,41.015625
3475,39.062500
3476,41.015625
3477,39.062500
3478,39.062500
3479,37.109375
3480,37.109375
3481,37.109375
3482,37.109375
3483,37.109375
3484,37.109375
3485,35.156250
3486,35.156250
3487,35.156250
3488,35.156250
3489,35.156250
3490,33.203125
3491,33.203125
3492,33.203125
3493,33.203125
3494,33.203125
3495,31.250000
3496,31.250000
3497,31.250000
3498,29.296875
3499,31.250000
3500,29.296875
3501,29.296875
3502,29.296875
3503,27.343750
3504,27.343750
3505,27.343750
3506,27.343750
3507,25.390625
3508,25.390625
3509,25.390625
3510,23.437500
3511,23.437500
3512,23.437500
3513,23.437500
3514,21.484375
3515,21.484375
3516,21.484375
3517,19.531250
3518,19.531250
3519,19.531250
3520,19.531250
3521,17.578125
3522,17.578125
3523,17.578125
3524,15.625000
3525,15.625000
3526,15.625000
3527,13.671875
3528,13.671875
3529,11.718750
3530,13.671875
3531,11.718750
3532,11.718750
3533,9.765625
3534,9.765625
3535,9.765625
3536,7.812500
3537,7.812500
3538,7.812500
3539,5.859375
3540,5.859375
3541,5.859375
3542,5.859375
3543,3.906250
3544,3.906250
3545,1.953125
3546,1.953125
3547,1.953125
3548,1.953125
3549,0.000000
3550,0.000000
3551,0.000000
3552,-1.953125
3553,-1.953125
3554,-3.906250
3555,-3.906250
3556,-3.906250
3557,-3.906250
3558,-5.859375
3559,-5.859375
3560,-5.859375
3561,-7.812500
3562,-7.812500
3563,-9.765625
3564,-9.765625
3565,-9.765625
3566,-9.765625
3567,-11.718750
3568,-11.718750
3569,-13.671875
3570,-13.671875
3571,-13.671875
3572,-15.625000
3573,-15.625000
3574,-15.625000
3575,-17.578125
3576,-17.578125
3577,-17.578125
3578,-19.531250
3579,-19.531250
3580,-19.531250
3581,-19.531250
3582,-23.437500
3583,-23.437500
3584,-23.437500
3585,-23.437500
3586,-25.390625
3587,-25.390625
3588,-25.390625
3589,-25.390625
3590,-27.343750
3591,-27.343750
3592,-29.296875
3593,-29.296875
3594,-29.296875
3595,-31.250000
3596,-31.250000
3597,-31.250000
3598,-31.250000
3599,-33.203125
3600,-33.203125
3601,-33.203125
3602,-35.156250
3603,-35.156250
3604,-35.156250
3605,-37.109375
3606,-37.109375
3607,-37.109375
3608,-37.109375
3609,-39.062500
3610,-39.062500
3611,-39.062500
3612,-41.015625
3613,-41.015625
3614,-41.015625
3615,-41.015625
3616,-42.968750
3617,-42.968750
3618,-42.968750
3619,-44.921875
3620,-44.921875
3621,-44.921875
3622,-44.921875
3623,-46.875000
3624,-46.875000
3625,-46.875000
3626,-46.875000
3627,-46.875000
3628,-48.828125
3629,-48.828125
3630,-50.781250
3631,-50.781250
3632,-50.781250
3633,-50.781250
3634,-50.781250
3635,-52.734375
3636,-52.734375
3637,-52.734375
3638,-54.687500
3639,-54.687500
3640,-54.687500
3641,-54.687500
3642,-56.640625
3643,-56.640625
3644,-56.640625
3645,-56.640625
3646,-58.593750
3647,-58.593750
3648,-58.593750
3649,-58.593750
3650,-58.593750
3651,-60.546875
3652,-58.593750
3653,-60.546875
3654,-60.546875
3655,-60.546875
3656,-60.546875
3657,-60.546875
3658,-62.500000
3659,-62.500000
3660,-62.500000
3661,-62.500000
3662,-64.453125
3663,-64.453125
3664,-64.453125
3665,-64.453125
3666,-64.453125
3667,-64.453125
3668,-64.453125
3669,-66.406250
3670,-66.406250
3671,-66.406250
3672,-66.406250
3673,-68.359375
3674,-66.406250
3675,-68.359375
3676,-68.359375
3677,-68.359375
3678,-68.359375
3679,-68.359375
3680,-68.359375
3681,-70.312500
3682,-68.359375
3683,-68.359375
3684,-68.359375
3685,-70.312500
3686,-70.312500
3687,-70.312500
3688,-70.312500
3689,-70.312500
3690,-70.312500
3691,-70.312500
3692,-70.312500
3693,-70.312500
3694,-70.312500
3695,-70.312500
3696,-70.312500
3697,-72.265625
3698,-70.312500
3699,-72.265625
3700,-70.312500
3701,-72.265625
3702,-72.265625
3703,-70.312500
3704,-70.312500
3705,-72.265625
3706,-72.265625
3707,-72.265625
3708,-70.312500
3709,-72.265625
3710,-72.265625
3711,-70.312500
3712,-72.265625
3713,-72.265625
3714,-72.265625
3715,-72.265625
3716,-70.312500
3717,-72.265625
3718,-72.265625
3719,-72.265625
3720,-72.265625
3721,-72.265625
3722,-70.312500
3723,-70.312500
3724,-70.312500
3725,-70.312500
3726,-70.312500
3727,-70.312500
3728,-70.312500
3729,-70.312500
3730,-70.312500
3731,-70.312500
3732,-68.359375
3733,-68.359375
3734,-68.359375
3735,-68.359375
3736,-68.359375
3737,-68.359375
3738,-68.359375
3739,-66.406250
3740,-68.359375
3741,-66.406250
3742,-66.406250
3743,-66.406250
3744,-66.406250
3745,-66.406250
3746,-66.406250
3747,-64.453125
3748,-64.453125
3749,-64.453125
3750,-64.453125
3751,-62.500000
3752,-62.500000
3753,-62.500000
3754,-62.500000
3755,-62.500000
3756,-60.546875
3757,-60.546875
3758,-60.546875
3759,-60.546875
3760,-60.546875
3761,-60.546875
3762,-58.593750
3763,-58.593750
3764,-58.593750
3765,-56.640625
3766,-56.640625
3767,-56.640625
3768,-56.640625
3769,-54.687500
3770,-54.687500
3771,-54.687500
3772,-54.687500
3773,-54.687500
3774,-52.734375
3775,-52.734375
3776,-52.734375
3777,-52.734375
3778,-50.781250
3779,-50.781250
3780,-50.781250
3781,-50.781250
3782,-48.828125
3783,-48.828125
3784,-48.828125
3785,-48.828125
3786,-46.875000
3787,-46.875000
3788,-46.875000
3789,-46.875000
3790,-44.921875
3791,-44.921875
3792,-42.968750
3793,-42.968750
3794,-42.968750
3795,-42.968750
3796,-41.015625
3797,-41.015625
3798,-41.015625
3799,-41.015625
3800,-39.062500
3801,-37.109375
3802,-37.109375
3803,-37.109375
3804,-37.109375
3805,-37.109375
3806,-35.156250
3807,-35.156250
3808,-33.203125
3809,-33.203125
3810,-33.203125
3811,-31.250000
3812,-31.250000
3813,-31.250000
3814,-29.296875
3815,-29.296875
3816,-29.296875
3817,-27.343750
3818,-27.343750
3819,-27.343750
3820,-25.390625
3821,-25.390625
3822,-23.437500
3823,-23.437500
3824,-23.437500
3825,-23.437500
3826,-21.484375
3827,-21.484375
3828,-21.484375
3829,-21.484375
3830,-19.531250
3831,-17.578125
3832,-17.578125
3833,-17.578125
3834,-17.578125
3835,-15.625000
3836,-15.625000
3837,-15.625000
3838,-13.671875
3839,-13.671875
3840,-13.671875
3841,-13.671875
3842,-11.718750
3843,-11.718750
3844,-9.765625
3845,-9.765625
3846,-9.765625
3847,-7.812500
3848,-7.812500
3849,-7.812500
3850,-7.812500
3851,-5.859375
3852,-5.859375
3853,-3.906250
3854,-3.906250
3855,-3.906250
3856,-1.953125
3857,-1.953125
3858,-1.953125
3859,-1.953125
3860,0.000000
3861,0.000000
3862,0.000000
3863,1.953125
3864,1.953125
3865,1.953125
3866,3.906250
3867,3.906250
3868,3.906250
3869,5.859375
3870,5.859375
3871,5.859375
3872,7.812500
3873,7.812500
3874,7.812500
3875,9.765625
3876,9.765625
3877,9.765625
3878,11.718750
3879,11.718750
3880,11.718750
3881,11.718750
3882,13.671875
3883,13.671875
3884,15.625000
3885,15.625000
3886,15.625000
3887,15.625000
3888,15.625000
3889,17.578125
3890,17.578125
3891,17.578125
3892,17.578125
3893,19.531250
3894,19.531250
3895,21.484375
3896,21.484375
3897,21.484375
3898,21.484375
3899,21.484375
3900,21.484375
3901,23.437500
3902,23.437500
3903,23.437500
3904,25.390625
3905,25.390625
3906,25.390625
3907,27.343750
3908,27.343750
3909,27.343750
3910,27.343750
3911,27.343750
3912,27.343750
3913,29.296875
3914,29.296875
3915,29.296875
3916,31.250000
3917,31.250000
3918,31.250000
3919,31.250000
3920,31.250000
3921,33.203125
3922,33.203125
3923,33.203125
3924,33.203125
3925,33.203125
3926,35.156250
3927,35.156250
3928,35.156250
3929,35.156250
3930,35.156250
3931,37.109375
3932,37.109375
3933,37.109375
3934,39.062500
3935,39.062500
3936,39.062500
3937,39.062500
3938,39.062500
3939,39.062500
3940,41.015625
3941,41.015625
3942,41.015625
3943,41.015625
3944,41.015625
3945,42.968750
3946,42.968750
3947,42.968750
3948,42.968750
3949,42.968750
3950,42.968750
3951,42.968750
3952,42.968750
3953,42.968750
3954,44.921875
3955,44.921875
3956,44.921875
3957,44.921875
3958,44.921875
3959,44.921875
3960,44.921875
3961,46.875000
3962,46.875000
3963,44.921875
3964,46.875000
3965,46.875000
3966,46.875000
3967,46.875000
3968,46.875000
3969,48.828125
3970,46.875000
3971,48.828125
3972,48.828125
3973,48.828125
3974,48.828125
3975,48.828125
3976,48.828125
3977,48.828125
3978,48.828125
3979,48.828125
3980,48.828125
3981,48.828125
3982,50.781250
3983,50.781250
3984,48.828125
3985,48.828125
3986,48.828125
3987,50.781250
3988,48.828125
3989,50.781250
3990,50.781250
3991,48.828125
3992,50.781250
3993,50.781250
3994,50.781250
3995,50.781250
3996,50.781250
3997,50.781250
3998,50.781250
3999,50.781250
4000,50.781250
4001,50.781250
4002,50.781250
4003,50.781250
4004,50.781250
4005,50.781250
4006,50.781250
4007,50.781250
4008,50.781250
4009,50.781250
4010,50.781250
4011,50.781250
4012,48.828125
4013,48.828125
4014,50.781250
4015,50.781250
4016,48.828125
4017,50.781250
4018,48.828125
4019,50.781250
4020,50.781250
4021,48.828125
4022,48.828125
4023,48.828125
4024,50.781250
4025,48.828125
4026,48.828125
4027,48.828125
4028,48.828125
4029,46.875000
4030,48.828125
4031,46.875000
4032,46.875000
4033,46.875000
4034,46.875000
4035,46.875000
4036,46.875000
4037,46.875000
4038,46.875000
4039,44.921875
4040,44.921875
4041,44.921875
4042,44.921875
4043,44.921875
4044,44.921875
4045,44.921875
4046,42.968750
4047,42.968750
4048,42.968750
4049,42.968750
4050,42.968750
4051,42.968750
4052,41.015625
4053,41.015625
4054,41.015625
4055,41.015625
4056,41.015625
4057,41.015625
4058,39.062500
4059,41.015625
4060,39.062500
4061,39.062500
4062,39.062500
4063,39.062500
4064,37.109375
4065,37.109375
4066,37.109375
4067,37.109375
4068,37.109375
4069,37.109375
4070,35.156250
4071,35.156250
4072,35.156250
4073,33.203125
4074,33.203125
4075,33.203125
4076,33.203125
4077,33.203125
4078,31.250000
4079,31.250000
4080,31.250000
4081,29.296875
4082,29.296875
4083,29.296875
4084,29.296875
4085,29.296875
4086,27.343750
4087,27.343750
4088,27.343750
4089,27.343750
4090,25.390625
4091,25.390625
4092,25.390625
4093,25.390625
4094,23.437500
4095,21.484375
4096,21.484375
4097,21.484375
4098,21.484375
4099,21.484375
4100,19.531250
4101,19.531250
4102,19.531250
4103,19.531250
4104,17.578125
4105,17.578125
4106,15.625000
4107,15.625000
4108,15.625000
4109,13.671875
4110,13.671875
4111,13.671875
4112,11.718750
4113,11.718750
4114,9.765625
4115,11.718750
4116,9.765625
4117,9.765625
4118,9.765625
4119,7.812500
4120,7.812500
4121,7.812500
4122,5.859375
4123,5.859375
4124,5.859375
4125,3.906250
4126,3.906250
4127,3.906250
4128,1.953125
4129,1.953125
4130,1.953125
4131,0.000000
4132,0.000000
4133,-1.953125
4134,-1.953125
4135,-1.953125
4136,-1.953125
4137,-3.906250
4138,-3.906250
4139,-3.906250
4140,-5.859375
4141,-5.859375
4142,-5.859375
4143,-7.812500
4144,-7.812500
4145,-7.812500
4146,-9.765625
4147,-9.765625
4148,-11.718750
4149,-11.718750
4150,-11.718750
4151,-13.671875
4152,-13.671875
4153,-15.625000
4154,-15.625000
4155,-15.625000
4156,-15.625000
4157,-17.578125
4158,-17.578125
4159,-17.578125
4160,-19.531250
4161,-19.531250
4162,-19.531250
4163,-21.484375
4164,-21.484375
4165,-23.437500
4166,-23.437500
4167,-23.437500
4168,-23.437500
4169,-25.390625
4170,-25.390625
4171,-25.390625
4172,-27.343750
4173,-27.343750
4174,-29.296875
4175,-29.296875
4176,-29.296875
4177,-29.296875
4178,-31.250000
4179,-31.250000
4180,-31.250000
4181,-33.203125
4182,-33.203125
4183,-33.203125
4184,-35.156250
4185,-35.156250
4186,-35.156250
4187,-35.156250
4188,-37.109375
4189,-37.109375
4190,-39.062500
4191,-39.062500
4192,-39.062500
4193,-39.062500
4194,-41.015625
4195,-41.015625
4196,-41.015625
4197,-42.968750
4198,-42.968750
4199,-42.968750
4200,-44.921875
4201,-44.921875
4202,-44.921875
4203,-44.921875
4204,-46.875000
4205,-46.875000
4206,-46.875000
4207,-46.875000
4208,-48.828125
4209,-48.828125
4210,-48.828125
4211,-48.828125
4212,-50.781250
4213,-50.781250
4214,-50.781250
4215,-50.781250
4216,-52.734375
4217,-52.734375
4218,-54.687500
4219,-52.734375
4220,-54.687500
4221,-54.687500
4222,-54.687500
4223,-56.640625
4224,-54.687500
4225,-56.640625
4226,-56.640625
4227,-56.640625
4228,-58.593750
4229,-58.593750
4230,-58.593750
4231,-58.593750
4232,-60.546875
4233,-60.546875
4234,-60.546875
4235,-60.546875
4236,-60.546875
4237,-62.500000
4238,-62.500000
4239,-62.500000
4240,-62.500000
4241,-62.500000
4242,-62.500000
4243,-64.453125
4244,-64.453125
4245,-64.453125
4246,-64.453125
4247,-64.453125
4248,-64.453125
4249,-66.406250
4250,-66.406250
4251,-66.406250
4252,-66.406250
4253,-66.406250
4254,-66.406250
4255,-66.406250
4256,-70.312500
4257,-66.406250
4258,-68.359375
4259,-68.359375
4260,-68.359375
4261,-68.359375
4262,-68.359375
4263,-68.359375
4264,-70.312500
4265,-68.359375
4266,-70.312500
4267,-70.312500
4268,-68.359375
4269,-70.312500
4270,-70.312500
4271,-70.312500
4272,-70.312500
4273,-70.312500
4274,-70.312500
4275,-70.312500
4276,-70.312500
4277,-70.312500
4278,-70.312500
4279,-70.312500
4280,-72.265625
4281,-70.312500
4282,-72.265625
4283,-72.265625
4284,-72.265625
4285,-72.265625
4286,-72.265625
4287,-72.265625
4288,-72.265625
4289,-72.265625
4290,-72.265625
4291,-70.312500
4292,-72.265625
4293,-72.265625
4294,-72.265625
4295,-72.265625
4296,-72.265625
4297,-72.265625
4298,-72.265625
4299,-72.265625
4300,-72.265625
4301,-70.312500
4302,-70.312500
4303,-70.312500
4304,-72.265625
4305,-70.312500
4306,-70.312500
4307,-70.312500
4308,-70.312500
4309,-70.312500
4310,-70.312500
4311,-70.312500
4312,-70.312500
4313,-70.312500
4314,-68.359375
4315,-68.359375
4316,-70.312500
4317,-68.359375
4318,-68.359375
4319,-68.359375
4320,-68.359375
4321,-68.359375
4322,-66.406250
4323,-66.406250
4324,-68.359375
4325,-66.406250
4326,-66.406250
4327,-66.406250
4328,-64.453125
4329,-64.453125
4330,-64.453125
4331,-64.453125
4332,-64.453125
4333,-64.453125
4334,-62.500000
4335,-62.500000
4336,-62.500000
4337,-62.500000
4338,-62.500000
4339,-60.546875
4340,-60.546875
4341,-60.546875
4342,-60.546875
4343,-60.546875
4344,-58.593750
4345,-58.593750
4346,-58.593750
4347,-56.640625
4348,-58.593750
4349,-56.640625
4350,-56.640625
4351,-56.640625
4352,-54.687500
4353,-54.687500
4354,-54.687500
4355,-54.687500
4356,-52.734375
4357,-52.734375
4358,-52.734375
4359,-52.734375
4360,-50.781250
4361,-50.781250
4362,-50.781250
4363,-50.781250
4364,-48.828125
4365,-48.828125
4366,-48.828125
4367,-48.828125
4368,-46.875000
4369,-46.875000
4370,-46.875000
4371,-46.875000
4372,-44.921875
4373,-44.921875
4374,-44.921875
4375,-42.968750
4376,-42.968750
4377,-41.015625
4378,-41.015625
4379,-41.015625
4380,-39.062500
4381,-39.062500
4382,-39.062500
4383,-37.109375
4384,-37.109375
4385,-37.109375
4386,-37.109375
4387,-35.156250
4388,-35.156250
4389,-33.203125
4390,-33.203125
4391,-33.203125
4392,-31.250000
4393,-31.250000
4394,-31.250000
4395,-31.250000
4396,-29.296875
4397,-29.296875
4398,-27.343750
4399,-27.343750
4400,-27.343750
4401,-27.343750
4402,-25.390625
4403,-25.390625
4404,-25.390625
4405,-25.390625
4406,-23.437500
4407,-23.437500
4408,-21.484375
4409,-21.484375
4410,-21.484375
4411,-19.531250
4412,-19.531250
4413,-19.531250
4414,-17.578125
4415,-17.578125
4416,-17.578125
4417,-17.578125
4418,-15.625000
4419,-13.671875
4420,-13.671875
4421,-13.671875
4422,-13.671875
4423,-11.718750
4424,-11.718750
4425,-11.718750
4426,-11.718750
4427,-9.765625
4428,-7.812500
4429,-9.765625
4430,-7.812500
4431,-7.812500
4432,-5.859375
4433,-5.859375
4434,-5.859375
4435,-3.906250
4436,-3.906250
4437,-1.953125
4438,-1.953125
4439,-1.953125
4440,-1.953125
4441,-1.953125
4442,0.000000
4443,0.000000
4444,1.953125
4445,1.953125
4446,1.953125
4447,3.906250
4448,3.906250
4449,3.906250
4450,5.859375
4451,5.859375
4452,5.859375
4453,5.859375
4454,7.812500
4455,7.812500
4456,7.812500
4457,7.812500
4458,9.765625
4459,11.718750
4460,9.765625
4461,11.718750
4462,11.718750
4463,13.671875
4464,13.671875
4465,13.671875
4466,13.671875
4467,15.625000
4468,15.625000
4469,15.625000
4470,17.578125
4471,17.578125
4472,17.578125
4473,17.578125
4474,19.531250
4475,19.531250
4476,19.531250
4477,19.531250
4478,19.531250
4479,21.484375
4480,21.484375
4481,21.484375
4482,23.437500
4483,23.437500
4484,23.437500
4485,23.437500
4486,25.390625
4487,25.390625
4488,25.390625
4489,25.390625
4490,27.343750
4491,27.343750
4492,27.343750
4493,27.343750
4494,29.296875
4495,27.343750
4496,29.296875
4497,29.296875
4498,29.296875
4499,31.250000
4500,31.250000
4501,31.250000
4502,31.250000
4503,33.203125
4504,33.203125
4505,33.203125
4506,33.203125
4507,33.203125
4508,33.203125
4509,35.156250
4510,35.156250
4511,35.156250
4512,37.109375
4513,37.109375
4514,37.109375
4515,37.109375
4516,37.109375
4517,37.109375
4518,37.109375
4519,39.062500
4520,39.062500
4521,39.062500
4522,39.062500
4523,39.062500
4524,41.015625
4525,41.015625
4526,41.015625
4527,41.015625
4528,41.015625
4529,41.015625
4530,42.968750
4531,42.968750
4532,42.968750
4533,42.968750
4534,42.968750
4535,44.921875
4536,44.921875
4537,42.968750
4538,44.921875
4539,44.921875
4540,44.921875
4541,44.921875
4542,44.921875
4543,44.921875
4544,46.875000
4545,46.875000
4546,46.875000
4547,46.875000
4548,46.875000
4549,46.875000
4550,46.875000
4551,46.875000
4552,46.875000
4553,46.875000
4554,46.875000
4555,46.875000
4556,48.828125
4557,48.828125
4558,48.828125
4559,48.828125
4560,48.828125
4561,48.828125
4562,48.828125
4563,48.828125
4564,48.828125
4565,48.828125
4566,48.828125
4567,48.828125
4568,50.781250
4569,48.828125
4570,48.828125
4571,48.828125
4572,48.828125
4573,50.781250
4574,48.828125
4575,48.828125
4576,50.781250
4577,50.781250
4578,48.828125
4579,48.828125
4580,50.781250
4581,50.781250
4582,50.781250
4583,50.781250
4584,50.781250
4585,50.781250
4586,48.828125
4587,50.781250
4588,50.781250
4589,50.781250
4590,48.828125
4591,48.828125
4592,50.781250
4593,50.781250
4594,50.781250
4595,50.781250
4596,48.828125
4597,48.828125
4598,48.828125
4599,48.828125
4600,50.781250
4601,48.828125
4602,48.828125
4603,48.828125
4604,48.828125
4605,48.828125
4606,48.828125
4607,48.828125
4608,48.828125
4609,46.875000
4610,48.828125
4611,46.875000
4612,46.875000
4613,46.875000
4614,46.875000
4615,46.875000
4616,46.875000
4617,46.875000
4618,46.875000
4619,44.921875
4620,44.921875
4621,44.921875
4622,44.921875
4623,44.921875
4624,44.921875
4625,42.968750
4626,42.968750
4627,42.968750
4628,42.968750
4629,42.968750
4630,42.968750
4631,42.968750
4632,41.015625
4633,41.015625
4634,41.015625
4635,41.015625
4636,41.015625
4637,41.015625
4638,39.062500
4639,39.062500
4640,39.062500
4641,39.062500
4642,39.062500
4643,37.109375
4644,37.109375
4645,37.109375
4646,37.109375
4647,37.109375
4648,35.156250
4649,35.156250
4650,35.156250
4651,35.156250
4652,35.156250
4653,33.203125
4654,35.156250
4655,33.203125
4656,33.203125
4657,33.203125
4658,31.250000
4659,31.250000
4660,31.250000
4661,31.250000
4662,31.250000
4663,31.250000
4664,29.296875
4665,27.343750
4666,27.343750
4667,27.343750
4668,27.343750
4669,27.343750
4670,25.390625
4671,25.390625
4672,25.390625
4673,25.390625
4674,23.437500
4675,21.484375
4676,23.437500
4677,21.484375
4678,21.484375
4679,21.484375
4680,21.484375
4681,19.531250
4682,19.531250
4683,19.531250
4684,17.578125
4685,17.578125
4686,17.578125
4687,17.578125
4688,15.625000
4689,15.625000
4690,15.625000
4691,13.671875
4692,13.671875
4693,11.718750
4694,13.671875
4695,11.718750
4696,11.718750
4697,9.765625
4698,9.765625
4699,9.765625
4700,7.812500
4701,7.812500
4702,5.859375
4703,5.859375
4704,5.859375
4705,5.859375
4706,5.859375
4707,3.906250
4708,3.906250
4709,1.953125
4710,1.953125
4711,1.953125
4712,1.953125
4713,0.000000
4714,0.000000
4715,-1.953125
4716,-1.953125
4717,-1.953125
4718,-1.953125
4719,-3.906250
4720,-3.906250
4721,-5.859375
4722,-5.859375
4723,-5.859375
4724,-7.812500
4725,-7.812500
4726,-7.812500
4727,-7.812500
4728,-9.765625
4729,-9.765625
4730,-11.718750
4731,-11.718750
4732,-11.718750
4733,-13.671875
4734,-13.671875
4735,-13.671875
4736,-15.625000
4737,-15.625000
4738,-15.625000
4739,-17.578125
4740,-17.578125
4741,-19.531250
4742,-19.531250
4743,-19.531250
4744,-19.531250
4745,-21.484375
4746,-21.484375
4747,-23.437500
4748,-23.437500
4749,-23.437500
4750,-25.390625
4751,-25.390625
4752,-25.390625
4753,-27.343750
4754,-27.343750
4755,-27.343750
4756,-29.296875
4757,-29.296875
4758,-29.296875
4759,-31.250000
4760,-31.250000
4761,-31.250000
4762,-33.203125
4763,-33.203125
4764,-33.203125
4765,-33.203125
4766,-35.156250
4767,-35.156250
4768,-35.156250
4769,-37.109375
4770,-37.109375
4771,-37.109375
4772,-37.109375
4773,-39.062500
4774,-39.062500
4775,-39.062500
4776,-41.015625
4777,-41.015625
4778,-41.015625
4779,-42.968750
4780,-42.968750
4781,-42.968750
4782,-42.968750
4783,-42.968750
4784,-44.921875
4785,-44.921875
4786,-46.875000
4787,-46.875000
4788,-46.875000
4789,-46.875000
4790,-46.875000
4791,-48.828125
4792,-48.828125
4793,-48.828125
4794,-48.828125
4795,-50.781250
4796,-50.781250
4797,-50.781250
4798,-50.781250
4799,-52.734375
4800,-52.734375
4801,-52.734375
4802,-52.734375
4803,-54.687500
4804,-54.687500
4805,-54.687500
4806,-54.687500
4807,-54.687500
4808,-56.640625
4809,-56.640625
4810,-56.640625
4811,-56.640625
4812,-56.640625
4813,-58.593750
4814,-58.593750
4815,-58.593750
4816,-60.546875
4817,-60.546875
4818,-60.546875
4819,-60.546875
4820,-60.546875
4821,-60.546875
4822,-62.500000
4823,-62.500000
4824,-62.500000
4825,-62.500000
4826,-62.500000
4827,-64.453125
4828,-64.453125
4829,-64.453125
4830,-64.453125
4831,-64.453125
4832,-64.453125
4833,-66.406250
4834,-66.406250
4835,-66.406250
4836,-66.406250
4837,-66.406250
4838,-66.406250
4839,-68.359375
4840,-66.406250
4841,-66.406250
4842,-68.359375
4843,-68.359375
4844,-68.359375
4845,-68.359375
4846,-68.359375
4847,-68.359375
4848,-68.359375
4849,-68.359375
4850,-68.359375
4851,-68.359375
4852,-70.312500
4853,-68.359375
4854,-70.312500
4855,-68.359375
4856,-70.312500
4857,-70.312500
4858,-70.312500
4859,-70.312500
4860,-70.312500
4861,-70.312500
4862,-70.312500
4863,-72.265625
4864,-70.312500
4865,-70.312500
4866,-70.312500
4867,-70.312500
4868,-70.312500
4869,-70.312500
4870,-72.265625
4871,-72.265625
4872,-70.312500
4873,-72.265625
4874,-70.312500
4875,-70.312500
4876,-70.312500
4877,-72.265625
4878,-70.312500
4879,-70.312500
4880,-70.312500
4881,-70.312500
4882,-72.265625
4883,-70.312500
4884,-70.312500
4885,-70.312500
4886,-70.312500
4887,-70.312500
4888,-70.312500
4889,-70.312500
4890,-68.359375
4891,-70.312500
4892,-68.359375
4893,-68.359375
4894,-70.312500
4895,-68.359375
4896,-68.359375
4897,-68.359375
4898,-68.359375
4899,-68.359375
4900,-68.359375
4901,-68.359375
4902,-66.406250
4903,-66.406250
4904,-66.406250
4905,-66.406250
4906,-66.406250
4907,-66.406250
4908,-64.453125
4909,-64.453125
4910,-64.453125
4911,-64.453125
4912,-64.453125
4913,-64.453125
4914,-62.500000
4915,-62.500000
4916,-62.500000
4917,-62.500000
4918,-62.500000
4919,-60.546875
4920,-60.546875
4921,-60.546875
4922,-60.546875
4923,-60.546875
4924,-60.546875
4925,-58.593750
4926,-58.593750
4927,-58.593750
4928,-58.593750
4929,-56.640625
4930,-56.640625
4931,-56.640625
4932,-56.640625
4933,-54.687500
4934,-56.640625
4935,-54.687500
4936,-54.687500
4937,-54.687500
4938,-54.687500
4939,-52.734375
4940,-52.734375
4941,-52.734375
4942,-50.781250
4943,-50.781250
4944,-50.781250
4945,-48.828125
4946,-48.828125
4947,-48.828125
4948,-48.828125
4949,-46.875000
4950,-46.875000
4951,-44.921875
4952,-46.875000
4953,-44.921875
4954,-44.921875
4955,-42.968750
4956,-42.968750
4957,-42.968750
4958,-41.015625
4959,-41.015625
4960,-41.015625
4961,-41.015625
4962,-39.062500
4963,-39.062500
4964,-39.062500
4965,-39.062500
4966,-37.109375
4967,-37.109375
4968,-37.109375
4969,-35.156250
4970,-35.156250
4971,-35.156250
4972,-33.203125
4973,-33.203125
4974,-31.250000
4975,-31.250000
4976,-31.250000
4977,-29.296875
4978,-29.296875
4979,-29.296875
4980,-27.343750
4981,-27.343750
4982,-27.343750
4983,-27.343750
4984,-25.390625
4985,-25.390625
4986,-25.390625
4987,-23.437500
4988,-23.437500
4989,-23.437500
4990,-23.437500
4991,-21.484375
4992,-21.484375
4993,-19.531250
4994,-19.531250
4995,-19.531250
4996,-17.578125
4997,-17.578125
4998,-17.578125
4999,-15.625000
5000,-15.625000
5001,-15.625000
5002,-15.625000
5003,-13.671875
5004,-13.671875
5005,-13.671875
5006,-11.718750
5007,-11.718750
5008,-9.765625
5009,-9.765625
5010,-9.765625
5011,-9.765625
5012,-7.812500
5013,-7.812500
5014,-5.859375
5015,-5.859375
5016,-5.859375
5017,-5.859375
5018,-3.906250
5019,-3.906250
5020,-3.906250
5021,-1.953125
5022,-1.953125
5023,-1.953125
5024,-1.953125
5025,0.000000
5026,1.953125
5027,1.953125
5028,1.953125
5029,1.953125
5030,3.906250
5031,3.906250
5032,3.906250
5033,5.859375
5034,5.859375
5035,5.859375
5036,5.859375
5037,7.812500
5038,7.812500
5039,7.812500
5040,9.765625
5041,9.765625
5042,9.765625
5043,11.718750
5044,11.718750
5045,11.718750
5046,11.718750
5047,11.718750
5048,13.671875
5049,13.671875
5050,15.625000
5051,15.625000
5052,15.625000
5053,15.625000
5054,17.578125
5055,17.578125
5056,17.578125
5057,19.531250
5058,19.531250
5059,19.531250
5060,19.531250
5061,19.531250
5062,19.531250
5063,21.484375
5064,21.484375
5065,21.484375
5066,21.484375
5067,23.437500
5068,23.437500
5069,23.437500
5070,25.390625
5071,25.390625
5072,25.390625
5073,25.390625
5074,27.343750
5075,27.343750
5076,27.343750
5077,27.343750
5078,29.296875
5079,29.296875
5080,29.296875
5081,29.296875
5082,29.296875
5083,29.296875
5084,31.250000
5085,31.250000
5086,31.250000
5087,31.250000
5088,33.203125
5089,33.203125
5090,33.203125
5091,33.203125
5092,33.203125
5093,33.203125
5094,35.156250
5095,35.156250
5096,35.156250
5097,35.156250
5098,37.109375
5099,37.109375
5100,37.109375
5101,37.109375
5102,39.062500
5103,37.109375
5104,39.062500
5105,39.062500
5106,39.062500
5107,39.062500
5108,39.062500
5109,41.015625
5110,41.015625
5111,41.015625
5112,41.015625
5113,41.015625
5114,41.015625
5115,41.015625
5116,42.968750
5117,42.968750
5118,41.015625
5119,42.968750
5120,42.968750
5121,42.968750
5122,44.921875
5123,44.921875
5124,42.968750
5125,44.921875
5126,44.921875
5127,44.921875
5128,44.921875
5129,44.921875
5130,44.921875
5131,44.921875
5132,46.875000
5133,46.875000
5134,46.875000
5135,46.875000
5136,46.875000
5137,46.875000
5138,46.875000
5139,46.875000
5140,46.875000
5141,46.875000
5142,48.828125
5143,48.828125
5144,48.828125
5145,46.875000
5146,46.875000
5147,48.828125
5148,46.875000
5149,48.828125
5150,48.828125
5151,48.828125
5152,48.828125
5153,48.828125
5154,48.828125
5155,48.828125
5156,48.828125
5157,48.828125
5158,48.828125
5159,48.828125
5160,48.828125
5161,48.828125
5162,48.828125
5163,48.828125
5164,50.781250
5165,48.828125
5166,48.828125
5167,50.781250
5168,48.828125
5169,48.828125
5170,48.828125
5171,48.828125
5172,48.828125
5173,48.828125
5174,48.828125
5175,48.828125
5176,48.828125
5177,48.828125
5178,48.828125
5179,50.781250
5180,48.828125
5181,48.828125
5182,48.828125
5183,48.828125
5184,48.828125
5185,48.828125
5186,48.828125
5187,48.828125
5188,46.875000
5189,48.828125
5190,46.875000
5191,46.875000
5192,46.875000
5193,46.875000
5194,46.875000
5195,46.875000
5196,46.875000
5197,46.875000
5198,46.875000
5199,44.921875
5200,44.921875
5201,44.921875
5202,44.921875
5203,44.921875
5204,44.921875
5205,44.921875
5206,44.921875
5207,42.968750
5208,42.968750
5209,42.968750
5210,42.968750
5211,42.968750
5212,42.968750
5213,42.968750
5214,41.015625
5215,41.015625
5216,41.015625
5217,41.015625
5218,41.015625
5219,39.062500
5220,41.015625
5221,39.062500
5222,39.062500
5223,39.062500
5224,39.062500
5225,39.062500
5226,37.109375
5227,37.109375
5228,37.109375
5229,35.156250
5230,37.109375
5231,35.156250
5232,35.156250
5233,35.156250
5234,35.156250
5235,35.156250
5236,35.156250
5237,33.203125
5238,33.203125
5239,33.203125
5240,31.250000
5241,31.250000
5242,31.250000
5243,31.250000
5244,31.250000
5245,31.250000
5246,29.296875
5247,29.296875
5248,29.296875
5249,29.296875
5250,27.343750
5251,27.343750
5252,27.343750
5253,27.343750
5254,25.390625
5255,25.390625
5256,23.437500
5257,23.437500
5258,23.437500
5259,23.437500
5260,23.437500
5261,21.484375
5262,21.484375
5263,21.484375
5264,19.531250
5265,19.531250
5266,19.531250
5267,17.578125
5268,17.578125
5269,17.578125
5270,17.578125
5271,15.625000
5272,15.625000
5273,13.671875
5274,13.671875
5275,13.671875
5276,13.671875
5277,11.718750
5278,11.718750
5279,11.718750
5280,11.718750
5281,9.765625
5282,9.765625
5283,9.765625
5284,7.812500
5285,7.812500
5286,7.812500
5287,5.859375
5288,5.859375
5289,5.859375
5290,3.906250
5291,3.906250
5292,1.953125
5293,1.953125
5294,1.953125
5295,1.953125
5296,1.953125
5297,0.000000
5298,0.000000
5299,0.000000
5300,-1.953125
5301,-3.906250
5302,-3.906250
5303,-3.906250
5304,-3.906250
5305,-5.859375
5306,-5.859375
5307,-7.812500
5308,-7.812500
5309,-7.812500
5310,-7.812500
5311,-9.765625
5312,-9.765625
5313,-9.765625
5314,-9.765625
5315,-11.718750
5316,-11.718750
5317,-13.671875
5318,-13.671875
5319,-13.671875
5320,-15.625000
5321,-15.625000
5322,-15.625000
5323,-17.578125
5324,-17.578125
5325,-17.578125
5326,-19.531250
5327,-19.531250
5328,-21.484375
5329,-21.484375
5330,-21.484375
5331,-23.437500
5332,-23.437500
5333,-23.437500
5334,-23.437500
5335,-25.390625
5336,-25.390625
5337,-27.343750
5338,-27.343750
5339,-27.343750
5340,-29.296875
5341,-29.296875
5342,-31.250000
5343,-31.250000
5344,-31.250000
5345,-31.250000
5346,-31.250000
5347,-33.203125
5348,-33.203125
5349,-33.203125
5350,-33.203125
5351,-35.156250
5352,-35.156250
5353,-37.109375
5354,-37.109375
5355,-37.109375
5356,-37.109375
5357,-39.062500
5358,-39.062500
5359,-39.062500
5360,-41.015625
5361,-41.015625
5362,-41.015625
5363,-41.015625
5364,-42.968750
5365,-42.968750
5366,-42.968750
5367,-42.968750
5368,-44.921875
5369,-44.921875
5370,-44.921875
5371,-44.921875
5372,-46.875000
5373,-46.875000
5374,-46.875000
5375,-46.875000
5376,-48.828125
5377,-48.828125
5378,-48.828125
5379,-48.828125
5380,-48.828125
5381,-50.781250
5382,-50.781250
5383,-50.781250
5384,-52.734375
5385,-52.734375
5386,-52.734375
5387,-54.687500
5388,-54.687500
5389,-54.687500
5390,-54.687500
5391,-54.687500
5392,-56.640625
5393,-56.640625
5394,-56.640625
5395,-56.640625
5396,-58.593750
5397,-58.593750
5398,-58.593750
5399,-58.593750
5400,-60.546875
5401,-60.546875
5402,-60.546875
5403,-60.546875
5404,-60.546875
5405,-60.546875
5406,-60.546875
5407,-62.500000
5408,-62.500000
5409,-62.500000
5410,-62.500000
5411,-62.500000
5412,-62.500000
5413,-64.453125
5414,-64.453125
5415,-64.453125
5416,-64.453125
5417,-64.453125
5418,-64.453125
5419,-64.453125
5420,-66.406250
5421,-66.406250
5422,-66.406250
5423,-66.406250
5424,-66.406250
5425,-66.406250
5426,-68.359375
5427,-66.406250
5428,-66.406250
5429,-68.359375
5430,-68.359375
5431,-68.359375
5432,-68.359375
5433,-68.359375
5434,-68.359375
5435,-68.359375
5436,-68.359375
5437,-68.359375
5438,-70.312500
5439,-70.312500
5440,-70.312500
5441,-68.359375
5442,-70.312500
5443,-70.312500
5444,-70.312500
5445,-70.312500
5446,-70.312500
5447,-70.312500
5448,-70.312500
5449,-70.312500
5450,-70.312500
5451,-70.312500
5452,-70.312500
5453,-70.312500
5454,-70.312500
5455,-70.312500
5456,-70.312500
5457,-70.312500
5458,-70.312500
5459,-70.312500
5460,-70.312500
5461,-70.312500
5462,-72.265625
5463,-70.312500
5464,-70.312500
5465,-70.312500
5466,-70.312500
5467,-70.312500
5468,-70.312500
5469,-70.312500
5470,-70.312500
5471,-70.312500
5472,-70.312500
5473,-70.312500
5474,-70.312500
5475,-70.312500
5476,-68.359375
5477,-68.359375
5478,-68.359375
5479,-68.359375
5480,-68.359375
5481,-68.359375
5482,-68.359375
5483,-68.359375
5484,-66.406250
5485,-68.359375
5486,-66.406250
5487,-66.406250
5488,-66.406250
5489,-66.406250
5490,-66.406250
5491,-64.453125
5492,-64.453125
5493,-64.453125
5494,-64.453125
5495,-64.453125
5496,-64.453125
5497,-64.453125
5498,-62.500000
5499,-62.500000
5500,-62.500000
5501,-62.500000
5502,-62.500000
5503,-60.546875
5504,-60.546875
5505,-60.546875
5506,-60.546875
5507,-58.593750
5508,-58.593750
5509,-58.593750
5510,-58.593750
5511,-58.593750
5512,-56.640625
5513,-56.640625
5514,-56.640625
5515,-56.640625
5516,-54.687500
5517,-56.640625
5518,-54.687500
5519,-54.687500
5520,-54.687500
5521,-54.687500
5522,-52.734375
5523,-52.734375
5524,-50.781250
5525,-52.734375
5526,-52.734375
5527,-50.781250
5528,-50.781250
5529,-48.828125
5530,-48.828125
5531,-48.828125
5532,-46.875000
5533,-46.875000
5534,-46.875000
5535,-46.875000
5536,-44.921875
5537,-44.921875
5538,-44.921875
5539,-44.921875
5540,-42.968750
5541,-42.968750
5542,-42.968750
5543,-41.015625
5544,-41.015625
5545,-41.015625
5546,-41.015625
5547,-39.062500
5548,-39.062500
5549,-39.062500
5550,-37.109375
5551,-37.109375
5552,-35.156250
5553,-35.156250
5554,-35.156250
5555,-35.156250
5556,-33.203125
5557,-33.203125
5558,-33.203125
5559,-31.250000
5560,-31.250000
5561,-29.296875
5562,-29.296875
5563,-29.296875
5564,-29.296875
5565,-27.343750
5566,-27.343750
5567,-27.343750
5568,-25.390625
5569,-25.390625
5570,-25.390625
5571,-25.390625
5572,-23.437500
5573,-23.437500
5574,-21.484375
5575,-21.484375
5576,-21.484375
5577,-19.531250
5578,-19.531250
5579,-19.531250
5580,-19.531250
5581,-17.578125
5582,-17.578125
5583,-17.578125
5584,-17.578125
5585,-15.625000
5586,-15.625000
5587,-13.671875
5588,-13.671875
5589,-11.718750
5590,-11.718750
5591,-11.718750
5592,-11.718750
5593,-9.765625
5594,-9.765625
5595,-9.765625
5596,-9.765625
5597,-7.812500
5598,-7.812500
5599,-5.859375
5600,-5.859375
5601,-5.859375
5602,-5.859375
5603,-3.906250
5604,-3.906250
5605,-3.906250
5606,-1.953125
5607,-1.953125
5608,0.000000
5609,-1.953125
5610,0.000000
5611,0.000000
5612,1.953125
5613,1.953125
5614,1.953125
5615,3.906250
5616,3.906250
5617,3.906250
5618,5.859375
5619,5.859375
5620,5.859375
5621,5.859375
5622,7.812500
5623,7.812500
5624,7.812500
5625,9.765625
5626,9.765625
5627,9.765625
5628,11.718750
5629,11.718750
5630,11.718750
5631,11.718750
5632,13.671875
5633,13.671875
5634,13.671875
5635,15.625000
5636,15.625000
5637,15.625000
5638,15.625000
5639,17.578125
5640,17.578125
5641,19.531250
5642,17.578125
5643,19.531250
5644,19.531250
5645,19.531250
5646,21.484375
5647,21.484375
5648,21.484375
5649,21.484375
5650,21.484375
5651,23.437500
5652,23.437500
5653,23.437500
5654,25.390625
5655,25.390625
5656,25.390625
5657,25.390625
5658,27.343750
5659,27.343750
5660,27.343750
5661,27.343750
5662,27.343750
5663,29.296875
5664,29.296875
5665,29.296875
5666,29.296875
5667,31.250000
5668,31.250000
5669,31.250000
5670,31.250000
5671,31.250000
5672,31.250000
5673,33.203125
5674,33.203125
5675,33.203125
5676,35.156250
5677,35.156250
5678,35.156250
5679,35.156250
5680,35.156250
5681,35.156250
5682,35.156250
5683,37.109375
5684,37.109375
5685,37.109375
5686,37.109375
5687,37.109375
5688,39.062500
5689,39.062500
5690,39.062500
5691,39.062500
5692,41.015625
5693,39.062500
5694,41.015625
5695,41.015625
5696,41.015625
5697,41.015625
5698,41.015625
5699,41.015625
5700,42.968750
5701,42.968750
5702,42.968750
5703,42.968750
5704,42.968750
5705,42.968750
5706,44.921875
5707,44.921875
5708,44.921875
5709,44.921875
5710,44.921875
5711,44.921875
5712,44.921875
5713,46.875000
5714,44.921875
5715,44.921875
5716,46.875000
5717,46.875000
5718,46.875000
5719,46.875000
5720,46.875000
5721,46.875000
5722,46.875000
5723,46.875000
5724,46.875000
5725,46.875000
5726,46.875000
5727,46.875000
5728,48.828125
5729,48.828125
5730,48.828125
5731,48.828125
5732,48.828125
5733,48.828125
5734,48.828125
5735,48.828125
5736,48.828125
5737,48.828125
5738,48.828125
5739,48.828125
5740,48.828125
5741,48.828125
5742,50.781250
5743,48.828125
5744,48.828125
5745,50.781250
5746,48.828125
5747,48.828125
5748,50.781250
5749,50.781250
5750,48.828125
5751,50.781250
5752,50.781250
5753,48.828125
5754,50.781250
5755,50.781250
5756,50.781250
5757,50.781250
5758,48.828125
5759,50.781250
5760,50.781250
5761,48.828125
5762,48.828125
5763,48.828125
5764,48.828125
5765,48.828125
5766,48.828125
5767,48.828125
5768,48.828125
5769,50.781250
5770,48.828125
5771,48.828125
5772,48.828125
5773,48.828125
5774,48.828125
5775,46.875000
5776,48.828125
5777,46.875000
5778,46.875000
5779,46.875000
5780,46.875000
5781,46.875000
5782,46.875000
5783,46.875000
5784,44.921875
5785,46.875000
5786,44.921875
5787,44.921875
5788,44.921875
5789,44.921875
5790,44.921875
5791,44.921875
5792,42.968750
5793,42.968750
5794,44.921875
5795,42.968750
5796,42.968750
5797,42.968750
5798,42.968750
5799,44.921875
5800,41.015625
5801,41.015625
5802,41.015625
5803,41.015625
5804,41.015625
5805,39.062500
5806,41.015625
5807,39.062500
5808,41.015625
5809,39.062500
5810,39.062500
5811,37.109375
5812,37.109375
5813,41.015625
5814,37.109375
5815,35.156250
5816,35.156250
5817,35.156250
5818,37.109375
5819,35.156250
5820,35.156250
5821,33.203125
5822,33.203125
5823,33.203125
5824,33.203125
5825,31.250000
5826,31.250000
5827,31.250000
5828,31.250000
5829,31.250000
5830,29.296875
5831,29.296875
5832,29.296875
5833,27.343750
5834,27.343750
5835,27.343750
5836,27.343750
5837,27.343750
5838,27.343750
5839,25.390625
5840,25.390625
5841,23.437500
5842,23.437500
5843,23.437500
5844,21.484375
5845,21.484375
5846,19.531250
5847,21.484375
5848,21.484375
5849,19.531250
5850,19.531250
5851,17.578125
5852,17.578125
5853,17.578125
5854,17.578125
5855,15.625000
5856,15.625000
5857,15.625000
5858,15.625000
5859,13.671875
5860,11.718750
5861,11.718750
5862,11.718750
5863,11.718750
5864,11.718750
5865,9.765625
5866,9.765625
5867,9.765625
5868,7.812500
5869,7.812500
5870,7.812500
5871,5.859375
5872,5.859375
5873,3.906250
5874,3.906250
5875,3.906250
5876,1.953125
5877,1.953125
5878,1.953125
5879,1.953125
5880,1.953125
5881,0.000000
5882,0.000000
5883,0.000000
5884,-1.953125
5885,-3.906250
5886,-3.906250
5887,-3.906250
5888,-3.906250
5889,-5.859375
5890,-5.859375
5891,-5.859375
5892,-5.859375
5893,-7.812500
5894,-7.812500
5895,-7.812500
5896,-9.765625
5897,-11.718750
5898,-11.718750
5899,-11.718750
5900,-13.671875
5901,-13.671875
5902,-13.671875
5903,-15.625000
5904,-15.625000
5905,-15.625000
5906,-17.578125
5907,-17.578125
5908,-19.531250
5909,-19.531250
5910,-19.531250
5911,-19.531250
5912,-21.484375
5913,-21.484375
5914,-21.484375
5915,-23.437500
5916,-23.437500
5917,-23.437500
5918,-25.390625
5919,-25.390625
5920,-25.390625
5921,-27.343750
5922,-27.343750
5923,-27.343750
5924,-27.343750
5925,-29.296875
5926,-29.296875
5927,-31.250000
5928,-31.250000
5929,-33.203125
5930,-31.250000
5931,-33.203125
5932,-35.156250
5933,-35.156250
5934,-35.156250
5935,-35.156250
5936,-37.109375
5937,-37.109375
5938,-37.109375
5939,-37.109375
5940,-39.062500
5941,-39.062500
5942,-39.062500
5943,-41.015625
5944,-41.015625
5945,-41.015625
5946,-41.015625
5947,-42.968750
5948,-42.968750
5949,-42.968750
5950,-44.921875
5951,-44.921875
5952,-44.921875
5953,-44.921875
5954,-46.875000
5955,-46.875000
5956,-46.875000
5957,-46.875000
5958,-48.828125
5959,-48.828125
5960,-48.828125
5961,-48.828125
5962,-50.781250
5963,-50.781250
5964,-50.781250
5965,-52.734375
5966,-52.734375
5967,-52.734375
5968,-52.734375
5969,-54.687500
5970,-54.687500
5971,-54.687500
5972,-54.687500
5973,-56.640625
5974,-56.640625
5975,-56.640625
5976,-58.593750
5977,-56.640625
5978,-58.593750
5979,-58.593750
5980,-58.593750
5981,-58.593750
5982,-60.546875
5983,-60.546875
5984,-60.546875
5985,-60.546875
5986,-62.500000
5987,-60.546875
5988,-62.500000
5989,-62.500000
5990,-62.500000
5991,-62.500000
5992,-62.500000
5993,-62.500000
5994,-64.453125
5995,-64.453125
5996,-64.453125
5997,-64.453125
5998,-64.453125
5999,-66.406250
6000,-66.406250
6001,-66.406250
6002,-66.406250
6003,-66.406250
6004,-66.406250
6005,-66.406250
6006,-68.359375
6007,-68.359375
6008,-68.359375
6009,-66.406250
6010,-70.312500
6011,-68.359375
6012,-68.359375
6013,-68.359375
6014,-68.359375
6015,-70.312500
6016,-70.312500
6017,-70.312500
6018,-70.312500
6019,-70.312500
6020,-70.312500
6021,-70.312500
6022,-70.312500
6023,-70.312500
6024,-70.312500
6025,-70.312500
6026,-70.312500
6027,-70.312500
6028,-72.265625
6029,-72.265625
6030,-70.312500
6031,-72.265625
6032,-72.265625
6033,-72.265625
6034,-72.265625
6035,-72.265625
6036,-72.265625
6037,-72.265625
6038,-72.265625
6039,-72.265625
6040,-72.265625
6041,-72.265625
6042,-72.265625
6043,-66.406250
6044,-72.265625
6045,-68.359375
6046,-72.265625
6047,-70.312500
6048,-72.265625
6049,-72.265625
6050,-72.265625
6051,-72.265625
6052,-72.265625
6053,-72.265625
6054,-70.312500
6055,-70.312500
6056,-70.312500
6057,-70.312500
6058,-70.312500
6059,-70.312500
6060,-70.312500
6061,-70.312500
6062,-68.359375
6063,-70.312500
6064,-68.359375
6065,-68.359375
6066,-68.359375
6067,-68.359375
6068,-68.359375
6069,-68.359375
6070,-68.359375
6071,-66.406250
6072,-66.406250
6073,-66.406250
6074,-66.406250
6075,-66.406250
6076,-66.406250
6077,-64.453125
6078,-64.453125
6079,-64.453125
6080,-64.453125
6081,-62.500000
6082,-64.453125
6083,-64.453125
6084,-62.500000
6085,-62.500000
6086,-62.500000
6087,-62.500000
6088,-62.500000
6089,-62.500000
6090,-60.546875
6091,-60.546875
6092,-60.546875
6093,-60.546875
6094,-60.546875
6095,-58.593750
6096,-56.640625
6097,-56.640625
6098,-56.640625
6099,-56.640625
6100,-56.640625
6101,-54.687500
6102,-54.687500
6103,-54.687500
6104,-54.687500
6105,-54.687500
6106,-52.734375
6107,-52.734375
6108,-50.781250
6109,-50.781250
6110,-50.781250
6111,-50.781250
6112,-50.781250
6113,-50.781250
6114,-48.828125
6115,-48.828125
6116,-48.828125
6117,-48.828125
6118,-46.875000
6119,-46.875000
6120,-44.921875
6121,-44.921875
6122,-44.921875
6123,-44.921875
6124,-42.968750
6125,-42.968750
6126,-42.968750
6127,-41.015625
6128,-41.015625
6129,-41.015625
6130,-39.062500
6131,-39.062500
6132,-39.062500
6133,-37.109375
6134,-37.109375
6135,-37.109375
6136,-37.109375
6137,-35.156250
6138,-35.156250
6139,-33.203125
6140,-33.203125
6141,-33.203125
6142,-31.250000
6143,-31.250000
6144,-31.250000
6145,-29.296875
6146,-29.296875
6147,-29.296875
6148,-29.296875
6149,-27.343750
6150,-27.343750
6151,-25.390625
6152,-25.390625
6153,-25.390625
6154,-23.437500
6155,-23.437500
6156,-23.437500
6157,-23.437500
6158,-21.484375
6159,-21.484375
6160,-21.484375
6161,-19.531250
6162,-19.531250
6163,-19.531250
6164,-17.578125
6165,-17.578125
6166,-15.625000
6167,-15.625000
6168,-15.625000
6169,-15.625000
6170,-13.671875
6171,-13.671875
6172,-13.671875
6173,-11.718750
6174,-11.718750
6175,-9.765625
6176,-9.765625
6177,-9.765625
6178,-9.765625
6179,-7.812500
6180,-7.812500
6181,-5.859375
6182,-5.859375
6183,-5.859375
6184,-5.859375
6185,-3.906250
6186,-3.906250
6187,-3.906250
6188,-1.953125
6189,-1.953125
6190,-1.953125
6191,0.000000
6192,0.000000
6193,0.000000
6194,0.000000
6195,1.953125
6196,1.953125
6197,3.906250
6198,3.906250
6199,3.906250
6200,3.906250
6201,5.859375
6202,5.859375
6203,7.812500
6204,7.812500
6205,7.812500
6206,9.765625
6207,9.765625
6208,9.765625
6209,9.765625
6210,11.718750
6211,11.718750
6212,11.718750
6213,13.671875
6214,13.671875
6215,13.671875
6216,13.671875
6217,15.625000
6218,15.625000
6219,15.625000
6220,17.578125
6221,17.578125
6222,17.578125
6223,17.578125
6224,19.531250
6225,19.531250
6226,19.531250
6227,19.531250
6228,21.484375
6229,21.484375
6230,21.484375
6231,21.484375
6232,23.437500
6233,23.437500
6234,23.437500
6235,23.437500
6236,25.390625
6237,25.390625
6238,25.390625
6239,25.390625
6240,27.343750
6241,27.343750
6242,27.343750
6243,27.343750
6244,29.296875
6245,31.250000
6246,29.296875
6247,29.296875
6248,29.296875
6249,31.250000
6250,31.250000
6251,33.203125
6252,31.250000
6253,33.203125
6254,33.203125
6255,33.203125
6256,35.156250
6257,33.203125
6258,35.156250
6259,35.156250
6260,35.156250
6261,35.156250
6262,37.109375
6263,37.109375
6264,37.109375
6265,37.109375
6266,39.062500
6267,39.062500
6268,39.062500
6269,39.062500
6270,39.062500
6271,39.062500
6272,41.015625
6273,41.015625
6274,41.015625
6275,41.015625
6276,41.015625
6277,41.015625
6278,41.015625
6279,42.968750
6280,42.968750
6281,42.968750
6282,42.968750
6283,42.968750
6284,42.968750
6285,44.921875
6286,44.921875
6287,44.921875
6288,44.921875
6289,44.921875
6290,44.921875
6291,44.921875
6292,44.921875
6293,44.921875
6294,46.875000
6295,46.875000
6296,46.875000
6297,46.875000
6298,46.875000
6299,46.875000
6300,46.875000
6301,46.875000
6302,46.875000
6303,46.875000
6304,48.828125
6305,48.828125
6306,48.828125
6307,48.828125
6308,48.828125
6309,48.828125
6310,48.828125
6311,48.828125
6312,48.828125
6313,48.828125
6314,48.828125
6315,48.828125
6316,48.828125
6317,50.781250
6318,50.781250
6319,50.781250
6320,48.828125
6321,50.781250
6322,50.781250
6323,50.781250
6324,50.781250
6325,50.781250
6326,50.781250
6327,50.781250
6328,50.781250
6329,50.781250
6330,50.781250
6331,50.781250
6332,50.781250
6333,50.781250
6334,50.781250
6335,50.781250
6336,50.781250
6337,52.734375
6338,50.781250
6339,50.781250
6340,50.781250
6341,50.781250
6342,50.781250
6343,50.781250
6344,50.781250
6345,48.828125
6346,50.781250
6347,50.781250
6348,48.828125
6349,48.828125
6350,48.828125
6351,50.781250
6352,48.828125
6353,48.828125
6354,48.828125
6355,48.828125
6356,48.828125
6357,48.828125
6358,48.828125
6359,46.875000
6360,48.828125
6361,46.875000
6362,46.875000
6363,48.828125
6364,46.875000
6365,46.875000
6366,46.875000
6367,46.875000
6368,46.875000
6369,46.875000
6370,44.921875
6371,44.921875
6372,44.921875
6373,44.921875
6374,44.921875
6375,44.921875
6376,44.921875
6377,42.968750
6378,42.968750
6379,42.968750
6380,42.968750
6381,42.968750
6382,42.968750
6383,41.015625
6384,42.968750
6385,41.015625
6386,41.015625
6387,41.015625
6388,41.015625
6389,41.015625
6390,41.015625
6391,39.062500
6392,39.062500
6393,39.062500
6394,39.062500
6395,39.062500
6396,37.109375
6397,37.109375
6398,37.109375
6399,37.109375
6400,35.156250
6401,35.156250
6402,35.156250
6403,35.156250
6404,35.156250
6405,33.203125
6406,33.203125
6407,33.203125
6408,31.250000
6409,31.250000
6410,31.250000
6411,31.250000
6412,29.296875
6413,31.250000
6414,29.296875
6415,29.296875
6416,27.343750
6417,27.343750
6418,27.343750
6419,27.343750
6420,27.343750
6421,25.390625
6422,25.390625
6423,25.390625
6424,23.437500
6425,23.437500
6426,23.437500
6427,21.484375
6428,21.484375
6429,21.484375
6430,19.531250
6431,19.531250
6432,19.531250
6433,19.531250
6434,19.531250
6435,17.578125
6436,17.578125
6437,17.578125
6438,15.625000
6439,15.625000
6440,15.625000
6441,13.671875
6442,13.671875
6443,13.671875
6444,13.671875
6445,11.718750
6446,11.718750
6447,9.765625
6448,9.765625
6449,9.765625
6450,7.812500
6451,7.812500
6452,7.812500
6453,7.812500
6454,5.859375
6455,5.859375
6456,3.906250
6457,3.906250
6458,3.906250
6459,1.953125
6460,1.953125
6461,1.953125
6462,1.953125
6463,0.000000
6464,0.000000
6465,-1.953125
6466,-1.953125
6467,-1.953125
6468,-1.953125
6469,-3.906250
6470,-3.906250
6471,-3.906250
6472,-5.859375
6473,-5.859375
6474,-5.859375
6475,-7.812500
6476,-7.812500
6477,-9.765625
6478,-9.765625
6479,-9.765625
6480,-11.718750
6481,-11.718750
6482,-11.718750
6483,-11.718750
6484,-13.671875
6485,-15.625000
6486,-15.625000
6487,-15.625000
6488,-17.578125
6489,-17.578125
6490,-17.578125
6491,-19.531250
6492,-19.531250
6493,-19.531250
6494,-21.484375
6495,-21.484375
6496,-21.484375
6497,-23.437500
6498,-23.437500
6499,-23.437500
6500,-25.390625
6501,-25.390625
6502,-25.390625
6503,-27.343750
6504,-27.343750
6505,-27.343750
6506,-29.296875
6507,-29.296875
6508,-29.296875
6509,-31.250000
6510,-31.250000
6511,-31.250000
6512,-31.250000
6513,-33.203125
6514,-33.203125
6515,-35.156250
6516,-35.156250
6517,-35.156250
6518,-37.109375
6519,-37.109375
6520,-37.109375
6521,-37.109375
6522,-39.062500
6523,-39.062500
6524,-39.062500
6525,-39.062500
6526,-41.015625
6527,-41.015625
6528,-41.015625
6529,-42.968750
6530,-42.968750
6531,-42.968750
6532,-44.921875
6533,-44.921875
6534,-44.921875
6535,-44.921875
6536,-46.875000
6537,-46.875000
6538,-46.875000
6539,-48.828125
6540,-48.828125
6541,-48.828125
6542,-48.828125
6543,-48.828125
6544,-50.781250
6545,-50.781250
6546,-50.781250
6547,-50.781250
6548,-52.734375
6549,-52.734375
6550,-52.734375
6551,-52.734375
6552,-54.687500
6553,-54.687500
6554,-54.687500
6555,-54.687500
6556,-56.640625
6557,-56.640625
6558,-56.640625
6559,-56.640625
6560,-58.593750
6561,-58.593750
6562,-58.593750
6563,-58.593750
6564,-60.546875
6565,-58.593750
6566,-60.546875
6567,-60.546875
6568,-62.500000
6569,-62.500000
6570,-62.500000
6571,-62.500000
6572,-62.500000
6573,-62.500000
6574,-62.500000
6575,-64.453125
6576,-64.453125
6577,-64.453125
6578,-64.453125
6579,-64.453125
6580,-66.406250
6581,-66.406250
6582,-64.453125
6583,-66.406250
6584,-66.406250
6585,-66.406250
6586,-66.406250
6587,-68.359375
6588,-68.359375
6589,-66.406250
6590,-66.406250
6591,-68.359375
6592,-68.359375
6593,-68.359375
6594,-68.359375
6595,-68.359375
6596,-70.312500
6597,-70.312500
6598,-68.359375
6599,-70.312500
6600,-70.312500
6601,-70.312500
6602,-70.312500
6603,-70.312500
6604,-70.312500
6605,-70.312500
6606,-70.312500
6607,-70.312500
6608,-70.312500
6609,-72.265625
6610,-72.265625
6611,-72.265625
6612,-72.265625
6613,-72.265625
6614,-72.265625
6615,-72.265625
6616,-72.265625
6617,-72.265625
6618,-72.265625
6619,-72.265625
6620,-72.265625
6621,-72.265625
6622,-72.265625
6623,-72.265625
6624,-72.265625
6625,-72.265625
6626,-70.312500
6627,-72.265625
6628,-72.265625
6629,-72.265625
6630,-72.265625
6631,-72.265625
6632,-72.265625
6633,-72.265625
6634,-72.265625
6635,-72.265625
6636,-70.312500
6637,-70.312500
6638,-72.265625
6639,-70.312500
6640,-70.312500
6641,-70.312500
6642,-70.312500
6643,-70.312500
6644,-70.312500
6645,-68.359375
6646,-68.359375
6647,-70.312500
6648,-68.359375
6649,-68.359375
6650,-68.359375
6651,-66.406250
6652,-68.359375
6653,-68.359375
6654,-68.359375
6655,-66.406250
6656,-66.406250
6657,-66.406250
6658,-66.406250
6659,-66.406250
6660,-64.453125
6661,-64.453125
6662,-64.453125
6663,-64.453125
6664,-64.453125
6665,-62.500000
6666,-62.500000
6667,-62.500000
6668,-62.500000
6669,-62.500000
6670,-60.546875
6671,-60.546875
6672,-60.546875
6673,-60.546875
6674,-60.546875
6675,-58.593750
6676,-58.593750
6677,-58.593750
6678,-58.593750
6679,-56.640625
6680,-56.640625
6681,-56.640625
6682,-56.640625
6683,-56.640625
6684,-54.687500
6685,-54.687500
6686,-54.687500
6687,-52.734375
6688,-52.734375
6689,-52.734375
6690,-52.734375
6691,-50.781250
6692,-50.781250
6693,-50.781250
6694,-50.781250
6695,-50.781250
6696,-48.828125
6697,-48.828125
6698,-48.828125
6699,-46.875000
6700,-46.875000
6701,-46.875000
6702,-44.921875
6703,-44.921875
6704,-44.921875
6705,-44.921875
6706,-42.968750
6707,-42.968750
6708,-41.015625
6709,-41.015625
6710,-41.015625
6711,-41.015625
6712,-39.062500
6713,-39.062500
6714,-37.109375
6715,-37.109375
6716,-37.109375
6717,-37.109375
6718,-35.156250
6719,-35.156250
6720,-33.203125
6721,-33.203125
6722,-33.203125
6723,-33.203125
6724,-31.250000
6725,-31.250000
6726,-29.296875
6727,-29.296875
6728,-29.296875
6729,-29.296875
6730,-29.296875
6731,-27.343750
6732,-27.343750
6733,-25.390625
6734,-23.437500
6735,-25.390625
6736,-25.390625
6737,-23.437500
6738,-23.437500
6739,-21.484375
6740,-21.484375
6741,-21.484375
6742,-21.484375
6743,-19.531250
6744,-19.531250
6745,-17.578125
6746,-17.578125
6747,-17.578125
6748,-17.578125
6749,-15.625000
6750,-15.625000
6751,-15.625000
6752,-13.671875
6753,-13.671875
6754,-11.718750
6755,-11.718750
6756,-11.718750
6757,-11.718750
6758,-11.718750
6759,-9.765625
6760,-9.765625
6761,-7.812500
6762,-7.812500
6763,-5.859375
6764,-5.859375
6765,-5.859375
6766,-5.859375
6767,-3.906250
6768,-3.906250
6769,-3.906250
6770,-1.953125
6771,-1.953125
6772,-1.953125
6773,0.000000
6774,0.000000
6775,0.000000
6776,1.953125
6777,1.953125
6778,1.953125
6779,3.906250
6780,3.906250
6781,5.859375
6782,5.859375
6783,5.859375
6784,5.859375
6785,7.812500
6786,7.812500
6787,7.812500
6788,9.765625
6789,9.765625
6790,9.765625
6791,11.718750
6792,11.718750
6793,11.718750
6794,11.718750
6795,11.718750
6796,13.671875
6797,13.671875
6798,15.625000
6799,15.625000
6800,15.625000
6801,15.625000
6802,17.578125
6803,17.578125
6804,17.578125
6805,17.578125
6806,19.531250
6807,19.531250
6808,19.531250
6809,19.531250
6810,21.484375
6811,21.484375
6812,23.437500
6813,21.484375
6814,23.437500
6815,23.437500
6816,23.437500
6817,23.437500
6818,25.390625
6819,25.390625
6820,25.390625
6821,25.390625
6822,25.390625
6823,27.343750
6824,29.296875
6825,29.296875
6826,29.296875
6827,29.296875
6828,29.296875
6829,29.296875
6830,31.250000
6831,31.250000
6832,31.250000
6833,31.250000
6834,31.250000
6835,31.250000
6836,33.203125
6837,33.203125
6838,33.203125
6839,33.203125
6840,35.156250
6841,35.156250
6842,35.156250
6843,37.109375
6844,37.109375
6845,37.109375
6846,37.109375
6847,37.109375
6848,39.062500
6849,39.062500
6850,39.062500
6851,39.062500
6852,39.062500
6853,39.062500
6854,41.015625
6855,41.015625
6856,41.015625
6857,41.015625
6858,41.015625
6859,41.015625
6860,42.968750
6861,42.968750
6862,42.968750
6863,42.968750
6864,42.968750
6865,44.921875
6866,42.968750
6867,42.968750
6868,44.921875
6869,44.921875
6870,44.921875
6871,44.921875
6872,44.921875
6873,44.921875
6874,44.921875
6875,46.875000
6876,46.875000
6877,46.875000
6878,46.875000
6879,46.875000
6880,46.875000
6881,46.875000
6882,48.828125
6883,46.875000
6884,48.828125
6885,46.875000
6886,48.828125
6887,48.828125
6888,48.828125
6889,48.828125
6890,48.828125
6891,48.828125
6892,48.828125
6893,48.828125
6894,48.828125
6895,48.828125
6896,48.828125
6897,48.828125
6898,50.781250
6899,48.828125
6900,48.828125
6901,50.781250
6902,48.828125
6903,48.828125
6904,50.781250
6905,50.781250
6906,50.781250
6907,50.781250
6908,50.781250
6909,50.781250
6910,50.781250
6911,50.781250
6912,50.781250
6913,50.781250
6914,50.781250
6915,50.781250
6916,50.781250
6917,50.781250
6918,50.781250
6919,50.781250
6920,50.781250
6921,50.781250
6922,50.781250
6923,50.781250
6924,50.781250
6925,48.828125
6926,50.781250
6927,50.781250
6928,50.781250
6929,50.781250
6930,48.828125
6931,48.828125
6932,50.781250
6933,48.828125
6934,48.828125
6935,48.828125
6936,48.828125
6937,48.828125
6938,48.828125
6939,48.828125
6940,48.828125
6941,48.828125
6942,46.875000
6943,46.875000
6944,46.875000
6945,46.875000
6946,46.875000
6947,46.875000
6948,46.875000
6949,46.875000
6950,46.875000
6951,46.875000
6952,44.921875
6953,44.921875
6954,44.921875
6955,44.921875
6956,44.921875
6957,42.968750
6958,42.968750
6959,42.968750
6960,42.968750
6961,42.968750
6962,42.968750
6963,42.968750
6964,41.015625
6965,42.968750
6966,41.015625
6967,41.015625
6968,41.015625
6969,41.015625
6970,41.015625
6971,41.015625
6972,39.062500
6973,39.062500
6974,39.062500
6975,39.062500
6976,37.109375
6977,39.062500
6978,37.109375
6979,37.109375
6980,37.109375
6981,35.156250
6982,37.109375
6983,35.156250
6984,35.156250
6985,35.156250
6986,33.203125
6987,33.203125
6988,33.203125
6989,33.203125
6990,31.250000
6991,31.250000
6992,31.250000
6993,31.250000
6994,31.250000
6995,31.250000
6996,29.296875
6997,29.296875
6998,27.343750
6999,27.343750
7000,27.343750
7001,27.343750
7002,25.390625
7003,25.390625
7004,25.390625
7005,25.390625
7006,25.390625
7007,23.437500
7008,21.484375
7009,21.484375
7010,23.437500
7011,21.484375
7012,21.484375
7013,19.531250
7014,19.531250
7015,19.531250
7016,19.531250
7017,17.578125
7018,17.578125
7019,15.625000
7020,15.625000
7021,15.625000
7022,13.671875
7023,13.671875
7024,13.671875
7025,11.718750
7026,11.718750
7027,11.718750
7028,11.718750
7029,9.765625
7030,9.765625
7031,9.765625
7032,7.812500
7033,7.812500
7034,7.812500
7035,5.859375
7036,5.859375
7037,5.859375
7038,5.859375
7039,3.906250
7040,3.906250
7041,1.953125
7042,1.953125
7043,1.953125
7044,0.000000
7045,0.000000
7046,0.000000
7047,0.000000
7048,-1.953125
7049,-1.953125
7050,-3.906250
7051,-3.906250
7052,-3.906250
7053,-5.859375
7054,-5.859375
7055,-5.859375
7056,-7.812500
7057,-7.812500
7058,-7.812500
7059,-9.765625
7060,-9.765625
7061,-11.718750
7062,-11.718750
7063,-11.718750
7064,-13.671875
7065,-13.671875
7066,-13.671875
7067,-15.625000
7068,-15.625000
7069,-15.625000
7070,-17.578125
7071,-17.578125
7072,-17.578125
7073,-19.531250
7074,-19.531250
7075,-19.531250
7076,-21.484375
7077,-21.484375
7078,-23.437500
7079,-23.437500
7080,-23.437500
7081,-23.437500
7082,-25.390625
7083,-25.390625
7084,-27.343750
7085,-27.343750
7086,-27.343750
7087,-27.343750
7088,-29.296875
7089,-29.296875
7090,-31.250000
7091,-31.250000
7092,-31.250000
7093,-31.250000
7094,-33.203125
7095,-33.203125
7096,-33.203125
7097,-35.156250
7098,-35.156250
7099,-35.156250
7100,-37.109375
7101,-37.109375
7102,-37.109375
7103,-39.062500
7104,-39.062500
7105,-39.062500
7106,-39.062500
7107,-41.015625
7108,-41.015625
7109,-41.015625
7110,-42.968750
7111,-42.968750
7112,-42.968750
7113,-42.968750
7114,-44.921875
7115,-44.921875
7116,-44.921875
7117,-44.921875
7118,-46.875000
7119,-46.875000
7120,-48.828125
7121,-48.828125
7122,-48.828125
7123,-48.828125
7124,-48.828125
7125,-50.781250
7126,-50.781250
7127,-50.781250
7128,-50.781250
7129,-52.734375
7130,-52.734375
7131,-52.734375
7132,-52.734375
7133,-54.687500
7134,-54.687500
7135,-54.687500
7136,-54.687500
7137,-56.640625
7138,-56.640625
7139,-56.640625
7140,-56.640625
7141,-58.593750
7142,-58.593750
7143,-58.593750
7144,-58.593750
7145,-60.546875
7146,-60.546875
7147,-60.546875
7148,-60.546875
7149,-60.546875
7150,-60.546875
7151,-62.500000
7152,-62.500000
7153,-62.500000
7154,-62.500000
7155,-62.500000
7156,-64.453125
7157,-64.453125
7158,-64.453125
7159,-64.453125
7160,-64.453125
7161,-64.453125
7162,-64.453125
7163,-66.406250
7164,-66.406250
7165,-66.406250
7166,-66.406250
7167,-66.406250
7168,-68.359375
7169,-68.359375
7170,-66.406250
7171,-68.359375
7172,-68.359375
7173,-68.359375
7174,-68.359375
7175,-68.359375
7176,-68.359375
7177,-70.312500
7178,-70.312500
7179,-68.359375
7180,-68.359375
7181,-70.312500
7182,-70.312500
7183,-70.312500
7184,-70.312500
7185,-70.312500
7186,-70.312500
7187,-70.312500
7188,-70.312500
7189,-70.312500
7190,-72.265625
7191,-72.265625
7192,-72.265625
7193,-70.312500
7194,-72.265625
7195,-72.265625
7196,-72.265625
7197,-72.265625
7198,-72.265625
7199,-72.265625
7200,-72.265625
7201,-72.265625
7202,-72.265625
7203,-72.265625
7204,-72.265625
7205,-72.265625
7206,-72.265625
7207,-72.265625
7208,-72.265625
7209,-72.265625
7210,-72.265625
7211,-72.265625
7212,-72.265625
7213,-72.265625
7214,-72.265625
7215,-72.265625
7216,-72.265625
7217,-72.265625
7218,-70.312500
7219,-70.312500
7220,-72.265625
7221,-70.312500
7222,-70.312500
7223,-70.312500
7224,-70.312500
7225,-70.312500
7226,-70.312500
7227,-68.359375
7228,-68.359375
7229,-70.312500
7230,-68.359375
7231,-68.359375
7232,-68.359375
7233,-68.359375
7234,-68.359375
7235,-68.359375
7236,-66.406250
7237,-66.406250
7238,-66.406250
7239,-66.406250
7240,-66.406250
7241,-64.453125
7242,-64.453125
7243,-64.453125
7244,-64.453125
7245,-64.453125
7246,-64.453125
7247,-64.453125
7248,-62.500000
7249,-62.500000
7250,-62.500000
7251,-62.500000
7252,-62.500000
7253,-62.500000
7254,-60.546875
7255,-60.546875
7256,-60.546875
7257,-58.593750
7258,-58.593750
7259,-58.593750
7260,-58.593750
7261,-56.640625
7262,-58.593750
7263,-56.640625
7264,-56.640625
7265,-56.640625
7266,-54.687500
7267,-54.687500
7268,-54.687500
7269,-54.687500
7270,-54.687500
7271,-52.734375
7272,-52.734375
7273,-52.734375
7274,-50.781250
7275,-50.781250
7276,-50.781250
7277,-48.828125
7278,-48.828125
7279,-48.828125
7280,-48.828125
7281,-48.828125
7282,-46.875000
7283,-46.875000
7284,-46.875000
7285,-44.921875
7286,-44.921875
7287,-44.921875
7288,-44.921875
7289,-42.968750
7290,-42.968750
7291,-41.015625
7292,-41.015625
7293,-41.015625
7294,-39.062500
7295,-39.062500
7296,-37.109375
7297,-39.062500
7298,-37.109375
7299,-37.109375
7300,-35.156250
7301,-35.156250
7302,-35.156250
7303,-33.203125
7304,-33.203125
7305,-33.203125
7306,-31.250000
7307,-31.250000
7308,-31.250000
7309,-31.250000
7310,-29.296875
7311,-29.296875
7312,-29.296875
7313,-27.343750
7314,-27.343750
7315,-27.343750
7316,-25.390625
7317,-25.390625
7318,-23.437500
7319,-23.437500
7320,-23.437500
7321,-21.484375
7322,-21.484375
7323,-21.484375
7324,-21.484375
7325,-19.531250
7326,-19.531250
7327,-17.578125
7328,-17.578125
7329,-17.578125
7330,-15.625000
7331,-15.625000
7332,-15.625000
7333,-15.625000
7334,-13.671875
7335,-13.671875
7336,-13.671875
7337,-11.718750
7338,-11.718750
7339,-11.718750
7340,-11.718750
7341,-9.765625
7342,-9.765625
7343,-7.812500
7344,-7.812500
7345,-7.812500
7346,-5.859375
7347,-5.859375
7348,-3.906250
7349,-3.906250
7350,-3.906250
7351,-1.953125
7352,-1.953125
7353,-1.953125
7354,0.000000
7355,0.000000
7356,0.000000
7357,1.953125
7358,1.953125
7359,1.953125
7360,3.906250
7361,3.906250
7362,3.906250
7363,3.906250
7364,5.859375
7365,5.859375
7366,5.859375
7367,7.812500
7368,7.812500
7369,7.812500
7370,9.765625
7371,9.765625
7372,9.765625
7373,9.765625
7374,11.718750
7375,11.718750
7376,11.718750
7377,13.671875
7378,13.671875
7379,13.671875
7380,13.671875
7381,15.625000
7382,15.625000
7383,15.625000
7384,15.625000
7385,17.578125
7386,17.578125
7387,17.578125
7388,19.531250
7389,19.531250
7390,19.531250
7391,19.531250
7392,21.484375
7393,21.484375
7394,21.484375
7395,23.437500
7396,23.437500
7397,23.437500
7398,23.437500
7399,25.390625
7400,23.437500
7401,25.390625
7402,25.390625
7403,25.390625
7404,27.343750
7405,25.390625
7406,27.343750
7407,27.343750
7408,29.296875
7409,29.296875
7410,29.296875
7411,29.296875
7412,31.250000
7413,31.250000
7414,31.250000
7415,31.250000
7416,31.250000
7417,33.203125
7418,33.203125
7419,33.203125
7420,33.203125
7421,33.203125
7422,35.156250
7423,35.156250
7424,35.156250
7425,35.156250
7426,35.156250
7427,37.109375
7428,37.109375
7429,37.109375
7430,37.109375
7431,39.062500
7432,39.062500
7433,39.062500
7434,39.062500
7435,39.062500
7436,39.062500
7437,39.062500
7438,41.015625
7439,41.015625
7440,41.015625
7441,41.015625
7442,41.015625
7443,41.015625
7444,42.968750
7445,42.968750
7446,42.968750
7447,42.968750
7448,42.968750
7449,42.968750
7450,42.968750
7451,44.921875
7452,44.921875
7453,44.921875
7454,44.921875
7455,44.921875
7456,44.921875
7457,44.921875
7458,44.921875
7459,46.875000
7460,44.921875
7461,46.875000
7462,46.875000
7463,46.875000
7464,46.875000
7465,46.875000
7466,46.875000
7467,46.875000
7468,46.875000
7469,48.828125
7470,48.828125
7471,46.875000
7472,46.875000
7473,48.828125
7474,48.828125
7475,48.828125
7476,48.828125
7477,48.828125
7478,48.828125
7479,48.828125
7480,48.828125
7481,48.828125
7482,48.828125
7483,48.828125
7484,48.828125
7485,48.828125
7486,48.828125
7487,50.781250
7488,50.781250
7489,48.828125
7490,50.781250
7491,50.781250
7492,50.781250
7493,50.781250
7494,50.781250
7495,50.781250
7496,50.781250
7497,50.781250
7498,50.781250
7499,50.781250
7500,50.781250
7501,48.828125
7502,50.781250
7503,50.781250
7504,50.781250
7505,50.781250
7506,50.781250
7507,48.828125
7508,48.828125
7509,48.828125
7510,48.828125
7511,48.828125
7512,48.828125
7513,48.828125
7514,48.828125
7515,48.828125
7516,48.828125
7517,48.828125
7518,48.828125
7519,48.828125
7520,46.875000
7521,46.875000
7522,46.875000
7523,46.875000
7524,46.875000
7525,46.875000
7526,46.875000
7527,46.875000
7528,46.875000
7529,44.921875
7530,46.875000
7531,44.921875
7532,44.921875
7533,44.921875
7534,44.921875
7535,44.921875
7536,44.921875
7537,44.921875
7538,42.968750
7539,42.968750
7540,42.968750
7541,42.968750
7542,42.968750
7543,42.968750
7544,42.968750
7545,42.968750
7546,41.015625
7547,42.968750
7548,41.015625
7549,41.015625
7550,41.015625
7551,39.062500
7552,39.062500
7553,39.062500
7554,39.062500
7555,39.062500
7556,39.062500
7557,39.062500
7558,39.062500
7559,37.109375
7560,37.109375
7561,37.109375
7562,37.109375
7563,35.156250
7564,35.156250
7565,35.156250
7566,35.156250
7567,33.203125
7568,33.203125
7569,33.203125
7570,33.203125
7571,33.203125
7572,31.250000
7573,31.250000
7574,31.250000
7575,31.250000
7576,29.296875
7577,29.296875
7578,29.296875
7579,29.296875
7580,27.343750
7581,27.343750
7582,27.343750
7583,25.390625
7584,25.390625
7585,25.390625
7586,25.390625
7587,25.390625
7588,23.437500
7589,23.437500
7590,21.484375
7591,21.484375
7592,21.484375
7593,21.484375
7594,19.531250
7595,19.531250
7596,19.531250
7597,17.578125
7598,17.578125
7599,17.578125
7600,15.625000
7601,15.625000
7602,15.625000
7603,15.625000
7604,13.671875
7605,13.671875
7606,13.671875
7607,11.718750
7608,11.718750
7609,11.718750
7610,11.718750
7611,9.765625
7612,9.765625
7613,7.812500
7614,7.812500
7615,7.812500
7616,7.812500
7617,5.859375
7618,5.859375
7619,5.859375
7620,5.859375
7621,3.906250
7622,3.906250
7623,1.953125
7624,1.953125
7625,1.953125
7626,0.000000
7627,0.000000
7628,0.000000
7629,0.000000
7630,-1.953125
7631,-1.953125
7632,-3.906250
7633,-3.906250
7634,-3.906250
7635,-3.906250
7636,-5.859375
7637,-5.859375
7638,-7.812500
7639,-7.812500
7640,-7.812500
7641,-9.765625
7642,-9.765625
7643,-9.765625
7644,-11.718750
7645,-11.718750
7646,-11.718750
7647,-13.671875
7648,-13.671875
7649,-15.625000
7650,-15.625000
7651,-15.625000
7652,-17.578125
7653,-17.578125
7654,-17.578125
7655,-19.531250
7656,-19.531250
7657,-19.531250
7658,-21.484375
7659,-21.484375
7660,-23.437500
7661,-23.437500
7662,-23.437500
7663,-25.390625
7664,-25.390625
7665,-25.390625
7666,-25.390625
7667,-27.343750
7668,-27.343750
7669,-29.296875
7670,-29.296875
7671,-29.296875
7672,-29.296875
7673,-31.250000
7674,-31.250000
7675,-31.250000
7676,-33.203125
7677,-33.203125
7678,-33.203125
7679,-35.156250
7680,-35.156250
7681,-35.156250
7682,-35.156250
7683,-37.109375
7684,-37.109375
7685,-37.109375
7686,-39.062500
7687,-39.062500
7688,-39.062500
7689,-39.062500
7690,-41.015625
7691,-41.015625
7692,-41.015625
7693,-42.968750
7694,-42.968750
7695,-42.968750
7696,-44.921875
7697,-44.921875
7698,-44.921875
7699,-44.921875
7700,-44.921875
7701,-46.875000
7702,-48.828125
7703,-46.875000
7704,-48.828125
7705,-48.828125
7706,-48.828125
7707,-48.828125
7708,-48.828125
7709,-50.781250
7710,-50.781250
7711,-52.734375
7712,-52.734375
7713,-52.734375
7714,-52.734375
7715,-52.734375
7716,-54.687500
7717,-54.687500
7718,-54.687500
7719,-54.687500
7720,-56.640625
7721,-56.640625
7722,-56.640625
7723,-56.640625
7724,-56.640625
7725,-58.593750
7726,-58.593750
7727,-58.593750
7728,-58.593750
7729,-60.546875
7730,-60.546875
7731,-60.546875
7732,-60.546875
7733,-62.500000
7734,-62.500000
7735,-62.500000
7736,-62.500000
7737,-62.500000
7738,-62.500000
7739,-64.453125
7740,-64.453125
7741,-62.500000
7742,-64.453125
7743,-64.453125
7744,-64.453125
7745,-64.453125
7746,-66.406250
7747,-66.406250
7748,-66.406250
7749,-66.406250
7750,-62.500000
7751,-66.406250
7752,-66.406250
7753,-66.406250
7754,-66.406250
7755,-68.359375
7756,-68.359375
7757,-68.359375
7758,-68.359375
7759,-66.406250
7760,-70.312500
7761,-68.359375
7762,-68.359375
7763,-70.312500
7764,-70.312500
7765,-70.312500
7766,-70.312500
7767,-68.359375
7768,-70.312500
7769,-70.312500
7770,-70.312500
7771,-70.312500
7772,-70.312500
7773,-70.312500
7774,-70.312500
7775,-70.312500
7776,-72.265625
7777,-72.265625
7778,-70.312500
7779,-70.312500
7780,-72.265625
7781,-72.265625
7782,-72.265625
7783,-72.265625
7784,-72.265625
7785,-72.265625
7786,-66.406250
7787,-72.265625
7788,-72.265625
7789,-72.265625
7790,-72.265625
7791,-72.265625
7792,-72.265625
7793,-72.265625
7794,-72.265625
7795,-72.265625
7796,-72.265625
7797,-70.312500
7798,-70.312500
7799,-70.312500
7800,-72.265625
7801,-70.312500
7802,-70.312500
7803,-70.312500
7804,-70.312500
7805,-70.312500
7806,-70.312500
7807,-70.312500
7808,-70.312500
7809,-70.312500
7810,-68.359375
7811,-70.312500
7812,-68.359375
7813,-68.359375
7814,-68.359375
7815,-68.359375
7816,-66.406250
7817,-66.406250
7818,-68.359375
7819,-66.406250
7820,-66.406250
7821,-66.406250
7822,-66.406250
7823,-66.406250
7824,-64.453125
7825,-66.406250
7826,-64.453125
7827,-64.453125
7828,-64.453125
7829,-64.453125
7830,-62.500000
7831,-62.500000
7832,-62.500000
7833,-62.500000
7834,-60.546875
7835,-60.546875
7836,-60.546875
7837,-60.546875
7838,-60.546875
7839,-58.593750
7840,-58.593750
7841,-58.593750
7842,-58.593750
7843,-58.593750
7844,-56.640625
7845,-56.640625
7846,-56.640625
7847,-56.640625
7848,-56.640625
7849,-54.687500
7850,-54.687500
7851,-52.734375
7852,-54.687500
7853,-52.734375
7854,-52.734375
7855,-52.734375
7856,-50.781250
7857,-50.781250
7858,-50.781250
7859,-50.781250
7860,-48.828125
7861,-48.828125
7862,-48.828125
7863,-46.875000
7864,-46.875000
7865,-46.875000
7866,-44.921875
7867,-44.921875
7868,-44.921875
7869,-44.921875
7870,-44.921875
7871,-42.968750
7872,-42.968750
7873,-42.968750
7874,-41.015625
7875,-41.015625
7876,-39.062500
7877,-39.062500
7878,-39.062500
7879,-37.109375
7880,-37.109375
7881,-37.109375
7882,-37.109375
7883,-37.109375
7884,-35.156250
7885,-35.156250
7886,-33.203125
7887,-33.203125
7888,-33.203125
7889,-33.203125
7890,-31.250000
7891,-31.250000
7892,-29.296875
7893,-29.296875
7894,-29.296875
7895,-27.343750
7896,-27.343750
7897,-27.343750
7898,-25.390625
7899,-25.390625
7900,-23.437500
7901,-25.390625
7902,-23.437500
7903,-23.437500
7904,-23.437500
7905,-21.484375
7906,-21.484375
7907,-19.531250
7908,-19.531250
7909,-19.531250
7910,-19.531250
7911,-17.578125
7912,-17.578125
7913,-15.625000
7914,-15.625000
7915,-15.625000
7916,-15.625000
7917,-13.671875
7918,-13.671875
7919,-11.718750
7920,-11.718750
7921,-11.718750
7922,-11.718750
7923,-9.765625
7924,-9.765625
7925,-7.812500
7926,-7.812500
7927,-7.812500
7928,-7.812500
7929,-5.859375
7930,-5.859375
7931,-5.859375
7932,-3.906250
7933,-3.906250
7934,-3.906250
7935,-1.953125
7936,-1.953125
7937,-1.953125
7938,0.000000
7939,0.000000
7940,0.000000
7941,1.953125
7942,1.953125
7943,3.906250
7944,3.906250
7945,3.906250
7946,3.906250
7947,3.906250
7948,5.859375
7949,5.859375
7950,7.812500
7951,7.812500
7952,7.812500
7953,7.812500
7954,9.765625
7955,9.765625
7956,9.765625
7957,11.718750
7958,11.718750
7959,11.718750
7960,13.671875
7961,13.671875
7962,11.718750
7963,13.671875
7964,15.625000
7965,15.625000
7966,15.625000
7967,15.625000
7968,15.625000
7969,17.578125
7970,19.531250
7971,19.531250
7972,19.531250
7973,19.531250
7974,19.531250
7975,19.531250
7976,21.484375
7977,21.484375
7978,21.484375
7979,25.390625
7980,23.437500
7981,23.437500
7982,23.437500
7983,23.437500
7984,25.390625
7985,25.390625
7986,25.390625
7987,27.343750
7988,27.343750
7989,27.343750
7990,27.343750
7991,27.343750
7992,27.343750
7993,27.343750
7994,29.296875
7995,29.296875
7996,31.250000
7997,31.250000
7998,31.250000
7999,31.250000
8000,31.250000
8001,33.203125
8002,33.203125
8003,33.203125
8004,33.203125
8005,35.156250
8006,35.156250
8007,35.156250
8008,35.156250
8009,35.156250
8010,37.109375
8011,37.109375
8012,37.109375
8013,37.109375
8014,37.109375
8015,39.062500
8016,37.109375
8017,37.109375
8018,39.062500
8019,39.062500
8020,39.062500
8021,41.015625
8022,39.062500
8023,39.062500
8024,41.015625
8025,41.015625
8026,41.015625
8027,41.015625
8028,41.015625
8029,42.968750
8030,42.968750
8031,42.968750
8032,42.968750
8033,42.968750
8034,42.968750
8035,42.968750
8036,44.921875
8037,44.921875
8038,44.921875
8039,44.921875
8040,44.921875
8041,44.921875
8042,44.921875
8043,44.921875
8044,44.921875
8045,46.875000
8046,46.875000
8047,46.875000
8048,46.875000
8049,46.875000
8050,46.875000
8051,46.875000
8052,46.875000
8053,46.875000
8054,46.875000
8055,46.875000
8056,46.875000
8057,46.875000
8058,48.828125
8059,48.828125
8060,46.875000
8061,48.828125
8062,48.828125
8063,48.828125
8064,48.828125
8065,48.828125
8066,48.828125
8067,48.828125
8068,48.828125
8069,48.828125
8070,48.828125
8071,48.828125
8072,48.828125
8073,48.828125
8074,48.828125
8075,48.828125
8076,48.828125
8077,50.781250
8078,48.828125
8079,48.828125
8080,48.828125
8081,48.828125
8082,50.781250
8083,48.828125
8084,50.781250
8085,48.828125
8086,48.828125
8087,50.781250
8088,48.828125
8089,48.828125
8090,48.828125
8091,48.828125
8092,48.828125
8093,48.828125
8094,48.828125
8095,48.828125
8096,48.828125
8097,48.828125
8098,48.828125
8099,46.875000
8100,48.828125
8101,48.828125
8102,46.875000
8103,46.875000
8104,46.875000
8105,46.875000
8106,46.875000
8107,46.875000
8108,46.875000
8109,46.875000
8110,46.875000
8111,46.875000
8112,46.875000
8113,44.921875
8114,44.921875
8115,44.921875
8116,44.921875
8117,44.921875
8118,44.921875
8119,42.968750
8120,44.921875
8121,42.968750
8122,42.968750
8123,42.968750
8124,42.968750
8125,42.968750
8126,41.015625
8127,41.015625
8128,42.968750
8129,41.015625
8130,41.015625
8131,41.015625
8132,41.015625
8133,39.062500
8134,39.062500
8135,39.062500
8136,39.062500
8137,39.062500
8138,39.062500
8139,39.062500
8140,37.109375
8141,37.109375
8142,37.109375
8143,37.109375
8144,37.109375
8145,35.156250
8146,35.156250
8147,35.156250
8148,35.156250
8149,35.156250
8150,33.203125
8151,33.203125
8152,33.203125
8153,33.203125
8154,31.250000
8155,31.250000
8156,31.250000
8157,31.250000
8158,31.250000
8159,29.296875
8160,29.296875
8161,29.296875
8162,27.343750
8163,27.343750
8164,27.343750
8165,27.343750
8166,25.390625
8167,25.390625
8168,25.390625
8169,25.390625
8170,23.437500
8171,23.437500
8172,23.437500
8173,23.437500
8174,21.484375
8175,21.484375
8176,21.484375
8177,19.531250
8178,19.531250
8179,19.531250
8180,19.531250
8181,17.578125
8182,17.578125
8183,17.578125
8184,15.625000
8185,15.625000
8186,15.625000
8187,13.671875
8188,13.671875
8189,13.671875
8190,11.718750
8191,11.718750
8192,9.765625
8193,11.718750
8194,9.765625
8195,9.765625
8196,9.765625
8197,7.812500
8198,7.812500
8199,7.812500
8200,5.859375
8201,5.859375
8202,3.906250
8203,5.859375
8204,3.906250
8205,3.906250
8206,3.906250
8207,1.953125
8208,1.953125
8209,1.953125
8210,0.000000
8211,0.000000
8212,0.000000
8213,-1.953125
8214,-1.953125
8215,-1.953125
8216,-3.906250
8217,-3.906250
8218,-5.859375
8219,-5.859375
8220,-5.859375
8221,-7.812500
8222,-7.812500
8223,-7.812500
8224,-7.812500
8225,-9.765625
8226,-9.765625
8227,-11.718750
8228,-11.718750
8229,-11.718750
8230,-13.671875
8231,-13.671875
8232,-15.625000
8233,-15.625000
8234,-15.625000
8235,-15.625000
8236,-17.578125
8237,-17.578125
8238,-19.531250
8239,-19.531250
8240,-19.531250
8241,-19.531250
8242,-21.484375
8243,-21.484375
8244,-23.437500
8245,-23.437500
8246,-23.437500
8247,-25.390625
8248,-25.390625
8249,-25.390625
8250,-27.343750
8251,-27.343750
8252,-29.296875
8253,-29.296875
8254,-29.296875
8255,-29.296875
8256,-31.250000
8257,-31.250000
8258,-31.250000
8259,-33.203125
8260,-33.203125
8261,-33.203125
8262,-33.203125
8263,-35.156250
8264,-35.156250
8265,-35.156250
8266,-37.109375
8267,-37.109375
8268,-37.109375
8269,-37.109375
8270,-39.062500
8271,-39.062500
8272,-39.062500
8273,-41.015625
8274,-39.062500
8275,-41.015625
8276,-41.015625
8277,-42.968750
8278,-42.968750
8279,-44.921875
8280,-44.921875
8281,-42.968750
8282,-44.921875
8283,-44.921875
8284,-46.875000
8285,-46.875000
8286,-46.875000
8287,-46.875000
8288,-46.875000
8289,-48.828125
8290,-48.828125
8291,-48.828125
8292,-50.781250
8293,-50.781250
8294,-50.781250
8295,-50.781250
8296,-52.734375
8297,-52.734375
8298,-52.734375
8299,-52.734375
8300,-54.687500
8301,-54.687500
8302,-54.687500
8303,-56.640625
8304,-56.640625
8305,-56.640625
8306,-56.640625
8307,-56.640625
8308,-56.640625
8309,-58.593750
8310,-58.593750
8311,-58.593750
8312,-60.546875
8313,-60.546875
8314,-58.593750
8315,-60.546875
8316,-62.500000
8317,-60.546875
8318,-62.500000
8319,-62.500000
8320,-62.500000
8321,-62.500000
8322,-62.500000
8323,-62.500000
8324,-64.453125
8325,-64.453125
8326,-64.453125
8327,-64.453125
8328,-64.453125
8329,-66.406250
8330,-66.406250
8331,-66.406250
8332,-66.406250
8333,-66.406250
8334,-66.406250
8335,-66.406250
8336,-66.406250
8337,-68.359375
8338,-66.406250
8339,-68.359375
8340,-68.359375
8341,-68.359375
8342,-68.359375
8343,-68.359375
8344,-68.359375
8345,-68.359375
8346,-68.359375
8347,-68.359375
8348,-70.312500
8349,-70.312500
8350,-70.312500
8351,-68.359375
8352,-70.312500
8353,-70.312500
8354,-70.312500
8355,-70.312500
8356,-70.312500
8357,-70.312500
8358,-70.312500
8359,-70.312500
8360,-70.312500
8361,-70.312500
8362,-72.265625
8363,-72.265625
8364,-72.265625
8365,-72.265625
8366,-72.265625
8367,-70.312500
8368,-70.312500
8369,-72.265625
8370,-72.265625
8371,-72.265625
8372,-72.265625
8373,-72.265625
8374,-72.265625
8375,-70.312500
8376,-72.265625
8377,-72.265625
8378,-72.265625
8379,-70.312500
8380,-72.265625
8381,-70.312500
8382,-70.312500
8383,-70.312500
8384,-70.312500
8385,-70.312500
8386,-70.312500
8387,-70.312500
8388,-70.312500
8389,-70.312500
8390,-70.312500
8391,-70.312500
8392,-70.312500
8393,-70.312500
8394,-68.359375
8395,-68.359375
8396,-68.359375
8397,-68.359375
8398,-68.359375
8399,-66.406250
8400,-68.359375
8401,-66.406250
8402,-66.406250
8403,-66.406250
8404,-66.406250
8405,-66.406250
8406,-66.406250
8407,-66.406250
8408,-64.453125
8409,-64.453125
8410,-64.453125
8411,-64.453125
8412,-64.453125
8413,-62.500000
8414,-62.500000
8415,-62.500000
8416,-62.500000
8417,-60.546875
8418,-60.546875
8419,-60.546875
8420,-60.546875
8421,-60.546875
8422,-60.546875
8423,-58.593750
8424,-58.593750
8425,-58.593750
8426,-56.640625
8427,-58.593750
8428,-56.640625
8429,-56.640625
8430,-56.640625
8431,-54.687500
8432,-54.687500
8433,-54.687500
8434,-54.687500
8435,-54.687500
8436,-52.734375
8437,-52.734375
8438,-52.734375
8439,-50.781250
8440,-50.781250
8441,-50.781250
8442,-50.781250
8443,-50.781250
8444,-48.828125
8445,-48.828125
8446,-48.828125
8447,-46.875000
8448,-46.875000
8449,-46.875000
8450,-46.875000
8451,-44.921875
8452,-44.921875
8453,-42.968750
8454,-42.968750
8455,-42.968750
8456,-41.015625
8457,-41.015625
8458,-41.015625
8459,-39.062500
8460,-39.062500
8461,-39.062500
8462,-39.062500
8463,-37.109375
8464,-37.109375
8465,-37.109375
8466,-35.156250
8467,-35.156250
8468,-35.156250
8469,-35.156250
8470,-33.203125
8471,-33.203125
8472,-31.250000
8473,-31.250000
8474,-31.250000
8475,-29.296875
8476,-29.296875
8477,-29.296875
8478,-29.296875
8479,-27.343750
8480,-27.343750
8481,-25.390625
8482,-25.390625
8483,-25.390625
8484,-25.390625
8485,-23.437500
8486,-23.437500
8487,-21.484375
8488,-23.437500
8489,-21.484375
8490,-19.531250
8491,-21.484375
8492,-19.531250
8493,-17.578125
8494,-17.578125
8495,-17.578125
8496,-15.625000
8497,-15.625000
8498,-15.625000
8499,-15.625000
8500,-13.671875
8501,-13.671875
8502,-11.718750
8503,-11.718750
8504,-11.718750
8505,-11.718750
8506,-9.765625
8507,-9.765625
8508,-7.812500
8509,-7.812500
8510,-7.812500
8511,-7.812500
8512,-7.812500
8513,-5.859375
8514,-5.859375
8515,-3.906250
8516,-3.906250
8517,-3.906250
8518,-3.906250
8519,-1.953125
8520,-1.953125
8521,0.000000
8522,0.000000
8523,0.000000
8524,0.000000
8525,1.953125
8526,3.906250
8527,3.906250
8528,3.906250
8529,3.906250
8530,5.859375
8531,5.859375
8532,5.859375
8533,5.859375
8534,7.812500
8535,7.812500
8536,7.812500
8537,9.765625
8538,9.765625
8539,9.765625
8540,11.718750
8541,11.718750
8542,11.718750
8543,13.671875
8544,13.671875
8545,13.671875
8546,13.671875
8547,15.625000
8548,15.625000
8549,15.625000
8550,15.625000
8551,17.578125
8552,17.578125
8553,17.578125
8554,19.531250
8555,19.531250
8556,19.531250
8557,19.531250
8558,21.484375
8559,21.484375
8560,21.484375
8561,21.484375
8562,21.484375
8563,23.437500
8564,23.437500
8565,23.437500
8566,25.390625
8567,25.390625
8568,25.390625
8569,25.390625
8570,25.390625
8571,27.343750
8572,27.343750
8573,29.296875
8574,29.296875
8575,29.296875
8576,29.296875
8577,29.296875
8578,31.250000
8579,31.250000
8580,31.250000
8581,31.250000
8582,31.250000
8583,33.203125
8584,33.203125
8585,33.203125
8586,33.203125
8587,33.203125
8588,35.156250
8589,35.156250
8590,35.156250
8591,35.156250
8592,37.109375
8593,37.109375
8594,37.109375
8595,37.109375
8596,37.109375
8597,39.062500
8598,37.109375
8599,39.062500
8600,39.062500
8601,41.015625
8602,39.062500
8603,41.015625
8604,41.015625
8605,41.015625
8606,41.015625
8607,41.015625
8608,41.015625
8609,41.015625
8610,42.968750
8611,42.968750
8612,42.968750
8613,42.968750
8614,42.968750
8615,42.968750
8616,42.968750
8617,42.968750
8618,44.921875
8619,44.921875
8620,44.921875
8621,44.921875
8622,44.921875
8623,46.875000
8624,46.875000
8625,44.921875
8626,46.875000
8627,46.875000
8628,46.875000
8629,46.875000
8630,46.875000
8631,46.875000
8632,48.828125
8633,48.828125
8634,48.828125
8635,46.875000
8636,46.875000
8637,48.828125
8638,48.828125
8639,48.828125
8640,48.828125
8641,48.828125
8642,48.828125
8643,48.828125
8644,48.828125
8645,48.828125
8646,48.828125
8647,48.828125
8648,50.781250
8649,48.828125
8650,48.828125
8651,50.781250
8652,48.828125
8653,50.781250
8654,50.781250
8655,50.781250
8656,50.781250
8657,48.828125
8658,50.781250
8659,50.781250
8660,50.781250
8661,50.781250
8662,50.781250
8663,50.781250
8664,48.828125
8665,50.781250
8666,50.781250
8667,50.781250
8668,50.781250
8669,50.781250
8670,50.781250
8671,50.781250
8672,48.828125
8673,48.828125
8674,48.828125
8675,50.781250
8676,50.781250
8677,48.828125
8678,48.828125
8679,48.828125
8680,48.828125
8681,48.828125
8682,48.828125
8683,48.828125
8684,48.828125
8685,46.875000
8686,48.828125
8687,48.828125
8688,48.828125
8689,46.875000
8690,46.875000
8691,46.875000
8692,46.875000
8693,46.875000
8694,46.875000
8695,44.921875
8696,46.875000
8697,46.875000
8698,44.921875
8699,44.921875
8700,44.921875
8701,46.875000
8702,44.921875
8703,44.921875
8704,44.921875
8705,42.968750
8706,42.968750
8707,42.968750
8708,42.968750
8709,42.968750
8710,42.968750
8711,42.968750
8712,41.015625
8713,41.015625
8714,41.015625
8715,41.015625
8716,41.015625
8717,41.015625
8718,41.015625
8719,39.062500
8720,39.062500
8721,39.062500
8722,39.062500
8723,39.062500
8724,37.109375
8725,37.109375
8726,37.109375
8727,37.109375
8728,37.109375
8729,35.156250
8730,37.109375
8731,35.156250
8732,35.156250
8733,35.156250
8734,33.203125
8735,33.203125
8736,33.203125
8737,33.203125
8738,33.203125
8739,31.250000
8740,31.250000
8741,31.250000
8742,31.250000
8743,29.296875
8744,29.296875
8745,29.296875
8746,27.343750
8747,27.343750
8748,27.343750
8749,27.343750
8750,25.390625
8751,25.390625
8752,25.390625
8753,25.390625
8754,23.437500
8755,23.437500
8756,23.437500
8757,23.437500
8758,21.484375
8759,21.484375
8760,19.531250
8761,19.531250
8762,19.531250
8763,17.578125
8764,19.531250
8765,17.578125
8766,17.578125
8767,15.625000
8768,15.625000
8769,15.625000
8770,15.625000
8771,13.671875
8772,13.671875
8773,13.671875
8774,13.671875
8775,11.718750
8776,11.718750
8777,9.765625
8778,9.765625
8779,9.765625
8780,9.765625
8781,7.812500
8782,7.812500
8783,5.859375
8784,5.859375
8785,5.859375
8786,5.859375
8787,5.859375
8788,3.906250
8789,1.953125
8790,1.953125
8791,1.953125
8792,1.953125
8793,0.000000
8794,0.000000
8795,-1.953125
8796,-1.953125
8797,-1.953125
8798,-1.953125
8799,-3.906250
8800,-3.906250
8801,-3.906250
8802,-5.859375
8803,-5.859375
8804,-5.859375
8805,-7.812500
8806,-7.812500
8807,-7.812500
8808,-9.765625
8809,-9.765625
8810,-9.765625
8811,-11.718750
8812,-11.718750
8813,-13.671875
8814,-13.671875
8815,-13.671875
8816,-15.625000
8817,-15.625000
8818,-15.625000
8819,-17.578125
8820,-17.578125
8821,-19.531250
8822,-19.531250
8823,-19.531250
8824,-19.531250
8825,-21.484375
8826,-23.437500
8827,-21.484375
8828,-23.437500
8829,-23.437500
8830,-25.390625
8831,-25.390625
8832,-25.390625
8833,-25.390625
8834,-27.343750
8835,-27.343750
8836,-29.296875
8837,-29.296875
8838,-29.296875
8839,-29.296875
8840,-31.250000
8841,-31.250000
8842,-33.203125
8843,-33.203125
8844,-33.203125
8845,-33.203125
8846,-35.156250
8847,-35.156250
8848,-35.156250
8849,-35.156250
8850,-37.109375
8851,-37.109375
8852,-39.062500
8853,-39.062500
8854,-39.062500
8855,-39.062500
8856,-39.062500
8857,-41.015625
8858,-41.015625
8859,-42.968750
8860,-42.968750
8861,-41.015625
8862,-42.968750
8863,-44.921875
8864,-44.921875
8865,-44.921875
8866,-46.875000
8867,-46.875000
8868,-46.875000
8869,-46.875000
8870,-46.875000
8871,-48.828125
8872,-48.828125
8873,-48.828125
8874,-50.781250
8875,-50.781250
8876,-50.781250
8877,-52.734375
8878,-52.734375
8879,-52.734375
8880,-54.687500
8881,-52.734375
8882,-52.734375
8883,-54.687500
8884,-54.687500
8885,-54.687500
8886,-56.640625
8887,-56.640625
8888,-56.640625
8889,-56.640625
8890,-58.593750
8891,-58.593750
8892,-58.593750
8893,-58.593750
8894,-58.593750
8895,-60.546875
8896,-60.546875
8897,-60.546875
8898,-60.546875
8899,-60.546875
8900,-60.546875
8901,-62.500000
8902,-62.500000
8903,-62.500000
8904,-62.500000
8905,-64.453125
8906,-62.500000
8907,-64.453125
8908,-64.453125
8909,-64.453125
8910,-64.453125
8911,-66.406250
8912,-66.406250
8913,-64.453125
8914,-66.406250
8915,-66.406250
8916,-66.406250
8917,-66.406250
8918,-66.406250
8919,-66.406250
8920,-68.359375
8921,-68.359375
8922,-68.359375
8923,-68.359375
8924,-68.359375
8925,-68.359375
8926,-68.359375
8927,-68.359375
8928,-68.359375
8929,-68.359375
8930,-68.359375
8931,-70.312500
8932,-70.312500
8933,-70.312500
8934,-70.312500
8935,-70.312500
8936,-70.312500
8937,-70.312500
8938,-72.265625
8939,-70.312500
8940,-70.312500
8941,-70.312500
8942,-70.312500
8943,-70.312500
8944,-72.265625
8945,-70.312500
8946,-72.265625
8947,-72.265625
8948,-70.312500
8949,-72.265625
8950,-72.265625
8951,-72.265625
8952,-72.265625
8953,-72.265625
8954,-70.312500
8955,-72.265625
8956,-72.265625
8957,-72.265625
8958,-72.265625
8959,-72.265625
8960,-72.265625
8961,-70.312500
8962,-72.265625
8963,-72.265625
8964,-70.312500
8965,-72.265625
8966,-70.312500
8967,-70.312500
8968,-70.312500
8969,-70.312500
8970,-70.312500
8971,-70.312500
8972,-70.312500
8973,-70.312500
8974,-70.312500
8975,-68.359375
8976,-68.359375
8977,-68.359375
8978,-68.359375
8979,-68.359375
8980,-68.359375
8981,-68.359375
8982,-68.359375
8983,-66.406250
8984,-66.406250
8985,-66.406250
8986,-66.406250
8987,-66.406250
8988,-64.453125
8989,-66.406250
8990,-64.453125
8991,-64.453125
8992,-64.453125
8993,-64.453125
8994,-64.453125
8995,-64.453125
8996,-62.500000
8997,-62.500000
8998,-62.500000
8999,-60.546875
9000,-60.546875
9001,-60.546875
9002,-60.546875
9003,-60.546875
9004,-60.546875
9005,-58.593750
9006,-58.593750
9007,-58.593750
9008,-58.593750
9009,-56.640625
9010,-56.640625
9011,-56.640625
9012,-56.640625
9013,-56.640625
9014,-54.687500
9015,-54.687500
9016,-54.687500
9017,-54.687500
9018,-54.687500
9019,-52.734375
9020,-52.734375
9021,-52.734375
9022,-50.781250
9023,-50.781250
9024,-50.781250
9025,-50.781250
9026,-48.828125
9027,-48.828125
9028,-48.828125
9029,-48.828125
9030,-46.875000
9031,-46.875000
9032,-46.875000
9033,-46.875000
9034,-44.921875
9035,-44.921875
9036,-42.968750
9037,-42.968750
9038,-42.968750
9039,-41.015625
9040,-41.015625
9041,-41.015625
9042,-39.062500
9043,-39.062500
9044,-39.062500
9045,-39.062500
9046,-37.109375
9047,-37.109375
9048,-37.109375
9049,-35.156250
9050,-35.156250
9051,-35.156250
9052,-33.203125
9053,-33.203125
9054,-33.203125
9055,-31.250000
9056,-31.250000
9057,-31.250000
9058,-31.250000
9059,-29.296875
9060,-29.296875
9061,-27.343750
9062,-27.343750
9063,-27.343750
9064,-25.390625
9065,-25.390625
9066,-25.390625
9067,-23.437500
9068,-23.437500
9069,-23.437500
9070,-21.484375
9071,-21.484375
9072,-21.484375
9073,-19.531250
9074,-19.531250
9075,-19.531250
9076,-17.578125
9077,-17.578125
9078,-17.578125
9079,-15.625000
9080,-15.625000
9081,-15.625000
9082,-13.671875
9083,-13.671875
9084,-13.671875
9085,-13.671875
9086,-11.718750
9087,-11.718750
9088,-9.765625
9089,-9.765625
9090,-9.765625
9091,-9.765625
9092,-7.812500
9093,-7.812500
9094,-7.812500
9095,-5.859375
9096,-5.859375
9097,-5.859375
9098,-3.906250
9099,-3.906250
9100,-1.953125
9101,-1.953125
9102,-1.953125
9103,-1.953125
9104,0.000000
9105,0.000000
9106,0.000000
9107,0.000000
9108,1.953125
9109,1.953125
9110,3.906250
9111,3.906250
9112,3.906250
9113,5.859375
9114,5.859375
9115,5.859375
9116,5.859375
9117,7.812500
9118,7.812500
9119,7.812500
9120,9.765625
9121,9.765625
9122,9.765625
9123,11.718750
9124,11.718750
9125,11.718750
9126,13.671875
9127,13.671875
9128,13.671875
9129,13.671875
9130,15.625000
9131,15.625000
9132,15.625000
9133,15.625000
9134,17.578125
9135,17.578125
9136,17.578125
9137,19.531250
9138,19.531250
9139,19.531250
9140,19.531250
9141,21.484375
9142,21.484375
9143,21.484375
9144,23.437500
9145,23.437500
9146,23.437500
9147,23.437500
9148,23.437500
9149,23.437500
9150,25.390625
9151,25.390625
9152,27.343750
9153,27.343750
9154,27.343750
9155,29.296875
9156,27.343750
9157,27.343750
9158,29.296875
9159,29.296875
9160,29.296875
9161,29.296875
9162,31.250000
9163,31.250000
9164,31.250000
9165,31.250000
9166,31.250000
9167,33.203125
9168,33.203125
9169,33.203125
9170,35.156250
9171,35.156250
9172,35.156250
9173,35.156250
9174,35.156250
9175,35.156250
9176,37.109375
9177,37.109375
9178,37.109375
9179,37.109375
9180,37.109375
9181,37.109375
9182,37.109375
9183,39.062500
9184,39.062500
9185,39.062500
9186,39.062500
9187,39.062500
9188,41.015625
9189,41.015625
9190,41.015625
9191,41.015625
9192,41.015625
9193,42.968750
9194,42.968750
9195,42.968750
9196,42.968750
9197,42.968750
9198,42.968750
9199,42.968750
9200,44.921875
9201,44.921875
9202,44.921875
9203,44.921875
9204,44.921875
9205,44.921875
9206,44.921875
9207,46.875000
9208,44.921875
9209,44.921875
9210,44.921875
9211,46.875000
9212,46.875000
9213,46.875000
9214,46.875000
9215,46.875000
9216,46.875000
9217,46.875000
9218,48.828125
9219,46.875000
9220,46.875000
9221,48.828125
9222,48.828125
9223,48.828125
9224,48.828125
9225,48.828125
9226,48.828125
9227,48.828125
9228,48.828125
9229,48.828125
9230,48.828125
9231,48.828125
9232,48.828125
9233,50.781250
9234,48.828125
9235,48.828125
9236,48.828125
9237,50.781250
9238,50.781250
9239,48.828125
9240,50.781250
9241,50.781250
9242,50.781250
9243,50.781250
9244,50.781250
9245,50.781250
9246,50.781250
9247,50.781250
9248,50.781250
9249,48.828125
9250,50.781250
9251,50.781250
9252,50.781250
9253,48.828125
9254,48.828125
9255,48.828125
9256,50.781250
9257,48.828125
9258,48.828125
9259,50.781250
9260,48.828125
9261,50.781250
9262,48.828125
9263,48.828125
9264,48.828125
9265,48.828125
9266,48.828125
9267,48.828125
9268,48.828125
9269,48.828125
9270,48.828125
9271,46.875000
9272,46.875000
9273,46.875000
9274,46.875000
9275,46.875000
9276,46.875000
9277,46.875000
9278,44.921875
9279,46.875000
9280,46.875000
9281,44.921875
9282,44.921875
9283,44.921875
9284,44.921875
9285,44.921875
9286,44.921875
9287,44.921875
9288,42.968750
9289,42.968750
9290,42.968750
9291,42.968750
9292,42.968750
9293,42.968750
9294,41.015625
9295,41.015625
9296,41.015625
9297,41.015625
9298,41.015625
9299,41.015625
9300,41.015625
9301,41.015625
9302,39.062500
9303,39.062500
9304,39.062500
9305,39.062500
9306,39.062500
9307,39.062500
9308,37.109375
9309,37.109375
9310,37.109375
9311,35.156250
9312,37.109375
9313,35.156250
9314,35.156250
9315,35.156250
9316,35.156250
9317,33.203125
9318,33.203125
9319,33.203125
9320,31.250000
9321,33.203125
9322,31.250000
9323,31.250000
9324,29.296875
9325,29.296875
9326,29.296875
9327,29.296875
9328,29.296875
9329,27.343750
9330,27.343750
9331,27.343750
9332,25.390625
9333,25.390625
9334,25.390625
9335,25.390625
9336,23.437500
9337,23.437500
9338,23.437500
9339,23.437500
9340,21.484375
9341,21.484375
9342,21.484375
9343,19.531250
9344,19.531250
9345,19.531250
9346,19.531250
9347,17.578125
9348,17.578125
9349,17.578125
9350,15.625000
9351,15.625000
9352,15.625000
9353,13.671875
9354,13.671875
9355,13.671875
9356,13.671875
9357,11.718750
9358,11.718750
9359,11.718750
9360,9.765625
9361,9.765625
9362,7.812500
9363,7.812500
9364,7.812500
9365,7.812500
9366,7.812500
9367,5.859375
9368,5.859375
9369,5.859375
9370,3.906250
9371,3.906250
9372,3.906250
9373,1.953125
9374,1.953125
9375,1.953125
9376,0.000000
9377,0.000000
9378,0.000000
9379,-1.953125
9380,-1.953125
9381,-1.953125
9382,-3.906250
9383,-3.906250
9384,-5.859375
9385,-5.859375
9386,-5.859375
9387,-5.859375
9388,-7.812500
9389,-7.812500
9390,-9.765625
9391,-9.765625
9392,-9.765625
9393,-11.718750
9394,-11.718750
9395,-13.671875
9396,-13.671875
9397,-13.671875
9398,-13.671875
9399,-15.625000
9400,-17.578125
9401,-15.625000
9402,-17.578125
9403,-19.531250
9404,-19.531250
9405,-19.531250
9406,-19.531250
9407,-21.484375
9408,-21.484375
9409,-21.484375
9410,-23.437500
9411,-23.437500
9412,-25.390625
9413,-25.390625
9414,-25.390625
9415,-25.390625
9416,-27.343750
9417,-27.343750
9418,-27.343750
9419,-29.296875
9420,-29.296875
9421,-29.296875
9422,-29.296875
9423,-31.250000
9424,-33.203125
9425,-33.203125
9426,-33.203125
9427,-33.203125
9428,-33.203125
9429,-35.156250
9430,-35.156250
9431,-35.156250
9432,-37.109375
9433,-37.109375
9434,-37.109375
9435,-37.109375
9436,-39.062500
9437,-39.062500
9438,-39.062500
9439,-41.015625
9440,-41.015625
9441,-41.015625
9442,-41.015625
9443,-42.968750
9444,-42.968750
9445,-44.921875
9446,-44.921875
9447,-44.921875
9448,-44.921875
9449,-44.921875
9450,-44.921875
9451,-46.875000
9452,-46.875000
9453,-48.828125
9454,-48.828125
9455,-48.828125
9456,-48.828125
9457,-50.781250
9458,-50.781250
9459,-50.781250
9460,-52.734375
9461,-52.734375
9462,-52.734375
9463,-52.734375
9464,-54.687500
9465,-54.687500
9466,-54.687500
9467,-54.687500
9468,-54.687500
9469,-56.640625
9470,-56.640625
9471,-56.640625
9472,-56.640625
9473,-58.593750
9474,-58.593750
9475,-58.593750
9476,-58.593750
9477,-58.593750
9478,-58.593750
9479,-60.546875
9480,-60.546875
9481,-60.546875
9482,-60.546875
9483,-62.500000
9484,-62.500000
9485,-62.500000
9486,-62.500000
9487,-62.500000
9488,-64.453125
9489,-64.453125
9490,-64.453125
9491,-64.453125
9492,-66.406250
9493,-66.406250
9494,-64.453125
9495,-64.453125
9496,-66.406250
9497,-66.406250
9498,-66.406250
9499,-66.406250
9500,-66.406250
9501,-66.406250
9502,-66.406250
9503,-68.359375
9504,-68.359375
9505,-68.359375
9506,-68.359375
9507,-68.359375
9508,-68.359375
9509,-68.359375
9510,-68.359375
9511,-68.359375
9512,-70.312500
9513,-70.312500
9514,-70.312500
9515,-68.359375
9516,-70.312500
9517,-70.312500
9518,-70.312500
9519,-70.312500
9520,-70.312500
9521,-70.312500
9522,-70.312500
9523,-72.265625
9524,-70.312500
9525,-70.312500
9526,-70.312500
9527,-72.265625
9528,-70.312500
9529,-72.265625
9530,-72.265625
9531,-72.265625
9532,-72.265625
9533,-72.265625
9534,-72.265625
9535,-72.265625
9536,-72.265625
9537,-72.265625
9538,-72.265625
9539,-72.265625
9540,-70.312500
9541,-72.265625
9542,-72.265625
9543,-70.312500
9544,-70.312500
9545,-70.312500
9546,-72.265625
9547,-70.312500
9548,-70.312500
9549,-70.312500
9550,-70.312500
9551,-70.312500
9552,-70.312500
9553,-70.312500
9554,-70.312500
9555,-70.312500
9556,-70.312500
9557,-68.359375
9558,-68.359375
9559,-68.359375
9560,-68.359375
9561,-68.359375
9562,-68.359375
9563,-68.359375
9564,-68.359375
9565,-68.359375
9566,-66.406250
9567,-66.406250
9568,-66.406250
9569,-66.406250
9570,-66.406250
9571,-66.406250
9572,-64.453125
9573,-64.453125
9574,-64.453125
9575,-64.453125
9576,-64.453125
9577,-64.453125
9578,-62.500000
9579,-62.500000
9580,-62.500000
9581,-62.500000
9582,-62.500000
9583,-60.546875
9584,-60.546875
9585,-60.546875
9586,-60.546875
9587,-58.593750
9588,-58.593750
9589,-58.593750
9590,-58.593750
9591,-58.593750
9592,-58.593750
9593,-56.640625
9594,-56.640625
9595,-56.640625
9596,-56.640625
9597,-54.687500
9598,-54.687500
9599,-54.687500
9600,-54.687500
9601,-54.687500
9602,-52.734375
9603,-52.734375
9604,-50.781250
9605,-50.781250
9606,-50.781250
9607,-50.781250
9608,-48.828125
9609,-48.828125
9610,-48.828125
9611,-48.828125
9612,-48.828125
9613,-46.875000
9614,-46.875000
9615,-44.921875
9616,-44.921875
9617,-44.921875
9618,-44.921875
9619,-42.968750
9620,-42.968750
9621,-42.968750
9622,-42.968750
9623,-41.015625
9624,-41.015625
9625,-41.015625
9626,-39.062500
9627,-39.062500
9628,-39.062500
9629,-37.109375
9630,-37.109375
9631,-35.156250
9632,-35.156250
9633,-35.156250
9634,-35.156250
9635,-33.203125
9636,-33.203125
9637,-33.203125
9638,-31.250000
9639,-31.250000
9640,-29.296875
9641,-29.296875
9642,-29.296875
9643,-29.296875
9644,-27.343750
9645,-27.343750
9646,-25.390625
9647,-25.390625
9648,-25.390625
9649,-25.390625
9650,-25.390625
9651,-23.437500
9652,-23.437500
9653,-21.484375
9654,-21.484375
9655,-19.531250
9656,-19.531250
9657,-19.531250
9658,-19.531250
9659,-19.531250
9660,-17.578125
9661,-17.578125
9662,-17.578125
9663,-15.625000
9664,-15.625000
9665,-15.625000
9666,-13.671875
9667,-13.671875
9668,-11.718750
9669,-11.718750
9670,-9.765625
9671,-11.718750
9672,-9.765625
9673,-9.765625
9674,-7.812500
9675,-7.812500
9676,-7.812500
9677,-7.812500
9678,-5.859375
9679,-5.859375
9680,-5.859375
9681,-3.906250
9682,-3.906250
9683,-3.906250
9684,-1.953125
9685,-1.953125
9686,-3.906250
9687,0.000000
9688,0.000000
9689,1.953125
9690,1.953125
9691,1.953125
9692,1.953125
9693,3.906250
9694,3.906250
9695,3.906250
9696,3.906250
9697,5.859375
9698,7.812500
9699,7.812500
9700,7.812500
9701,7.812500
9702,9.765625
9703,9.765625
9704,9.765625
9705,9.765625
9706,11.718750
9707,11.718750
9708,11.718750
9709,13.671875
9710,13.671875
9711,13.671875
9712,13.671875
9713,15.625000
9714,15.625000
9715,15.625000
9716,15.625000
9717,17.578125
9718,17.578125
9719,19.531250
9720,17.578125
9721,19.531250
9722,19.531250
9723,21.484375
9724,21.484375
9725,19.531250
9726,21.484375
9727,23.437500
9728,23.437500
9729,23.437500
9730,23.437500
9731,23.437500
9732,25.390625
9733,25.390625
9734,25.390625
9735,27.343750
9736,25.390625
9737,27.343750
9738,27.343750
9739,29.296875
9740,29.296875
9741,29.296875
9742,29.296875
9743,31.250000
9744,31.250000
9745,31.250000
9746,31.250000
9747,31.250000
9748,33.203125
9749,33.203125
9750,33.203125
9751,33.203125
9752,35.156250
9753,35.156250
9754,35.156250
9755,35.156250
9756,35.156250
9757,35.156250
9758,37.109375
9759,37.109375
9760,37.109375
9761,37.109375
9762,39.062500
9763,39.062500
9764,39.062500
9765,39.062500
9766,39.062500
9767,39.062500
9768,41.015625
9769,41.015625
9770,41.015625
9771,41.015625
9772,41.015625
9773,42.968750
9774,41.015625
9775,41.015625
9776,42.968750
9777,42.968750
9778,42.968750
9779,42.968750
9780,42.968750
9781,42.968750
9782,44.921875
9783,44.921875
9784,44.921875
9785,44.921875
9786,44.921875
9787,44.921875
9788,46.875000
9789,46.875000
9790,44.921875
9791,46.875000
9792,46.875000
9793,46.875000
9794,46.875000
9795,46.875000
9796,46.875000
9797,46.875000
9798,46.875000
9799,46.875000
9800,46.875000
9801,48.828125
9802,48.828125
9803,48.828125
9804,48.828125
9805,48.828125
9806,48.828125
9807,48.828125
9808,48.828125
9809,48.828125
9810,48.828125
9811,48.828125
9812,50.781250
9813,48.828125
9814,48.828125
9815,50.781250
9816,50.781250
9817,50.781250
9818,50.781250
9819,50.781250
9820,50.781250
9821,50.781250
9822,50.781250
9823,50.781250
9824,50.781250
9825,50.781250
9826,50.781250
9827,50.781250
9828,50.781250
9829,50.781250
9830,50.781250
9831,50.781250
9832,50.781250
9833,50.781250
9834,50.781250
9835,50.781250
9836,50.781250
9837,50.781250
9838,50.781250
9839,50.781250
9840,50.781250
9841,50.781250
9842,48.828125
9843,48.828125
9844,48.828125
9845,50.781250
9846,48.828125
9847,48.828125
9848,48.828125
9849,48.828125
9850,48.828125
9851,48.828125
9852,48.828125
9853,48.828125
9854,48.828125
9855,48.828125
9856,48.828125
9857,46.875000
9858,46.875000
9859,46.875000
9860,46.875000
9861,46.875000
9862,46.875000
9863,44.921875
9864,46.875000
9865,46.875000
9866,44.921875
9867,44.921875
9868,44.921875
9869,44.921875
9870,44.921875
9871,44.921875
9872,44.921875
9873,44.921875
9874,42.968750
9875,42.968750
9876,42.968750
9877,42.968750
9878,42.968750
9879,42.968750
9880,41.015625
9881,41.015625
9882,41.015625
9883,41.015625
9884,41.015625
9885,41.015625
9886,39.062500
9887,39.062500
9888,39.062500
9889,39.062500
9890,37.109375
9891,37.109375
9892,37.109375
9893,37.109375
9894,37.109375
9895,35.156250
9896,35.156250
9897,35.156250
9898,35.156250
9899,35.156250
9900,33.203125
9901,33.203125
9902,33.203125
9903,33.203125
9904,31.250000
9905,31.250000
9906,31.250000
9907,31.250000
9908,31.250000
9909,29.296875
9910,29.296875
9911,29.296875
9912,29.296875
9913,27.343750
9914,27.343750
9915,25.390625
9916,25.390625
9917,25.390625
9918,25.390625
9919,23.437500
9920,23.437500
9921,23.437500
9922,23.437500
9923,21.484375
9924,21.484375
9925,21.484375
9926,19.531250
9927,19.531250
9928,19.531250
9929,17.578125
9930,17.578125
9931,17.578125
9932,17.578125
9933,15.625000
9934,15.625000
9935,15.625000
9936,15.625000
9937,15.625000
9938,13.671875
9939,13.671875
9940,11.718750
9941,11.718750
9942,11.718750
9943,9.765625
9944,9.765625
9945,9.765625
9946,9.765625
9947,7.812500
9948,7.812500
9949,5.859375
9950,5.859375
9951,5.859375
9952,3.906250
9953,3.906250
9954,3.906250
9955,3.906250
9956,1.953125
9957,1.953125
9958,1.953125
9959,0.000000
9960,0.000000
9961,-1.953125
9962,-1.953125
9963,-1.953125
9964,-1.953125
9965,-3.906250
9966,-3.906250
9967,-5.859375
9968,-5.859375
9969,-5.859375
9970,-7.812500
9971,-7.812500
9972,-7.812500
9973,-7.812500
9974,-11.718750
9975,-9.765625
9976,-11.718750
9977,-11.718750
9978,-13.671875
9979,-13.671875
9980,-13.671875
9981,-15.625000
9982,-15.625000
9983,-15.625000
9984,-17.578125
9985,-17.578125
9986,-17.578125
9987,-19.531250
9988,-19.531250
9989,-19.531250
9990,-21.484375
9991,-21.484375
9992,-23.437500
9993,-23.437500
9994,-23.437500
9995,-23.437500
9996,-25.390625
9997,-25.390625
9998,-25.390625
9999,-25.390625
10000,-27.343750
