Channel              :,CH1
Frequency            :,858.4Hz
Period               :,1.165ms
PK-PK                :,187.5mV
Probe attenuation    :,1X
Voltage per ADC value:,0.122070mV
Time interval        :,2.00000us

index,CH1_Voltage(mV)
1,41.015625
2,41.015625
3,39.062500
4,39.062500
5,37.109375
6,37.109375
7,37.109375
8,35.156250
9,35.156250
10,33.203125
11,33.203125
12,31.250000
13,29.296875
14,29.296875
15,29.296875
16,27.343750
17,27.343750
18,25.390625
19,25.390625
20,23.437500
21,23.437500
22,21.484375
23,21.484375
24,19.531250
25,19.531250
26,17.578125
27,17.578125
28,15.625000
29,15.625000
30,13.671875
31,13.671875
32,11.718750
33,11.718750
34,9.765625
35,9.765625
36,7.812500
37,7.812500
38,5.859375
39,5.859375
40,3.906250
41,3.906250
42,1.953125
43,1.953125
44,0.000000
45,0.000000
46,-1.953125
47,-1.953125
48,-3.906250
49,-3.906250
50,-5.859375
51,-5.859375
52,-7.812500
53,-7.812500
54,-9.765625
55,-9.765625
56,-9.765625
57,-11.718750
58,-11.718750
59,-13.671875
60,-13.671875
61,-15.625000
62,-15.625000
63,-17.578125
64,-17.578125
65,-19.531250
66,-19.531250
67,-21.484375
68,-21.484375
69,-23.437500
70,-23.437500
71,-25.390625
72,-25.390625
73,-25.390625
74,-27.343750
75,-29.296875
76,-29.296875
77,-29.296875
78,-31.250000
79,-31.250000
80,-33.203125
81,-35.156250
82,-35.156250
83,-37.109375
84,-37.109375
85,-37.109375
86,-39.062500
87,-39.062500
88,-41.015625
89,-41.015625
90,-41.015625
91,-42.968750
92,-42.968750
93,-44.921875
94,-44.921875
95,-46.875000
96,-46.875000
97,-46.875000
98,-48.828125
99,-50.781250
100,-50.781250
101,-50.781250
102,-50.781250
103,-52.734375
104,-54.687500
105,-54.687500
106,-56.640625
107,-56.640625
108,-56.640625
109,-58.593750
110,-58.593750
111,-58.593750
112,-60.546875
113,-60.546875
114,-62.500000
115,-62.500000
116,-64.453125
117,-64.453125
118,-64.453125
119,-64.453125
120,-66.406250
121,-66.406250
122,-66.406250
123,-68.359375
124,-68.359375
125,-70.312500
126,-70.312500
127,-72.265625
128,-72.265625
129,-72.265625
130,-74.218750
131,-74.218750
132,-74.218750
133,-76.171875
134,-76.171875
135,-76.171875
136,-78.125000
137,-80.078125
138,-78.125000
139,-80.078125
140,-80.078125
141,-80.078125
142,-82.031250
143,-82.031250
144,-82.031250
145,-82.031250
146,-83.984375
147,-83.984375
148,-83.984375
149,-85.937500
150,-85.937500
151,-85.937500
152,-85.937500
153,-87.890625
154,-87.890625
155,-87.890625
156,-87.890625
157,-89.843750
158,-89.843750
159,-89.843750
160,-89.843750
161,-91.796875
162,-91.796875
163,-91.796875
164,-91.796875
165,-91.796875
166,-91.796875
167,-93.750000
168,-93.750000
169,-93.750000
170,-93.750000
171,-95.703125
172,-93.750000
173,-95.703125
174,-95.703125
175,-95.703125
176,-95.703125
177,-95.703125
178,-97.656250
179,-95.703125
180,-95.703125
181,-95.703125
182,-95.703125
183,-97.656250
184,-97.656250
185,-97.656250
186,-97.656250
187,-97.656250
188,-97.656250
189,-97.656250
190,-97.656250
191,-97.656250
192,-97.656250
193,-97.656250
194,-97.656250
195,-97.656250
196,-97.656250
197,-97.656250
198,-97.656250
199,-97.656250
200,-97.656250
201,-97.656250
202,-97.656250
203,-97.656250
204,-97.656250
205,-97.656250
206,-97.656250
207,-97.656250
208,-97.656250
209,-97.656250
210,-97.656250
211,-97.656250
212,-97.656250
213,-97.656250
214,-95.703125
215,-97.656250
216,-97.656250
217,-97.656250
218,-95.703125
219,-95.703125
220,-95.703125
221,-95.703125
222,-95.703125
223,-93.750000
224,-95.703125
225,-95.703125
226,-95.703125
227,-95.703125
228,-93.750000
229,-93.750000
230,-93.750000
231,-93.750000
232,-93.750000
233,-91.796875
234,-93.750000
235,-91.796875
236,-91.796875
237,-91.796875
238,-89.843750
239,-89.843750
240,-89.843750
241,-89.843750
242,-89.843750
243,-89.843750
244,-87.890625
245,-87.890625
246,-87.890625
247,-87.890625
248,-85.937500
249,-85.937500
250,-85.937500
251,-85.937500
252,-83.984375
253,-83.984375
254,-83.984375
255,-82.031250
256,-82.031250
257,-82.031250
258,-80.078125
259,-80.078125
260,-80.078125
261,-80.078125
262,-78.125000
263,-78.125000
264,-78.125000
265,-78.125000
266,-76.171875
267,-76.171875
268,-74.218750
269,-74.218750
270,-74.218750
271,-74.218750
272,-72.265625
273,-72.265625
274,-72.265625
275,-70.312500
276,-70.312500
277,-70.312500
278,-70.312500
279,-68.359375
280,-68.359375
281,-68.359375
282,-66.406250
283,-66.406250
284,-66.406250
285,-64.453125
286,-64.453125
287,-62.500000
288,-62.500000
289,-60.546875
290,-60.546875
291,-60.546875
292,-60.546875
293,-58.593750
294,-56.640625
295,-56.640625
296,-54.687500
297,-54.687500
298,-54.687500
299,-52.734375
300,-52.734375
301,-52.734375
302,-50.781250
303,-50.781250
304,-48.828125
305,-48.828125
306,-46.875000
307,-46.875000
308,-46.875000
309,-44.921875
310,-44.921875
311,-42.968750
312,-42.968750
313,-41.015625
314,-41.015625
315,-41.015625
316,-39.062500
317,-37.109375
318,-37.109375
319,-35.156250
320,-35.156250
321,-35.156250
322,-35.156250
323,-33.203125
324,-31.250000
325,-29.296875
326,-29.296875
327,-27.343750
328,-27.343750
329,-27.343750
330,-25.390625
331,-25.390625
332,-23.437500
333,-23.437500
334,-23.437500
335,-21.484375
336,-21.484375
337,-19.531250
338,-19.531250
339,-17.578125
340,-15.625000
341,-15.625000
342,-13.671875
343,-13.671875
344,-13.671875
345,-13.671875
346,-11.718750
347,-9.765625
348,-9.765625
349,-7.812500
350,-7.812500
351,-5.859375
352,-5.859375
353,-3.906250
354,-3.906250
355,-1.953125
356,-1.953125
357,0.000000
358,0.000000
359,1.953125
360,1.953125
361,3.906250
362,3.906250
363,5.859375
364,7.812500
365,7.812500
366,7.812500
367,9.765625
368,9.765625
369,11.718750
370,13.671875
371,13.671875
372,15.625000
373,15.625000
374,15.625000
375,17.578125
376,19.531250
377,19.531250
378,21.484375
379,21.484375
380,21.484375
381,23.437500
382,23.437500
383,25.390625
384,25.390625
385,27.343750
386,29.296875
387,29.296875
388,31.250000
389,31.250000
390,31.250000
391,33.203125
392,33.203125
393,35.156250
394,35.156250
395,37.109375
396,37.109375
397,37.109375
398,39.062500
399,39.062500
400,41.015625
401,42.968750
402,42.968750
403,42.968750
404,44.921875
405,44.921875
406,46.875000
407,46.875000
408,48.828125
409,48.828125
410,48.828125
411,50.781250
412,50.781250
413,50.781250
414,52.734375
415,52.734375
416,54.687500
417,54.687500
418,54.687500
419,54.687500
420,56.640625
421,56.640625
422,58.593750
423,60.546875
424,60.546875
425,60.546875
426,62.500000
427,62.500000
428,64.453125
429,64.453125
430,64.453125
431,66.406250
432,66.406250
433,66.406250
434,66.406250
435,66.406250
436,68.359375
437,70.312500
438,70.312500
439,70.312500
440,72.265625
441,72.265625
442,72.265625
443,72.265625
444,72.265625
445,74.218750
446,74.218750
447,76.171875
448,76.171875
449,76.171875
450,76.171875
451,76.171875
452,78.125000
453,78.125000
454,78.125000
455,78.125000
456,80.078125
457,80.078125
458,80.078125
459,80.078125
460,80.078125
461,82.031250
462,82.031250
463,82.031250
464,82.031250
465,82.031250
466,82.031250
467,82.031250
468,83.984375
469,83.984375
470,83.984375
471,83.984375
472,83.984375
473,83.984375
474,83.984375
475,83.984375
476,83.984375
477,85.937500
478,85.937500
479,85.937500
480,85.937500
481,85.937500
482,85.937500
483,85.937500
484,85.937500
485,85.937500
486,85.937500
487,85.937500
488,85.937500
489,85.937500
490,85.937500
491,85.937500
492,85.937500
493,85.937500
494,85.937500
495,85.937500
496,85.937500
497,85.937500
498,85.937500
499,85.937500
500,85.937500
501,85.937500
502,85.937500
503,85.937500
504,85.937500
505,85.937500
506,85.937500
507,85.937500
508,85.937500
509,85.937500
510,83.984375
511,83.984375
512,83.984375
513,83.984375
514,83.984375
515,83.984375
516,83.984375
517,82.031250
518,82.031250
519,82.031250
520,82.031250
521,82.031250
522,82.031250
523,82.031250
524,80.078125
525,80.078125
526,80.078125
527,78.125000
528,78.125000
529,78.125000
530,78.125000
531,78.125000
532,78.125000
533,76.171875
534,76.171875
535,76.171875
536,74.218750
537,74.218750
538,74.218750
539,72.265625
540,72.265625
541,72.265625
542,72.265625
543,72.265625
544,70.312500
545,70.312500
546,68.359375
547,68.359375
548,68.359375
549,68.359375
550,66.406250
551,66.406250
552,66.406250
553,66.406250
554,64.453125
555,64.453125
556,62.500000
557,62.500000
558,60.546875
559,62.500000
560,58.593750
561,60.546875
562,58.593750
563,58.593750
564,58.593750
565,56.640625
566,56.640625
567,54.687500
568,54.687500
569,52.734375
570,52.734375
571,52.734375
572,50.781250
573,50.781250
574,50.781250
575,48.828125
576,48.828125
577,46.875000
578,46.875000
579,44.921875
580,44.921875
581,44.921875
582,42.968750
583,42.968750
584,42.968750
585,41.015625
586,39.062500
587,39.062500
588,37.109375
589,37.109375
590,35.156250
591,35.156250
592,35.156250
593,33.203125
594,33.203125
595,31.250000
596,29.296875
597,29.296875
598,29.296875
599,27.343750
600,27.343750
601,25.390625
602,25.390625
603,25.390625
604,23.437500
605,21.484375
606,21.484375
607,19.531250
608,19.531250
609,17.578125
610,17.578125
611,15.625000
612,17.578125
613,15.625000
614,13.671875
615,11.718750
616,11.718750
617,9.765625
618,7.812500
619,7.812500
620,7.812500
621,7.812500
622,5.859375
623,5.859375
624,3.906250
625,3.906250
626,1.953125
627,0.000000
628,0.000000
629,-1.953125
630,-1.953125
631,-1.953125
632,-3.906250
633,-3.906250
634,-5.859375
635,-5.859375
636,-7.812500
637,-7.812500
638,-7.812500
639,-9.765625
640,-11.718750
641,-11.718750
642,-13.671875
643,-13.671875
644,-15.625000
645,-15.625000
646,-17.578125
647,-17.578125
648,-17.578125
649,-19.531250
650,-21.484375
651,-21.484375
652,-23.437500
653,-23.437500
654,-25.390625
655,-25.390625
656,-25.390625
657,-27.343750
658,-29.296875
659,-29.296875
660,-29.296875
661,-31.250000
662,-31.250000
663,-31.250000
664,-33.203125
665,-35.156250
666,-37.109375
667,-37.109375
668,-37.109375
669,-37.109375
670,-39.062500
671,-39.062500
672,-41.015625
673,-41.015625
674,-42.968750
675,-42.968750
676,-44.921875
677,-44.921875
678,-44.921875
679,-46.875000
680,-46.875000
681,-48.828125
682,-50.781250
683,-50.781250
684,-50.781250
685,-50.781250
686,-52.734375
687,-54.687500
688,-54.687500
689,-54.687500
690,-54.687500
691,-56.640625
692,-58.593750
693,-58.593750
694,-58.593750
695,-60.546875
696,-60.546875
697,-60.546875
698,-62.500000
699,-62.500000
700,-64.453125
701,-64.453125
702,-66.406250
703,-66.406250
704,-66.406250
705,-66.406250
706,-68.359375
707,-68.359375
708,-70.312500
709,-70.312500
710,-70.312500
711,-72.265625
712,-72.265625
713,-74.218750
714,-74.218750
715,-74.218750
716,-74.218750
717,-76.171875
718,-76.171875
719,-78.125000
720,-78.125000
721,-78.125000
722,-78.125000
723,-80.078125
724,-80.078125
725,-80.078125
726,-82.031250
727,-82.031250
728,-82.031250
729,-82.031250
730,-83.984375
731,-83.984375
732,-85.937500
733,-85.937500
734,-85.937500
735,-85.937500
736,-87.890625
737,-87.890625
738,-87.890625
739,-87.890625
740,-87.890625
741,-87.890625
742,-89.843750
743,-89.843750
744,-91.796875
745,-91.796875
746,-91.796875
747,-91.796875
748,-91.796875
749,-91.796875
750,-93.750000
751,-93.750000
752,-93.750000
753,-93.750000
754,-95.703125
755,-93.750000
756,-95.703125
757,-95.703125
758,-95.703125
759,-95.703125
760,-95.703125
761,-95.703125
762,-95.703125
763,-95.703125
764,-97.656250
765,-95.703125
766,-97.656250
767,-97.656250
768,-97.656250
769,-97.656250
770,-97.656250
771,-97.656250
772,-97.656250
773,-97.656250
774,-97.656250
775,-97.656250
776,-97.656250
777,-97.656250
778,-97.656250
779,-97.656250
780,-97.656250
781,-97.656250
782,-99.609375
783,-97.656250
784,-99.609375
785,-97.656250
786,-97.656250
787,-97.656250
788,-99.609375
789,-97.656250
790,-97.656250
791,-97.656250
792,-97.656250
793,-99.609375
794,-97.656250
795,-97.656250
796,-97.656250
797,-95.703125
798,-95.703125
799,-95.703125
800,-97.656250
801,-95.703125
802,-95.703125
803,-95.703125
804,-95.703125
805,-95.703125
806,-95.703125
807,-95.703125
808,-95.703125
809,-93.750000
810,-95.703125
811,-93.750000
812,-93.750000
813,-93.750000
814,-91.796875
815,-93.750000
816,-91.796875
817,-93.750000
818,-91.796875
819,-91.796875
820,-91.796875
821,-89.843750
822,-89.843750
823,-89.843750
824,-89.843750
825,-89.843750
826,-89.843750
827,-87.890625
828,-87.890625
829,-85.937500
830,-87.890625
831,-85.937500
832,-85.937500
833,-85.937500
834,-83.984375
835,-83.984375
836,-83.984375
837,-83.984375
838,-83.984375
839,-82.031250
840,-82.031250
841,-82.031250
842,-80.078125
843,-82.031250
844,-80.078125
845,-80.078125
846,-80.078125
847,-78.125000
848,-78.125000
849,-76.171875
850,-76.171875
851,-76.171875
852,-76.171875
853,-74.218750
854,-74.218750
855,-74.218750
856,-72.265625
857,-72.265625
858,-70.312500
859,-70.312500
860,-70.312500
861,-70.312500
862,-70.312500
863,-68.359375
864,-68.359375
865,-66.406250
866,-66.406250
867,-64.453125
868,-64.453125
869,-64.453125
870,-62.500000
871,-62.500000
872,-62.500000
873,-60.546875
874,-60.546875
875,-60.546875
876,-58.593750
877,-58.593750
878,-56.640625
879,-56.640625
880,-56.640625
881,-54.687500
882,-54.687500
883,-52.734375
884,-52.734375
885,-52.734375
886,-50.781250
887,-50.781250
888,-48.828125
889,-48.828125
890,-46.875000
891,-46.875000
892,-44.921875
893,-44.921875
894,-44.921875
895,-42.968750
896,-41.015625
897,-41.015625
898,-41.015625
899,-39.062500
900,-39.062500
901,-37.109375
902,-37.109375
903,-35.156250
904,-35.156250
905,-33.203125
906,-33.203125
907,-31.250000
908,-31.250000
909,-31.250000
910,-29.296875
911,-27.343750
912,-27.343750
913,-27.343750
914,-25.390625
915,-25.390625
916,-23.437500
917,-23.437500
918,-21.484375
919,-21.484375
920,-19.531250
921,-19.531250
922,-17.578125
923,-17.578125
924,-17.578125
925,-15.625000
926,-15.625000
927,-13.671875
928,-13.671875
929,-11.718750
930,-9.765625
931,-9.765625
932,-7.812500
933,-7.812500
934,-5.859375
935,-5.859375
936,-3.906250
937,-3.906250
938,-1.953125
939,-1.953125
940,0.000000
941,0.000000
942,0.000000
943,1.953125
944,3.906250
945,3.906250
946,5.859375
947,5.859375
948,7.812500
949,5.859375
950,7.812500
951,9.765625
952,11.718750
953,11.718750
954,13.671875
955,13.671875
956,15.625000
957,15.625000
958,17.578125
959,17.578125
960,19.531250
961,19.531250
962,21.484375
963,21.484375
964,23.437500
965,23.437500
966,25.390625
967,25.390625
968,27.343750
969,27.343750
970,29.296875
971,29.296875
972,29.296875
973,33.203125
974,33.203125
975,33.203125
976,35.156250
977,35.156250
978,35.156250
979,37.109375
980,37.109375
981,39.062500
982,39.062500
983,41.015625
984,41.015625
985,42.968750
986,42.968750
987,42.968750
988,44.921875
989,44.921875
990,46.875000
991,46.875000
992,48.828125
993,48.828125
994,50.781250
995,50.781250
996,50.781250
997,52.734375
998,52.734375
999,54.687500
1000,54.687500
1001,56.640625
1002,56.640625
1003,56.640625
1004,58.593750
1005,58.593750
1006,58.593750
1007,60.546875
1008,60.546875
1009,62.500000
1010,62.500000
1011,62.500000
1012,64.453125
1013,64.453125
1014,64.453125
1015,64.453125
1016,66.406250
1017,68.359375
1018,68.359375
1019,68.359375
1020,70.312500
1021,70.312500
1022,70.312500
1023,72.265625
1024,72.265625
1025,72.265625
1026,74.218750
1027,74.218750
1028,74.218750
1029,74.218750
1030,74.218750
1031,76.171875
1032,76.171875
1033,76.171875
1034,78.125000
1035,78.125000
1036,78.125000
1037,78.125000
1038,78.125000
1039,80.078125
1040,80.078125
1041,80.078125
1042,80.078125
1043,80.078125
1044,80.078125
1045,82.031250
1046,82.031250
1047,82.031250
1048,82.031250
1049,82.031250
1050,82.031250
1051,83.984375
1052,83.984375
1053,83.984375
1054,83.984375
1055,83.984375
1056,85.937500
1057,83.984375
1058,85.937500
1059,85.937500
1060,85.937500
1061,85.937500
1062,85.937500
1063,85.937500
1064,85.937500
1065,85.937500
1066,85.937500
1067,85.937500
1068,85.937500
1069,85.937500
1070,85.937500
1071,85.937500
1072,85.937500
1073,85.937500
1074,87.890625
1075,85.937500
1076,87.890625
1077,85.937500
1078,85.937500
1079,85.937500
1080,85.937500
1081,85.937500
1082,85.937500
1083,85.937500
1084,85.937500
1085,85.937500
1086,85.937500
1087,85.937500
1088,85.937500
1089,85.937500
1090,83.984375
1091,85.937500
1092,85.937500
1093,85.937500
1094,85.937500
1095,83.984375
1096,83.984375
1097,83.984375
1098,83.984375
1099,83.984375
1100,83.984375
1101,82.031250
1102,82.031250
1103,82.031250
1104,82.031250
1105,82.031250
1106,80.078125
1107,80.078125
1108,80.078125
1109,80.078125
1110,80.078125
1111,80.078125
1112,78.125000
1113,78.125000
1114,78.125000
1115,78.125000
1116,78.125000
1117,76.171875
1118,76.171875
1119,74.218750
1120,74.218750
1121,74.218750
1122,74.218750
1123,72.265625
1124,72.265625
1125,72.265625
1126,72.265625
1127,70.312500
1128,70.312500
1129,70.312500
1130,68.359375
1131,68.359375
1132,68.359375
1133,68.359375
1134,66.406250
1135,66.406250
1136,64.453125
1137,64.453125
1138,64.453125
1139,64.453125
1140,62.500000
1141,62.500000
1142,60.546875
1143,60.546875
1144,60.546875
1145,58.593750
1146,58.593750
1147,56.640625
1148,56.640625
1149,56.640625
1150,54.687500
1151,54.687500
1152,54.687500
1153,54.687500
1154,52.734375
1155,50.781250
1156,50.781250
1157,50.781250
1158,48.828125
1159,48.828125
1160,48.828125
1161,46.875000
1162,46.875000
1163,44.921875
1164,44.921875
1165,42.968750
1166,42.968750
1167,41.015625
1168,41.015625
1169,39.062500
1170,39.062500
1171,39.062500
1172,37.109375
1173,35.156250
1174,35.156250
1175,33.203125
1176,33.203125
1177,33.203125
1178,31.250000
1179,31.250000
1180,29.296875
1181,29.296875
1182,27.343750
1183,27.343750
1184,27.343750
1185,25.390625
1186,23.437500
1187,23.437500
1188,21.484375
1189,25.390625
1190,19.531250
1191,19.531250
1192,19.531250
1193,17.578125
1194,15.625000
1195,15.625000
1196,15.625000
1197,13.671875
1198,13.671875
1199,11.718750
1200,9.765625
1201,9.765625
1202,9.765625
1203,7.812500
1204,5.859375
1205,5.859375
1206,5.859375
1207,3.906250
1208,3.906250
1209,1.953125
1210,1.953125
1211,0.000000
1212,0.000000
1213,-1.953125
1214,-1.953125
1215,-3.906250
1216,-3.906250
1217,-5.859375
1218,-5.859375
1219,-7.812500
1220,-7.812500
1221,-9.765625
1222,-9.765625
1223,-11.718750
1224,-11.718750
1225,-13.671875
1226,-13.671875
1227,-13.671875
1228,-15.625000
1229,-15.625000
1230,-17.578125
1231,-19.531250
1232,-19.531250
1233,-21.484375
1234,-21.484375
1235,-21.484375
1236,-23.437500
1237,-25.390625
1238,-25.390625
1239,-27.343750
1240,-27.343750
1241,-27.343750
1242,-29.296875
1243,-29.296875
1244,-31.250000
1245,-31.250000
1246,-33.203125
1247,-33.203125
1248,-35.156250
1249,-35.156250
1250,-37.109375
1251,-37.109375
1252,-39.062500
1253,-39.062500
1254,-41.015625
1255,-41.015625
1256,-41.015625
1257,-42.968750
1258,-42.968750
1259,-44.921875
1260,-44.921875
1261,-46.875000
1262,-46.875000
1263,-46.875000
1264,-48.828125
1265,-48.828125
1266,-50.781250
1267,-50.781250
1268,-52.734375
1269,-52.734375
1270,-52.734375
1271,-54.687500
1272,-54.687500
1273,-54.687500
1274,-56.640625
1275,-56.640625
1276,-58.593750
1277,-58.593750
1278,-60.546875
1279,-60.546875
1280,-62.500000
1281,-62.500000
1282,-62.500000
1283,-64.453125
1284,-64.453125
1285,-64.453125
1286,-66.406250
1287,-66.406250
1288,-68.359375
1289,-68.359375
1290,-68.359375
1291,-70.312500
1292,-70.312500
1293,-72.265625
1294,-72.265625
1295,-72.265625
1296,-72.265625
1297,-74.218750
1298,-74.218750
1299,-76.171875
1300,-76.171875
1301,-76.171875
1302,-78.125000
1303,-78.125000
1304,-78.125000
1305,-80.078125
1306,-80.078125
1307,-80.078125
1308,-82.031250
1309,-82.031250
1310,-82.031250
1311,-83.984375
1312,-83.984375
1313,-83.984375
1314,-85.937500
1315,-85.937500
1316,-85.937500
1317,-85.937500
1318,-85.937500
1319,-87.890625
1320,-87.890625
1321,-87.890625
1322,-87.890625
1323,-89.843750
1324,-89.843750
1325,-89.843750
1326,-91.796875
1327,-91.796875
1328,-91.796875
1329,-91.796875
1330,-91.796875
1331,-91.796875
1332,-91.796875
1333,-93.750000
1334,-93.750000
1335,-93.750000
1336,-93.750000
1337,-93.750000
1338,-95.703125
1339,-95.703125
1340,-95.703125
1341,-95.703125
1342,-95.703125
1343,-97.656250
1344,-95.703125
1345,-95.703125
1346,-95.703125
1347,-97.656250
1348,-97.656250
1349,-97.656250
1350,-97.656250
1351,-97.656250
1352,-97.656250
1353,-97.656250
1354,-97.656250
1355,-97.656250
1356,-99.609375
1357,-97.656250
1358,-97.656250
1359,-95.703125
1360,-97.656250
1361,-97.656250
1362,-97.656250
1363,-97.656250
1364,-99.609375
1365,-97.656250
1366,-99.609375
1367,-99.609375
1368,-99.609375
1369,-99.609375
1370,-97.656250
1371,-97.656250
1372,-97.656250
1373,-99.609375
1374,-95.703125
1375,-97.656250
1376,-97.656250
1377,-99.609375
1378,-97.656250
1379,-97.656250
1380,-97.656250
1381,-97.656250
1382,-97.656250
1383,-97.656250
1384,-97.656250
1385,-95.703125
1386,-97.656250
1387,-95.703125
1388,-95.703125
1389,-95.703125
1390,-95.703125
1391,-95.703125
1392,-95.703125
1393,-93.750000
1394,-93.750000
1395,-93.750000
1396,-93.750000
1397,-93.750000
1398,-93.750000
1399,-93.750000
1400,-93.750000
1401,-91.796875
1402,-91.796875
1403,-91.796875
1404,-91.796875
1405,-89.843750
1406,-89.843750
1407,-89.843750
1408,-89.843750
1409,-89.843750
1410,-89.843750
1411,-87.890625
1412,-87.890625
1413,-87.890625
1414,-85.937500
1415,-85.937500
1416,-85.937500
1417,-85.937500
1418,-85.937500
1419,-83.984375
1420,-83.984375
1421,-82.031250
1422,-83.984375
1423,-82.031250
1424,-82.031250
1425,-82.031250
1426,-82.031250
1427,-80.078125
1428,-78.125000
1429,-80.078125
1430,-78.125000
1431,-78.125000
1432,-78.125000
1433,-76.171875
1434,-76.171875
1435,-76.171875
1436,-74.218750
1437,-74.218750
1438,-74.218750
1439,-74.218750
1440,-72.265625
1441,-72.265625
1442,-70.312500
1443,-70.312500
1444,-70.312500
1445,-70.312500
1446,-68.359375
1447,-68.359375
1448,-66.406250
1449,-66.406250
1450,-66.406250
1451,-64.453125
1452,-64.453125
1453,-62.500000
1454,-62.500000
1455,-62.500000
1456,-62.500000
1457,-60.546875
1458,-60.546875
1459,-58.593750
1460,-58.593750
1461,-58.593750
1462,-56.640625
1463,-56.640625
1464,-54.687500
1465,-54.687500
1466,-54.687500
1467,-52.734375
1468,-50.781250
1469,-50.781250
1470,-48.828125
1471,-48.828125
1472,-48.828125
1473,-46.875000
1474,-46.875000
1475,-44.921875
1476,-44.921875
1477,-42.968750
1478,-42.968750
1479,-42.968750
1480,-41.015625
1481,-41.015625
1482,-39.062500
1483,-39.062500
1484,-39.062500
1485,-37.109375
1486,-35.156250
1487,-35.156250
1488,-33.203125
1489,-33.203125
1490,-33.203125
1491,-31.250000
1492,-29.296875
1493,-29.296875
1494,-29.296875
1495,-27.343750
1496,-25.390625
1497,-27.343750
1498,-25.390625
1499,-23.437500
1500,-21.484375
1501,-21.484375
1502,-21.484375
1503,-19.531250
1504,-17.578125
1505,-17.578125
1506,-17.578125
1507,-15.625000
1508,-15.625000
1509,-13.671875
1510,-13.671875
1511,-11.718750
1512,-11.718750
1513,-9.765625
1514,-9.765625
1515,-7.812500
1516,-5.859375
1517,-5.859375
1518,-5.859375
1519,-3.906250
1520,-3.906250
1521,-1.953125
1522,-1.953125
1523,0.000000
1524,0.000000
1525,1.953125
1526,1.953125
1527,3.906250
1528,5.859375
1529,5.859375
1530,5.859375
1531,7.812500
1532,9.765625
1533,9.765625
1534,9.765625
1535,11.718750
1536,13.671875
1537,13.671875
1538,13.671875
1539,15.625000
1540,17.578125
1541,17.578125
1542,19.531250
1543,19.531250
1544,21.484375
1545,21.484375
1546,23.437500
1547,23.437500
1548,25.390625
1549,27.343750
1550,27.343750
1551,27.343750
1552,29.296875
1553,29.296875
1554,31.250000
1555,31.250000
1556,31.250000
1557,33.203125
1558,35.156250
1559,35.156250
1560,37.109375
1561,37.109375
1562,37.109375
1563,39.062500
1564,39.062500
1565,41.015625
1566,41.015625
1567,42.968750
1568,42.968750
1569,44.921875
1570,44.921875
1571,46.875000
1572,46.875000
1573,46.875000
1574,48.828125
1575,48.828125
1576,48.828125
1577,50.781250
1578,52.734375
1579,52.734375
1580,52.734375
1581,54.687500
1582,54.687500
1583,56.640625
1584,56.640625
1585,56.640625
1586,56.640625
1587,58.593750
1588,60.546875
1589,60.546875
1590,60.546875
1591,62.500000
1592,62.500000
1593,64.453125
1594,64.453125
1595,64.453125
1596,64.453125
1597,66.406250
1598,68.359375
1599,68.359375
1600,68.359375
1601,70.312500
1602,70.312500
1603,70.312500
1604,70.312500
1605,72.265625
1606,72.265625
1607,74.218750
1608,74.218750
1609,74.218750
1610,74.218750
1611,74.218750
1612,76.171875
1613,76.171875
1614,76.171875
1615,78.125000
1616,78.125000
1617,78.125000
1618,80.078125
1619,78.125000
1620,80.078125
1621,80.078125
1622,80.078125
1623,80.078125
1624,80.078125
1625,82.031250
1626,82.031250
1627,82.031250
1628,82.031250
1629,82.031250
1630,82.031250
1631,83.984375
1632,83.984375
1633,83.984375
1634,83.984375
1635,83.984375
1636,83.984375
1637,83.984375
1638,85.937500
1639,85.937500
1640,85.937500
1641,85.937500
1642,85.937500
1643,85.937500
1644,85.937500
1645,85.937500
1646,85.937500
1647,85.937500
1648,87.890625
1649,87.890625
1650,85.937500
1651,85.937500
1652,85.937500
1653,87.890625
1654,87.890625
1655,87.890625
1656,87.890625
1657,87.890625
1658,85.937500
1659,87.890625
1660,87.890625
1661,87.890625
1662,87.890625
1663,87.890625
1664,87.890625
1665,85.937500
1666,87.890625
1667,85.937500
1668,85.937500
1669,85.937500
1670,85.937500
1671,85.937500
1672,85.937500
1673,85.937500
1674,85.937500
1675,85.937500
1676,85.937500
1677,85.937500
1678,85.937500
1679,83.984375
1680,83.984375
1681,83.984375
1682,83.984375
1683,83.984375
1684,83.984375
1685,82.031250
1686,82.031250
1687,82.031250
1688,80.078125
1689,82.031250
1690,82.031250
1691,80.078125
1692,80.078125
1693,80.078125
1694,80.078125
1695,78.125000
1696,78.125000
1697,78.125000
1698,78.125000
1699,78.125000
1700,76.171875
1701,76.171875
1702,74.218750
1703,76.171875
1704,74.218750
1705,74.218750
1706,74.218750
1707,72.265625
1708,72.265625
1709,70.312500
1710,70.312500
1711,70.312500
1712,70.312500
1713,70.312500
1714,68.359375
1715,68.359375
1716,66.406250
1717,66.406250
1718,66.406250
1719,64.453125
1720,64.453125
1721,64.453125
1722,64.453125
1723,62.500000
1724,62.500000
1725,62.500000
1726,60.546875
1727,58.593750
1728,54.687500
1729,58.593750
1730,58.593750
1731,56.640625
1732,56.640625
1733,54.687500
1734,54.687500
1735,48.828125
1736,54.687500
1737,52.734375
1738,50.781250
1739,50.781250
1740,50.781250
1741,48.828125
1742,48.828125
1743,46.875000
1744,46.875000
1745,46.875000
1746,44.921875
1747,42.968750
1748,42.968750
1749,42.968750
1750,41.015625
1751,41.015625
1752,39.062500
1753,39.062500
1754,37.109375
1755,37.109375
1756,37.109375
1757,35.156250
1758,33.203125
1759,33.203125
1760,33.203125
1761,31.250000
1762,29.296875
1763,29.296875
1764,29.296875
1765,27.343750
1766,27.343750
1767,25.390625
1768,25.390625
1769,21.484375
1770,23.437500
1771,21.484375
1772,19.531250
1773,19.531250
1774,19.531250
1775,17.578125
1776,15.625000
1777,15.625000
1778,15.625000
1779,13.671875
1780,13.671875
1781,11.718750
1782,11.718750
1783,9.765625
1784,7.812500
1785,7.812500
1786,7.812500
1787,5.859375
1788,5.859375
1789,3.906250
1790,3.906250
1791,3.906250
1792,1.953125
1793,0.000000
1794,0.000000
1795,-1.953125
1796,-1.953125
1797,-3.906250
1798,-3.906250
1799,-5.859375
1800,-5.859375
1801,-5.859375
1802,-7.812500
1803,-9.765625
1804,-9.765625
1805,-9.765625
1806,-11.718750
1807,-13.671875
1808,-13.671875
1809,-13.671875
1810,-15.625000
1811,-15.625000
1812,-17.578125
1813,-17.578125
1814,-19.531250
1815,-19.531250
1816,-21.484375
1817,-23.437500
1818,-23.437500
1819,-23.437500
1820,-25.390625
1821,-27.343750
1822,-27.343750
1823,-27.343750
1824,-29.296875
1825,-29.296875
1826,-31.250000
1827,-31.250000
1828,-33.203125
1829,-33.203125
1830,-35.156250
1831,-35.156250
1832,-35.156250
1833,-37.109375
1834,-37.109375
1835,-39.062500
1836,-41.015625
1837,-41.015625
1838,-41.015625
1839,-42.968750
1840,-42.968750
1841,-44.921875
1842,-44.921875
1843,-46.875000
1844,-46.875000
1845,-46.875000
1846,-48.828125
1847,-50.781250
1848,-50.781250
1849,-50.781250
1850,-52.734375
1851,-52.734375
1852,-52.734375
1853,-54.687500
1854,-56.640625
1855,-56.640625
1856,-56.640625
1857,-58.593750
1858,-58.593750
1859,-58.593750
1860,-60.546875
1861,-60.546875
1862,-62.500000
1863,-62.500000
1864,-62.500000
1865,-64.453125
1866,-64.453125
1867,-64.453125
1868,-66.406250
1869,-68.359375
1870,-66.406250
1871,-68.359375
1872,-68.359375
1873,-70.312500
1874,-70.312500
1875,-70.312500
1876,-74.218750
1877,-72.265625
1878,-72.265625
1879,-74.218750
1880,-74.218750
1881,-76.171875
1882,-76.171875
1883,-78.125000
1884,-78.125000
1885,-78.125000
1886,-80.078125
1887,-80.078125
1888,-80.078125
1889,-80.078125
1890,-82.031250
1891,-82.031250
1892,-82.031250
1893,-83.984375
1894,-83.984375
1895,-83.984375
1896,-85.937500
1897,-85.937500
1898,-85.937500
1899,-85.937500
1900,-87.890625
1901,-87.890625
1902,-87.890625
1903,-87.890625
1904,-89.843750
1905,-89.843750
1906,-89.843750
1907,-89.843750
1908,-91.796875
1909,-91.796875
1910,-91.796875
1911,-91.796875
1912,-93.750000
1913,-93.750000
1914,-93.750000
1915,-93.750000
1916,-93.750000
1917,-93.750000
1918,-93.750000
1919,-95.703125
1920,-95.703125
1921,-95.703125
1922,-95.703125
1923,-95.703125
1924,-95.703125
1925,-95.703125
1926,-97.656250
1927,-97.656250
1928,-97.656250
1929,-97.656250
1930,-97.656250
1931,-97.656250
1932,-97.656250
1933,-97.656250
1934,-97.656250
1935,-97.656250
1936,-99.609375
1937,-99.609375
1938,-97.656250
1939,-97.656250
1940,-99.609375
1941,-99.609375
1942,-99.609375
1943,-99.609375
1944,-99.609375
1945,-99.609375
1946,-99.609375
1947,-99.609375
1948,-99.609375
1949,-99.609375
1950,-99.609375
1951,-99.609375
1952,-99.609375
1953,-99.609375
1954,-99.609375
1955,-99.609375
1956,-97.656250
1957,-99.609375
1958,-99.609375
1959,-99.609375
1960,-97.656250
1961,-97.656250
1962,-97.656250
1963,-97.656250
1964,-97.656250
1965,-97.656250
1966,-97.656250
1967,-97.656250
1968,-97.656250
1969,-97.656250
1970,-97.656250
1971,-95.703125
1972,-97.656250
1973,-95.703125
1974,-95.703125
1975,-95.703125
1976,-95.703125
1977,-95.703125
1978,-95.703125
1979,-93.750000
1980,-93.750000
1981,-93.750000
1982,-93.750000
1983,-93.750000
1984,-91.796875
1985,-91.796875
1986,-91.796875
1987,-91.796875
1988,-91.796875
1989,-89.843750
1990,-89.843750
1991,-89.843750
1992,-87.890625
1993,-89.843750
1994,-87.890625
1995,-87.890625
1996,-87.890625
1997,-85.937500
1998,-85.937500
1999,-85.937500
2000,-85.937500
2001,-85.937500
2002,-83.984375
2003,-83.984375
2004,-83.984375
2005,-83.984375
2006,-82.031250
2007,-82.031250
2008,-82.031250
2009,-82.031250
2010,-80.078125
2011,-80.078125
2012,-80.078125
2013,-78.125000
2014,-78.125000
2015,-78.125000
2016,-76.171875
2017,-76.171875
2018,-76.171875
2019,-74.218750
2020,-74.218750
2021,-74.218750
2022,-74.218750
2023,-72.265625
2024,-70.312500
2025,-72.265625
2026,-70.312500
2027,-68.359375
2028,-68.359375
2029,-68.359375
2030,-68.359375
2031,-66.406250
2032,-66.406250
2033,-66.406250
2034,-64.453125
2035,-64.453125
2036,-62.500000
2037,-62.500000
2038,-62.500000
2039,-60.546875
2040,-60.546875
2041,-60.546875
2042,-58.593750
2043,-58.593750
2044,-56.640625
2045,-56.640625
2046,-56.640625
2047,-54.687500
2048,-54.687500
2049,-52.734375
2050,-52.734375
2051,-50.781250
2052,-50.781250
2053,-48.828125
2054,-48.828125
2055,-46.875000
2056,-46.875000
2057,-46.875000
2058,-44.921875
2059,-42.968750
2060,-42.968750
2061,-42.968750
2062,-41.015625
2063,-41.015625
2064,-39.062500
2065,-39.062500
2066,-39.062500
2067,-37.109375
2068,-37.109375
2069,-35.156250
2070,-35.156250
2071,-33.203125
2072,-31.250000
2073,-31.250000
2074,-31.250000
2075,-29.296875
2076,-29.296875
2077,-27.343750
2078,-27.343750
2079,-25.390625
2080,-25.390625
2081,-23.437500
2082,-21.484375
2083,-21.484375
2084,-21.484375
2085,-19.531250
2086,-19.531250
2087,-17.578125
2088,-17.578125
2089,-15.625000
2090,-15.625000
2091,-13.671875
2092,-13.671875
2093,-11.718750
2094,-11.718750
2095,-9.765625
2096,-9.765625
2097,-7.812500
2098,-7.812500
2099,-5.859375
2100,-5.859375
2101,-3.906250
2102,-3.906250
2103,-1.953125
2104,-1.953125
2105,0.000000
2106,1.953125
2107,1.953125
2108,1.953125
2109,3.906250
2110,5.859375
2111,5.859375
2112,7.812500
2113,7.812500
2114,7.812500
2115,9.765625
2116,11.718750
2117,11.718750
2118,13.671875
2119,13.671875
2120,15.625000
2121,15.625000
2122,17.578125
2123,17.578125
2124,19.531250
2125,19.531250
2126,21.484375
2127,21.484375
2128,23.437500
2129,23.437500
2130,25.390625
2131,25.390625
2132,27.343750
2133,27.343750
2134,29.296875
2135,29.296875
2136,31.250000
2137,31.250000
2138,31.250000
2139,33.203125
2140,33.203125
2141,35.156250
2142,37.109375
2143,37.109375
2144,37.109375
2145,39.062500
2146,41.015625
2147,41.015625
2148,42.968750
2149,42.968750
2150,42.968750
2151,44.921875
2152,44.921875
2153,44.921875
2154,46.875000
2155,46.875000
2156,48.828125
2157,48.828125
2158,50.781250
2159,50.781250
2160,50.781250
2161,52.734375
2162,52.734375
2163,54.687500
2164,54.687500
2165,54.687500
2166,56.640625
2167,56.640625
2168,58.593750
2169,58.593750
2170,58.593750
2171,60.546875
2172,60.546875
2173,62.500000
2174,62.500000
2175,64.453125
2176,64.453125
2177,64.453125
2178,64.453125
2179,66.406250
2180,66.406250
2181,66.406250
2182,68.359375
2183,68.359375
2184,70.312500
2185,70.312500
2186,70.312500
2187,72.265625
2188,72.265625
2189,72.265625
2190,74.218750
2191,74.218750
2192,74.218750
2193,74.218750
2194,76.171875
2195,76.171875
2196,76.171875
2197,78.125000
2198,78.125000
2199,78.125000
2200,78.125000
2201,78.125000
2202,80.078125
2203,80.078125
2204,80.078125
2205,82.031250
2206,82.031250
2207,80.078125
2208,82.031250
2209,82.031250
2210,82.031250
2211,82.031250
2212,83.984375
2213,83.984375
2214,83.984375
2215,83.984375
2216,83.984375
2217,85.937500
2218,83.984375
2219,83.984375
2220,83.984375
2221,85.937500
2222,85.937500
2223,85.937500
2224,85.937500
2225,85.937500
2226,85.937500
2227,85.937500
2228,87.890625
2229,85.937500
2230,87.890625
2231,85.937500
2232,87.890625
2233,85.937500
2234,85.937500
2235,87.890625
2236,87.890625
2237,87.890625
2238,87.890625
2239,87.890625
2240,87.890625
2241,85.937500
2242,87.890625
2243,87.890625
2244,87.890625
2245,85.937500
2246,85.937500
2247,87.890625
2248,87.890625
2249,87.890625
2250,85.937500
2251,85.937500
2252,87.890625
2253,85.937500
2254,85.937500
2255,85.937500
2256,85.937500
2257,85.937500
2258,85.937500
2259,85.937500
2260,83.984375
2261,83.984375
2262,83.984375
2263,83.984375
2264,83.984375
2265,83.984375
2266,83.984375
2267,83.984375
2268,82.031250
2269,82.031250
2270,82.031250
2271,82.031250
2272,80.078125
2273,80.078125
2274,80.078125
2275,80.078125
2276,80.078125
2277,80.078125
2278,78.125000
2279,78.125000
2280,76.171875
2281,76.171875
2282,76.171875
2283,76.171875
2284,76.171875
2285,74.218750
2286,74.218750
2287,74.218750
2288,74.218750
2289,72.265625
2290,72.265625
2291,72.265625
2292,70.312500
2293,70.312500
2294,70.312500
2295,68.359375
2296,68.359375
2297,68.359375
2298,66.406250
2299,66.406250
2300,66.406250
2301,66.406250
2302,64.453125
2303,64.453125
2304,64.453125
2305,62.500000
2306,62.500000
2307,62.500000
2308,60.546875
2309,60.546875
2310,60.546875
2311,58.593750
2312,56.640625
2313,58.593750
2314,56.640625
2315,54.687500
2316,54.687500
2317,50.781250
2318,52.734375
2319,52.734375
2320,52.734375
2321,50.781250
2322,48.828125
2323,48.828125
2324,48.828125
2325,46.875000
2326,46.875000
2327,46.875000
2328,44.921875
2329,44.921875
2330,42.968750
2331,42.968750
2332,39.062500
2333,39.062500
2334,39.062500
2335,39.062500
2336,37.109375
2337,37.109375
2338,35.156250
2339,35.156250
2340,33.203125
2341,33.203125
2342,33.203125
2343,31.250000
2344,29.296875
2345,31.250000
2346,27.343750
2347,27.343750
2348,25.390625
2349,23.437500
2350,25.390625
2351,21.484375
2352,21.484375
2353,21.484375
2354,21.484375
2355,19.531250
2356,19.531250
2357,17.578125
2358,17.578125
2359,15.625000
2360,15.625000
2361,13.671875
2362,13.671875
2363,11.718750
2364,9.765625
2365,9.765625
2366,7.812500
2367,7.812500
2368,7.812500
2369,5.859375
2370,5.859375
2371,3.906250
2372,3.906250
2373,3.906250
2374,1.953125
2375,0.000000
2376,0.000000
2377,-1.953125
2378,-1.953125
2379,-1.953125
2380,-3.906250
2381,-5.859375
2382,-5.859375
2383,-5.859375
2384,-7.812500
2385,-9.765625
2386,-9.765625
2387,-9.765625
2388,-11.718750
2389,-11.718750
2390,-13.671875
2391,-13.671875
2392,-15.625000
2393,-17.578125
2394,-17.578125
2395,-17.578125
2396,-19.531250
2397,-19.531250
2398,-21.484375
2399,-21.484375
2400,-23.437500
2401,-25.390625
2402,-25.390625
2403,-25.390625
2404,-27.343750
2405,-29.296875
2406,-29.296875
2407,-29.296875
2408,-31.250000
2409,-31.250000
2410,-33.203125
2411,-33.203125
2412,-35.156250
2413,-35.156250
2414,-37.109375
2415,-37.109375
2416,-39.062500
2417,-39.062500
2418,-39.062500
2419,-41.015625
2420,-41.015625
2421,-41.015625
2422,-42.968750
2423,-44.921875
2424,-44.921875
2425,-46.875000
2426,-46.875000
2427,-46.875000
2428,-46.875000
2429,-48.828125
2430,-50.781250
2431,-50.781250
2432,-50.781250
2433,-52.734375
2434,-52.734375
2435,-54.687500
2436,-54.687500
2437,-56.640625
2438,-56.640625
2439,-58.593750
2440,-58.593750
2441,-58.593750
2442,-60.546875
2443,-60.546875
2444,-62.500000
2445,-62.500000
2446,-62.500000
2447,-64.453125
2448,-64.453125
2449,-64.453125
2450,-66.406250
2451,-66.406250
2452,-66.406250
2453,-68.359375
2454,-68.359375
2455,-70.312500
2456,-70.312500
2457,-72.265625
2458,-72.265625
2459,-72.265625
2460,-74.218750
2461,-74.218750
2462,-74.218750
2463,-76.171875
2464,-76.171875
2465,-76.171875
2466,-78.125000
2467,-78.125000
2468,-78.125000
2469,-80.078125
2470,-80.078125
2471,-80.078125
2472,-82.031250
2473,-82.031250
2474,-82.031250
2475,-82.031250
2476,-83.984375
2477,-83.984375
2478,-83.984375
2479,-85.937500
2480,-85.937500
2481,-85.937500
2482,-85.937500
2483,-87.890625
2484,-87.890625
2485,-87.890625
2486,-89.843750
2487,-89.843750
2488,-89.843750
2489,-89.843750
2490,-89.843750
2491,-91.796875
2492,-91.796875
2493,-91.796875
2494,-91.796875
2495,-93.750000
2496,-89.843750
2497,-93.750000
2498,-93.750000
2499,-93.750000
2500,-93.750000
2501,-99.609375
2502,-95.703125
2503,-95.703125
2504,-95.703125
2505,-95.703125
2506,-95.703125
2507,-95.703125
2508,-95.703125
2509,-97.656250
2510,-97.656250
2511,-97.656250
2512,-97.656250
2513,-97.656250
2514,-97.656250
2515,-93.750000
2516,-99.609375
2517,-97.656250
2518,-97.656250
2519,-97.656250
2520,-97.656250
2521,-99.609375
2522,-97.656250
2523,-97.656250
2524,-99.609375
2525,-97.656250
2526,-97.656250
2527,-97.656250
2528,-99.609375
2529,-99.609375
2530,-97.656250
2531,-99.609375
2532,-99.609375
2533,-97.656250
2534,-97.656250
2535,-99.609375
2536,-97.656250
2537,-97.656250
2538,-97.656250
2539,-99.609375
2540,-99.609375
2541,-97.656250
2542,-97.656250
2543,-97.656250
2544,-97.656250
2545,-99.609375
2546,-97.656250
2547,-97.656250
2548,-97.656250
2549,-95.703125
2550,-97.656250
2551,-95.703125
2552,-95.703125
2553,-95.703125
2554,-95.703125
2555,-95.703125
2556,-95.703125
2557,-95.703125
2558,-93.750000
2559,-93.750000
2560,-95.703125
2561,-91.796875
2562,-93.750000
2563,-93.750000
2564,-93.750000
2565,-91.796875
2566,-91.796875
2567,-91.796875
2568,-91.796875
2569,-89.843750
2570,-91.796875
2571,-89.843750
2572,-89.843750
2573,-89.843750
2574,-87.890625
2575,-87.890625
2576,-87.890625
2577,-87.890625
2578,-87.890625
2579,-85.937500
2580,-85.937500
2581,-85.937500
2582,-85.937500
2583,-83.984375
2584,-83.984375
2585,-83.984375
2586,-83.984375
2587,-82.031250
2588,-82.031250
2589,-80.078125
2590,-82.031250
2591,-80.078125
2592,-80.078125
2593,-80.078125
2594,-78.125000
2595,-78.125000
2596,-78.125000
2597,-76.171875
2598,-76.171875
2599,-76.171875
2600,-74.218750
2601,-74.218750
2602,-74.218750
2603,-74.218750
2604,-72.265625
2605,-72.265625
2606,-72.265625
2607,-70.312500
2608,-70.312500
2609,-68.359375
2610,-68.359375
2611,-68.359375
2612,-66.406250
2613,-66.406250
2614,-66.406250
2615,-64.453125
2616,-64.453125
2617,-64.453125
2618,-62.500000
2619,-62.500000
2620,-60.546875
2621,-60.546875
2622,-60.546875
2623,-58.593750
2624,-58.593750
2625,-56.640625
2626,-56.640625
2627,-56.640625
2628,-54.687500
2629,-54.687500
2630,-54.687500
2631,-52.734375
2632,-50.781250
2633,-50.781250
2634,-50.781250
2635,-48.828125
2636,-48.828125
2637,-46.875000
2638,-46.875000
2639,-44.921875
2640,-44.921875
2641,-44.921875
2642,-42.968750
2643,-41.015625
2644,-41.015625
2645,-39.062500
2646,-39.062500
2647,-39.062500
2648,-37.109375
2649,-37.109375
2650,-35.156250
2651,-35.156250
2652,-33.203125
2653,-31.250000
2654,-33.203125
2655,-31.250000
2656,-29.296875
2657,-29.296875
2658,-29.296875
2659,-27.343750
2660,-25.390625
2661,-25.390625
2662,-25.390625
2663,-23.437500
2664,-23.437500
2665,-21.484375
2666,-21.484375
2667,-19.531250
2668,-19.531250
2669,-19.531250
2670,-15.625000
2671,-15.625000
2672,-15.625000
2673,-13.671875
2674,-13.671875
2675,-11.718750
2676,-9.765625
2677,-9.765625
2678,-9.765625
2679,-7.812500
2680,-7.812500
2681,-5.859375
2682,-5.859375
2683,-3.906250
2684,-3.906250
2685,-3.906250
2686,0.000000
2687,0.000000
2688,0.000000
2689,1.953125
2690,1.953125
2691,3.906250
2692,3.906250
2693,5.859375
2694,5.859375
2695,7.812500
2696,7.812500
2697,9.765625
2698,11.718750
2699,11.718750
2700,13.671875
2701,13.671875
2702,13.671875
2703,15.625000
2704,15.625000
2705,17.578125
2706,17.578125
2707,19.531250
2708,21.484375
2709,19.531250
2710,23.437500
2711,23.437500
2712,23.437500
2713,25.390625
2714,27.343750
2715,27.343750
2716,27.343750
2717,29.296875
2718,29.296875
2719,31.250000
2720,31.250000
2721,33.203125
2722,33.203125
2723,35.156250
2724,35.156250
2725,37.109375
2726,37.109375
2727,39.062500
2728,39.062500
2729,39.062500
2730,41.015625
2731,42.968750
2732,42.968750
2733,42.968750
2734,44.921875
2735,44.921875
2736,44.921875
2737,46.875000
2738,46.875000
2739,48.828125
2740,48.828125
2741,50.781250
2742,50.781250
2743,50.781250
2744,52.734375
2745,52.734375
2746,54.687500
2747,54.687500
2748,56.640625
2749,56.640625
2750,56.640625
2751,58.593750
2752,58.593750
2753,60.546875
2754,60.546875
2755,62.500000
2756,62.500000
2757,62.500000
2758,64.453125
2759,64.453125
2760,64.453125
2761,66.406250
2762,66.406250
2763,66.406250
2764,66.406250
2765,68.359375
2766,68.359375
2767,68.359375
2768,70.312500
2769,72.265625
2770,70.312500
2771,72.265625
2772,72.265625
2773,74.218750
2774,74.218750
2775,74.218750
2776,74.218750
2777,76.171875
2778,76.171875
2779,76.171875
2780,76.171875
2781,78.125000
2782,78.125000
2783,78.125000
2784,80.078125
2785,78.125000
2786,78.125000
2787,82.031250
2788,80.078125
2789,80.078125
2790,82.031250
2791,82.031250
2792,82.031250
2793,82.031250
2794,82.031250
2795,83.984375
2796,83.984375
2797,83.984375
2798,83.984375
2799,83.984375
2800,83.984375
2801,83.984375
2802,83.984375
2803,83.984375
2804,85.937500
2805,83.984375
2806,85.937500
2807,85.937500
2808,85.937500
2809,85.937500
2810,85.937500
2811,85.937500
2812,85.937500
2813,85.937500
2814,85.937500
2815,85.937500
2816,85.937500
2817,85.937500
2818,87.890625
2819,85.937500
2820,85.937500
2821,85.937500
2822,85.937500
2823,85.937500
2824,85.937500
2825,87.890625
2826,85.937500
2827,85.937500
2828,85.937500
2829,85.937500
2830,85.937500
2831,85.937500
2832,85.937500
2833,85.937500
2834,85.937500
2835,85.937500
2836,85.937500
2837,85.937500
2838,83.984375
2839,83.984375
2840,85.937500
2841,85.937500
2842,83.984375
2843,83.984375
2844,83.984375
2845,83.984375
2846,83.984375
2847,82.031250
2848,82.031250
2849,82.031250
2850,82.031250
2851,82.031250
2852,82.031250
2853,80.078125
2854,82.031250
2855,80.078125
2856,80.078125
2857,78.125000
2858,78.125000
2859,78.125000
2860,78.125000
2861,78.125000
2862,76.171875
2863,76.171875
2864,76.171875
2865,76.171875
2866,74.218750
2867,74.218750
2868,74.218750
2869,74.218750
2870,72.265625
2871,72.265625
2872,72.265625
2873,72.265625
2874,70.312500
2875,70.312500
2876,70.312500
2877,68.359375
2878,68.359375
2879,68.359375
2880,66.406250
2881,66.406250
2882,66.406250
2883,64.453125
2884,64.453125
2885,64.453125
2886,64.453125
2887,62.500000
2888,62.500000
2889,62.500000
2890,60.546875
2891,58.593750
2892,58.593750
2893,58.593750
2894,56.640625
2895,56.640625
2896,56.640625
2897,54.687500
2898,54.687500
2899,52.734375
2900,52.734375
2901,52.734375
2902,50.781250
2903,50.781250
2904,48.828125
2905,48.828125
2906,48.828125
2907,46.875000
2908,46.875000
2909,44.921875
2910,44.921875
2911,42.968750
2912,42.968750
2913,41.015625
2914,41.015625
2915,41.015625
2916,39.062500
2917,37.109375
2918,37.109375
2919,37.109375
2920,35.156250
2921,35.156250
2922,35.156250
2923,33.203125
2924,33.203125
2925,31.250000
2926,31.250000
2927,29.296875
2928,25.390625
2929,27.343750
2930,27.343750
2931,25.390625
2932,25.390625
2933,23.437500
2934,23.437500
2935,21.484375
2936,21.484375
2937,19.531250
2938,19.531250
2939,17.578125
2940,17.578125
2941,15.625000
2942,15.625000
2943,13.671875
2944,13.671875
2945,11.718750
2946,11.718750
2947,9.765625
2948,9.765625
2949,7.812500
2950,7.812500
2951,7.812500
2952,5.859375
2953,3.906250
2954,3.906250
2955,1.953125
2956,1.953125
2957,1.953125
2958,0.000000
2959,0.000000
2960,-1.953125
2961,-3.906250
2962,-1.953125
2963,-3.906250
2964,-5.859375
2965,-5.859375
2966,-7.812500
2967,-7.812500
2968,-9.765625
2969,-9.765625
2970,-11.718750
2971,-11.718750
2972,-13.671875
2973,-13.671875
2974,-15.625000
2975,-15.625000
2976,-15.625000
2977,-17.578125
2978,-17.578125
2979,-19.531250
2980,-21.484375
2981,-21.484375
2982,-21.484375
2983,-23.437500
2984,-25.390625
2985,-25.390625
2986,-25.390625
2987,-27.343750
2988,-29.296875
2989,-29.296875
2990,-29.296875
2991,-31.250000
2992,-31.250000
2993,-31.250000
2994,-33.203125
2995,-35.156250
2996,-35.156250
2997,-37.109375
2998,-37.109375
2999,-39.062500
3000,-39.062500
3001,-39.062500
3002,-41.015625
3003,-41.015625
3004,-42.968750
3005,-42.968750
3006,-44.921875
3007,-44.921875
3008,-44.921875
3009,-46.875000
3010,-46.875000
3011,-48.828125
3012,-50.781250
3013,-48.828125
3014,-50.781250
3015,-52.734375
3016,-52.734375
3017,-52.734375
3018,-54.687500
3019,-54.687500
3020,-54.687500
3021,-56.640625
3022,-58.593750
3023,-56.640625
3024,-58.593750
3025,-60.546875
3026,-60.546875
3027,-62.500000
3028,-62.500000
3029,-62.500000
3030,-64.453125
3031,-64.453125
3032,-64.453125
3033,-66.406250
3034,-66.406250
3035,-68.359375
3036,-68.359375
3037,-68.359375
3038,-68.359375
3039,-70.312500
3040,-70.312500
3041,-72.265625
3042,-72.265625
3043,-72.265625
3044,-74.218750
3045,-76.171875
3046,-74.218750
3047,-76.171875
3048,-76.171875
3049,-78.125000
3050,-78.125000
3051,-78.125000
3052,-78.125000
3053,-80.078125
3054,-80.078125
3055,-82.031250
3056,-82.031250
3057,-82.031250
3058,-83.984375
3059,-82.031250
3060,-83.984375
3061,-83.984375
3062,-83.984375
3063,-85.937500
3064,-85.937500
3065,-85.937500
3066,-85.937500
3067,-87.890625
3068,-87.890625
3069,-87.890625
3070,-89.843750
3071,-89.843750
3072,-89.843750
3073,-89.843750
3074,-89.843750
3075,-89.843750
3076,-91.796875
3077,-91.796875
3078,-91.796875
3079,-93.750000
3080,-93.750000
3081,-91.796875
3082,-93.750000
3083,-93.750000
3084,-93.750000
3085,-93.750000
3086,-95.703125
3087,-93.750000
3088,-95.703125
3089,-95.703125
3090,-95.703125
3091,-95.703125
3092,-95.703125
3093,-95.703125
3094,-95.703125
3095,-97.656250
3096,-97.656250
3097,-95.703125
3098,-97.656250
3099,-97.656250
3100,-97.656250
3101,-97.656250
3102,-97.656250
3103,-97.656250
3104,-97.656250
3105,-97.656250
3106,-97.656250
3107,-99.609375
3108,-97.656250
3109,-97.656250
3110,-99.609375
3111,-97.656250
3112,-97.656250
3113,-97.656250
3114,-97.656250
3115,-97.656250
3116,-97.656250
3117,-97.656250
3118,-97.656250
3119,-97.656250
3120,-97.656250
3121,-97.656250
3122,-97.656250
3123,-97.656250
3124,-97.656250
3125,-97.656250
3126,-97.656250
3127,-97.656250
3128,-95.703125
3129,-97.656250
3130,-97.656250
3131,-95.703125
3132,-95.703125
3133,-97.656250
3134,-95.703125
3135,-95.703125
3136,-97.656250
3137,-95.703125
3138,-95.703125
3139,-95.703125
3140,-93.750000
3141,-93.750000
3142,-93.750000
3143,-93.750000
3144,-93.750000
3145,-93.750000
3146,-91.796875
3147,-91.796875
3148,-91.796875
3149,-91.796875
3150,-89.843750
3151,-89.843750
3152,-89.843750
3153,-89.843750
3154,-89.843750
3155,-87.890625
3156,-87.890625
3157,-87.890625
3158,-87.890625
3159,-85.937500
3160,-85.937500
3161,-85.937500
3162,-85.937500
3163,-83.984375
3164,-85.937500
3165,-83.984375
3166,-83.984375
3167,-83.984375
3168,-82.031250
3169,-82.031250
3170,-82.031250
3171,-82.031250
3172,-80.078125
3173,-80.078125
3174,-80.078125
3175,-78.125000
3176,-78.125000
3177,-78.125000
3178,-78.125000
3179,-78.125000
3180,-76.171875
3181,-74.218750
3182,-76.171875
3183,-74.218750
3184,-74.218750
3185,-72.265625
3186,-72.265625
3187,-72.265625
3188,-70.312500
3189,-70.312500
3190,-70.312500
3191,-68.359375
3192,-68.359375
3193,-68.359375
3194,-66.406250
3195,-66.406250
3196,-64.453125
3197,-64.453125
3198,-64.453125
3199,-62.500000
3200,-62.500000
3201,-62.500000
3202,-62.500000
3203,-60.546875
3204,-60.546875
3205,-60.546875
3206,-58.593750
3207,-56.640625
3208,-56.640625
3209,-54.687500
3210,-54.687500
3211,-54.687500
3212,-52.734375
3213,-52.734375
3214,-52.734375
3215,-50.781250
3216,-50.781250
3217,-48.828125
3218,-48.828125
3219,-48.828125
3220,-46.875000
3221,-44.921875
3222,-44.921875
3223,-44.921875
3224,-42.968750
3225,-42.968750
3226,-42.968750
3227,-41.015625
3228,-41.015625
3229,-39.062500
3230,-39.062500
3231,-37.109375
3232,-35.156250
3233,-35.156250
3234,-35.156250
3235,-33.203125
3236,-31.250000
3237,-33.203125
3238,-31.250000
3239,-29.296875
3240,-29.296875
3241,-27.343750
3242,-27.343750
3243,-27.343750
3244,-25.390625
3245,-25.390625
3246,-23.437500
3247,-21.484375
3248,-21.484375
3249,-21.484375
3250,-19.531250
3251,-19.531250
3252,-17.578125
3253,-17.578125
3254,-15.625000
3255,-15.625000
3256,-13.671875
3257,-13.671875
3258,-13.671875
3259,-11.718750
3260,-9.765625
3261,-9.765625
3262,-7.812500
3263,-7.812500
3264,-5.859375
3265,-5.859375
3266,-3.906250
3267,-3.906250
3268,-3.906250
3269,-1.953125
3270,0.000000
3271,0.000000
3272,0.000000
3273,3.906250
3274,3.906250
3275,3.906250
3276,5.859375
3277,5.859375
3278,7.812500
3279,9.765625
3280,9.765625
3281,13.671875
3282,11.718750
3283,11.718750
3284,13.671875
3285,13.671875
3286,15.625000
3287,15.625000
3288,17.578125
3289,17.578125
3290,19.531250
3291,19.531250
3292,21.484375
3293,21.484375
3294,21.484375
3295,23.437500
3296,25.390625
3297,25.390625
3298,25.390625
3299,27.343750
3300,29.296875
3301,31.250000
3302,31.250000
3303,29.296875
3304,33.203125
3305,33.203125
3306,33.203125
3307,33.203125
3308,35.156250
3309,37.109375
3310,37.109375
3311,39.062500
3312,39.062500
3313,41.015625
3314,41.015625
3315,41.015625
3316,41.015625
3317,42.968750
3318,44.921875
3319,46.875000
3320,46.875000
3321,46.875000
3322,48.828125
3323,48.828125
3324,48.828125
3325,50.781250
3326,50.781250
3327,52.734375
3328,52.734375
3329,54.687500
3330,54.687500
3331,54.687500
3332,54.687500
3333,56.640625
3334,58.593750
3335,58.593750
3336,58.593750
3337,60.546875
3338,60.546875
3339,60.546875
3340,62.500000
3341,62.500000
3342,64.453125
3343,64.453125
3344,64.453125
3345,66.406250
3346,66.406250
3347,66.406250
3348,68.359375
3349,68.359375
3350,68.359375
3351,70.312500
3352,70.312500
3353,70.312500
3354,72.265625
3355,70.312500
3356,72.265625
3357,74.218750
3358,74.218750
3359,74.218750
3360,74.218750
3361,76.171875
3362,76.171875
3363,76.171875
3364,78.125000
3365,78.125000
3366,78.125000
3367,78.125000
3368,78.125000
3369,78.125000
3370,80.078125
3371,80.078125
3372,80.078125
3373,80.078125
3374,80.078125
3375,82.031250
3376,82.031250
3377,82.031250
3378,82.031250
3379,82.031250
3380,82.031250
3381,83.984375
3382,83.984375
3383,83.984375
3384,83.984375
3385,83.984375
3386,83.984375
3387,83.984375
3388,83.984375
3389,83.984375
3390,83.984375
3391,85.937500
3392,85.937500
3393,85.937500
3394,85.937500
3395,85.937500
3396,85.937500
3397,83.984375
3398,85.937500
3399,85.937500
3400,85.937500
3401,85.937500
3402,85.937500
3403,85.937500
3404,87.890625
3405,85.937500
3406,85.937500
3407,85.937500
3408,85.937500
3409,85.937500
3410,85.937500
3411,85.937500
3412,85.937500
3413,85.937500
3414,85.937500
3415,85.937500
3416,85.937500
3417,85.937500
3418,85.937500
3419,83.984375
3420,83.984375
3421,85.937500
3422,85.937500
3423,83.984375
3424,83.984375
3425,83.984375
3426,83.984375
3427,82.031250
3428,83.984375
3429,83.984375
3430,82.031250
3431,82.031250
3432,82.031250
3433,80.078125
3434,82.031250
3435,82.031250
3436,80.078125
3437,80.078125
3438,80.078125
3439,80.078125
3440,80.078125
3441,78.125000
3442,78.125000
3443,78.125000
3444,76.171875
3445,76.171875
3446,76.171875
3447,76.171875
3448,74.218750
3449,74.218750
3450,74.218750
3451,74.218750
3452,72.265625
3453,72.265625
3454,72.265625
3455,72.265625
3456,70.312500
3457,70.312500
3458,70.312500
3459,68.359375
3460,68.359375
3461,68.359375
3462,66.406250
3463,66.406250
3464,66.406250
3465,66.406250
3466,64.453125
3467,64.453125
3468,64.453125
3469,62.500000
3470,62.500000
3471,60.546875
3472,60.546875
3473,60.546875
3474,58.593750
3475,58.593750
3476,58.593750
3477,58.593750
3478,56.640625
3479,54.687500
3480,54.687500
3481,54.687500
3482,52.734375
3483,52.734375
3484,52.734375
3485,50.781250
3486,50.781250
3487,50.781250
3488,48.828125
3489,46.875000
3490,46.875000
3491,46.875000
3492,44.921875
3493,44.921875
3494,44.921875
3495,42.968750
3496,42.968750
3497,41.015625
3498,41.015625
3499,39.062500
3500,39.062500
3501,37.109375
3502,37.109375
3503,37.109375
3504,35.156250
3505,33.203125
3506,33.203125
3507,31.250000
3508,31.250000
3509,29.296875
3510,29.296875
3511,27.343750
3512,27.343750
3513,27.343750
3514,25.390625
3515,25.390625
3516,23.437500
3517,23.437500
3518,21.484375
3519,21.484375
3520,21.484375
3521,19.531250
3522,17.578125
3523,17.578125
3524,17.578125
3525,15.625000
3526,13.671875
3527,13.671875
3528,13.671875
3529,11.718750
3530,11.718750
3531,9.765625
3532,9.765625
3533,7.812500
3534,7.812500
3535,5.859375
3536,5.859375
3537,3.906250
3538,3.906250
3539,3.906250
3540,1.953125
3541,0.000000
3542,0.000000
3543,-1.953125
3544,-1.953125
3545,-3.906250
3546,-3.906250
3547,-3.906250
3548,-5.859375
3549,-7.812500
3550,-7.812500
3551,-7.812500
3552,-9.765625
3553,-9.765625
3554,-11.718750
3555,-11.718750
3556,-13.671875
3557,-13.671875
3558,-15.625000
3559,-15.625000
3560,-15.625000
3561,-17.578125
3562,-19.531250
3563,-19.531250
3564,-21.484375
3565,-21.484375
3566,-23.437500
3567,-23.437500
3568,-25.390625
3569,-25.390625
3570,-25.390625
3571,-27.343750
3572,-27.343750
3573,-29.296875
3574,-29.296875
3575,-31.250000
3576,-33.203125
3577,-33.203125
3578,-33.203125
3579,-35.156250
3580,-35.156250
3581,-37.109375
3582,-37.109375
3583,-39.062500
3584,-39.062500
3585,-41.015625
3586,-41.015625
3587,-41.015625
3588,-42.968750
3589,-44.921875
3590,-44.921875
3591,-44.921875
3592,-46.875000
3593,-46.875000
3594,-48.828125
3595,-48.828125
3596,-48.828125
3597,-50.781250
3598,-50.781250
3599,-52.734375
3600,-52.734375
3601,-54.687500
3602,-54.687500
3603,-54.687500
3604,-56.640625
3605,-56.640625
3606,-58.593750
3607,-58.593750
3608,-60.546875
3609,-60.546875
3610,-60.546875
3611,-62.500000
3612,-62.500000
3613,-62.500000
3614,-64.453125
3615,-64.453125
3616,-64.453125
3617,-66.406250
3618,-66.406250
3619,-68.359375
3620,-68.359375
3621,-68.359375
3622,-70.312500
3623,-70.312500
3624,-70.312500
3625,-70.312500
3626,-72.265625
3627,-72.265625
3628,-74.218750
3629,-74.218750
3630,-74.218750
3631,-76.171875
3632,-76.171875
3633,-78.125000
3634,-78.125000
3635,-78.125000
3636,-80.078125
3637,-80.078125
3638,-80.078125
3639,-80.078125
3640,-82.031250
3641,-82.031250
3642,-82.031250
3643,-83.984375
3644,-83.984375
3645,-83.984375
3646,-85.937500
3647,-85.937500
3648,-85.937500
3649,-87.890625
3650,-87.890625
3651,-87.890625
3652,-87.890625
3653,-89.843750
3654,-89.843750
3655,-89.843750
3656,-89.843750
3657,-91.796875
3658,-89.843750
3659,-91.796875
3660,-91.796875
3661,-91.796875
3662,-91.796875
3663,-91.796875
3664,-91.796875
3665,-93.750000
3666,-93.750000
3667,-93.750000
3668,-93.750000
3669,-93.750000
3670,-95.703125
3671,-95.703125
3672,-93.750000
3673,-95.703125
3674,-95.703125
3675,-95.703125
3676,-95.703125
3677,-95.703125
3678,-97.656250
3679,-97.656250
3680,-95.703125
3681,-97.656250
3682,-97.656250
3683,-97.656250
3684,-97.656250
3685,-97.656250
3686,-97.656250
3687,-97.656250
3688,-97.656250
3689,-97.656250
3690,-97.656250
3691,-97.656250
3692,-97.656250
3693,-97.656250
3694,-97.656250
3695,-97.656250
3696,-97.656250
3697,-97.656250
3698,-97.656250
3699,-97.656250
3700,-97.656250
3701,-95.703125
3702,-97.656250
3703,-97.656250
3704,-97.656250
3705,-97.656250
3706,-97.656250
3707,-97.656250
3708,-97.656250
3709,-97.656250
3710,-97.656250
3711,-97.656250
3712,-95.703125
3713,-95.703125
3714,-97.656250
3715,-97.656250
3716,-95.703125
3717,-95.703125
3718,-95.703125
3719,-95.703125
3720,-95.703125
3721,-95.703125
3722,-93.750000
3723,-93.750000
3724,-93.750000
3725,-93.750000
3726,-93.750000
3727,-93.750000
3728,-93.750000
3729,-91.796875
3730,-91.796875
3731,-91.796875
3732,-91.796875
3733,-91.796875
3734,-91.796875
3735,-89.843750
3736,-89.843750
3737,-89.843750
3738,-89.843750
3739,-89.843750
3740,-87.890625
3741,-87.890625
3742,-87.890625
3743,-87.890625
3744,-85.937500
3745,-85.937500
3746,-85.937500
3747,-85.937500
3748,-83.984375
3749,-83.984375
3750,-83.984375
3751,-83.984375
3752,-83.984375
3753,-82.031250
3754,-82.031250
3755,-82.031250
3756,-82.031250
3757,-80.078125
3758,-80.078125
3759,-80.078125
3760,-78.125000
3761,-78.125000
3762,-78.125000
3763,-76.171875
3764,-76.171875
3765,-76.171875
3766,-74.218750
3767,-74.218750
3768,-74.218750
3769,-74.218750
3770,-72.265625
3771,-72.265625
3772,-72.265625
3773,-72.265625
3774,-70.312500
3775,-68.359375
3776,-68.359375
3777,-68.359375
3778,-68.359375
3779,-66.406250
3780,-66.406250
3781,-66.406250
3782,-64.453125
3783,-62.500000
3784,-62.500000
3785,-62.500000
3786,-60.546875
3787,-60.546875
3788,-60.546875
3789,-58.593750
3790,-58.593750
3791,-58.593750
3792,-56.640625
3793,-56.640625
3794,-54.687500
3795,-54.687500
3796,-54.687500
3797,-52.734375
3798,-52.734375
3799,-52.734375
3800,-50.781250
3801,-48.828125
3802,-48.828125
3803,-48.828125
3804,-46.875000
3805,-46.875000
3806,-44.921875
3807,-44.921875
3808,-44.921875
3809,-42.968750
3810,-41.015625
3811,-41.015625
3812,-41.015625
3813,-39.062500
3814,-39.062500
3815,-37.109375
3816,-35.156250
3817,-35.156250
3818,-35.156250
3819,-35.156250
3820,-33.203125
3821,-31.250000
3822,-31.250000
3823,-29.296875
3824,-29.296875
3825,-29.296875
3826,-27.343750
3827,-27.343750
3828,-25.390625
3829,-25.390625
3830,-23.437500
3831,-21.484375
3832,-21.484375
3833,-21.484375
3834,-19.531250
3835,-17.578125
3836,-17.578125
3837,-17.578125
3838,-15.625000
3839,-15.625000
3840,-13.671875
3841,-13.671875
3842,-11.718750
3843,-11.718750
3844,-9.765625
3845,-9.765625
3846,-7.812500
3847,-7.812500
3848,-5.859375
3849,-5.859375
3850,-3.906250
3851,-3.906250
3852,-1.953125
3853,-1.953125
3854,0.000000
3855,0.000000
3856,1.953125
3857,3.906250
3858,3.906250
3859,3.906250
3860,7.812500
3861,5.859375
3862,9.765625
3863,7.812500
3864,9.765625
3865,9.765625
3866,11.718750
3867,11.718750
3868,13.671875
3869,15.625000
3870,15.625000
3871,17.578125
3872,17.578125
3873,19.531250
3874,19.531250
3875,21.484375
3876,21.484375
3877,23.437500
3878,23.437500
3879,25.390625
3880,25.390625
3881,27.343750
3882,27.343750
3883,29.296875
3884,29.296875
3885,29.296875
3886,31.250000
3887,31.250000
3888,33.203125
3889,35.156250
3890,35.156250
3891,35.156250
3892,37.109375
3893,37.109375
3894,37.109375
3895,41.015625
3896,39.062500
3897,41.015625
3898,41.015625
3899,42.968750
3900,42.968750
3901,44.921875
3902,44.921875
3903,44.921875
3904,46.875000
3905,46.875000
3906,48.828125
3907,48.828125
3908,50.781250
3909,50.781250
3910,50.781250
3911,52.734375
3912,52.734375
3913,52.734375
3914,54.687500
3915,56.640625
3916,56.640625
3917,58.593750
3918,58.593750
3919,58.593750
3920,60.546875
3921,60.546875
3922,60.546875
3923,62.500000
3924,62.500000
3925,64.453125
3926,64.453125
3927,64.453125
3928,66.406250
3929,66.406250
3930,66.406250
3931,68.359375
3932,68.359375
3933,68.359375
3934,70.312500
3935,70.312500
3936,70.312500
3937,72.265625
3938,72.265625
3939,72.265625
3940,74.218750
3941,74.218750
3942,74.218750
3943,74.218750
3944,76.171875
3945,74.218750
3946,76.171875
3947,78.125000
3948,76.171875
3949,78.125000
3950,78.125000
3951,78.125000
3952,78.125000
3953,80.078125
3954,80.078125
3955,80.078125
3956,80.078125
3957,82.031250
3958,82.031250
3959,82.031250
3960,82.031250
3961,82.031250
3962,82.031250
3963,82.031250
3964,83.984375
3965,83.984375
3966,83.984375
3967,83.984375
3968,83.984375
3969,83.984375
3970,83.984375
3971,85.937500
3972,85.937500
3973,85.937500
3974,85.937500
3975,85.937500
3976,85.937500
3977,85.937500
3978,85.937500
3979,85.937500
3980,85.937500
3981,85.937500
3982,85.937500
3983,87.890625
3984,87.890625
3985,87.890625
3986,85.937500
3987,85.937500
3988,87.890625
3989,87.890625
3990,85.937500
3991,87.890625
3992,85.937500
3993,85.937500
3994,87.890625
3995,85.937500
3996,85.937500
3997,87.890625
3998,87.890625
3999,85.937500
4000,85.937500
4001,85.937500
4002,85.937500
4003,85.937500
4004,85.937500
4005,85.937500
4006,83.984375
4007,83.984375
4008,83.984375
4009,83.984375
4010,83.984375
4011,83.984375
4012,83.984375
4013,82.031250
4014,82.031250
4015,82.031250
4016,82.031250
4017,82.031250
4018,82.031250
4019,82.031250
4020,80.078125
4021,80.078125
4022,80.078125
4023,78.125000
4024,76.171875
4025,80.078125
4026,78.125000
4027,76.171875
4028,78.125000
4029,76.171875
4030,76.171875
4031,76.171875
4032,76.171875
4033,74.218750
4034,74.218750
4035,74.218750
4036,72.265625
4037,74.218750
4038,72.265625
4039,72.265625
4040,70.312500
4041,70.312500
4042,70.312500
4043,68.359375
4044,68.359375
4045,68.359375
4046,68.359375
4047,66.406250
4048,66.406250
4049,66.406250
4050,64.453125
4051,64.453125
4052,64.453125
4053,62.500000
4054,62.500000
4055,60.546875
4056,60.546875
4057,60.546875
4058,60.546875
4059,58.593750
4060,58.593750
4061,58.593750
4062,56.640625
4063,54.687500
4064,54.687500
4065,50.781250
4066,54.687500
4067,52.734375
4068,50.781250
4069,50.781250
4070,50.781250
4071,48.828125
4072,48.828125
4073,48.828125
4074,46.875000
4075,46.875000
4076,44.921875
4077,44.921875
4078,42.968750
4079,42.968750
4080,41.015625
4081,41.015625
4082,41.015625
4083,39.062500
4084,39.062500
4085,37.109375
4086,37.109375
4087,35.156250
4088,37.109375
4089,33.203125
4090,33.203125
4091,31.250000
4092,31.250000
4093,31.250000
4094,29.296875
4095,25.390625
4096,27.343750
4097,27.343750
4098,25.390625
4099,25.390625
4100,23.437500
4101,23.437500
4102,21.484375
4103,21.484375
4104,19.531250
4105,17.578125
4106,17.578125
4107,17.578125
4108,15.625000
4109,15.625000
4110,13.671875
4111,13.671875
4112,11.718750
4113,11.718750
4114,9.765625
4115,9.765625
4116,7.812500
4117,5.859375
4118,5.859375
4119,5.859375
4120,3.906250
4121,3.906250
4122,1.953125
4123,1.953125
4124,0.000000
4125,0.000000
4126,-1.953125
4127,-1.953125
4128,-1.953125
4129,-3.906250
4130,-5.859375
4131,-5.859375
4132,-5.859375
4133,-7.812500
4134,-7.812500
4135,-9.765625
4136,-11.718750
4137,-11.718750
4138,-11.718750
4139,-13.671875
4140,-13.671875
4141,-15.625000
4142,-15.625000
4143,-17.578125
4144,-17.578125
4145,-19.531250
4146,-19.531250
4147,-21.484375
4148,-21.484375
4149,-23.437500
4150,-23.437500
4151,-25.390625
4152,-25.390625
4153,-27.343750
4154,-27.343750
4155,-29.296875
4156,-31.250000
4157,-29.296875
4158,-31.250000
4159,-33.203125
4160,-33.203125
4161,-33.203125
4162,-35.156250
4163,-37.109375
4164,-37.109375
4165,-37.109375
4166,-39.062500
4167,-41.015625
4168,-41.015625
4169,-41.015625
4170,-42.968750
4171,-42.968750
4172,-44.921875
4173,-44.921875
4174,-44.921875
4175,-46.875000
4176,-46.875000
4177,-48.828125
4178,-48.828125
4179,-50.781250
4180,-50.781250
4181,-52.734375
4182,-52.734375
4183,-54.687500
4184,-54.687500
4185,-54.687500
4186,-54.687500
4187,-56.640625
4188,-56.640625
4189,-58.593750
4190,-58.593750
4191,-60.546875
4192,-60.546875
4193,-60.546875
4194,-62.500000
4195,-62.500000
4196,-64.453125
4197,-64.453125
4198,-64.453125
4199,-66.406250
4200,-66.406250
4201,-68.359375
4202,-68.359375
4203,-68.359375
4204,-70.312500
4205,-70.312500
4206,-70.312500
4207,-72.265625
4208,-72.265625
4209,-74.218750
4210,-74.218750
4211,-74.218750
4212,-76.171875
4213,-76.171875
4214,-76.171875
4215,-78.125000
4216,-78.125000
4217,-78.125000
4218,-80.078125
4219,-80.078125
4220,-80.078125
4221,-80.078125
4222,-80.078125
4223,-82.031250
4224,-83.984375
4225,-83.984375
4226,-83.984375
4227,-83.984375
4228,-85.937500
4229,-85.937500
4230,-85.937500
4231,-87.890625
4232,-87.890625
4233,-87.890625
4234,-87.890625
4235,-87.890625
4236,-89.843750
4237,-89.843750
4238,-89.843750
4239,-89.843750
4240,-89.843750
4241,-91.796875
4242,-91.796875
4243,-91.796875
4244,-91.796875
4245,-93.750000
4246,-93.750000
4247,-93.750000
4248,-93.750000
4249,-93.750000
4250,-93.750000
4251,-93.750000
4252,-95.703125
4253,-95.703125
4254,-95.703125
4255,-95.703125
4256,-95.703125
4257,-97.656250
4258,-95.703125
4259,-97.656250
4260,-97.656250
4261,-97.656250
4262,-97.656250
4263,-97.656250
4264,-97.656250
4265,-97.656250
4266,-99.609375
4267,-97.656250
4268,-97.656250
4269,-97.656250
4270,-99.609375
4271,-97.656250
4272,-99.609375
4273,-99.609375
4274,-99.609375
4275,-99.609375
4276,-99.609375
4277,-99.609375
4278,-99.609375
4279,-99.609375
4280,-99.609375
4281,-99.609375
4282,-99.609375
4283,-99.609375
4284,-99.609375
4285,-99.609375
4286,-97.656250
4287,-97.656250
4288,-99.609375
4289,-99.609375
4290,-97.656250
4291,-97.656250
4292,-97.656250
4293,-97.656250
4294,-97.656250
4295,-97.656250
4296,-97.656250
4297,-97.656250
4298,-97.656250
4299,-97.656250
4300,-97.656250
4301,-95.703125
4302,-95.703125
4303,-95.703125
4304,-95.703125
4305,-95.703125
4306,-95.703125
4307,-95.703125
4308,-93.750000
4309,-95.703125
4310,-93.750000
4311,-93.750000
4312,-93.750000
4313,-93.750000
4314,-93.750000
4315,-93.750000
4316,-91.796875
4317,-91.796875
4318,-91.796875
4319,-91.796875
4320,-89.843750
4321,-89.843750
4322,-89.843750
4323,-89.843750
4324,-87.890625
4325,-87.890625
4326,-87.890625
4327,-87.890625
4328,-85.937500
4329,-85.937500
4330,-85.937500
4331,-85.937500
4332,-85.937500
4333,-83.984375
4334,-83.984375
4335,-83.984375
4336,-82.031250
4337,-82.031250
4338,-82.031250
4339,-82.031250
4340,-80.078125
4341,-80.078125
4342,-80.078125
4343,-80.078125
4344,-78.125000
4345,-78.125000
4346,-78.125000
4347,-78.125000
4348,-76.171875
4349,-74.218750
4350,-74.218750
4351,-74.218750
4352,-74.218750
4353,-72.265625
4354,-72.265625
4355,-72.265625
4356,-70.312500
4357,-70.312500
4358,-70.312500
4359,-70.312500
4360,-68.359375
4361,-66.406250
4362,-66.406250
4363,-66.406250
4364,-66.406250
4365,-64.453125
4366,-64.453125
4367,-62.500000
4368,-62.500000
4369,-62.500000
4370,-60.546875
4371,-60.546875
4372,-58.593750
4373,-58.593750
4374,-56.640625
4375,-56.640625
4376,-56.640625
4377,-54.687500
4378,-54.687500
4379,-52.734375
4380,-52.734375
4381,-52.734375
4382,-50.781250
4383,-50.781250
4384,-48.828125
4385,-48.828125
4386,-46.875000
4387,-46.875000
4388,-46.875000
4389,-44.921875
4390,-42.968750
4391,-42.968750
4392,-42.968750
4393,-41.015625
4394,-41.015625
4395,-39.062500
4396,-39.062500
4397,-37.109375
4398,-37.109375
4399,-35.156250
4400,-35.156250
4401,-35.156250
4402,-33.203125
4403,-33.203125
4404,-31.250000
4405,-31.250000
4406,-29.296875
4407,-29.296875
4408,-27.343750
4409,-27.343750
4410,-25.390625
4411,-25.390625
4412,-23.437500
4413,-23.437500
4414,-21.484375
4415,-21.484375
4416,-21.484375
4417,-19.531250
4418,-19.531250
4419,-17.578125
4420,-15.625000
4421,-15.625000
4422,-13.671875
4423,-13.671875
4424,-11.718750
4425,-11.718750
4426,-9.765625
4427,-9.765625
4428,-7.812500
4429,-7.812500
4430,-5.859375
4431,-5.859375
4432,-3.906250
4433,-3.906250
4434,-1.953125
4435,-1.953125
4436,0.000000
4437,0.000000
4438,1.953125
4439,3.906250
4440,3.906250
4441,3.906250
4442,5.859375
4443,5.859375
4444,7.812500
4445,7.812500
4446,9.765625
4447,9.765625
4448,11.718750
4449,11.718750
4450,13.671875
4451,15.625000
4452,15.625000
4453,17.578125
4454,17.578125
4455,19.531250
4456,19.531250
4457,19.531250
4458,21.484375
4459,23.437500
4460,23.437500
4461,25.390625
4462,25.390625
4463,27.343750
4464,27.343750
4465,29.296875
4466,29.296875
4467,31.250000
4468,31.250000
4469,31.250000
4470,33.203125
4471,33.203125
4472,35.156250
4473,35.156250
4474,37.109375
4475,37.109375
4476,39.062500
4477,39.062500
4478,41.015625
4479,41.015625
4480,42.968750
4481,41.015625
4482,42.968750
4483,44.921875
4484,44.921875
4485,46.875000
4486,46.875000
4487,48.828125
4488,48.828125
4489,48.828125
4490,50.781250
4491,50.781250
4492,50.781250
4493,52.734375
4494,54.687500
4495,54.687500
4496,56.640625
4497,56.640625
4498,56.640625
4499,56.640625
4500,58.593750
4501,58.593750
4502,58.593750
4503,60.546875
4504,60.546875
4505,62.500000
4506,64.453125
4507,64.453125
4508,64.453125
4509,64.453125
4510,66.406250
4511,66.406250
4512,66.406250
4513,68.359375
4514,68.359375
4515,70.312500
4516,70.312500
4517,70.312500
4518,72.265625
4519,72.265625
4520,72.265625
4521,72.265625
4522,74.218750
4523,74.218750
4524,74.218750
4525,76.171875
4526,76.171875
4527,76.171875
4528,76.171875
4529,78.125000
4530,78.125000
4531,78.125000
4532,78.125000
4533,80.078125
4534,80.078125
4535,80.078125
4536,80.078125
4537,80.078125
4538,80.078125
4539,82.031250
4540,82.031250
4541,82.031250
4542,83.984375
4543,83.984375
4544,83.984375
4545,83.984375
4546,83.984375
4547,83.984375
4548,83.984375
4549,83.984375
4550,85.937500
4551,85.937500
4552,85.937500
4553,85.937500
4554,85.937500
4555,85.937500
4556,85.937500
4557,85.937500
4558,85.937500
4559,85.937500
4560,85.937500
4561,87.890625
4562,85.937500
4563,87.890625
4564,87.890625
4565,85.937500
4566,85.937500
4567,87.890625
4568,87.890625
4569,87.890625
4570,87.890625
4571,87.890625
4572,87.890625
4573,87.890625
4574,87.890625
4575,87.890625
4576,87.890625
4577,87.890625
4578,87.890625
4579,87.890625
4580,85.937500
4581,85.937500
4582,85.937500
4583,85.937500
4584,85.937500
4585,87.890625
4586,85.937500
4587,85.937500
4588,85.937500
4589,85.937500
4590,83.984375
4591,83.984375
4592,83.984375
4593,83.984375
4594,83.984375
4595,83.984375
4596,83.984375
4597,83.984375
4598,82.031250
4599,82.031250
4600,82.031250
4601,82.031250
4602,80.078125
4603,80.078125
4604,80.078125
4605,80.078125
4606,80.078125
4607,78.125000
4608,78.125000
4609,78.125000
4610,78.125000
4611,78.125000
4612,76.171875
4613,76.171875
4614,74.218750
4615,74.218750
4616,76.171875
4617,74.218750
4618,74.218750
4619,74.218750
4620,72.265625
4621,72.265625
4622,70.312500
4623,70.312500
4624,70.312500
4625,70.312500
4626,70.312500
4627,68.359375
4628,68.359375
4629,66.406250
4630,66.406250
4631,66.406250
4632,66.406250
4633,64.453125
4634,64.453125
4635,62.500000
4636,62.500000
4637,62.500000
4638,62.500000
4639,60.546875
4640,60.546875
4641,58.593750
4642,58.593750
4643,56.640625
4644,56.640625
4645,56.640625
4646,56.640625
4647,54.687500
4648,54.687500
4649,54.687500
4650,52.734375
4651,52.734375
4652,50.781250
4653,50.781250
4654,48.828125
4655,48.828125
4656,46.875000
4657,46.875000
4658,46.875000
4659,44.921875
4660,42.968750
4661,42.968750
4662,42.968750
4663,41.015625
4664,41.015625
4665,39.062500
4666,39.062500
4667,37.109375
4668,37.109375
4669,35.156250
4670,35.156250
4671,35.156250
4672,33.203125
4673,31.250000
4674,31.250000
4675,31.250000
4676,29.296875
4677,29.296875
4678,27.343750
4679,27.343750
4680,25.390625
4681,25.390625
4682,23.437500
4683,23.437500
4684,21.484375
4685,21.484375
4686,19.531250
4687,19.531250
4688,17.578125
4689,17.578125
4690,15.625000
4691,15.625000
4692,13.671875
4693,13.671875
4694,11.718750
4695,11.718750
4696,9.765625
4697,9.765625
4698,9.765625
4699,7.812500
4700,5.859375
4701,5.859375
4702,5.859375
4703,3.906250
4704,3.906250
4705,1.953125
4706,0.000000
4707,0.000000
4708,0.000000
4709,-1.953125
4710,-1.953125
4711,-3.906250
4712,-3.906250
4713,-5.859375
4714,-5.859375
4715,-7.812500
4716,-9.765625
4717,-9.765625
4718,-9.765625
4719,-11.718750
4720,-11.718750
4721,-13.671875
4722,-13.671875
4723,-15.625000
4724,-15.625000
4725,-17.578125
4726,-17.578125
4727,-19.531250
4728,-19.531250
4729,-21.484375
4730,-21.484375
4731,-23.437500
4732,-23.437500
4733,-25.390625
4734,-25.390625
4735,-27.343750
4736,-27.343750
4737,-29.296875
4738,-29.296875
4739,-31.250000
4740,-31.250000
4741,-31.250000
4742,-33.203125
4743,-35.156250
4744,-35.156250
4745,-35.156250
4746,-37.109375
4747,-37.109375
4748,-39.062500
4749,-41.015625
4750,-41.015625
4751,-41.015625
4752,-42.968750
4753,-42.968750
4754,-44.921875
4755,-44.921875
4756,-44.921875
4757,-46.875000
4758,-48.828125
4759,-48.828125
4760,-48.828125
4761,-48.828125
4762,-50.781250
4763,-52.734375
4764,-52.734375
4765,-52.734375
4766,-54.687500
4767,-56.640625
4768,-56.640625
4769,-56.640625
4770,-58.593750
4771,-58.593750
4772,-58.593750
4773,-60.546875
4774,-60.546875
4775,-62.500000
4776,-62.500000
4777,-62.500000
4778,-64.453125
4779,-64.453125
4780,-64.453125
4781,-66.406250
4782,-66.406250
4783,-68.359375
4784,-68.359375
4785,-70.312500
4786,-70.312500
4787,-70.312500
4788,-70.312500
4789,-72.265625
4790,-72.265625
4791,-74.218750
4792,-74.218750
4793,-74.218750
4794,-76.171875
4795,-76.171875
4796,-78.125000
4797,-78.125000
4798,-78.125000
4799,-78.125000
4800,-80.078125
4801,-80.078125
4802,-82.031250
4803,-82.031250
4804,-82.031250
4805,-82.031250
4806,-83.984375
4807,-83.984375
4808,-83.984375
4809,-85.937500
4810,-85.937500
4811,-85.937500
4812,-85.937500
4813,-87.890625
4814,-87.890625
4815,-87.890625
4816,-87.890625
4817,-91.796875
4818,-89.843750
4819,-89.843750
4820,-89.843750
4821,-89.843750
4822,-91.796875
4823,-91.796875
4824,-91.796875
4825,-91.796875
4826,-93.750000
4827,-93.750000
4828,-93.750000
4829,-93.750000
4830,-93.750000
4831,-95.703125
4832,-95.703125
4833,-95.703125
4834,-95.703125
4835,-95.703125
4836,-95.703125
4837,-95.703125
4838,-95.703125
4839,-97.656250
4840,-97.656250
4841,-97.656250
4842,-97.656250
4843,-97.656250
4844,-97.656250
4845,-97.656250
4846,-99.609375
4847,-97.656250
4848,-99.609375
4849,-97.656250
4850,-97.656250
4851,-99.609375
4852,-99.609375
4853,-99.609375
4854,-99.609375
4855,-99.609375
4856,-99.609375
4857,-99.609375
4858,-99.609375
4859,-99.609375
4860,-99.609375
4861,-99.609375
4862,-99.609375
4863,-99.609375
4864,-99.609375
4865,-99.609375
4866,-99.609375
4867,-99.609375
4868,-99.609375
4869,-99.609375
4870,-99.609375
4871,-97.656250
4872,-97.656250
4873,-97.656250
4874,-97.656250
4875,-97.656250
4876,-97.656250
4877,-97.656250
4878,-97.656250
4879,-97.656250
4880,-97.656250
4881,-97.656250
4882,-95.703125
4883,-97.656250
4884,-97.656250
4885,-95.703125
4886,-95.703125
4887,-95.703125
4888,-95.703125
4889,-95.703125
4890,-93.750000
4891,-95.703125
4892,-93.750000
4893,-93.750000
4894,-93.750000
4895,-93.750000
4896,-93.750000
4897,-91.796875
4898,-91.796875
4899,-91.796875
4900,-89.843750
4901,-89.843750
4902,-89.843750
4903,-89.843750
4904,-89.843750
4905,-89.843750
4906,-87.890625
4907,-87.890625
4908,-87.890625
4909,-87.890625
4910,-85.937500
4911,-85.937500
4912,-85.937500
4913,-85.937500
4914,-85.937500
4915,-83.984375
4916,-85.937500
4917,-83.984375
4918,-83.984375
4919,-82.031250
4920,-82.031250
4921,-82.031250
4922,-80.078125
4923,-80.078125
4924,-80.078125
4925,-78.125000
4926,-78.125000
4927,-78.125000
4928,-76.171875
4929,-76.171875
4930,-76.171875
4931,-76.171875
4932,-74.218750
4933,-74.218750
4934,-72.265625
4935,-72.265625
4936,-72.265625
4937,-72.265625
4938,-70.312500
4939,-70.312500
4940,-70.312500
4941,-68.359375
4942,-68.359375
4943,-66.406250
4944,-66.406250
4945,-66.406250
4946,-64.453125
4947,-64.453125
4948,-64.453125
4949,-64.453125
4950,-62.500000
4951,-62.500000
4952,-60.546875
4953,-58.593750
4954,-58.593750
4955,-58.593750
4956,-58.593750
4957,-56.640625
4958,-56.640625
4959,-54.687500
4960,-54.687500
4961,-52.734375
4962,-52.734375
4963,-50.781250
4964,-50.781250
4965,-50.781250
4966,-48.828125
4967,-48.828125
4968,-46.875000
4969,-46.875000
4970,-44.921875
4971,-44.921875
4972,-44.921875
4973,-42.968750
4974,-42.968750
4975,-41.015625
4976,-41.015625
4977,-39.062500
4978,-39.062500
4979,-37.109375
4980,-37.109375
4981,-35.156250
4982,-35.156250
4983,-33.203125
4984,-35.156250
4985,-31.250000
4986,-31.250000
4987,-31.250000
4988,-29.296875
4989,-29.296875
4990,-27.343750
4991,-27.343750
4992,-25.390625
4993,-25.390625
4994,-23.437500
4995,-23.437500
4996,-21.484375
4997,-21.484375
4998,-19.531250
4999,-19.531250
5000,-17.578125
5001,-17.578125
5002,-15.625000
5003,-15.625000
5004,-15.625000
5005,-13.671875
5006,-11.718750
5007,-11.718750
5008,-9.765625
5009,-9.765625
5010,-7.812500
5011,-7.812500
5012,-5.859375
5013,-5.859375
5014,-3.906250
5015,-3.906250
5016,-1.953125
5017,-1.953125
5018,0.000000
5019,0.000000
5020,1.953125
5021,1.953125
5022,3.906250
5023,3.906250
5024,7.812500
5025,7.812500
5026,7.812500
5027,9.765625
5028,9.765625
5029,9.765625
5030,11.718750
5031,11.718750
5032,13.671875
5033,11.718750
5034,15.625000
5035,15.625000
5036,17.578125
5037,19.531250
5038,19.531250
5039,21.484375
5040,21.484375
5041,23.437500
5042,23.437500
5043,23.437500
5044,25.390625
5045,25.390625
5046,27.343750
5047,29.296875
5048,29.296875
5049,31.250000
5050,31.250000
5051,31.250000
5052,33.203125
5053,33.203125
5054,35.156250
5055,35.156250
5056,37.109375
5057,37.109375
5058,37.109375
5059,39.062500
5060,41.015625
5061,41.015625
5062,41.015625
5063,42.968750
5064,42.968750
5065,44.921875
5066,44.921875
5067,44.921875
5068,46.875000
5069,48.828125
5070,48.828125
5071,50.781250
5072,50.781250
5073,50.781250
5074,50.781250
5075,52.734375
5076,52.734375
5077,54.687500
5078,54.687500
5079,54.687500
5080,56.640625
5081,56.640625
5082,58.593750
5083,58.593750
5084,60.546875
5085,60.546875
5086,60.546875
5087,62.500000
5088,62.500000
5089,62.500000
5090,64.453125
5091,64.453125
5092,66.406250
5093,66.406250
5094,66.406250
5095,68.359375
5096,68.359375
5097,70.312500
5098,68.359375
5099,70.312500
5100,70.312500
5101,72.265625
5102,72.265625
5103,72.265625
5104,74.218750
5105,74.218750
5106,74.218750
5107,76.171875
5108,76.171875
5109,76.171875
5110,76.171875
5111,76.171875
5112,78.125000
5113,78.125000
5114,78.125000
5115,80.078125
5116,80.078125
5117,80.078125
5118,80.078125
5119,80.078125
5120,80.078125
5121,82.031250
5122,82.031250
5123,82.031250
5124,82.031250
5125,82.031250
5126,83.984375
5127,82.031250
5128,83.984375
5129,83.984375
5130,83.984375
5131,83.984375
5132,83.984375
5133,83.984375
5134,85.937500
5135,85.937500
5136,85.937500
5137,85.937500
5138,85.937500
5139,85.937500
5140,85.937500
5141,85.937500
5142,85.937500
5143,85.937500
5144,87.890625
5145,85.937500
5146,85.937500
5147,87.890625
5148,85.937500
5149,87.890625
5150,87.890625
5151,87.890625
5152,87.890625
5153,85.937500
5154,87.890625
5155,87.890625
5156,87.890625
5157,87.890625
5158,87.890625
5159,85.937500
5160,87.890625
5161,87.890625
5162,87.890625
5163,87.890625
5164,87.890625
5165,85.937500
5166,85.937500
5167,85.937500
5168,85.937500
5169,85.937500
5170,85.937500
5171,85.937500
5172,85.937500
5173,85.937500
5174,83.984375
5175,83.984375
5176,83.984375
5177,83.984375
5178,83.984375
5179,83.984375
5180,82.031250
5181,82.031250
5182,82.031250
5183,82.031250
5184,82.031250
5185,80.078125
5186,82.031250
5187,80.078125
5188,80.078125
5189,80.078125
5190,80.078125
5191,78.125000
5192,78.125000
5193,78.125000
5194,76.171875
5195,76.171875
5196,76.171875
5197,76.171875
5198,76.171875
5199,74.218750
5200,74.218750
5201,74.218750
5202,72.265625
5203,72.265625
5204,72.265625
5205,72.265625
5206,70.312500
5207,70.312500
5208,70.312500
5209,68.359375
5210,68.359375
5211,66.406250
5212,66.406250
5213,66.406250
5214,66.406250
5215,64.453125
5216,64.453125
5217,64.453125
5218,62.500000
5219,62.500000
5220,60.546875
5221,60.546875
5222,60.546875
5223,60.546875
5224,58.593750
5225,58.593750
5226,56.640625
5227,56.640625
5228,56.640625
5229,54.687500
5230,54.687500
5231,54.687500
5232,52.734375
5233,52.734375
5234,50.781250
5235,50.781250
5236,48.828125
5237,48.828125
5238,48.828125
5239,46.875000
5240,46.875000
5241,44.921875
5242,44.921875
5243,42.968750
5244,42.968750
5245,41.015625
5246,41.015625
5247,39.062500
5248,39.062500
5249,39.062500
5250,37.109375
5251,37.109375
5252,35.156250
5253,35.156250
5254,33.203125
5255,33.203125
5256,31.250000
5257,31.250000
5258,31.250000
5259,29.296875
5260,29.296875
5261,27.343750
5262,25.390625
5263,25.390625
5264,25.390625
5265,23.437500
5266,23.437500
5267,21.484375
5268,21.484375
5269,19.531250
5270,19.531250
5271,17.578125
5272,17.578125
5273,15.625000
5274,15.625000
5275,13.671875
5276,13.671875
5277,11.718750
5278,11.718750
5279,9.765625
5280,9.765625
5281,7.812500
5282,5.859375
5283,5.859375
5284,5.859375
5285,3.906250
5286,3.906250
5287,3.906250
5288,1.953125
5289,0.000000
5290,0.000000
5291,-1.953125
5292,-1.953125
5293,-3.906250
5294,-3.906250
5295,-3.906250
5296,-5.859375
5297,-5.859375
5298,-7.812500
5299,-9.765625
5300,-9.765625
5301,-11.718750
5302,-11.718750
5303,-11.718750
5304,-13.671875
5305,-13.671875
5306,-15.625000
5307,-17.578125
5308,-17.578125
5309,-19.531250
5310,-19.531250
5311,-21.484375
5312,-21.484375
5313,-21.484375
5314,-23.437500
5315,-23.437500
5316,-25.390625
5317,-27.343750
5318,-27.343750
5319,-29.296875
5320,-29.296875
5321,-29.296875
5322,-29.296875
5323,-31.250000
5324,-33.203125
5325,-33.203125
5326,-35.156250
5327,-37.109375
5328,-37.109375
5329,-37.109375
5330,-39.062500
5331,-39.062500
5332,-39.062500
5333,-41.015625
5334,-42.968750
5335,-42.968750
5336,-44.921875
5337,-44.921875
5338,-44.921875
5339,-46.875000
5340,-46.875000
5341,-48.828125
5342,-48.828125
5343,-50.781250
5344,-50.781250
5345,-50.781250
5346,-52.734375
5347,-52.734375
5348,-54.687500
5349,-54.687500
5350,-54.687500
5351,-56.640625
5352,-56.640625
5353,-58.593750
5354,-58.593750
5355,-60.546875
5356,-60.546875
5357,-60.546875
5358,-60.546875
5359,-62.500000
5360,-62.500000
5361,-64.453125
5362,-66.406250
5363,-66.406250
5364,-66.406250
5365,-66.406250
5366,-68.359375
5367,-68.359375
5368,-70.312500
5369,-70.312500
5370,-70.312500
5371,-72.265625
5372,-72.265625
5373,-72.265625
5374,-74.218750
5375,-74.218750
5376,-76.171875
5377,-76.171875
5378,-76.171875
5379,-78.125000
5380,-78.125000
5381,-78.125000
5382,-78.125000
5383,-80.078125
5384,-80.078125
5385,-82.031250
5386,-82.031250
5387,-82.031250
5388,-83.984375
5389,-83.984375
5390,-83.984375
5391,-83.984375
5392,-83.984375
5393,-85.937500
5394,-85.937500
5395,-87.890625
5396,-87.890625
5397,-87.890625
5398,-87.890625
5399,-87.890625
5400,-89.843750
5401,-89.843750
5402,-89.843750
5403,-89.843750
5404,-91.796875
5405,-91.796875
5406,-91.796875
5407,-91.796875
5408,-91.796875
5409,-93.750000
5410,-93.750000
5411,-93.750000
5412,-93.750000
5413,-93.750000
5414,-95.703125
5415,-95.703125
5416,-95.703125
5417,-95.703125
5418,-95.703125
5419,-95.703125
5420,-95.703125
5421,-97.656250
5422,-97.656250
5423,-97.656250
5424,-97.656250
5425,-97.656250
5426,-97.656250
5427,-97.656250
5428,-97.656250
5429,-97.656250
5430,-97.656250
5431,-97.656250
5432,-99.609375
5433,-99.609375
5434,-99.609375
5435,-99.609375
5436,-97.656250
5437,-97.656250
5438,-99.609375
5439,-99.609375
5440,-99.609375
5441,-99.609375
5442,-99.609375
5443,-99.609375
5444,-99.609375
5445,-99.609375
5446,-99.609375
5447,-99.609375
5448,-99.609375
5449,-99.609375
5450,-99.609375
5451,-99.609375
5452,-97.656250
5453,-97.656250
5454,-97.656250
5455,-97.656250
5456,-99.609375
5457,-97.656250
5458,-99.609375
5459,-97.656250
5460,-97.656250
5461,-97.656250
5462,-97.656250
5463,-97.656250
5464,-97.656250
5465,-97.656250
5466,-97.656250
5467,-95.703125
5468,-95.703125
5469,-95.703125
5470,-95.703125
5471,-95.703125
5472,-93.750000
5473,-95.703125
5474,-93.750000
5475,-93.750000
5476,-93.750000
5477,-91.796875
5478,-91.796875
5479,-91.796875
5480,-91.796875
5481,-91.796875
5482,-91.796875
5483,-91.796875
5484,-89.843750
5485,-89.843750
5486,-89.843750
5487,-89.843750
5488,-87.890625
5489,-87.890625
5490,-87.890625
5491,-87.890625
5492,-85.937500
5493,-87.890625
5494,-85.937500
5495,-85.937500
5496,-85.937500
5497,-83.984375
5498,-83.984375
5499,-83.984375
5500,-83.984375
5501,-82.031250
5502,-82.031250
5503,-82.031250
5504,-82.031250
5505,-82.031250
5506,-80.078125
5507,-80.078125
5508,-78.125000
5509,-78.125000
5510,-76.171875
5511,-76.171875
5512,-76.171875
5513,-76.171875
5514,-76.171875
5515,-74.218750
5516,-74.218750
5517,-72.265625
5518,-72.265625
5519,-72.265625
5520,-70.312500
5521,-70.312500
5522,-70.312500
5523,-68.359375
5524,-68.359375
5525,-66.406250
5526,-66.406250
5527,-66.406250
5528,-66.406250
5529,-64.453125
5530,-64.453125
5531,-62.500000
5532,-62.500000
5533,-60.546875
5534,-60.546875
5535,-60.546875
5536,-58.593750
5537,-58.593750
5538,-56.640625
5539,-56.640625
5540,-54.687500
5541,-54.687500
5542,-54.687500
5543,-52.734375
5544,-52.734375
5545,-52.734375
5546,-50.781250
5547,-48.828125
5548,-48.828125
5549,-48.828125
5550,-46.875000
5551,-46.875000
5552,-46.875000
5553,-44.921875
5554,-42.968750
5555,-42.968750
5556,-42.968750
5557,-42.968750
5558,-41.015625
5559,-39.062500
5560,-39.062500
5561,-37.109375
5562,-37.109375
5563,-35.156250
5564,-35.156250
5565,-35.156250
5566,-33.203125
5567,-33.203125
5568,-31.250000
5569,-31.250000
5570,-29.296875
5571,-29.296875
5572,-27.343750
5573,-27.343750
5574,-25.390625
5575,-25.390625
5576,-25.390625
5577,-23.437500
5578,-23.437500
5579,-21.484375
5580,-21.484375
5581,-19.531250
5582,-17.578125
5583,-17.578125
5584,-15.625000
5585,-15.625000
5586,-15.625000
5587,-13.671875
5588,-13.671875
5589,-11.718750
5590,-11.718750
5591,-9.765625
5592,-9.765625
5593,-7.812500
5594,-7.812500
5595,-5.859375
5596,-3.906250
5597,-3.906250
5598,-3.906250
5599,-1.953125
5600,0.000000
5601,0.000000
5602,1.953125
5603,1.953125
5604,3.906250
5605,3.906250
5606,5.859375
5607,5.859375
5608,7.812500
5609,7.812500
5610,9.765625
5611,9.765625
5612,11.718750
5613,11.718750
5614,13.671875
5615,13.671875
5616,15.625000
5617,15.625000
5618,17.578125
5619,17.578125
5620,19.531250
5621,19.531250
5622,21.484375
5623,21.484375
5624,23.437500
5625,23.437500
5626,25.390625
5627,25.390625
5628,27.343750
5629,27.343750
5630,29.296875
5631,29.296875
5632,31.250000
5633,31.250000
5634,33.203125
5635,33.203125
5636,33.203125
5637,35.156250
5638,35.156250
5639,37.109375
5640,37.109375
5641,39.062500
5642,41.015625
5643,41.015625
5644,42.968750
5645,42.968750
5646,42.968750
5647,44.921875
5648,44.921875
5649,44.921875
5650,46.875000
5651,46.875000
5652,46.875000
5653,50.781250
5654,50.781250
5655,50.781250
5656,52.734375
5657,52.734375
5658,52.734375
5659,54.687500
5660,54.687500
5661,56.640625
5662,56.640625
5663,58.593750
5664,58.593750
5665,58.593750
5666,60.546875
5667,60.546875
5668,60.546875
5669,60.546875
5670,62.500000
5671,64.453125
5672,64.453125
5673,64.453125
5674,66.406250
5675,66.406250
5676,66.406250
5677,68.359375
5678,68.359375
5679,68.359375
5680,68.359375
5681,70.312500
5682,70.312500
5683,72.265625
5684,72.265625
5685,72.265625
5686,74.218750
5687,74.218750
5688,74.218750
5689,74.218750
5690,74.218750
5691,76.171875
5692,76.171875
5693,76.171875
5694,78.125000
5695,78.125000
5696,78.125000
5697,78.125000
5698,80.078125
5699,80.078125
5700,80.078125
5701,80.078125
5702,80.078125
5703,80.078125
5704,80.078125
5705,82.031250
5706,82.031250
5707,82.031250
5708,82.031250
5709,83.984375
5710,83.984375
5711,83.984375
5712,83.984375
5713,83.984375
5714,83.984375
5715,83.984375
5716,83.984375
5717,85.937500
5718,85.937500
5719,85.937500
5720,85.937500
5721,85.937500
5722,85.937500
5723,85.937500
5724,87.890625
5725,85.937500
5726,85.937500
5727,85.937500
5728,85.937500
5729,85.937500
5730,85.937500
5731,87.890625
5732,87.890625
5733,87.890625
5734,87.890625
5735,87.890625
5736,87.890625
5737,85.937500
5738,87.890625
5739,87.890625
5740,87.890625
5741,87.890625
5742,85.937500
5743,85.937500
5744,85.937500
5745,85.937500
5746,85.937500
5747,85.937500
5748,85.937500
5749,85.937500
5750,85.937500
5751,85.937500
5752,85.937500
5753,85.937500
5754,85.937500
5755,83.984375
5756,83.984375
5757,83.984375
5758,83.984375
5759,83.984375
5760,83.984375
5761,83.984375
5762,82.031250
5763,82.031250
5764,82.031250
5765,82.031250
5766,82.031250
5767,80.078125
5768,80.078125
5769,80.078125
5770,80.078125
5771,80.078125
5772,78.125000
5773,78.125000
5774,78.125000
5775,76.171875
5776,78.125000
5777,76.171875
5778,76.171875
5779,76.171875
5780,74.218750
5781,74.218750
5782,74.218750
5783,74.218750
5784,72.265625
5785,72.265625
5786,70.312500
5787,70.312500
5788,70.312500
5789,70.312500
5790,70.312500
5791,68.359375
5792,68.359375
5793,68.359375
5794,66.406250
5795,66.406250
5796,66.406250
5797,64.453125
5798,64.453125
5799,64.453125
5800,62.500000
5801,62.500000
5802,60.546875
5803,60.546875
5804,60.546875
5805,58.593750
5806,58.593750
5807,58.593750
5808,56.640625
5809,56.640625
5810,54.687500
5811,54.687500
5812,54.687500
5813,54.687500
5814,52.734375
5815,52.734375
5816,52.734375
5817,50.781250
5818,48.828125
5819,48.828125
5820,46.875000
5821,46.875000
5822,46.875000
5823,44.921875
5824,44.921875
5825,42.968750
5826,42.968750
5827,41.015625
5828,41.015625
5829,41.015625
5830,39.062500
5831,39.062500
5832,37.109375
5833,37.109375
5834,35.156250
5835,35.156250
5836,33.203125
5837,33.203125
5838,31.250000
5839,31.250000
5840,29.296875
5841,29.296875
5842,27.343750
5843,27.343750
5844,25.390625
5845,25.390625
5846,23.437500
5847,23.437500
5848,21.484375
5849,21.484375
5850,19.531250
5851,19.531250
5852,19.531250
5853,17.578125
5854,17.578125
5855,15.625000
5856,15.625000
5857,13.671875
5858,13.671875
5859,11.718750
5860,11.718750
5861,9.765625
5862,9.765625
5863,7.812500
5864,7.812500
5865,5.859375
5866,5.859375
5867,3.906250
5868,3.906250
5869,1.953125
5870,1.953125
5871,0.000000
5872,0.000000
5873,0.000000
5874,-1.953125
5875,-3.906250
5876,-3.906250
5877,-3.906250
5878,-5.859375
5879,-7.812500
5880,-7.812500
5881,-9.765625
5882,-9.765625
5883,-11.718750
5884,-11.718750
5885,-11.718750
5886,-13.671875
5887,-13.671875
5888,-15.625000
5889,-17.578125
5890,-17.578125
5891,-17.578125
5892,-19.531250
5893,-21.484375
5894,-21.484375
5895,-21.484375
5896,-23.437500
5897,-23.437500
5898,-25.390625
5899,-25.390625
5900,-27.343750
5901,-27.343750
5902,-29.296875
5903,-29.296875
5904,-31.250000
5905,-31.250000
5906,-33.203125
5907,-33.203125
5908,-33.203125
5909,-35.156250
5910,-37.109375
5911,-37.109375
5912,-37.109375
5913,-39.062500
5914,-39.062500
5915,-41.015625
5916,-41.015625
5917,-42.968750
5918,-42.968750
5919,-42.968750
5920,-44.921875
5921,-46.875000
5922,-46.875000
5923,-46.875000
5924,-48.828125
5925,-48.828125
5926,-50.781250
5927,-52.734375
5928,-52.734375
5929,-52.734375
5930,-52.734375
5931,-54.687500
5932,-54.687500
5933,-56.640625
5934,-56.640625
5935,-58.593750
5936,-58.593750
5937,-58.593750
5938,-60.546875
5939,-60.546875
5940,-62.500000
5941,-62.500000
5942,-62.500000
5943,-64.453125
5944,-64.453125
5945,-64.453125
5946,-66.406250
5947,-66.406250
5948,-66.406250
5949,-68.359375
5950,-68.359375
5951,-70.312500
5952,-70.312500
5953,-72.265625
5954,-72.265625
5955,-74.218750
5956,-74.218750
5957,-74.218750
5958,-74.218750
5959,-76.171875
5960,-76.171875
5961,-76.171875
5962,-78.125000
5963,-78.125000
5964,-78.125000
5965,-80.078125
5966,-80.078125
5967,-80.078125
5968,-82.031250
5969,-82.031250
5970,-82.031250
5971,-83.984375
5972,-83.984375
5973,-83.984375
5974,-83.984375
5975,-85.937500
5976,-85.937500
5977,-85.937500
5978,-87.890625
5979,-87.890625
5980,-87.890625
5981,-87.890625
5982,-87.890625
5983,-89.843750
5984,-89.843750
5985,-89.843750
5986,-91.796875
5987,-91.796875
5988,-91.796875
5989,-91.796875
5990,-91.796875
5991,-91.796875
5992,-93.750000
5993,-93.750000
5994,-93.750000
5995,-93.750000
5996,-95.703125
5997,-95.703125
5998,-95.703125
5999,-95.703125
6000,-95.703125
6001,-95.703125
6002,-95.703125
6003,-95.703125
6004,-97.656250
6005,-97.656250
6006,-97.656250
6007,-97.656250
6008,-97.656250
6009,-97.656250
6010,-97.656250
6011,-97.656250
6012,-97.656250
6013,-97.656250
6014,-97.656250
6015,-97.656250
6016,-97.656250
6017,-97.656250
6018,-97.656250
6019,-97.656250
6020,-97.656250
6021,-97.656250
6022,-97.656250
6023,-99.609375
6024,-97.656250
6025,-99.609375
6026,-99.609375
6027,-99.609375
6028,-97.656250
6029,-97.656250
6030,-99.609375
6031,-97.656250
6032,-97.656250
6033,-97.656250
6034,-97.656250
6035,-97.656250
6036,-97.656250
6037,-97.656250
6038,-97.656250
6039,-97.656250
6040,-97.656250
6041,-97.656250
6042,-97.656250
6043,-97.656250
6044,-97.656250
6045,-97.656250
6046,-97.656250
6047,-95.703125
6048,-97.656250
6049,-95.703125
6050,-93.750000
6051,-95.703125
6052,-93.750000
6053,-95.703125
6054,-93.750000
6055,-93.750000
6056,-93.750000
6057,-93.750000
6058,-93.750000
6059,-91.796875
6060,-91.796875
6061,-91.796875
6062,-91.796875
6063,-91.796875
6064,-89.843750
6065,-89.843750
6066,-89.843750
6067,-89.843750
6068,-89.843750
6069,-89.843750
6070,-89.843750
6071,-87.890625
6072,-87.890625
6073,-85.937500
6074,-85.937500
6075,-85.937500
6076,-85.937500
6077,-83.984375
6078,-83.984375
6079,-83.984375
6080,-83.984375
6081,-83.984375
6082,-82.031250
6083,-82.031250
6084,-82.031250
6085,-80.078125
6086,-80.078125
6087,-80.078125
6088,-78.125000
6089,-78.125000
6090,-78.125000
6091,-78.125000
6092,-78.125000
6093,-76.171875
6094,-76.171875
6095,-76.171875
6096,-74.218750
6097,-74.218750
6098,-74.218750
6099,-72.265625
6100,-72.265625
6101,-72.265625
6102,-70.312500
6103,-70.312500
6104,-70.312500
6105,-68.359375
6106,-68.359375
6107,-68.359375
6108,-66.406250
6109,-66.406250
6110,-64.453125
6111,-64.453125
6112,-62.500000
6113,-62.500000
6114,-62.500000
6115,-62.500000
6116,-60.546875
6117,-60.546875
6118,-58.593750
6119,-58.593750
6120,-56.640625
6121,-56.640625
6122,-54.687500
6123,-54.687500
6124,-52.734375
6125,-52.734375
6126,-52.734375
6127,-52.734375
6128,-50.781250
6129,-50.781250
6130,-48.828125
6131,-48.828125
6132,-46.875000
6133,-46.875000
6134,-44.921875
6135,-44.921875
6136,-44.921875
6137,-42.968750
6138,-42.968750
6139,-42.968750
6140,-41.015625
6141,-39.062500
6142,-39.062500
6143,-35.156250
6144,-37.109375
6145,-35.156250
6146,-35.156250
6147,-35.156250
6148,-33.203125
6149,-33.203125
6150,-31.250000
6151,-31.250000
6152,-29.296875
6153,-29.296875
6154,-27.343750
6155,-27.343750
6156,-25.390625
6157,-25.390625
6158,-23.437500
6159,-23.437500
6160,-21.484375
6161,-21.484375
6162,-19.531250
6163,-19.531250
6164,-19.531250
6165,-17.578125
6166,-17.578125
6167,-15.625000
6168,-15.625000
6169,-13.671875
6170,-13.671875
6171,-11.718750
6172,-11.718750
6173,-9.765625
6174,-9.765625
6175,-7.812500
6176,-7.812500
6177,-5.859375
6178,-5.859375
6179,-3.906250
6180,-1.953125
6181,-1.953125
6182,-1.953125
6183,0.000000
6184,0.000000
6185,1.953125
6186,3.906250
6187,3.906250
6188,5.859375
6189,0.000000
6190,5.859375
6191,13.671875
6192,7.812500
6193,9.765625
6194,9.765625
6195,11.718750
6196,13.671875
6197,13.671875
6198,13.671875
6199,15.625000
6200,17.578125
6201,17.578125
6202,19.531250
6203,19.531250
6204,19.531250
6205,21.484375
6206,23.437500
6207,23.437500
6208,25.390625
6209,25.390625
6210,29.296875
6211,27.343750
6212,27.343750
6213,29.296875
6214,31.250000
6215,31.250000
6216,31.250000
6217,33.203125
6218,33.203125
6219,35.156250
6220,35.156250
6221,37.109375
6222,37.109375
6223,35.156250
6224,39.062500
6225,41.015625
6226,41.015625
6227,42.968750
6228,42.968750
6229,42.968750
6230,42.968750
6231,44.921875
6232,44.921875
6233,46.875000
6234,46.875000
6235,48.828125
6236,48.828125
6237,50.781250
6238,50.781250
6239,50.781250
6240,52.734375
6241,52.734375
6242,54.687500
6243,54.687500
6244,54.687500
6245,56.640625
6246,56.640625
6247,58.593750
6248,58.593750
6249,58.593750
6250,60.546875
6251,62.500000
6252,62.500000
6253,62.500000
6254,62.500000
6255,64.453125
6256,64.453125
6257,64.453125
6258,66.406250
6259,66.406250
6260,68.359375
6261,68.359375
6262,68.359375
6263,68.359375
6264,70.312500
6265,70.312500
6266,70.312500
6267,72.265625
6268,72.265625
6269,74.218750
6270,74.218750
6271,74.218750
6272,74.218750
6273,74.218750
6274,76.171875
6275,76.171875
6276,76.171875
6277,76.171875
6278,78.125000
6279,78.125000
6280,78.125000
6281,78.125000
6282,78.125000
6283,80.078125
6284,80.078125
6285,80.078125
6286,80.078125
6287,80.078125
6288,80.078125
6289,82.031250
6290,82.031250
6291,82.031250
6292,82.031250
6293,82.031250
6294,83.984375
6295,83.984375
6296,83.984375
6297,83.984375
6298,83.984375
6299,83.984375
6300,83.984375
6301,85.937500
6302,83.984375
6303,85.937500
6304,85.937500
6305,83.984375
6306,85.937500
6307,85.937500
6308,85.937500
6309,85.937500
6310,85.937500
6311,85.937500
6312,85.937500
6313,85.937500
6314,85.937500
6315,85.937500
6316,85.937500
6317,85.937500
6318,85.937500
6319,85.937500
6320,85.937500
6321,85.937500
6322,85.937500
6323,87.890625
6324,85.937500
6325,85.937500
6326,85.937500
6327,85.937500
6328,85.937500
6329,85.937500
6330,85.937500
6331,85.937500
6332,83.984375
6333,83.984375
6334,85.937500
6335,83.984375
6336,83.984375
6337,83.984375
6338,83.984375
6339,83.984375
6340,83.984375
6341,83.984375
6342,82.031250
6343,82.031250
6344,82.031250
6345,82.031250
6346,82.031250
6347,82.031250
6348,80.078125
6349,80.078125
6350,80.078125
6351,80.078125
6352,78.125000
6353,80.078125
6354,78.125000
6355,78.125000
6356,76.171875
6357,78.125000
6358,76.171875
6359,76.171875
6360,76.171875
6361,74.218750
6362,74.218750
6363,74.218750
6364,72.265625
6365,72.265625
6366,72.265625
6367,72.265625
6368,70.312500
6369,72.265625
6370,70.312500
6371,70.312500
6372,68.359375
6373,68.359375
6374,68.359375
6375,66.406250
6376,66.406250
6377,66.406250
6378,66.406250
6379,64.453125
6380,64.453125
6381,64.453125
6382,62.500000
6383,62.500000
6384,60.546875
6385,60.546875
6386,60.546875
6387,58.593750
6388,58.593750
6389,58.593750
6390,56.640625
6391,56.640625
6392,56.640625
6393,54.687500
6394,54.687500
6395,52.734375
6396,52.734375
6397,52.734375
6398,50.781250
6399,50.781250
6400,48.828125
6401,48.828125
6402,46.875000
6403,46.875000
6404,46.875000
6405,44.921875
6406,44.921875
6407,42.968750
6408,42.968750
6409,42.968750
6410,41.015625
6411,41.015625
6412,39.062500
6413,39.062500
6414,37.109375
6415,37.109375
6416,35.156250
6417,35.156250
6418,35.156250
6419,33.203125
6420,33.203125
6421,31.250000
6422,29.296875
6423,29.296875
6424,29.296875
6425,27.343750
6426,27.343750
6427,25.390625
6428,25.390625
6429,23.437500
6430,23.437500
6431,23.437500
6432,21.484375
6433,19.531250
6434,19.531250
6435,19.531250
6436,17.578125
6437,15.625000
6438,15.625000
6439,15.625000
6440,13.671875
6441,13.671875
6442,11.718750
6443,9.765625
6444,9.765625
6445,7.812500
6446,7.812500
6447,5.859375
6448,5.859375
6449,5.859375
6450,3.906250
6451,1.953125
6452,1.953125
6453,1.953125
6454,0.000000
6455,0.000000
6456,-1.953125
6457,-1.953125
6458,-3.906250
6459,-3.906250
6460,-3.906250
6461,-5.859375
6462,-7.812500
6463,-7.812500
6464,-7.812500
6465,-9.765625
6466,-9.765625
6467,-11.718750
6468,-13.671875
6469,-15.625000
6470,-15.625000
6471,-15.625000
6472,-17.578125
6473,-17.578125
6474,-19.531250
6475,-19.531250
6476,-21.484375
6477,-21.484375
6478,-23.437500
6479,-23.437500
6480,-23.437500
6481,-25.390625
6482,-27.343750
6483,-27.343750
6484,-27.343750
6485,-29.296875
6486,-29.296875
6487,-31.250000
6488,-31.250000
6489,-33.203125
6490,-33.203125
6491,-35.156250
6492,-35.156250
6493,-37.109375
6494,-37.109375
6495,-37.109375
6496,-39.062500
6497,-41.015625
6498,-41.015625
6499,-41.015625
6500,-42.968750
6501,-42.968750
6502,-44.921875
6503,-44.921875
6504,-46.875000
6505,-46.875000
6506,-46.875000
6507,-48.828125
6508,-48.828125
6509,-50.781250
6510,-52.734375
6511,-50.781250
6512,-52.734375
6513,-52.734375
6514,-54.687500
6515,-54.687500
6516,-54.687500
6517,-56.640625
6518,-58.593750
6519,-58.593750
6520,-58.593750
6521,-60.546875
6522,-60.546875
6523,-60.546875
6524,-62.500000
6525,-62.500000
6526,-64.453125
6527,-64.453125
6528,-64.453125
6529,-66.406250
6530,-66.406250
6531,-68.359375
6532,-68.359375
6533,-68.359375
6534,-68.359375
6535,-70.312500
6536,-70.312500
6537,-72.265625
6538,-72.265625
6539,-72.265625
6540,-74.218750
6541,-74.218750
6542,-74.218750
6543,-76.171875
6544,-76.171875
6545,-78.125000
6546,-78.125000
6547,-78.125000
6548,-78.125000
6549,-80.078125
6550,-80.078125
6551,-80.078125
6552,-82.031250
6553,-82.031250
6554,-82.031250
6555,-83.984375
6556,-83.984375
6557,-83.984375
6558,-83.984375
6559,-85.937500
6560,-85.937500
6561,-85.937500
6562,-85.937500
6563,-87.890625
6564,-87.890625
6565,-87.890625
6566,-87.890625
6567,-89.843750
6568,-89.843750
6569,-89.843750
6570,-89.843750
6571,-89.843750
6572,-91.796875
6573,-91.796875
6574,-91.796875
6575,-91.796875
6576,-91.796875
6577,-93.750000
6578,-91.796875
6579,-93.750000
6580,-93.750000
6581,-93.750000
6582,-93.750000
6583,-95.703125
6584,-95.703125
6585,-95.703125
6586,-95.703125
6587,-95.703125
6588,-95.703125
6589,-95.703125
6590,-95.703125
6591,-95.703125
6592,-97.656250
6593,-97.656250
6594,-95.703125
6595,-97.656250
6596,-97.656250
6597,-97.656250
6598,-97.656250
6599,-97.656250
6600,-97.656250
6601,-97.656250
6602,-97.656250
6603,-97.656250
6604,-97.656250
6605,-97.656250
6606,-97.656250
6607,-99.609375
6608,-97.656250
6609,-97.656250
6610,-97.656250
6611,-97.656250
6612,-97.656250
6613,-97.656250
6614,-97.656250
6615,-97.656250
6616,-97.656250
6617,-97.656250
6618,-97.656250
6619,-97.656250
6620,-97.656250
6621,-97.656250
6622,-97.656250
6623,-97.656250
6624,-97.656250
6625,-95.703125
6626,-97.656250
6627,-95.703125
6628,-97.656250
6629,-95.703125
6630,-95.703125
6631,-97.656250
6632,-95.703125
6633,-95.703125
6634,-95.703125
6635,-93.750000
6636,-93.750000
6637,-93.750000
6638,-93.750000
6639,-93.750000
6640,-91.796875
6641,-91.796875
6642,-91.796875
6643,-91.796875
6644,-91.796875
6645,-91.796875
6646,-91.796875
6647,-89.843750
6648,-89.843750
6649,-89.843750
6650,-89.843750
6651,-87.890625
6652,-87.890625
6653,-87.890625
6654,-87.890625
6655,-87.890625
6656,-85.937500
6657,-85.937500
6658,-85.937500
6659,-85.937500
6660,-83.984375
6661,-83.984375
6662,-83.984375
6663,-83.984375
6664,-82.031250
6665,-82.031250
6666,-82.031250
6667,-82.031250
6668,-80.078125
6669,-80.078125
6670,-80.078125
6671,-78.125000
6672,-78.125000
6673,-78.125000
6674,-76.171875
6675,-76.171875
6676,-76.171875
6677,-76.171875
6678,-76.171875
6679,-74.218750
6680,-74.218750
6681,-72.265625
6682,-72.265625
6683,-72.265625
6684,-70.312500
6685,-70.312500
6686,-70.312500
6687,-70.312500
6688,-68.359375
6689,-68.359375
6690,-66.406250
6691,-66.406250
6692,-66.406250
6693,-64.453125
6694,-64.453125
6695,-64.453125
6696,-62.500000
6697,-62.500000
6698,-60.546875
6699,-60.546875
6700,-60.546875
6701,-58.593750
6702,-58.593750
6703,-56.640625
6704,-56.640625
6705,-56.640625
6706,-54.687500
6707,-54.687500
6708,-54.687500
6709,-52.734375
6710,-52.734375
6711,-50.781250
6712,-50.781250
6713,-48.828125
6714,-48.828125
6715,-46.875000
6716,-46.875000
6717,-44.921875
6718,-44.921875
6719,-44.921875
6720,-42.968750
6721,-42.968750
6722,-42.968750
6723,-41.015625
6724,-39.062500
6725,-39.062500
6726,-39.062500
6727,-37.109375
6728,-37.109375
6729,-35.156250
6730,-35.156250
6731,-33.203125
6732,-33.203125
6733,-31.250000
6734,-31.250000
6735,-31.250000
6736,-29.296875
6737,-29.296875
6738,-27.343750
6739,-27.343750
6740,-25.390625
6741,-25.390625
6742,-23.437500
6743,-23.437500
6744,-21.484375
6745,-21.484375
6746,-19.531250
6747,-19.531250
6748,-17.578125
6749,-17.578125
6750,-15.625000
6751,-15.625000
6752,-13.671875
6753,-13.671875
6754,-13.671875
6755,-11.718750
6756,-11.718750
6757,-9.765625
6758,-7.812500
6759,-7.812500
6760,-5.859375
6761,-3.906250
6762,-3.906250
6763,-3.906250
6764,-3.906250
6765,-1.953125
6766,0.000000
6767,0.000000
6768,1.953125
6769,1.953125
6770,3.906250
6771,3.906250
6772,5.859375
6773,5.859375
6774,7.812500
6775,7.812500
6776,7.812500
6777,9.765625
6778,11.718750
6779,11.718750
6780,13.671875
6781,13.671875
6782,15.625000
6783,15.625000
6784,17.578125
6785,17.578125
6786,19.531250
6787,19.531250
6788,21.484375
6789,21.484375
6790,21.484375
6791,23.437500
6792,25.390625
6793,25.390625
6794,25.390625
6795,27.343750
6796,29.296875
6797,29.296875
6798,29.296875
6799,31.250000
6800,31.250000
6801,33.203125
6802,33.203125
6803,35.156250
6804,35.156250
6805,37.109375
6806,37.109375
6807,39.062500
6808,39.062500
6809,39.062500
6810,41.015625
6811,44.921875
6812,42.968750
6813,44.921875
6814,44.921875
6815,44.921875
6816,46.875000
6817,46.875000
6818,48.828125
6819,48.828125
6820,48.828125
6821,50.781250
6822,50.781250
6823,52.734375
6824,52.734375
6825,54.687500
6826,54.687500
6827,54.687500
6828,56.640625
6829,56.640625
6830,58.593750
6831,58.593750
6832,58.593750
6833,60.546875
6834,60.546875
6835,60.546875
6836,62.500000
6837,62.500000
6838,62.500000
6839,64.453125
6840,64.453125
6841,66.406250
6842,66.406250
6843,66.406250
6844,68.359375
6845,68.359375
6846,68.359375
6847,70.312500
6848,70.312500
6849,70.312500
6850,70.312500
6851,72.265625
6852,72.265625
6853,72.265625
6854,74.218750
6855,74.218750
6856,76.171875
6857,74.218750
6858,76.171875
6859,76.171875
6860,78.125000
6861,76.171875
6862,78.125000
6863,78.125000
6864,78.125000
6865,78.125000
6866,80.078125
6867,80.078125
6868,80.078125
6869,80.078125
6870,82.031250
6871,82.031250
6872,80.078125
6873,82.031250
6874,82.031250
6875,82.031250
6876,82.031250
6877,83.984375
6878,83.984375
6879,83.984375
6880,83.984375
6881,83.984375
6882,83.984375
6883,83.984375
6884,83.984375
6885,85.937500
6886,83.984375
6887,83.984375
6888,85.937500
6889,85.937500
6890,85.937500
6891,85.937500
6892,85.937500
6893,85.937500
6894,85.937500
6895,85.937500
6896,85.937500
6897,85.937500
6898,85.937500
6899,85.937500
6900,85.937500
6901,85.937500
6902,85.937500
6903,85.937500
6904,85.937500
6905,85.937500
6906,85.937500
6907,85.937500
6908,85.937500
6909,85.937500
6910,85.937500
6911,85.937500
6912,85.937500
6913,85.937500
6914,85.937500
6915,83.984375
6916,85.937500
6917,85.937500
6918,83.984375
6919,83.984375
6920,83.984375
6921,83.984375
6922,83.984375
6923,83.984375
6924,82.031250
6925,83.984375
6926,82.031250
6927,82.031250
6928,82.031250
6929,82.031250
6930,82.031250
6931,80.078125
6932,80.078125
6933,80.078125
6934,80.078125
6935,80.078125
6936,80.078125
6937,78.125000
6938,78.125000
6939,78.125000
6940,78.125000
6941,76.171875
6942,76.171875
6943,76.171875
6944,76.171875
6945,76.171875
6946,74.218750
6947,72.265625
6948,74.218750
6949,72.265625
6950,72.265625
6951,72.265625
6952,70.312500
6953,70.312500
6954,70.312500
6955,70.312500
6956,68.359375
6957,68.359375
6958,68.359375
6959,66.406250
6960,66.406250
6961,66.406250
6962,66.406250
6963,64.453125
6964,64.453125
6965,62.500000
6966,62.500000
6967,62.500000
6968,60.546875
6969,60.546875
6970,58.593750
6971,58.593750
6972,58.593750
6973,58.593750
6974,56.640625
6975,54.687500
6976,56.640625
6977,54.687500
6978,54.687500
6979,52.734375
6980,52.734375
6981,50.781250
6982,50.781250
6983,50.781250
6984,48.828125
6985,48.828125
6986,46.875000
6987,46.875000
6988,44.921875
6989,44.921875
6990,44.921875
6991,42.968750
6992,42.968750
6993,41.015625
6994,41.015625
6995,39.062500
6996,39.062500
6997,39.062500
6998,37.109375
6999,35.156250
7000,35.156250
7001,35.156250
7002,33.203125
7003,33.203125
7004,31.250000
7005,31.250000
7006,29.296875
7007,29.296875
7008,27.343750
7009,27.343750
7010,25.390625
7011,25.390625
7012,23.437500
7013,23.437500
7014,21.484375
7015,21.484375
7016,21.484375
7017,19.531250
7018,19.531250
7019,17.578125
7020,17.578125
7021,15.625000
7022,15.625000
7023,13.671875
7024,11.718750
7025,11.718750
7026,11.718750
7027,9.765625
7028,9.765625
7029,7.812500
7030,7.812500
7031,7.812500
7032,5.859375
7033,3.906250
7034,3.906250
7035,1.953125
7036,0.000000
7037,0.000000
7038,0.000000
7039,-1.953125
7040,-1.953125
7041,-3.906250
7042,-3.906250
7043,-3.906250
7044,-5.859375
7045,-7.812500
7046,-7.812500
7047,-7.812500
7048,-9.765625
7049,-11.718750
7050,-11.718750
7051,-13.671875
7052,-13.671875
7053,-13.671875
7054,-15.625000
7055,-15.625000
7056,-17.578125
7057,-17.578125
7058,-19.531250
7059,-19.531250
7060,-21.484375
7061,-21.484375
7062,-23.437500
7063,-23.437500
7064,-25.390625
7065,-25.390625
7066,-27.343750
7067,-27.343750
7068,-29.296875
7069,-29.296875
7070,-29.296875
7071,-31.250000
7072,-33.203125
7073,-33.203125
7074,-35.156250
7075,-35.156250
7076,-35.156250
7077,-37.109375
7078,-39.062500
7079,-39.062500
7080,-39.062500
7081,-41.015625
7082,-41.015625
7083,-42.968750
7084,-42.968750
7085,-42.968750
7086,-44.921875
7087,-46.875000
7088,-46.875000
7089,-46.875000
7090,-48.828125
7091,-48.828125
7092,-48.828125
7093,-50.781250
7094,-50.781250
7095,-52.734375
7096,-52.734375
7097,-52.734375
7098,-54.687500
7099,-56.640625
7100,-56.640625
7101,-56.640625
7102,-58.593750
7103,-58.593750
7104,-60.546875
7105,-60.546875
7106,-60.546875
7107,-62.500000
7108,-62.500000
7109,-64.453125
7110,-64.453125
7111,-64.453125
7112,-66.406250
7113,-66.406250
7114,-68.359375
7115,-68.359375
7116,-68.359375
7117,-70.312500
7118,-70.312500
7119,-70.312500
7120,-72.265625
7121,-72.265625
7122,-72.265625
7123,-74.218750
7124,-74.218750
7125,-74.218750
7126,-76.171875
7127,-78.125000
7128,-76.171875
7129,-78.125000
7130,-78.125000
7131,-78.125000
7132,-80.078125
7133,-80.078125
7134,-82.031250
7135,-82.031250
7136,-82.031250
7137,-83.984375
7138,-83.984375
7139,-83.984375
7140,-83.984375
7141,-83.984375
7142,-85.937500
7143,-85.937500
7144,-85.937500
7145,-85.937500
7146,-87.890625
7147,-87.890625
7148,-87.890625
7149,-89.843750
7150,-89.843750
7151,-89.843750
7152,-89.843750
7153,-89.843750
7154,-91.796875
7155,-91.796875
7156,-91.796875
7157,-91.796875
7158,-91.796875
7159,-93.750000
7160,-93.750000
7161,-93.750000
7162,-93.750000
7163,-93.750000
7164,-93.750000
7165,-93.750000
7166,-93.750000
7167,-95.703125
7168,-95.703125
7169,-95.703125
7170,-95.703125
7171,-95.703125
7172,-95.703125
7173,-95.703125
7174,-97.656250
7175,-97.656250
7176,-95.703125
7177,-97.656250
7178,-97.656250
7179,-97.656250
7180,-97.656250
7181,-97.656250
7182,-97.656250
7183,-97.656250
7184,-97.656250
7185,-97.656250
7186,-97.656250
7187,-97.656250
7188,-99.609375
7189,-97.656250
7190,-99.609375
7191,-97.656250
7192,-99.609375
7193,-97.656250
7194,-99.609375
7195,-97.656250
7196,-97.656250
7197,-97.656250
7198,-97.656250
7199,-97.656250
7200,-97.656250
7201,-97.656250
7202,-97.656250
7203,-97.656250
7204,-97.656250
7205,-97.656250
7206,-97.656250
7207,-97.656250
7208,-97.656250
7209,-97.656250
7210,-97.656250
7211,-97.656250
7212,-95.703125
7213,-95.703125
7214,-95.703125
7215,-95.703125
7216,-95.703125
7217,-95.703125
7218,-95.703125
7219,-93.750000
7220,-93.750000
7221,-93.750000
7222,-93.750000
7223,-93.750000
7224,-93.750000
7225,-93.750000
7226,-91.796875
7227,-91.796875
7228,-91.796875
7229,-91.796875
7230,-89.843750
7231,-89.843750
7232,-89.843750
7233,-89.843750
7234,-87.890625
7235,-89.843750
7236,-89.843750
7237,-87.890625
7238,-87.890625
7239,-87.890625
7240,-87.890625
7241,-85.937500
7242,-85.937500
7243,-85.937500
7244,-83.984375
7245,-83.984375
7246,-83.984375
7247,-83.984375
7248,-83.984375
7249,-82.031250
7250,-82.031250
7251,-80.078125
7252,-80.078125
7253,-80.078125
7254,-80.078125
7255,-78.125000
7256,-78.125000
7257,-78.125000
7258,-78.125000
7259,-76.171875
7260,-76.171875
7261,-76.171875
7262,-76.171875
7263,-74.218750
7264,-74.218750
7265,-74.218750
7266,-72.265625
7267,-72.265625
7268,-70.312500
7269,-70.312500
7270,-70.312500
7271,-70.312500
7272,-68.359375
7273,-68.359375
7274,-66.406250
7275,-66.406250
7276,-66.406250
7277,-64.453125
7278,-64.453125
7279,-64.453125
7280,-62.500000
7281,-62.500000
7282,-60.546875
7283,-60.546875
7284,-60.546875
7285,-58.593750
7286,-58.593750
7287,-56.640625
7288,-56.640625
7289,-54.687500
7290,-54.687500
7291,-54.687500
7292,-52.734375
7293,-52.734375
7294,-50.781250
7295,-50.781250
7296,-50.781250
7297,-48.828125
7298,-48.828125
7299,-46.875000
7300,-46.875000
7301,-44.921875
7302,-44.921875
7303,-42.968750
7304,-42.968750
7305,-42.968750
7306,-41.015625
7307,-39.062500
7308,-39.062500
7309,-39.062500
7310,-37.109375
7311,-37.109375
7312,-35.156250
7313,-35.156250
7314,-33.203125
7315,-33.203125
7316,-33.203125
7317,-31.250000
7318,-31.250000
7319,-29.296875
7320,-29.296875
7321,-27.343750
7322,-27.343750
7323,-25.390625
7324,-25.390625
7325,-25.390625
7326,-23.437500
7327,-21.484375
7328,-21.484375
7329,-21.484375
7330,-19.531250
7331,-17.578125
7332,-17.578125
7333,-17.578125
7334,-15.625000
7335,-13.671875
7336,-13.671875
7337,-13.671875
7338,-11.718750
7339,-9.765625
7340,-9.765625
7341,-9.765625
7342,-7.812500
7343,-5.859375
7344,-5.859375
7345,-3.906250
7346,-1.953125
7347,-1.953125
7348,-1.953125
7349,0.000000
7350,0.000000
7351,1.953125
7352,1.953125
7353,3.906250
7354,3.906250
7355,5.859375
7356,5.859375
7357,7.812500
7358,7.812500
7359,9.765625
7360,9.765625
7361,11.718750
7362,13.671875
7363,13.671875
7364,13.671875
7365,15.625000
7366,17.578125
7367,17.578125
7368,17.578125
7369,19.531250
7370,19.531250
7371,21.484375
7372,21.484375
7373,23.437500
7374,23.437500
7375,25.390625
7376,25.390625
7377,27.343750
7378,27.343750
7379,29.296875
7380,29.296875
7381,31.250000
7382,31.250000
7383,33.203125
7384,33.203125
7385,35.156250
7386,35.156250
7387,37.109375
7388,37.109375
7389,37.109375
7390,39.062500
7391,39.062500
7392,41.015625
7393,41.015625
7394,42.968750
7395,42.968750
7396,44.921875
7397,44.921875
7398,44.921875
7399,46.875000
7400,46.875000
7401,48.828125
7402,48.828125
7403,50.781250
7404,50.781250
7405,50.781250
7406,52.734375
7407,52.734375
7408,54.687500
7409,54.687500
7410,56.640625
7411,56.640625
7412,56.640625
7413,58.593750
7414,58.593750
7415,58.593750
7416,60.546875
7417,60.546875
7418,62.500000
7419,62.500000
7420,62.500000
7421,64.453125
7422,64.453125
7423,64.453125
7424,66.406250
7425,66.406250
7426,68.359375
7427,68.359375
7428,68.359375
7429,70.312500
7430,70.312500
7431,70.312500
7432,72.265625
7433,72.265625
7434,72.265625
7435,72.265625
7436,74.218750
7437,74.218750
7438,74.218750
7439,74.218750
7440,76.171875
7441,76.171875
7442,76.171875
7443,78.125000
7444,78.125000
7445,78.125000
7446,78.125000
7447,78.125000
7448,80.078125
7449,80.078125
7450,80.078125
7451,80.078125
7452,80.078125
7453,80.078125
7454,82.031250
7455,82.031250
7456,82.031250
7457,83.984375
7458,82.031250
7459,82.031250
7460,83.984375
7461,83.984375
7462,83.984375
7463,83.984375
7464,83.984375
7465,83.984375
7466,83.984375
7467,85.937500
7468,85.937500
7469,85.937500
7470,85.937500
7471,85.937500
7472,85.937500
7473,85.937500
7474,85.937500
7475,85.937500
7476,87.890625
7477,85.937500
7478,85.937500
7479,87.890625
7480,87.890625
7481,85.937500
7482,87.890625
7483,87.890625
7484,87.890625
7485,85.937500
7486,85.937500
7487,85.937500
7488,87.890625
7489,87.890625
7490,85.937500
7491,85.937500
7492,87.890625
7493,85.937500
7494,85.937500
7495,85.937500
7496,85.937500
7497,85.937500
7498,85.937500
7499,85.937500
7500,85.937500
7501,85.937500
7502,85.937500
7503,83.984375
7504,83.984375
7505,83.984375
7506,83.984375
7507,83.984375
7508,83.984375
7509,83.984375
7510,83.984375
7511,82.031250
7512,82.031250
7513,82.031250
7514,82.031250
7515,82.031250
7516,82.031250
7517,82.031250
7518,80.078125
7519,80.078125
7520,80.078125
7521,78.125000
7522,78.125000
7523,78.125000
7524,78.125000
7525,76.171875
7526,76.171875
7527,76.171875
7528,76.171875
7529,74.218750
7530,74.218750
7531,72.265625
7532,74.218750
7533,72.265625
7534,72.265625
7535,72.265625
7536,70.312500
7537,70.312500
7538,70.312500
7539,68.359375
7540,68.359375
7541,68.359375
7542,66.406250
7543,66.406250
7544,66.406250
7545,64.453125
7546,64.453125
7547,64.453125
7548,62.500000
7549,62.500000
7550,62.500000
7551,60.546875
7552,60.546875
7553,60.546875
7554,60.546875
7555,58.593750
7556,58.593750
7557,56.640625
7558,56.640625
7559,54.687500
7560,54.687500
7561,52.734375
7562,52.734375
7563,52.734375
7564,50.781250
7565,50.781250
7566,50.781250
7567,48.828125
7568,48.828125
7569,46.875000
7570,46.875000
7571,44.921875
7572,44.921875
7573,42.968750
7574,42.968750
7575,42.968750
7576,41.015625
7577,41.015625
7578,41.015625
7579,39.062500
7580,37.109375
7581,37.109375
7582,35.156250
7583,35.156250
7584,35.156250
7585,33.203125
7586,33.203125
7587,31.250000
7588,31.250000
7589,29.296875
7590,29.296875
7591,27.343750
7592,27.343750
7593,25.390625
7594,25.390625
7595,23.437500
7596,23.437500
7597,23.437500
7598,21.484375
7599,19.531250
7600,19.531250
7601,17.578125
7602,17.578125
7603,17.578125
7604,15.625000
7605,13.671875
7606,13.671875
7607,13.671875
7608,11.718750
7609,11.718750
7610,9.765625
7611,9.765625
7612,7.812500
7613,5.859375
7614,5.859375
7615,3.906250
7616,3.906250
7617,3.906250
7618,1.953125
7619,1.953125
7620,0.000000
7621,0.000000
7622,-1.953125
7623,-1.953125
7624,-3.906250
7625,-3.906250
7626,-5.859375
7627,-5.859375
7628,-7.812500
7629,-7.812500
7630,-9.765625
7631,-9.765625
7632,-11.718750
7633,-11.718750
7634,-13.671875
7635,-13.671875
7636,-15.625000
7637,-15.625000
7638,-17.578125
7639,-17.578125
7640,-17.578125
7641,-19.531250
7642,-19.531250
7643,-21.484375
7644,-21.484375
7645,-23.437500
7646,-25.390625
7647,-25.390625
7648,-27.343750
7649,-27.343750
7650,-27.343750
7651,-29.296875
7652,-29.296875
7653,-31.250000
7654,-31.250000
7655,-33.203125
7656,-33.203125
7657,-35.156250
7658,-35.156250
7659,-37.109375
7660,-37.109375
7661,-39.062500
7662,-39.062500
7663,-41.015625
7664,-41.015625
7665,-42.968750
7666,-42.968750
7667,-42.968750
7668,-44.921875
7669,-44.921875
7670,-46.875000
7671,-46.875000
7672,-48.828125
7673,-48.828125
7674,-50.781250
7675,-50.781250
7676,-50.781250
7677,-52.734375
7678,-54.687500
7679,-54.687500
7680,-54.687500
7681,-54.687500
7682,-56.640625
7683,-56.640625
7684,-58.593750
7685,-58.593750
7686,-60.546875
7687,-60.546875
7688,-60.546875
7689,-62.500000
7690,-62.500000
7691,-64.453125
7692,-64.453125
7693,-64.453125
7694,-66.406250
7695,-66.406250
7696,-66.406250
7697,-68.359375
7698,-68.359375
7699,-70.312500
7700,-70.312500
7701,-72.265625
7702,-72.265625
7703,-72.265625
7704,-72.265625
7705,-74.218750
7706,-74.218750
7707,-76.171875
7708,-76.171875
7709,-76.171875
7710,-78.125000
7711,-78.125000
7712,-78.125000
7713,-80.078125
7714,-80.078125
7715,-80.078125
7716,-80.078125
7717,-82.031250
7718,-82.031250
7719,-83.984375
7720,-83.984375
7721,-83.984375
7722,-83.984375
7723,-85.937500
7724,-85.937500
7725,-85.937500
7726,-85.937500
7727,-87.890625
7728,-87.890625
7729,-87.890625
7730,-87.890625
7731,-89.843750
7732,-89.843750
7733,-89.843750
7734,-89.843750
7735,-89.843750
7736,-89.843750
7737,-91.796875
7738,-91.796875
7739,-91.796875
7740,-93.750000
7741,-91.796875
7742,-93.750000
7743,-93.750000
7744,-93.750000
7745,-93.750000
7746,-95.703125
7747,-93.750000
7748,-95.703125
7749,-95.703125
7750,-95.703125
7751,-95.703125
7752,-95.703125
7753,-97.656250
7754,-95.703125
7755,-95.703125
7756,-97.656250
7757,-97.656250
7758,-97.656250
7759,-97.656250
7760,-97.656250
7761,-97.656250
7762,-97.656250
7763,-97.656250
7764,-97.656250
7765,-97.656250
7766,-99.609375
7767,-99.609375
7768,-97.656250
7769,-97.656250
7770,-99.609375
7771,-99.609375
7772,-99.609375
7773,-99.609375
7774,-97.656250
7775,-99.609375
7776,-99.609375
7777,-99.609375
7778,-99.609375
7779,-97.656250
7780,-99.609375
7781,-99.609375
7782,-97.656250
7783,-97.656250
7784,-97.656250
7785,-99.609375
7786,-99.609375
7787,-97.656250
7788,-97.656250
7789,-97.656250
7790,-97.656250
7791,-97.656250
7792,-97.656250
7793,-97.656250
7794,-97.656250
7795,-97.656250
7796,-95.703125
7797,-95.703125
7798,-95.703125
7799,-95.703125
7800,-95.703125
7801,-95.703125
7802,-95.703125
7803,-93.750000
7804,-93.750000
7805,-91.796875
7806,-93.750000
7807,-93.750000
7808,-93.750000
7809,-91.796875
7810,-91.796875
7811,-91.796875
7812,-91.796875
7813,-91.796875
7814,-89.843750
7815,-89.843750
7816,-89.843750
7817,-89.843750
7818,-89.843750
7819,-89.843750
7820,-87.890625
7821,-87.890625
7822,-87.890625
7823,-87.890625
7824,-85.937500
7825,-85.937500
7826,-85.937500
7827,-85.937500
7828,-85.937500
7829,-83.984375
7830,-83.984375
7831,-83.984375
7832,-82.031250
7833,-82.031250
7834,-82.031250
7835,-82.031250
7836,-80.078125
7837,-80.078125
7838,-78.125000
7839,-78.125000
7840,-78.125000
7841,-78.125000
7842,-76.171875
7843,-76.171875
7844,-76.171875
7845,-74.218750
7846,-74.218750
7847,-74.218750
7848,-72.265625
7849,-72.265625
7850,-70.312500
7851,-70.312500
7852,-70.312500
7853,-70.312500
7854,-68.359375
7855,-68.359375
7856,-68.359375
7857,-66.406250
7858,-66.406250
7859,-64.453125
7860,-66.406250
7861,-62.500000
7862,-62.500000
7863,-62.500000
7864,-60.546875
7865,-60.546875
7866,-60.546875
7867,-60.546875
7868,-58.593750
7869,-56.640625
7870,-56.640625
7871,-54.687500
7872,-54.687500
7873,-54.687500
7874,-52.734375
7875,-52.734375
7876,-50.781250
7877,-50.781250
7878,-50.781250
7879,-50.781250
7880,-48.828125
7881,-46.875000
7882,-46.875000
7883,-46.875000
7884,-44.921875
7885,-44.921875
7886,-42.968750
7887,-42.968750
7888,-41.015625
7889,-41.015625
7890,-39.062500
7891,-39.062500
7892,-39.062500
7893,-37.109375
7894,-37.109375
7895,-35.156250
7896,-35.156250
7897,-33.203125
7898,-33.203125
7899,-31.250000
7900,-29.296875
7901,-29.296875
7902,-29.296875
7903,-27.343750
7904,-27.343750
7905,-25.390625
7906,-23.437500
7907,-25.390625
7908,-23.437500
7909,-21.484375
7910,-21.484375
7911,-21.484375
7912,-19.531250
7913,-17.578125
7914,-17.578125
7915,-15.625000
7916,-15.625000
7917,-15.625000
7918,-13.671875
7919,-13.671875
7920,-11.718750
7921,-11.718750
7922,-9.765625
7923,-7.812500
7924,-7.812500
7925,-5.859375
7926,-5.859375
7927,-3.906250
7928,-3.906250
7929,-1.953125
7930,-1.953125
7931,0.000000
7932,0.000000
7933,1.953125
7934,1.953125
7935,3.906250
7936,3.906250
7937,3.906250
7938,7.812500
7939,7.812500
7940,7.812500
7941,9.765625
7942,9.765625
7943,11.718750
7944,11.718750
7945,13.671875
7946,9.765625
7947,15.625000
7948,15.625000
7949,17.578125
7950,17.578125
7951,19.531250
7952,19.531250
7953,21.484375
7954,21.484375
7955,23.437500
7956,25.390625
7957,25.390625
7958,25.390625
7959,25.390625
7960,27.343750
7961,29.296875
7962,29.296875
7963,29.296875
7964,31.250000
7965,33.203125
7966,33.203125
7967,33.203125
7968,35.156250
7969,37.109375
7970,37.109375
7971,37.109375
7972,39.062500
7973,39.062500
7974,41.015625
7975,41.015625
7976,41.015625
7977,42.968750
7978,42.968750
7979,44.921875
7980,44.921875
7981,46.875000
7982,48.828125
7983,48.828125
7984,48.828125
7985,48.828125
7986,50.781250
7987,50.781250
7988,52.734375
7989,52.734375
7990,54.687500
7991,54.687500
7992,56.640625
7993,56.640625
7994,56.640625
7995,58.593750
7996,58.593750
7997,58.593750
7998,60.546875
7999,60.546875
8000,60.546875
8001,62.500000
8002,64.453125
8003,64.453125
8004,64.453125
8005,64.453125
8006,66.406250
8007,66.406250
8008,66.406250
8009,68.359375
8010,70.312500
8011,70.312500
8012,70.312500
8013,70.312500
8014,70.312500
8015,72.265625
8016,72.265625
8017,72.265625
8018,72.265625
8019,74.218750
8020,76.171875
8021,76.171875
8022,76.171875
8023,76.171875
8024,76.171875
8025,78.125000
8026,78.125000
8027,78.125000
8028,78.125000
8029,80.078125
8030,80.078125
8031,80.078125
8032,80.078125
8033,80.078125
8034,80.078125
8035,82.031250
8036,82.031250
8037,82.031250
8038,82.031250
8039,82.031250
8040,82.031250
8041,82.031250
8042,83.984375
8043,83.984375
8044,83.984375
8045,83.984375
8046,83.984375
8047,85.937500
8048,83.984375
8049,83.984375
8050,85.937500
8051,85.937500
8052,85.937500
8053,85.937500
8054,83.984375
8055,85.937500
8056,85.937500
8057,85.937500
8058,85.937500
8059,85.937500
8060,87.890625
8061,87.890625
8062,85.937500
8063,85.937500
8064,87.890625
8065,85.937500
8066,87.890625
8067,87.890625
8068,87.890625
8069,85.937500
8070,85.937500
8071,87.890625
8072,87.890625
8073,85.937500
8074,85.937500
8075,85.937500
8076,85.937500
8077,85.937500
8078,85.937500
8079,85.937500
8080,85.937500
8081,85.937500
8082,85.937500
8083,85.937500
8084,83.984375
8085,85.937500
8086,85.937500
8087,85.937500
8088,83.984375
8089,83.984375
8090,83.984375
8091,83.984375
8092,82.031250
8093,83.984375
8094,82.031250
8095,82.031250
8096,82.031250
8097,80.078125
8098,82.031250
8099,80.078125
8100,82.031250
8101,80.078125
8102,80.078125
8103,80.078125
8104,78.125000
8105,78.125000
8106,76.171875
8107,76.171875
8108,76.171875
8109,76.171875
8110,76.171875
8111,74.218750
8112,74.218750
8113,74.218750
8114,74.218750
8115,72.265625
8116,74.218750
8117,72.265625
8118,70.312500
8119,70.312500
8120,70.312500
8121,70.312500
8122,68.359375
8123,68.359375
8124,66.406250
8125,70.312500
8126,66.406250
8127,64.453125
8128,64.453125
8129,64.453125
8130,66.406250
8131,62.500000
8132,62.500000
8133,60.546875
8134,60.546875
8135,60.546875
8136,60.546875
8137,58.593750
8138,56.640625
8139,54.687500
8140,56.640625
8141,56.640625
8142,56.640625
8143,54.687500
8144,52.734375
8145,52.734375
8146,50.781250
8147,50.781250
8148,50.781250
8149,48.828125
8150,48.828125
8151,48.828125
8152,46.875000
8153,46.875000
8154,44.921875
8155,44.921875
8156,42.968750
8157,42.968750
8158,42.968750
8159,41.015625
8160,41.015625
8161,39.062500
8162,39.062500
8163,37.109375
8164,37.109375
8165,35.156250
8166,35.156250
8167,33.203125
8168,33.203125
8169,31.250000
8170,31.250000
8171,31.250000
8172,29.296875
8173,27.343750
8174,27.343750
8175,25.390625
8176,25.390625
8177,23.437500
8178,23.437500
8179,21.484375
8180,21.484375
8181,21.484375
8182,19.531250
8183,19.531250
8184,17.578125
8185,17.578125
8186,15.625000
8187,15.625000
8188,13.671875
8189,13.671875
8190,13.671875
8191,11.718750
8192,9.765625
8193,9.765625
8194,7.812500
8195,7.812500
8196,7.812500
8197,5.859375
8198,3.906250
8199,3.906250
8200,1.953125
8201,1.953125
8202,1.953125
8203,0.000000
8204,-1.953125
8205,-1.953125
8206,-1.953125
8207,-3.906250
8208,-5.859375
8209,-5.859375
8210,-5.859375
8211,-7.812500
8212,-9.765625
8213,-9.765625
8214,-11.718750
8215,-11.718750
8216,-13.671875
8217,-13.671875
8218,-13.671875
8219,-15.625000
8220,-15.625000
8221,-17.578125
8222,-19.531250
8223,-19.531250
8224,-19.531250
8225,-21.484375
8226,-21.484375
8227,-23.437500
8228,-23.437500
8229,-25.390625
8230,-25.390625
8231,-27.343750
8232,-27.343750
8233,-29.296875
8234,-29.296875
8235,-31.250000
8236,-31.250000
8237,-33.203125
8238,-33.203125
8239,-33.203125
8240,-35.156250
8241,-37.109375
8242,-37.109375
8243,-39.062500
8244,-39.062500
8245,-41.015625
8246,-41.015625
8247,-41.015625
8248,-42.968750
8249,-42.968750
8250,-44.921875
8251,-44.921875
8252,-44.921875
8253,-46.875000
8254,-46.875000
8255,-48.828125
8256,-50.781250
8257,-50.781250
8258,-50.781250
8259,-52.734375
8260,-52.734375
8261,-52.734375
8262,-54.687500
8263,-54.687500
8264,-54.687500
8265,-56.640625
8266,-56.640625
8267,-58.593750
8268,-58.593750
8269,-58.593750
8270,-60.546875
8271,-62.500000
8272,-62.500000
8273,-62.500000
8274,-62.500000
8275,-64.453125
8276,-64.453125
8277,-66.406250
8278,-66.406250
8279,-68.359375
8280,-68.359375
8281,-68.359375
8282,-70.312500
8283,-70.312500
8284,-72.265625
8285,-72.265625
8286,-72.265625
8287,-72.265625
8288,-74.218750
8289,-74.218750
8290,-76.171875
8291,-76.171875
8292,-76.171875
8293,-78.125000
8294,-78.125000
8295,-78.125000
8296,-80.078125
8297,-80.078125
8298,-82.031250
8299,-82.031250
8300,-82.031250
8301,-82.031250
8302,-83.984375
8303,-83.984375
8304,-83.984375
8305,-85.937500
8306,-85.937500
8307,-85.937500
8308,-85.937500
8309,-87.890625
8310,-87.890625
8311,-87.890625
8312,-87.890625
8313,-89.843750
8314,-89.843750
8315,-89.843750
8316,-89.843750
8317,-89.843750
8318,-91.796875
8319,-91.796875
8320,-91.796875
8321,-91.796875
8322,-91.796875
8323,-93.750000
8324,-93.750000
8325,-93.750000
8326,-93.750000
8327,-93.750000
8328,-93.750000
8329,-95.703125
8330,-95.703125
8331,-95.703125
8332,-95.703125
8333,-97.656250
8334,-95.703125
8335,-95.703125
8336,-97.656250
8337,-97.656250
8338,-95.703125
8339,-97.656250
8340,-97.656250
8341,-97.656250
8342,-97.656250
8343,-97.656250
8344,-97.656250
8345,-97.656250
8346,-99.609375
8347,-97.656250
8348,-97.656250
8349,-97.656250
8350,-97.656250
8351,-99.609375
8352,-99.609375
8353,-99.609375
8354,-99.609375
8355,-99.609375
8356,-99.609375
8357,-99.609375
8358,-99.609375
8359,-99.609375
8360,-99.609375
8361,-99.609375
8362,-97.656250
8363,-99.609375
8364,-97.656250
8365,-99.609375
8366,-97.656250
8367,-99.609375
8368,-97.656250
8369,-97.656250
8370,-97.656250
8371,-97.656250
8372,-97.656250
8373,-97.656250
8374,-97.656250
8375,-97.656250
8376,-97.656250
8377,-97.656250
8378,-95.703125
8379,-97.656250
8380,-95.703125
8381,-95.703125
8382,-95.703125
8383,-95.703125
8384,-95.703125
8385,-95.703125
8386,-93.750000
8387,-93.750000
8388,-93.750000
8389,-93.750000
8390,-93.750000
8391,-93.750000
8392,-91.796875
8393,-91.796875
8394,-91.796875
8395,-91.796875
8396,-91.796875
8397,-89.843750
8398,-89.843750
8399,-89.843750
8400,-89.843750
8401,-87.890625
8402,-87.890625
8403,-87.890625
8404,-87.890625
8405,-87.890625
8406,-85.937500
8407,-85.937500
8408,-85.937500
8409,-85.937500
8410,-83.984375
8411,-83.984375
8412,-83.984375
8413,-83.984375
8414,-82.031250
8415,-82.031250
8416,-82.031250
8417,-80.078125
8418,-80.078125
8419,-80.078125
8420,-80.078125
8421,-78.125000
8422,-78.125000
8423,-78.125000
8424,-76.171875
8425,-76.171875
8426,-76.171875
8427,-76.171875
8428,-74.218750
8429,-74.218750
8430,-74.218750
8431,-72.265625
8432,-72.265625
8433,-72.265625
8434,-70.312500
8435,-70.312500
8436,-68.359375
8437,-68.359375
8438,-68.359375
8439,-66.406250
8440,-66.406250
8441,-66.406250
8442,-64.453125
8443,-64.453125
8444,-62.500000
8445,-62.500000
8446,-62.500000
8447,-60.546875
8448,-60.546875
8449,-58.593750
8450,-58.593750
8451,-56.640625
8452,-56.640625
8453,-56.640625
8454,-54.687500
8455,-54.687500
8456,-52.734375
8457,-52.734375
8458,-52.734375
8459,-50.781250
8460,-50.781250
8461,-48.828125
8462,-48.828125
8463,-46.875000
8464,-46.875000
8465,-44.921875
8466,-44.921875
8467,-44.921875
8468,-42.968750
8469,-42.968750
8470,-41.015625
8471,-41.015625
8472,-41.015625
8473,-39.062500
8474,-39.062500
8475,-37.109375
8476,-37.109375
8477,-35.156250
8478,-35.156250
8479,-33.203125
8480,-33.203125
8481,-31.250000
8482,-31.250000
8483,-31.250000
8484,-29.296875
8485,-29.296875
8486,-27.343750
8487,-25.390625
8488,-25.390625
8489,-23.437500
8490,-23.437500
8491,-23.437500
8492,-23.437500
8493,-21.484375
8494,-19.531250
8495,-19.531250
8496,-17.578125
8497,-17.578125
8498,-15.625000
8499,-15.625000
8500,-13.671875
8501,-13.671875
8502,-11.718750
8503,-11.718750
8504,-9.765625
8505,-9.765625
8506,-9.765625
8507,-7.812500
8508,-5.859375
8509,-5.859375
8510,-3.906250
8511,-1.953125
8512,-1.953125
8513,-1.953125
8514,1.953125
8515,0.000000
8516,1.953125
8517,1.953125
8518,3.906250
8519,3.906250
8520,5.859375
8521,7.812500
8522,7.812500
8523,7.812500
8524,9.765625
8525,9.765625
8526,11.718750
8527,13.671875
8528,13.671875
8529,13.671875
8530,15.625000
8531,17.578125
8532,17.578125
8533,19.531250
8534,19.531250
8535,21.484375
8536,21.484375
8537,23.437500
8538,23.437500
8539,23.437500
8540,25.390625
8541,27.343750
8542,27.343750
8543,27.343750
8544,29.296875
8545,29.296875
8546,31.250000
8547,33.203125
8548,33.203125
8549,33.203125
8550,35.156250
8551,35.156250
8552,37.109375
8553,37.109375
8554,37.109375
8555,39.062500
8556,41.015625
8557,41.015625
8558,41.015625
8559,42.968750
8560,42.968750
8561,44.921875
8562,44.921875
8563,46.875000
8564,46.875000
8565,46.875000
8566,46.875000
8567,48.828125
8568,50.781250
8569,50.781250
8570,50.781250
8571,52.734375
8572,54.687500
8573,54.687500
8574,54.687500
8575,54.687500
8576,56.640625
8577,56.640625
8578,58.593750
8579,58.593750
8580,58.593750
8581,60.546875
8582,60.546875
8583,62.500000
8584,62.500000
8585,64.453125
8586,64.453125
8587,64.453125
8588,66.406250
8589,66.406250
8590,66.406250
8591,68.359375
8592,68.359375
8593,68.359375
8594,70.312500
8595,70.312500
8596,70.312500
8597,72.265625
8598,72.265625
8599,72.265625
8600,74.218750
8601,74.218750
8602,74.218750
8603,74.218750
8604,74.218750
8605,76.171875
8606,76.171875
8607,76.171875
8608,78.125000
8609,78.125000
8610,78.125000
8611,78.125000
8612,80.078125
8613,80.078125
8614,80.078125
8615,80.078125
8616,80.078125
8617,80.078125
8618,80.078125
8619,82.031250
8620,82.031250
8621,82.031250
8622,82.031250
8623,83.984375
8624,83.984375
8625,83.984375
8626,83.984375
8627,83.984375
8628,83.984375
8629,83.984375
8630,85.937500
8631,85.937500
8632,83.984375
8633,83.984375
8634,85.937500
8635,85.937500
8636,85.937500
8637,85.937500
8638,85.937500
8639,85.937500
8640,85.937500
8641,87.890625
8642,85.937500
8643,87.890625
8644,85.937500
8645,85.937500
8646,87.890625
8647,85.937500
8648,87.890625
8649,87.890625
8650,85.937500
8651,87.890625
8652,85.937500
8653,85.937500
8654,87.890625
8655,85.937500
8656,87.890625
8657,85.937500
8658,85.937500
8659,85.937500
8660,85.937500
8661,85.937500
8662,85.937500
8663,85.937500
8664,85.937500
8665,85.937500
8666,85.937500
8667,85.937500
8668,83.984375
8669,83.984375
8670,83.984375
8671,83.984375
8672,83.984375
8673,83.984375
8674,83.984375
8675,83.984375
8676,82.031250
8677,82.031250
8678,82.031250
8679,82.031250
8680,80.078125
8681,80.078125
8682,80.078125
8683,80.078125
8684,80.078125
8685,78.125000
8686,78.125000
8687,78.125000
8688,78.125000
8689,76.171875
8690,78.125000
8691,76.171875
8692,76.171875
8693,74.218750
8694,74.218750
8695,74.218750
8696,74.218750
8697,72.265625
8698,72.265625
8699,72.265625
8700,70.312500
8701,70.312500
8702,70.312500
8703,70.312500
8704,68.359375
8705,68.359375
8706,68.359375
8707,66.406250
8708,66.406250
8709,66.406250
8710,66.406250
8711,64.453125
8712,64.453125
8713,62.500000
8714,62.500000
8715,62.500000
8716,60.546875
8717,60.546875
8718,60.546875
8719,58.593750
8720,58.593750
8721,58.593750
8722,56.640625
8723,56.640625
8724,54.687500
8725,54.687500
8726,54.687500
8727,52.734375
8728,52.734375
8729,50.781250
8730,50.781250
8731,50.781250
8732,48.828125
8733,48.828125
8734,46.875000
8735,46.875000
8736,44.921875
8737,44.921875
8738,42.968750
8739,42.968750
8740,42.968750
8741,41.015625
8742,41.015625
8743,39.062500
8744,39.062500
8745,37.109375
8746,37.109375
8747,35.156250
8748,35.156250
8749,33.203125
8750,33.203125
8751,31.250000
8752,31.250000
8753,31.250000
8754,29.296875
8755,29.296875
8756,27.343750
8757,25.390625
8758,25.390625
8759,25.390625
8760,23.437500
8761,23.437500
8762,21.484375
8763,19.531250
8764,19.531250
8765,19.531250
8766,19.531250
8767,17.578125
8768,15.625000
8769,15.625000
8770,13.671875
8771,13.671875
8772,13.671875
8773,11.718750
8774,11.718750
8775,9.765625
8776,7.812500
8777,7.812500
8778,5.859375
8779,5.859375
8780,5.859375
8781,3.906250
8782,1.953125
8783,1.953125
8784,1.953125
8785,0.000000
8786,0.000000
8787,-1.953125
8788,-1.953125
8789,-3.906250
8790,-3.906250
8791,-5.859375
8792,-5.859375
8793,-7.812500
8794,-7.812500
8795,-7.812500
8796,-9.765625
8797,-11.718750
8798,-11.718750
8799,-13.671875
8800,-13.671875
8801,-13.671875
8802,-15.625000
8803,-17.578125
8804,-17.578125
8805,-19.531250
8806,-19.531250
8807,-21.484375
8808,-21.484375
8809,-23.437500
8810,-23.437500
8811,-25.390625
8812,-25.390625
8813,-27.343750
8814,-27.343750
8815,-27.343750
8816,-29.296875
8817,-31.250000
8818,-31.250000
8819,-33.203125
8820,-33.203125
8821,-33.203125
8822,-35.156250
8823,-35.156250
8824,-37.109375
8825,-37.109375
8826,-39.062500
8827,-39.062500
8828,-41.015625
8829,-41.015625
8830,-42.968750
8831,-42.968750
8832,-42.968750
8833,-44.921875
8834,-44.921875
8835,-46.875000
8836,-46.875000
8837,-48.828125
8838,-48.828125
8839,-50.781250
8840,-50.781250
8841,-50.781250
8842,-52.734375
8843,-52.734375
8844,-54.687500
8845,-54.687500
8846,-54.687500
8847,-56.640625
8848,-56.640625
8849,-58.593750
8850,-58.593750
8851,-60.546875
8852,-60.546875
8853,-60.546875
8854,-62.500000
8855,-62.500000
8856,-62.500000
8857,-64.453125
8858,-64.453125
8859,-66.406250
8860,-66.406250
8861,-66.406250
8862,-68.359375
8863,-68.359375
8864,-68.359375
8865,-70.312500
8866,-72.265625
8867,-72.265625
8868,-72.265625
8869,-72.265625
8870,-74.218750
8871,-74.218750
8872,-74.218750
8873,-76.171875
8874,-76.171875
8875,-78.125000
8876,-78.125000
8877,-78.125000
8878,-78.125000
8879,-80.078125
8880,-80.078125
8881,-80.078125
8882,-82.031250
8883,-82.031250
8884,-83.984375
8885,-83.984375
8886,-83.984375
8887,-83.984375
8888,-83.984375
8889,-85.937500
8890,-85.937500
8891,-87.890625
8892,-87.890625
8893,-87.890625
8894,-87.890625
8895,-87.890625
8896,-89.843750
8897,-89.843750
8898,-89.843750
8899,-89.843750
8900,-91.796875
8901,-91.796875
8902,-91.796875
8903,-91.796875
8904,-91.796875
8905,-91.796875
8906,-93.750000
8907,-93.750000
8908,-93.750000
8909,-93.750000
8910,-93.750000
8911,-95.703125
8912,-95.703125
8913,-95.703125
8914,-95.703125
8915,-95.703125
8916,-95.703125
8917,-95.703125
8918,-95.703125
8919,-95.703125
8920,-97.656250
8921,-97.656250
8922,-97.656250
8923,-97.656250
8924,-97.656250
8925,-97.656250
8926,-97.656250
8927,-97.656250
8928,-97.656250
8929,-97.656250
8930,-97.656250
8931,-97.656250
8932,-99.609375
8933,-99.609375
8934,-99.609375
8935,-99.609375
8936,-99.609375
8937,-99.609375
8938,-99.609375
8939,-99.609375
8940,-99.609375
8941,-101.562500
8942,-99.609375
8943,-99.609375
8944,-99.609375
8945,-99.609375
8946,-97.656250
8947,-99.609375
8948,-99.609375
8949,-99.609375
8950,-99.609375
8951,-97.656250
8952,-97.656250
8953,-97.656250
8954,-97.656250
8955,-99.609375
8956,-97.656250
8957,-97.656250
8958,-97.656250
8959,-97.656250
8960,-97.656250
8961,-97.656250
8962,-95.703125
8963,-95.703125
8964,-95.703125
8965,-95.703125
8966,-95.703125
8967,-95.703125
8968,-95.703125
8969,-93.750000
8970,-93.750000
8971,-93.750000
8972,-93.750000
8973,-91.796875
8974,-91.796875
8975,-91.796875
8976,-91.796875
8977,-91.796875
8978,-91.796875
8979,-89.843750
8980,-89.843750
8981,-89.843750
8982,-89.843750
8983,-87.890625
8984,-87.890625
8985,-87.890625
8986,-87.890625
8987,-87.890625
8988,-85.937500
8989,-85.937500
8990,-85.937500
8991,-83.984375
8992,-83.984375
8993,-83.984375
8994,-83.984375
8995,-83.984375
8996,-82.031250
8997,-82.031250
8998,-80.078125
8999,-80.078125
9000,-80.078125
9001,-80.078125
9002,-80.078125
9003,-78.125000
9004,-78.125000
9005,-78.125000
9006,-76.171875
9007,-76.171875
9008,-76.171875
9009,-76.171875
9010,-74.218750
9011,-74.218750
9012,-74.218750
9013,-72.265625
9014,-72.265625
9015,-72.265625
9016,-70.312500
9017,-70.312500
9018,-70.312500
9019,-68.359375
9020,-68.359375
9021,-66.406250
9022,-66.406250
9023,-66.406250
9024,-66.406250
9025,-64.453125
9026,-64.453125
9027,-62.500000
9028,-62.500000
9029,-60.546875
9030,-60.546875
9031,-60.546875
9032,-58.593750
9033,-58.593750
9034,-56.640625
9035,-56.640625
9036,-56.640625
9037,-54.687500
9038,-54.687500
9039,-52.734375
9040,-52.734375
9041,-50.781250
9042,-50.781250
9043,-50.781250
9044,-48.828125
9045,-48.828125
9046,-46.875000
9047,-46.875000
9048,-44.921875
9049,-44.921875
9050,-42.968750
9051,-42.968750
9052,-42.968750
9053,-41.015625
9054,-39.062500
9055,-39.062500
9056,-39.062500
9057,-37.109375
9058,-37.109375
9059,-37.109375
9060,-35.156250
9061,-35.156250
9062,-33.203125
9063,-33.203125
9064,-31.250000
9065,-31.250000
9066,-29.296875
9067,-29.296875
9068,-27.343750
9069,-27.343750
9070,-25.390625
9071,-25.390625
9072,-23.437500
9073,-23.437500
9074,-21.484375
9075,-21.484375
9076,-21.484375
9077,-19.531250
9078,-17.578125
9079,-17.578125
9080,-15.625000
9081,-15.625000
9082,-15.625000
9083,-13.671875
9084,-13.671875
9085,-11.718750
9086,-9.765625
9087,-9.765625
9088,-7.812500
9089,-7.812500
9090,-5.859375
9091,-5.859375
9092,-5.859375
9093,-3.906250
9094,-1.953125
9095,-1.953125
9096,0.000000
9097,0.000000
9098,1.953125
9099,1.953125
9100,3.906250
9101,3.906250
9102,5.859375
9103,5.859375
9104,7.812500
9105,7.812500
9106,7.812500
9107,9.765625
9108,9.765625
9109,11.718750
9110,13.671875
9111,13.671875
9112,15.625000
9113,15.625000
9114,17.578125
9115,19.531250
9116,19.531250
9117,19.531250
9118,21.484375
9119,21.484375
9120,23.437500
9121,23.437500
9122,25.390625
9123,25.390625
9124,27.343750
9125,27.343750
9126,29.296875
9127,29.296875
9128,29.296875
9129,31.250000
9130,31.250000
9131,33.203125
9132,33.203125
9133,35.156250
9134,35.156250
9135,37.109375
9136,37.109375
9137,39.062500
9138,39.062500
9139,39.062500
9140,41.015625
9141,41.015625
9142,42.968750
9143,42.968750
9144,44.921875
9145,44.921875
9146,46.875000
9147,46.875000
9148,48.828125
9149,48.828125
9150,48.828125
9151,50.781250
9152,50.781250
9153,50.781250
9154,52.734375
9155,54.687500
9156,54.687500
9157,56.640625
9158,54.687500
9159,56.640625
9160,56.640625
9161,58.593750
9162,58.593750
9163,60.546875
9164,60.546875
9165,60.546875
9166,62.500000
9167,62.500000
9168,64.453125
9169,64.453125
9170,64.453125
9171,66.406250
9172,66.406250
9173,66.406250
9174,68.359375
9175,68.359375
9176,68.359375
9177,68.359375
9178,70.312500
9179,70.312500
9180,72.265625
9181,72.265625
9182,72.265625
9183,74.218750
9184,74.218750
9185,74.218750
9186,74.218750
9187,74.218750
9188,76.171875
9189,76.171875
9190,76.171875
9191,78.125000
9192,78.125000
9193,78.125000
9194,78.125000
9195,78.125000
9196,80.078125
9197,80.078125
9198,80.078125
9199,80.078125
9200,80.078125
9201,82.031250
9202,82.031250
9203,82.031250
9204,82.031250
9205,82.031250
9206,82.031250
9207,83.984375
9208,83.984375
9209,83.984375
9210,83.984375
9211,83.984375
9212,83.984375
9213,83.984375
9214,83.984375
9215,83.984375
9216,85.937500
9217,85.937500
9218,85.937500
9219,85.937500
9220,85.937500
9221,85.937500
9222,85.937500
9223,85.937500
9224,85.937500
9225,85.937500
9226,85.937500
9227,85.937500
9228,85.937500
9229,85.937500
9230,85.937500
9231,85.937500
9232,85.937500
9233,85.937500
9234,85.937500
9235,85.937500
9236,85.937500
9237,85.937500
9238,85.937500
9239,85.937500
9240,85.937500
9241,85.937500
9242,85.937500
9243,85.937500
9244,85.937500
9245,85.937500
9246,85.937500
9247,85.937500
9248,85.937500
9249,85.937500
9250,83.984375
9251,83.984375
9252,83.984375
9253,83.984375
9254,83.984375
9255,82.031250
9256,82.031250
9257,82.031250
9258,82.031250
9259,82.031250
9260,82.031250
9261,82.031250
9262,82.031250
9263,80.078125
9264,80.078125
9265,80.078125
9266,78.125000
9267,78.125000
9268,78.125000
9269,78.125000
9270,78.125000
9271,76.171875
9272,76.171875
9273,76.171875
9274,76.171875
9275,76.171875
9276,74.218750
9277,74.218750
9278,74.218750
9279,72.265625
9280,72.265625
9281,72.265625
9282,70.312500
9283,70.312500
9284,70.312500
9285,68.359375
9286,70.312500
9287,68.359375
9288,68.359375
9289,66.406250
9290,66.406250
9291,66.406250
9292,66.406250
9293,64.453125
9294,64.453125
9295,62.500000
9296,62.500000
9297,62.500000
9298,62.500000
9299,60.546875
9300,60.546875
9301,60.546875
9302,58.593750
9303,56.640625
9304,56.640625
9305,56.640625
9306,54.687500
9307,54.687500
9308,54.687500
9309,52.734375
9310,52.734375
9311,52.734375
9312,50.781250
9313,48.828125
9314,48.828125
9315,46.875000
9316,46.875000
9317,46.875000
9318,44.921875
9319,44.921875
9320,44.921875
9321,42.968750
9322,42.968750
9323,41.015625
9324,41.015625
9325,39.062500
9326,39.062500
9327,37.109375
9328,37.109375
9329,37.109375
9330,35.156250
9331,35.156250
9332,33.203125
9333,33.203125
9334,31.250000
9335,29.296875
9336,29.296875
9337,29.296875
9338,27.343750
9339,27.343750
9340,25.390625
9341,25.390625
9342,25.390625
9343,23.437500
9344,21.484375
9345,21.484375
9346,19.531250
9347,19.531250
9348,17.578125
9349,17.578125
9350,17.578125
9351,15.625000
9352,15.625000
9353,13.671875
9354,11.718750
9355,11.718750
9356,11.718750
9357,9.765625
9358,9.765625
9359,7.812500
9360,7.812500
9361,5.859375
9362,5.859375
9363,5.859375
9364,3.906250
9365,1.953125
9366,1.953125
9367,0.000000
9368,0.000000
9369,-1.953125
9370,-1.953125
9371,-3.906250
9372,-3.906250
9373,-3.906250
9374,-5.859375
9375,-7.812500
9376,-7.812500
9377,-9.765625
9378,-9.765625
9379,-9.765625
9380,-11.718750
9381,-13.671875
9382,-13.671875
9383,-15.625000
9384,-15.625000
9385,-15.625000
9386,-17.578125
9387,-19.531250
9388,-19.531250
9389,-19.531250
9390,-21.484375
9391,-21.484375
9392,-23.437500
9393,-23.437500
9394,-25.390625
9395,-25.390625
9396,-27.343750
9397,-27.343750
9398,-29.296875
9399,-31.250000
9400,-31.250000
9401,-31.250000
9402,-33.203125
9403,-33.203125
9404,-35.156250
9405,-35.156250
9406,-35.156250
9407,-37.109375
9408,-37.109375
9409,-39.062500
9410,-41.015625
9411,-41.015625
9412,-41.015625
9413,-42.968750
9414,-42.968750
9415,-44.921875
9416,-44.921875
9417,-44.921875
9418,-46.875000
9419,-48.828125
9420,-48.828125
9421,-48.828125
9422,-50.781250
9423,-50.781250
9424,-52.734375
9425,-52.734375
9426,-52.734375
9427,-54.687500
9428,-54.687500
9429,-56.640625
9430,-56.640625
9431,-56.640625
9432,-58.593750
9433,-58.593750
9434,-60.546875
9435,-60.546875
9436,-60.546875
9437,-62.500000
9438,-62.500000
9439,-64.453125
9440,-64.453125
9441,-64.453125
9442,-66.406250
9443,-66.406250
9444,-68.359375
9445,-68.359375
9446,-68.359375
9447,-68.359375
9448,-70.312500
9449,-72.265625
9450,-72.265625
9451,-72.265625
9452,-72.265625
9453,-74.218750
9454,-74.218750
9455,-76.171875
9456,-76.171875
9457,-76.171875
9458,-76.171875
9459,-78.125000
9460,-78.125000
9461,-80.078125
9462,-80.078125
9463,-80.078125
9464,-82.031250
9465,-82.031250
9466,-82.031250
9467,-82.031250
9468,-83.984375
9469,-83.984375
9470,-83.984375
9471,-85.937500
9472,-83.984375
9473,-85.937500
9474,-85.937500
9475,-85.937500
9476,-87.890625
9477,-87.890625
9478,-87.890625
9479,-89.843750
9480,-89.843750
9481,-89.843750
9482,-91.796875
9483,-91.796875
9484,-91.796875
9485,-91.796875
9486,-91.796875
9487,-91.796875
9488,-93.750000
9489,-93.750000
9490,-91.796875
9491,-93.750000
9492,-93.750000
9493,-93.750000
9494,-93.750000
9495,-93.750000
9496,-95.703125
9497,-95.703125
9498,-95.703125
9499,-95.703125
9500,-95.703125
9501,-97.656250
9502,-95.703125
9503,-95.703125
9504,-97.656250
9505,-97.656250
9506,-97.656250
9507,-97.656250
9508,-97.656250
9509,-97.656250
9510,-97.656250
9511,-97.656250
9512,-97.656250
9513,-97.656250
9514,-97.656250
9515,-97.656250
9516,-97.656250
9517,-99.609375
9518,-97.656250
9519,-99.609375
9520,-97.656250
9521,-97.656250
9522,-99.609375
9523,-99.609375
9524,-97.656250
9525,-97.656250
9526,-97.656250
9527,-99.609375
9528,-97.656250
9529,-97.656250
9530,-97.656250
9531,-97.656250
9532,-99.609375
9533,-97.656250
9534,-97.656250
9535,-97.656250
9536,-97.656250
9537,-97.656250
9538,-97.656250
9539,-95.703125
9540,-97.656250
9541,-97.656250
9542,-95.703125
9543,-95.703125
9544,-95.703125
9545,-95.703125
9546,-95.703125
9547,-95.703125
9548,-95.703125
9549,-93.750000
9550,-93.750000
9551,-93.750000
9552,-93.750000
9553,-93.750000
9554,-93.750000
9555,-91.796875
9556,-93.750000
9557,-91.796875
9558,-91.796875
9559,-91.796875
9560,-89.843750
9561,-91.796875
9562,-89.843750
9563,-89.843750
9564,-87.890625
9565,-89.843750
9566,-87.890625
9567,-87.890625
9568,-87.890625
9569,-85.937500
9570,-87.890625
9571,-85.937500
9572,-85.937500
9573,-85.937500
9574,-83.984375
9575,-83.984375
9576,-83.984375
9577,-82.031250
9578,-82.031250
9579,-82.031250
9580,-82.031250
9581,-82.031250
9582,-80.078125
9583,-80.078125
9584,-80.078125
9585,-80.078125
9586,-78.125000
9587,-78.125000
9588,-78.125000
9589,-76.171875
9590,-76.171875
9591,-76.171875
9592,-76.171875
9593,-74.218750
9594,-74.218750
9595,-74.218750
9596,-72.265625
9597,-72.265625
9598,-70.312500
9599,-70.312500
9600,-70.312500
9601,-70.312500
9602,-68.359375
9603,-68.359375
9604,-66.406250
9605,-66.406250
9606,-66.406250
9607,-64.453125
9608,-64.453125
9609,-64.453125
9610,-62.500000
9611,-62.500000
9612,-60.546875
9613,-60.546875
9614,-60.546875
9615,-58.593750
9616,-58.593750
9617,-56.640625
9618,-56.640625
9619,-56.640625
9620,-54.687500
9621,-54.687500
9622,-54.687500
9623,-52.734375
9624,-52.734375
9625,-50.781250
9626,-48.828125
9627,-48.828125
9628,-48.828125
9629,-46.875000
9630,-46.875000
9631,-44.921875
9632,-44.921875
9633,-44.921875
9634,-42.968750
9635,-42.968750
9636,-42.968750
9637,-41.015625
9638,-39.062500
9639,-37.109375
9640,-37.109375
9641,-37.109375
9642,-35.156250
9643,-35.156250
9644,-33.203125
9645,-33.203125
9646,-33.203125
9647,-31.250000
9648,-31.250000
9649,-29.296875
9650,-29.296875
9651,-27.343750
9652,-25.390625
9653,-25.390625
9654,-25.390625
9655,-25.390625
9656,-23.437500
9657,-21.484375
9658,-21.484375
9659,-21.484375
9660,-19.531250
9661,-17.578125
9662,-17.578125
9663,-17.578125
9664,-15.625000
9665,-15.625000
9666,-13.671875
9667,-13.671875
9668,-11.718750
9669,-9.765625
9670,-9.765625
9671,-9.765625
9672,-7.812500
9673,-5.859375
9674,-5.859375
9675,-5.859375
9676,-3.906250
9677,-1.953125
9678,-1.953125
9679,0.000000
9680,0.000000
9681,1.953125
9682,1.953125
9683,3.906250
9684,3.906250
9685,3.906250
9686,5.859375
9687,5.859375
9688,7.812500
9689,9.765625
9690,11.718750
9691,11.718750
9692,11.718750
9693,13.671875
9694,13.671875
9695,15.625000
9696,15.625000
9697,15.625000
9698,17.578125
9699,19.531250
9700,19.531250
9701,19.531250
9702,21.484375
9703,23.437500
9704,23.437500
9705,23.437500
9706,25.390625
9707,27.343750
9708,27.343750
9709,27.343750
9710,29.296875
9711,31.250000
9712,31.250000
9713,31.250000
9714,33.203125
9715,35.156250
9716,35.156250
9717,35.156250
9718,37.109375
9719,37.109375
9720,39.062500
9721,39.062500
9722,39.062500
9723,41.015625
9724,41.015625
9725,42.968750
9726,42.968750
9727,44.921875
9728,44.921875
9729,44.921875
9730,46.875000
9731,46.875000
9732,48.828125
9733,48.828125
9734,48.828125
9735,50.781250
9736,50.781250
9737,52.734375
9738,52.734375
9739,54.687500
9740,54.687500
9741,56.640625
9742,56.640625
9743,58.593750
9744,58.593750
9745,58.593750
9746,60.546875
9747,60.546875
9748,60.546875
9749,62.500000
9750,62.500000
9751,62.500000
9752,64.453125
9753,64.453125
9754,66.406250
9755,66.406250
9756,66.406250
9757,68.359375
9758,68.359375
9759,68.359375
9760,70.312500
9761,70.312500
9762,70.312500
9763,72.265625
9764,72.265625
9765,72.265625
9766,74.218750
9767,74.218750
9768,74.218750
9769,74.218750
9770,74.218750
9771,76.171875
9772,76.171875
9773,76.171875
9774,76.171875
9775,78.125000
9776,78.125000
9777,78.125000
9778,78.125000
9779,78.125000
9780,80.078125
9781,80.078125
9782,80.078125
9783,80.078125
9784,80.078125
9785,82.031250
9786,82.031250
9787,82.031250
9788,82.031250
9789,82.031250
9790,82.031250
9791,83.984375
9792,83.984375
9793,83.984375
9794,83.984375
9795,83.984375
9796,83.984375
9797,83.984375
9798,83.984375
9799,83.984375
9800,83.984375
9801,85.937500
9802,85.937500
9803,85.937500
9804,85.937500
9805,85.937500
9806,85.937500
9807,85.937500
9808,85.937500
9809,85.937500
9810,85.937500
9811,85.937500
9812,85.937500
9813,85.937500
9814,85.937500
9815,85.937500
9816,85.937500
9817,85.937500
9818,85.937500
9819,85.937500
9820,85.937500
9821,85.937500
9822,85.937500
9823,85.937500
9824,85.937500
9825,85.937500
9826,85.937500
9827,85.937500
9828,83.984375
9829,83.984375
9830,83.984375
9831,83.984375
9832,83.984375
9833,83.984375
9834,83.984375
9835,83.984375
9836,82.031250
9837,83.984375
9838,82.031250
9839,82.031250
9840,82.031250
9841,82.031250
9842,82.031250
9843,80.078125
9844,82.031250
9845,80.078125
9846,80.078125
9847,80.078125
9848,80.078125
9849,78.125000
9850,78.125000
9851,78.125000
9852,78.125000
9853,78.125000
9854,76.171875
9855,76.171875
9856,76.171875
9857,76.171875
9858,74.218750
9859,74.218750
9860,74.218750
9861,72.265625
9862,72.265625
9863,72.265625
9864,72.265625
9865,70.312500
9866,70.312500
9867,70.312500
9868,68.359375
9869,68.359375
9870,68.359375
9871,66.406250
9872,66.406250
9873,66.406250
9874,66.406250
9875,64.453125
9876,64.453125
9877,64.453125
9878,62.500000
9879,62.500000
9880,62.500000
9881,62.500000
9882,60.546875
9883,58.593750
9884,58.593750
9885,58.593750
9886,58.593750
9887,56.640625
9888,56.640625
9889,56.640625
9890,52.734375
9891,54.687500
9892,52.734375
9893,52.734375
9894,50.781250
9895,50.781250
9896,50.781250
9897,48.828125
9898,48.828125
9899,46.875000
9900,46.875000
9901,44.921875
9902,44.921875
9903,44.921875
9904,42.968750
9905,41.015625
9906,41.015625
9907,42.968750
9908,39.062500
9909,39.062500
9910,39.062500
9911,37.109375
9912,37.109375
9913,35.156250
9914,35.156250
9915,33.203125
9916,31.250000
9917,33.203125
9918,31.250000
9919,29.296875
9920,29.296875
9921,27.343750
9922,27.343750
9923,25.390625
9924,25.390625
9925,25.390625
9926,23.437500
9927,21.484375
9928,21.484375
9929,21.484375
9930,19.531250
9931,19.531250
9932,17.578125
9933,17.578125
9934,15.625000
9935,13.671875
9936,13.671875
9937,13.671875
9938,13.671875
9939,11.718750
9940,9.765625
9941,9.765625
9942,7.812500
9943,7.812500
9944,5.859375
9945,5.859375
9946,3.906250
9947,3.906250
9948,1.953125
9949,1.953125
9950,0.000000
9951,0.000000
9952,0.000000
9953,-1.953125
9954,-1.953125
9955,-3.906250
9956,-3.906250
9957,-5.859375
9958,-5.859375
9959,-9.765625
9960,-9.765625
9961,-9.765625
9962,-11.718750
9963,-11.718750
9964,-13.671875
9965,-13.671875
9966,-13.671875
9967,-15.625000
9968,-15.625000
9969,-17.578125
9970,-17.578125
9971,-19.531250
9972,-19.531250
9973,-21.484375
9974,-21.484375
9975,-21.484375
9976,-23.437500
9977,-25.390625
9978,-25.390625
9979,-27.343750
9980,-27.343750
9981,-29.296875
9982,-29.296875
9983,-31.250000
9984,-31.250000
9985,-31.250000
9986,-33.203125
9987,-33.203125
9988,-35.156250
9989,-35.156250
9990,-37.109375
9991,-37.109375
9992,-39.062500
9993,-39.062500
9994,-41.015625
9995,-41.015625
9996,-42.968750
9997,-42.968750
9998,-42.968750
9999,-46.875000
10000,-44.921875
