Channel              :,CH1
Frequency            :,858.4Hz
Period               :,1.165ms
PK-PK                :,93.75mV
Probe attenuation    :,1X
Voltage per ADC value:,0.122070mV
Time interval        :,2.00000us

index,CH1_Voltage(mV)
1,19.531250
2,19.531250
3,19.531250
4,19.531250
5,17.578125
6,19.531250
7,17.578125
8,17.578125
9,17.578125
10,17.578125
11,17.578125
12,17.578125
13,17.578125
14,15.625000
15,15.625000
16,15.625000
17,15.625000
18,15.625000
19,15.625000
20,15.625000
21,13.671875
22,13.671875
23,13.671875
24,13.671875
25,13.671875
26,13.671875
27,11.718750
28,11.718750
29,11.718750
30,11.718750
31,11.718750
32,11.718750
33,11.718750
34,11.718750
35,9.765625
36,9.765625
37,9.765625
38,9.765625
39,7.812500
40,7.812500
41,7.812500
42,7.812500
43,7.812500
44,7.812500
45,5.859375
46,5.859375
47,5.859375
48,5.859375
49,5.859375
50,3.906250
51,3.906250
52,3.906250
53,3.906250
54,3.906250
55,3.906250
56,1.953125
57,1.953125
58,0.000000
59,0.000000
60,0.000000
61,0.000000
62,0.000000
63,-1.953125
64,0.000000
65,-1.953125
66,-1.953125
67,-1.953125
68,-1.953125
69,-3.906250
70,-3.906250
71,-3.906250
72,-3.906250
73,-3.906250
74,-5.859375
75,-5.859375
76,-7.812500
77,-7.812500
78,-7.812500
79,-7.812500
80,-7.812500
81,-7.812500
82,-9.765625
83,-9.765625
84,-9.765625
85,-11.718750
86,-9.765625
87,-11.718750
88,-11.718750
89,-11.718750
90,-13.671875
91,-13.671875
92,-13.671875
93,-13.671875
94,-13.671875
95,-13.671875
96,-15.625000
97,-15.625000
98,-15.625000
99,-17.578125
100,-17.578125
101,-17.578125
102,-17.578125
103,-17.578125
104,-19.531250
105,-19.531250
106,-19.531250
107,-19.531250
108,-21.484375
109,-21.484375
110,-21.484375
111,-21.484375
112,-23.437500
113,-23.437500
114,-23.437500
115,-23.437500
116,-25.390625
117,-25.390625
118,-25.390625
119,-25.390625
120,-25.390625
121,-27.343750
122,-27.343750
123,-27.343750
124,-27.343750
125,-27.343750
126,-29.296875
127,-29.296875
128,-29.296875
129,-29.296875
130,-31.250000
131,-31.250000
132,-31.250000
133,-31.250000
134,-33.203125
135,-33.203125
136,-33.203125
137,-35.156250
138,-35.156250
139,-35.156250
140,-35.156250
141,-35.156250
142,-35.156250
143,-37.109375
144,-37.109375
145,-37.109375
146,-37.109375
147,-39.062500
148,-39.062500
149,-39.062500
150,-41.015625
151,-39.062500
152,-41.015625
153,-41.015625
154,-41.015625
155,-42.968750
156,-42.968750
157,-42.968750
158,-42.968750
159,-42.968750
160,-42.968750
161,-44.921875
162,-44.921875
163,-44.921875
164,-44.921875
165,-44.921875
166,-44.921875
167,-46.875000
168,-46.875000
169,-46.875000
170,-46.875000
171,-46.875000
172,-46.875000
173,-46.875000
174,-46.875000
175,-48.828125
176,-48.828125
177,-48.828125
178,-48.828125
179,-48.828125
180,-50.781250
181,-50.781250
182,-50.781250
183,-50.781250
184,-50.781250
185,-50.781250
186,-52.734375
187,-52.734375
188,-52.734375
189,-52.734375
190,-52.734375
191,-52.734375
192,-52.734375
193,-52.734375
194,-54.687500
195,-52.734375
196,-54.687500
197,-54.687500
198,-54.687500
199,-54.687500
200,-54.687500
201,-54.687500
202,-56.640625
203,-54.687500
204,-54.687500
205,-56.640625
206,-56.640625
207,-56.640625
208,-56.640625
209,-56.640625
210,-56.640625
211,-56.640625
212,-56.640625
213,-56.640625
214,-56.640625
215,-56.640625
216,-56.640625
217,-56.640625
218,-56.640625
219,-56.640625
220,-56.640625
221,-56.640625
222,-56.640625
223,-54.687500
224,-56.640625
225,-56.640625
226,-56.640625
227,-56.640625
228,-56.640625
229,-56.640625
230,-56.640625
231,-56.640625
232,-56.640625
233,-56.640625
234,-56.640625
235,-56.640625
236,-56.640625
237,-56.640625
238,-56.640625
239,-56.640625
240,-56.640625
241,-56.640625
242,-56.640625
243,-56.640625
244,-56.640625
245,-56.640625
246,-54.687500
247,-54.687500
248,-54.687500
249,-54.687500
250,-54.687500
251,-54.687500
252,-54.687500
253,-54.687500
254,-54.687500
255,-52.734375
256,-52.734375
257,-52.734375
258,-52.734375
259,-52.734375
260,-52.734375
261,-52.734375
262,-52.734375
263,-52.734375
264,-50.781250
265,-50.781250
266,-50.781250
267,-50.781250
268,-50.781250
269,-50.781250
270,-48.828125
271,-48.828125
272,-48.828125
273,-48.828125
274,-48.828125
275,-48.828125
276,-46.875000
277,-46.875000
278,-46.875000
279,-46.875000
280,-46.875000
281,-46.875000
282,-44.921875
283,-44.921875
284,-44.921875
285,-42.968750
286,-44.921875
287,-42.968750
288,-42.968750
289,-42.968750
290,-42.968750
291,-41.015625
292,-41.015625
293,-41.015625
294,-39.062500
295,-39.062500
296,-39.062500
297,-37.109375
298,-39.062500
299,-37.109375
300,-37.109375
301,-37.109375
302,-35.156250
303,-35.156250
304,-35.156250
305,-35.156250
306,-33.203125
307,-33.203125
308,-33.203125
309,-33.203125
310,-33.203125
311,-31.250000
312,-31.250000
313,-31.250000
314,-29.296875
315,-29.296875
316,-29.296875
317,-27.343750
318,-27.343750
319,-27.343750
320,-27.343750
321,-27.343750
322,-25.390625
323,-25.390625
324,-25.390625
325,-23.437500
326,-23.437500
327,-23.437500
328,-21.484375
329,-21.484375
330,-21.484375
331,-21.484375
332,-19.531250
333,-19.531250
334,-19.531250
335,-17.578125
336,-17.578125
337,-17.578125
338,-17.578125
339,-15.625000
340,-15.625000
341,-13.671875
342,-15.625000
343,-13.671875
344,-13.671875
345,-11.718750
346,-11.718750
347,-11.718750
348,-11.718750
349,-9.765625
350,-9.765625
351,-9.765625
352,-9.765625
353,-7.812500
354,-7.812500
355,-7.812500
356,-5.859375
357,-5.859375
358,-3.906250
359,-3.906250
360,-3.906250
361,-3.906250
362,-3.906250
363,-1.953125
364,-1.953125
365,0.000000
366,0.000000
367,0.000000
368,0.000000
369,0.000000
370,1.953125
371,1.953125
372,1.953125
373,1.953125
374,3.906250
375,3.906250
376,3.906250
377,3.906250
378,5.859375
379,5.859375
380,5.859375
381,5.859375
382,5.859375
383,7.812500
384,7.812500
385,7.812500
386,7.812500
387,9.765625
388,9.765625
389,9.765625
390,9.765625
391,9.765625
392,11.718750
393,11.718750
394,11.718750
395,11.718750
396,11.718750
397,13.671875
398,13.671875
399,13.671875
400,13.671875
401,13.671875
402,13.671875
403,15.625000
404,15.625000
405,15.625000
406,15.625000
407,15.625000
408,17.578125
409,17.578125
410,17.578125
411,17.578125
412,17.578125
413,17.578125
414,17.578125
415,19.531250
416,19.531250
417,19.531250
418,19.531250
419,21.484375
420,19.531250
421,21.484375
422,21.484375
423,21.484375
424,21.484375
425,21.484375
426,21.484375
427,21.484375
428,23.437500
429,23.437500
430,23.437500
431,23.437500
432,23.437500
433,25.390625
434,23.437500
435,23.437500
436,23.437500
437,23.437500
438,25.390625
439,25.390625
440,25.390625
441,25.390625
442,25.390625
443,25.390625
444,27.343750
445,25.390625
446,25.390625
447,25.390625
448,27.343750
449,27.343750
450,27.343750
451,27.343750
452,27.343750
453,29.296875
454,27.343750
455,27.343750
456,27.343750
457,27.343750
458,27.343750
459,27.343750
460,27.343750
461,27.343750
462,31.250000
463,27.343750
464,29.296875
465,27.343750
466,29.296875
467,29.296875
468,29.296875
469,29.296875
470,29.296875
471,29.296875
472,29.296875
473,29.296875
474,29.296875
475,29.296875
476,29.296875
477,29.296875
478,29.296875
479,29.296875
480,29.296875
481,29.296875
482,29.296875
483,29.296875
484,29.296875
485,29.296875
486,29.296875
487,29.296875
488,31.250000
489,31.250000
490,29.296875
491,31.250000
492,29.296875
493,31.250000
494,29.296875
495,29.296875
496,29.296875
497,29.296875
498,29.296875
499,31.250000
500,29.296875
501,31.250000
502,29.296875
503,29.296875
504,31.250000
505,29.296875
506,29.296875
507,29.296875
508,29.296875
509,29.296875
510,31.250000
511,29.296875
512,29.296875
513,29.296875
514,29.296875
515,29.296875
516,29.296875
517,29.296875
518,29.296875
519,29.296875
520,29.296875
521,29.296875
522,29.296875
523,29.296875
524,29.296875
525,29.296875
526,29.296875
527,29.296875
528,29.296875
529,27.343750
530,29.296875
531,27.343750
532,27.343750
533,27.343750
534,27.343750
535,27.343750
536,27.343750
537,27.343750
538,27.343750
539,27.343750
540,27.343750
541,27.343750
542,27.343750
543,27.343750
544,27.343750
545,27.343750
546,25.390625
547,27.343750
548,25.390625
549,25.390625
550,25.390625
551,25.390625
552,25.390625
553,25.390625
554,25.390625
555,25.390625
556,25.390625
557,25.390625
558,25.390625
559,25.390625
560,25.390625
561,25.390625
562,25.390625
563,23.437500
564,23.437500
565,23.437500
566,23.437500
567,23.437500
568,23.437500
569,23.437500
570,23.437500
571,21.484375
572,23.437500
573,21.484375
574,23.437500
575,21.484375
576,21.484375
577,21.484375
578,21.484375
579,21.484375
580,21.484375
581,21.484375
582,19.531250
583,21.484375
584,19.531250
585,21.484375
586,19.531250
587,19.531250
588,17.578125
589,19.531250
590,19.531250
591,17.578125
592,17.578125
593,17.578125
594,17.578125
595,17.578125
596,15.625000
597,17.578125
598,15.625000
599,15.625000
600,15.625000
601,15.625000
602,15.625000
603,15.625000
604,15.625000
605,13.671875
606,13.671875
607,13.671875
608,13.671875
609,13.671875
610,11.718750
611,13.671875
612,11.718750
613,11.718750
614,11.718750
615,11.718750
616,11.718750
617,11.718750
618,9.765625
619,9.765625
620,9.765625
621,9.765625
622,9.765625
623,7.812500
624,7.812500
625,7.812500
626,7.812500
627,7.812500
628,7.812500
629,5.859375
630,5.859375
631,5.859375
632,5.859375
633,5.859375
634,3.906250
635,3.906250
636,3.906250
637,3.906250
638,1.953125
639,1.953125
640,1.953125
641,1.953125
642,0.000000
643,0.000000
644,0.000000
645,0.000000
646,0.000000
647,-1.953125
648,-1.953125
649,-1.953125
650,-1.953125
651,-1.953125
652,-3.906250
653,-3.906250
654,-3.906250
655,-5.859375
656,-5.859375
657,-5.859375
658,-5.859375
659,-5.859375
660,-7.812500
661,-7.812500
662,-7.812500
663,-7.812500
664,-7.812500
665,-9.765625
666,-9.765625
667,-9.765625
668,-9.765625
669,-11.718750
670,-11.718750
671,-11.718750
672,-13.671875
673,-13.671875
674,-13.671875
675,-13.671875
676,-13.671875
677,-15.625000
678,-15.625000
679,-15.625000
680,-15.625000
681,-17.578125
682,-17.578125
683,-17.578125
684,-17.578125
685,-17.578125
686,-17.578125
687,-19.531250
688,-19.531250
689,-19.531250
690,-19.531250
691,-21.484375
692,-21.484375
693,-21.484375
694,-23.437500
695,-23.437500
696,-23.437500
697,-23.437500
698,-23.437500
699,-23.437500
700,-25.390625
701,-25.390625
702,-25.390625
703,-25.390625
704,-27.343750
705,-27.343750
706,-27.343750
707,-27.343750
708,-29.296875
709,-29.296875
710,-29.296875
711,-31.250000
712,-31.250000
713,-31.250000
714,-31.250000
715,-31.250000
716,-31.250000
717,-33.203125
718,-33.203125
719,-35.156250
720,-33.203125
721,-35.156250
722,-35.156250
723,-35.156250
724,-35.156250
725,-35.156250
726,-37.109375
727,-37.109375
728,-37.109375
729,-37.109375
730,-39.062500
731,-39.062500
732,-39.062500
733,-39.062500
734,-39.062500
735,-41.015625
736,-41.015625
737,-41.015625
738,-41.015625
739,-41.015625
740,-41.015625
741,-42.968750
742,-42.968750
743,-42.968750
744,-42.968750
745,-42.968750
746,-44.921875
747,-44.921875
748,-44.921875
749,-44.921875
750,-44.921875
751,-44.921875
752,-46.875000
753,-46.875000
754,-46.875000
755,-46.875000
756,-46.875000
757,-48.828125
758,-48.828125
759,-48.828125
760,-48.828125
761,-48.828125
762,-50.781250
763,-50.781250
764,-50.781250
765,-50.781250
766,-50.781250
767,-50.781250
768,-50.781250
769,-52.734375
770,-50.781250
771,-52.734375
772,-52.734375
773,-52.734375
774,-52.734375
775,-52.734375
776,-52.734375
777,-52.734375
778,-54.687500
779,-54.687500
780,-54.687500
781,-54.687500
782,-54.687500
783,-54.687500
784,-54.687500
785,-54.687500
786,-54.687500
787,-54.687500
788,-56.640625
789,-56.640625
790,-54.687500
791,-56.640625
792,-56.640625
793,-56.640625
794,-56.640625
795,-56.640625
796,-56.640625
797,-56.640625
798,-56.640625
799,-58.593750
800,-56.640625
801,-56.640625
802,-56.640625
803,-56.640625
804,-56.640625
805,-56.640625
806,-56.640625
807,-56.640625
808,-56.640625
809,-56.640625
810,-58.593750
811,-56.640625
812,-56.640625
813,-56.640625
814,-56.640625
815,-56.640625
816,-56.640625
817,-56.640625
818,-56.640625
819,-56.640625
820,-56.640625
821,-56.640625
822,-56.640625
823,-56.640625
824,-56.640625
825,-54.687500
826,-56.640625
827,-56.640625
828,-54.687500
829,-54.687500
830,-54.687500
831,-54.687500
832,-54.687500
833,-54.687500
834,-54.687500
835,-54.687500
836,-54.687500
837,-54.687500
838,-54.687500
839,-52.734375
840,-52.734375
841,-52.734375
842,-52.734375
843,-52.734375
844,-52.734375
845,-52.734375
846,-52.734375
847,-50.781250
848,-52.734375
849,-50.781250
850,-50.781250
851,-50.781250
852,-50.781250
853,-48.828125
854,-48.828125
855,-48.828125
856,-48.828125
857,-48.828125
858,-48.828125
859,-48.828125
860,-46.875000
861,-46.875000
862,-46.875000
863,-46.875000
864,-46.875000
865,-44.921875
866,-44.921875
867,-44.921875
868,-44.921875
869,-42.968750
870,-42.968750
871,-42.968750
872,-42.968750
873,-41.015625
874,-41.015625
875,-41.015625
876,-41.015625
877,-39.062500
878,-39.062500
879,-39.062500
880,-39.062500
881,-39.062500
882,-37.109375
883,-37.109375
884,-37.109375
885,-37.109375
886,-37.109375
887,-35.156250
888,-35.156250
889,-35.156250
890,-33.203125
891,-33.203125
892,-33.203125
893,-33.203125
894,-31.250000
895,-31.250000
896,-31.250000
897,-31.250000
898,-29.296875
899,-29.296875
900,-27.343750
901,-27.343750
902,-27.343750
903,-25.390625
904,-27.343750
905,-25.390625
906,-25.390625
907,-25.390625
908,-23.437500
909,-23.437500
910,-23.437500
911,-23.437500
912,-21.484375
913,-21.484375
914,-21.484375
915,-21.484375
916,-19.531250
917,-19.531250
918,-19.531250
919,-17.578125
920,-17.578125
921,-15.625000
922,-15.625000
923,-15.625000
924,-15.625000
925,-13.671875
926,-13.671875
927,-13.671875
928,-11.718750
929,-11.718750
930,-11.718750
931,-11.718750
932,-9.765625
933,-9.765625
934,-9.765625
935,-9.765625
936,-7.812500
937,-7.812500
938,-5.859375
939,-5.859375
940,-5.859375
941,-5.859375
942,-3.906250
943,-3.906250
944,-3.906250
945,-1.953125
946,-1.953125
947,-1.953125
948,-1.953125
949,-1.953125
950,0.000000
951,0.000000
952,0.000000
953,0.000000
954,1.953125
955,1.953125
956,3.906250
957,3.906250
958,3.906250
959,3.906250
960,3.906250
961,3.906250
962,5.859375
963,5.859375
964,5.859375
965,7.812500
966,7.812500
967,7.812500
968,7.812500
969,7.812500
970,9.765625
971,9.765625
972,9.765625
973,9.765625
974,9.765625
975,11.718750
976,11.718750
977,11.718750
978,11.718750
979,11.718750
980,11.718750
981,13.671875
982,13.671875
983,13.671875
984,13.671875
985,13.671875
986,15.625000
987,15.625000
988,15.625000
989,15.625000
990,15.625000
991,17.578125
992,17.578125
993,17.578125
994,17.578125
995,17.578125
996,17.578125
997,19.531250
998,19.531250
999,19.531250
1000,19.531250
1001,21.484375
1002,19.531250
1003,21.484375
1004,21.484375
1005,21.484375
1006,21.484375
1007,21.484375
1008,21.484375
1009,21.484375
1010,21.484375
1011,23.437500
1012,23.437500
1013,23.437500
1014,23.437500
1015,23.437500
1016,23.437500
1017,23.437500
1018,23.437500
1019,23.437500
1020,25.390625
1021,25.390625
1022,25.390625
1023,23.437500
1024,25.390625
1025,25.390625
1026,25.390625
1027,25.390625
1028,27.343750
1029,25.390625
1030,25.390625
1031,27.343750
1032,27.343750
1033,27.343750
1034,27.343750
1035,27.343750
1036,27.343750
1037,27.343750
1038,27.343750
1039,27.343750
1040,27.343750
1041,27.343750
1042,27.343750
1043,27.343750
1044,27.343750
1045,27.343750
1046,29.296875
1047,27.343750
1048,27.343750
1049,29.296875
1050,29.296875
1051,29.296875
1052,29.296875
1053,29.296875
1054,29.296875
1055,29.296875
1056,29.296875
1057,29.296875
1058,29.296875
1059,29.296875
1060,29.296875
1061,29.296875
1062,29.296875
1063,29.296875
1064,29.296875
1065,29.296875
1066,29.296875
1067,29.296875
1068,29.296875
1069,29.296875
1070,31.250000
1071,29.296875
1072,31.250000
1073,31.250000
1074,31.250000
1075,31.250000
1076,29.296875
1077,31.250000
1078,29.296875
1079,29.296875
1080,29.296875
1081,29.296875
1082,31.250000
1083,29.296875
1084,31.250000
1085,29.296875
1086,31.250000
1087,29.296875
1088,29.296875
1089,29.296875
1090,29.296875
1091,29.296875
1092,29.296875
1093,29.296875
1094,29.296875
1095,29.296875
1096,29.296875
1097,29.296875
1098,29.296875
1099,29.296875
1100,29.296875
1101,29.296875
1102,29.296875
1103,29.296875
1104,29.296875
1105,29.296875
1106,29.296875
1107,27.343750
1108,29.296875
1109,27.343750
1110,27.343750
1111,27.343750
1112,27.343750
1113,27.343750
1114,27.343750
1115,29.296875
1116,27.343750
1117,27.343750
1118,27.343750
1119,27.343750
1120,27.343750
1121,27.343750
1122,27.343750
1123,27.343750
1124,27.343750
1125,27.343750
1126,27.343750
1127,27.343750
1128,27.343750
1129,27.343750
1130,27.343750
1131,25.390625
1132,25.390625
1133,27.343750
1134,27.343750
1135,25.390625
1136,25.390625
1137,25.390625
1138,25.390625
1139,25.390625
1140,25.390625
1141,25.390625
1142,25.390625
1143,23.437500
1144,25.390625
1145,25.390625
1146,23.437500
1147,23.437500
1148,23.437500
1149,23.437500
1150,23.437500
1151,23.437500
1152,23.437500
1153,23.437500
1154,23.437500
1155,23.437500
1156,23.437500
1157,23.437500
1158,21.484375
1159,21.484375
1160,21.484375
1161,21.484375
1162,21.484375
1163,21.484375
1164,21.484375
1165,21.484375
1166,19.531250
1167,19.531250
1168,19.531250
1169,19.531250
1170,19.531250
1171,19.531250
1172,17.578125
1173,17.578125
1174,19.531250
1175,17.578125
1176,17.578125
1177,17.578125
1178,17.578125
1179,17.578125
1180,15.625000
1181,15.625000
1182,15.625000
1183,15.625000
1184,15.625000
1185,15.625000
1186,15.625000
1187,15.625000
1188,13.671875
1189,13.671875
1190,13.671875
1191,13.671875
1192,13.671875
1193,11.718750
1194,13.671875
1195,11.718750
1196,11.718750
1197,11.718750
1198,11.718750
1199,11.718750
1200,9.765625
1201,9.765625
1202,9.765625
1203,9.765625
1204,9.765625
1205,7.812500
1206,7.812500
1207,7.812500
1208,7.812500
1209,7.812500
1210,5.859375
1211,7.812500
1212,5.859375
1213,5.859375
1214,5.859375
1215,3.906250
1216,5.859375
1217,5.859375
1218,3.906250
1219,3.906250
1220,1.953125
1221,1.953125
1222,1.953125
1223,1.953125
1224,1.953125
1225,1.953125
1226,0.000000
1227,0.000000
1228,0.000000
1229,0.000000
1230,-1.953125
1231,-1.953125
1232,-1.953125
1233,-1.953125
1234,-1.953125
1235,-3.906250
1236,-3.906250
1237,-3.906250
1238,-3.906250
1239,-5.859375
1240,-5.859375
1241,-5.859375
1242,-5.859375
1243,-7.812500
1244,-7.812500
1245,-7.812500
1246,-9.765625
1247,-7.812500
1248,-9.765625
1249,-7.812500
1250,-9.765625
1251,-11.718750
1252,-11.718750
1253,-11.718750
1254,-11.718750
1255,-11.718750
1256,-13.671875
1257,-13.671875
1258,-13.671875
1259,-13.671875
1260,-15.625000
1261,-15.625000
1262,-15.625000
1263,-15.625000
1264,-15.625000
1265,-17.578125
1266,-17.578125
1267,-17.578125
1268,-17.578125
1269,-19.531250
1270,-19.531250
1271,-19.531250
1272,-19.531250
1273,-21.484375
1274,-21.484375
1275,-21.484375
1276,-21.484375
1277,-21.484375
1278,-21.484375
1279,-23.437500
1280,-23.437500
1281,-23.437500
1282,-25.390625
1283,-25.390625
1284,-25.390625
1285,-25.390625
1286,-27.343750
1287,-27.343750
1288,-27.343750
1289,-27.343750
1290,-27.343750
1291,-29.296875
1292,-29.296875
1293,-31.250000
1294,-29.296875
1295,-31.250000
1296,-31.250000
1297,-31.250000
1298,-33.203125
1299,-33.203125
1300,-33.203125
1301,-33.203125
1302,-33.203125
1303,-35.156250
1304,-35.156250
1305,-35.156250
1306,-35.156250
1307,-35.156250
1308,-37.109375
1309,-37.109375
1310,-37.109375
1311,-37.109375
1312,-39.062500
1313,-39.062500
1314,-39.062500
1315,-39.062500
1316,-39.062500
1317,-41.015625
1318,-39.062500
1319,-41.015625
1320,-41.015625
1321,-41.015625
1322,-42.968750
1323,-42.968750
1324,-42.968750
1325,-42.968750
1326,-42.968750
1327,-42.968750
1328,-42.968750
1329,-44.921875
1330,-44.921875
1331,-44.921875
1332,-44.921875
1333,-46.875000
1334,-46.875000
1335,-46.875000
1336,-46.875000
1337,-46.875000
1338,-46.875000
1339,-48.828125
1340,-48.828125
1341,-48.828125
1342,-48.828125
1343,-48.828125
1344,-48.828125
1345,-48.828125
1346,-50.781250
1347,-50.781250
1348,-50.781250
1349,-50.781250
1350,-50.781250
1351,-50.781250
1352,-54.687500
1353,-52.734375
1354,-52.734375
1355,-52.734375
1356,-52.734375
1357,-52.734375
1358,-52.734375
1359,-52.734375
1360,-54.687500
1361,-54.687500
1362,-54.687500
1363,-54.687500
1364,-54.687500
1365,-54.687500
1366,-54.687500
1367,-54.687500
1368,-54.687500
1369,-56.640625
1370,-56.640625
1371,-56.640625
1372,-56.640625
1373,-56.640625
1374,-56.640625
1375,-56.640625
1376,-56.640625
1377,-56.640625
1378,-56.640625
1379,-56.640625
1380,-56.640625
1381,-56.640625
1382,-56.640625
1383,-58.593750
1384,-58.593750
1385,-56.640625
1386,-54.687500
1387,-56.640625
1388,-56.640625
1389,-56.640625
1390,-56.640625
1391,-56.640625
1392,-56.640625
1393,-58.593750
1394,-56.640625
1395,-56.640625
1396,-56.640625
1397,-56.640625
1398,-56.640625
1399,-56.640625
1400,-56.640625
1401,-56.640625
1402,-56.640625
1403,-56.640625
1404,-56.640625
1405,-56.640625
1406,-56.640625
1407,-56.640625
1408,-56.640625
1409,-56.640625
1410,-54.687500
1411,-54.687500
1412,-54.687500
1413,-54.687500
1414,-54.687500
1415,-54.687500
1416,-54.687500
1417,-54.687500
1418,-54.687500
1419,-54.687500
1420,-54.687500
1421,-52.734375
1422,-52.734375
1423,-52.734375
1424,-52.734375
1425,-52.734375
1426,-52.734375
1427,-52.734375
1428,-50.781250
1429,-52.734375
1430,-50.781250
1431,-50.781250
1432,-50.781250
1433,-50.781250
1434,-50.781250
1435,-52.734375
1436,-50.781250
1437,-48.828125
1438,-48.828125
1439,-48.828125
1440,-48.828125
1441,-46.875000
1442,-46.875000
1443,-46.875000
1444,-46.875000
1445,-46.875000
1446,-46.875000
1447,-44.921875
1448,-44.921875
1449,-44.921875
1450,-44.921875
1451,-44.921875
1452,-42.968750
1453,-42.968750
1454,-42.968750
1455,-42.968750
1456,-42.968750
1457,-41.015625
1458,-41.015625
1459,-41.015625
1460,-39.062500
1461,-39.062500
1462,-39.062500
1463,-39.062500
1464,-39.062500
1465,-37.109375
1466,-37.109375
1467,-35.156250
1468,-35.156250
1469,-35.156250
1470,-35.156250
1471,-35.156250
1472,-33.203125
1473,-33.203125
1474,-33.203125
1475,-33.203125
1476,-31.250000
1477,-31.250000
1478,-31.250000
1479,-31.250000
1480,-31.250000
1481,-29.296875
1482,-29.296875
1483,-29.296875
1484,-27.343750
1485,-27.343750
1486,-25.390625
1487,-25.390625
1488,-25.390625
1489,-25.390625
1490,-25.390625
1491,-23.437500
1492,-23.437500
1493,-23.437500
1494,-23.437500
1495,-21.484375
1496,-21.484375
1497,-21.484375
1498,-19.531250
1499,-19.531250
1500,-19.531250
1501,-17.578125
1502,-17.578125
1503,-17.578125
1504,-15.625000
1505,-15.625000
1506,-15.625000
1507,-15.625000
1508,-13.671875
1509,-13.671875
1510,-13.671875
1511,-13.671875
1512,-11.718750
1513,-11.718750
1514,-9.765625
1515,-9.765625
1516,-9.765625
1517,-9.765625
1518,-7.812500
1519,-7.812500
1520,-7.812500
1521,-5.859375
1522,-5.859375
1523,-5.859375
1524,-5.859375
1525,-3.906250
1526,-3.906250
1527,-1.953125
1528,-1.953125
1529,-1.953125
1530,-1.953125
1531,-1.953125
1532,0.000000
1533,0.000000
1534,0.000000
1535,0.000000
1536,1.953125
1537,1.953125
1538,1.953125
1539,3.906250
1540,3.906250
1541,3.906250
1542,3.906250
1543,3.906250
1544,5.859375
1545,5.859375
1546,5.859375
1547,5.859375
1548,7.812500
1549,7.812500
1550,7.812500
1551,7.812500
1552,7.812500
1553,9.765625
1554,9.765625
1555,9.765625
1556,9.765625
1557,11.718750
1558,11.718750
1559,11.718750
1560,11.718750
1561,11.718750
1562,13.671875
1563,13.671875
1564,13.671875
1565,13.671875
1566,13.671875
1567,13.671875
1568,13.671875
1569,15.625000
1570,15.625000
1571,15.625000
1572,15.625000
1573,15.625000
1574,17.578125
1575,17.578125
1576,17.578125
1577,17.578125
1578,17.578125
1579,19.531250
1580,19.531250
1581,19.531250
1582,19.531250
1583,19.531250
1584,19.531250
1585,19.531250
1586,21.484375
1587,21.484375
1588,21.484375
1589,21.484375
1590,21.484375
1591,21.484375
1592,21.484375
1593,21.484375
1594,23.437500
1595,23.437500
1596,23.437500
1597,23.437500
1598,23.437500
1599,23.437500
1600,23.437500
1601,23.437500
1602,25.390625
1603,25.390625
1604,25.390625
1605,25.390625
1606,25.390625
1607,25.390625
1608,25.390625
1609,25.390625
1610,27.343750
1611,25.390625
1612,25.390625
1613,27.343750
1614,27.343750
1615,27.343750
1616,27.343750
1617,27.343750
1618,27.343750
1619,27.343750
1620,27.343750
1621,27.343750
1622,27.343750
1623,27.343750
1624,27.343750
1625,27.343750
1626,27.343750
1627,27.343750
1628,27.343750
1629,29.296875
1630,27.343750
1631,27.343750
1632,29.296875
1633,29.296875
1634,29.296875
1635,29.296875
1636,27.343750
1637,29.296875
1638,29.296875
1639,29.296875
1640,29.296875
1641,29.296875
1642,29.296875
1643,29.296875
1644,29.296875
1645,29.296875
1646,29.296875
1647,29.296875
1648,29.296875
1649,29.296875
1650,29.296875
1651,29.296875
1652,31.250000
1653,29.296875
1654,29.296875
1655,29.296875
1656,31.250000
1657,29.296875
1658,31.250000
1659,31.250000
1660,29.296875
1661,29.296875
1662,29.296875
1663,31.250000
1664,31.250000
1665,31.250000
1666,29.296875
1667,29.296875
1668,29.296875
1669,31.250000
1670,29.296875
1671,29.296875
1672,29.296875
1673,29.296875
1674,29.296875
1675,29.296875
1676,29.296875
1677,31.250000
1678,29.296875
1679,29.296875
1680,29.296875
1681,29.296875
1682,29.296875
1683,29.296875
1684,29.296875
1685,29.296875
1686,29.296875
1687,29.296875
1688,29.296875
1689,29.296875
1690,29.296875
1691,29.296875
1692,29.296875
1693,29.296875
1694,27.343750
1695,29.296875
1696,29.296875
1697,27.343750
1698,27.343750
1699,27.343750
1700,27.343750
1701,29.296875
1702,27.343750
1703,27.343750
1704,27.343750
1705,27.343750
1706,27.343750
1707,27.343750
1708,27.343750
1709,27.343750
1710,27.343750
1711,27.343750
1712,27.343750
1713,27.343750
1714,27.343750
1715,27.343750
1716,25.390625
1717,25.390625
1718,25.390625
1719,25.390625
1720,25.390625
1721,25.390625
1722,25.390625
1723,25.390625
1724,25.390625
1725,25.390625
1726,25.390625
1727,25.390625
1728,25.390625
1729,23.437500
1730,25.390625
1731,23.437500
1732,23.437500
1733,23.437500
1734,23.437500
1735,23.437500
1736,23.437500
1737,23.437500
1738,21.484375
1739,23.437500
1740,21.484375
1741,21.484375
1742,21.484375
1743,21.484375
1744,21.484375
1745,21.484375
1746,21.484375
1747,21.484375
1748,19.531250
1749,19.531250
1750,19.531250
1751,19.531250
1752,19.531250
1753,19.531250
1754,19.531250
1755,17.578125
1756,19.531250
1757,17.578125
1758,17.578125
1759,17.578125
1760,17.578125
1761,17.578125
1762,17.578125
1763,15.625000
1764,15.625000
1765,15.625000
1766,15.625000
1767,15.625000
1768,15.625000
1769,15.625000
1770,15.625000
1771,15.625000
1772,13.671875
1773,13.671875
1774,13.671875
1775,13.671875
1776,13.671875
1777,13.671875
1778,11.718750
1779,9.765625
1780,11.718750
1781,11.718750
1782,9.765625
1783,11.718750
1784,9.765625
1785,9.765625
1786,9.765625
1787,9.765625
1788,9.765625
1789,9.765625
1790,7.812500
1791,7.812500
1792,7.812500
1793,7.812500
1794,5.859375
1795,7.812500
1796,5.859375
1797,5.859375
1798,5.859375
1799,3.906250
1800,5.859375
1801,3.906250
1802,3.906250
1803,1.953125
1804,1.953125
1805,1.953125
1806,1.953125
1807,1.953125
1808,0.000000
1809,0.000000
1810,0.000000
1811,0.000000
1812,0.000000
1813,-1.953125
1814,-1.953125
1815,0.000000
1816,-1.953125
1817,-1.953125
1818,-3.906250
1819,-3.906250
1820,-3.906250
1821,-3.906250
1822,-5.859375
1823,-5.859375
1824,-5.859375
1825,-7.812500
1826,-7.812500
1827,-7.812500
1828,-7.812500
1829,-7.812500
1830,-7.812500
1831,-9.765625
1832,-9.765625
1833,-9.765625
1834,-9.765625
1835,-11.718750
1836,-11.718750
1837,-11.718750
1838,-13.671875
1839,-13.671875
1840,-13.671875
1841,-13.671875
1842,-15.625000
1843,-13.671875
1844,-15.625000
1845,-15.625000
1846,-15.625000
1847,-15.625000
1848,-17.578125
1849,-17.578125
1850,-17.578125
1851,-19.531250
1852,-19.531250
1853,-19.531250
1854,-19.531250
1855,-21.484375
1856,-19.531250
1857,-21.484375
1858,-21.484375
1859,-21.484375
1860,-21.484375
1861,-23.437500
1862,-23.437500
1863,-23.437500
1864,-25.390625
1865,-25.390625
1866,-25.390625
1867,-25.390625
1868,-27.343750
1869,-27.343750
1870,-27.343750
1871,-27.343750
1872,-27.343750
1873,-29.296875
1874,-29.296875
1875,-29.296875
1876,-29.296875
1877,-31.250000
1878,-31.250000
1879,-31.250000
1880,-31.250000
1881,-33.203125
1882,-33.203125
1883,-33.203125
1884,-33.203125
1885,-33.203125
1886,-35.156250
1887,-35.156250
1888,-35.156250
1889,-35.156250
1890,-37.109375
1891,-37.109375
1892,-37.109375
1893,-37.109375
1894,-37.109375
1895,-39.062500
1896,-39.062500
1897,-41.015625
1898,-41.015625
1899,-39.062500
1900,-41.015625
1901,-41.015625
1902,-41.015625
1903,-41.015625
1904,-41.015625
1905,-42.968750
1906,-42.968750
1907,-42.968750
1908,-42.968750
1909,-42.968750
1910,-44.921875
1911,-44.921875
1912,-44.921875
1913,-44.921875
1914,-44.921875
1915,-46.875000
1916,-44.921875
1917,-46.875000
1918,-46.875000
1919,-46.875000
1920,-46.875000
1921,-48.828125
1922,-48.828125
1923,-48.828125
1924,-48.828125
1925,-48.828125
1926,-48.828125
1927,-50.781250
1928,-50.781250
1929,-50.781250
1930,-50.781250
1931,-50.781250
1932,-50.781250
1933,-50.781250
1934,-52.734375
1935,-52.734375
1936,-52.734375
1937,-52.734375
1938,-52.734375
1939,-52.734375
1940,-54.687500
1941,-52.734375
1942,-54.687500
1943,-54.687500
1944,-54.687500
1945,-54.687500
1946,-54.687500
1947,-54.687500
1948,-54.687500
1949,-56.640625
1950,-54.687500
1951,-56.640625
1952,-56.640625
1953,-54.687500
1954,-56.640625
1955,-56.640625
1956,-56.640625
1957,-56.640625
1958,-56.640625
1959,-56.640625
1960,-56.640625
1961,-56.640625
1962,-56.640625
1963,-56.640625
1964,-56.640625
1965,-56.640625
1966,-58.593750
1967,-56.640625
1968,-58.593750
1969,-56.640625
1970,-56.640625
1971,-56.640625
1972,-58.593750
1973,-58.593750
1974,-56.640625
1975,-58.593750
1976,-56.640625
1977,-56.640625
1978,-58.593750
1979,-56.640625
1980,-56.640625
1981,-56.640625
1982,-58.593750
1983,-56.640625
1984,-56.640625
1985,-56.640625
1986,-56.640625
1987,-56.640625
1988,-56.640625
1989,-56.640625
1990,-56.640625
1991,-56.640625
1992,-56.640625
1993,-54.687500
1994,-56.640625
1995,-54.687500
1996,-54.687500
1997,-54.687500
1998,-54.687500
1999,-54.687500
2000,-54.687500
2001,-54.687500
2002,-54.687500
2003,-52.734375
2004,-52.734375
2005,-52.734375
2006,-52.734375
2007,-52.734375
2008,-52.734375
2009,-52.734375
2010,-52.734375
2011,-50.781250
2012,-50.781250
2013,-52.734375
2014,-50.781250
2015,-54.687500
2016,-50.781250
2017,-48.828125
2018,-50.781250
2019,-48.828125
2020,-48.828125
2021,-48.828125
2022,-48.828125
2023,-48.828125
2024,-48.828125
2025,-46.875000
2026,-46.875000
2027,-46.875000
2028,-46.875000
2029,-46.875000
2030,-44.921875
2031,-44.921875
2032,-44.921875
2033,-44.921875
2034,-42.968750
2035,-42.968750
2036,-42.968750
2037,-42.968750
2038,-42.968750
2039,-41.015625
2040,-41.015625
2041,-41.015625
2042,-41.015625
2043,-41.015625
2044,-39.062500
2045,-39.062500
2046,-39.062500
2047,-37.109375
2048,-37.109375
2049,-37.109375
2050,-37.109375
2051,-35.156250
2052,-35.156250
2053,-35.156250
2054,-33.203125
2055,-33.203125
2056,-33.203125
2057,-33.203125
2058,-31.250000
2059,-31.250000
2060,-31.250000
2061,-31.250000
2062,-29.296875
2063,-29.296875
2064,-29.296875
2065,-27.343750
2066,-27.343750
2067,-27.343750
2068,-27.343750
2069,-27.343750
2070,-25.390625
2071,-25.390625
2072,-23.437500
2073,-23.437500
2074,-23.437500
2075,-23.437500
2076,-23.437500
2077,-21.484375
2078,-21.484375
2079,-19.531250
2080,-19.531250
2081,-19.531250
2082,-19.531250
2083,-17.578125
2084,-17.578125
2085,-17.578125
2086,-17.578125
2087,-15.625000
2088,-15.625000
2089,-13.671875
2090,-15.625000
2091,-13.671875
2092,-13.671875
2093,-11.718750
2094,-11.718750
2095,-11.718750
2096,-11.718750
2097,-9.765625
2098,-9.765625
2099,-9.765625
2100,-7.812500
2101,-7.812500
2102,-5.859375
2103,-7.812500
2104,-5.859375
2105,-5.859375
2106,-5.859375
2107,-3.906250
2108,-3.906250
2109,-3.906250
2110,-3.906250
2111,-1.953125
2112,-1.953125
2113,-1.953125
2114,0.000000
2115,0.000000
2116,0.000000
2117,0.000000
2118,1.953125
2119,1.953125
2120,3.906250
2121,1.953125
2122,1.953125
2123,3.906250
2124,3.906250
2125,3.906250
2126,7.812500
2127,5.859375
2128,5.859375
2129,7.812500
2130,5.859375
2131,7.812500
2132,7.812500
2133,7.812500
2134,9.765625
2135,9.765625
2136,9.765625
2137,9.765625
2138,9.765625
2139,9.765625
2140,11.718750
2141,11.718750
2142,11.718750
2143,11.718750
2144,11.718750
2145,13.671875
2146,13.671875
2147,13.671875
2148,13.671875
2149,13.671875
2150,15.625000
2151,15.625000
2152,15.625000
2153,15.625000
2154,15.625000
2155,15.625000
2156,17.578125
2157,17.578125
2158,17.578125
2159,17.578125
2160,17.578125
2161,17.578125
2162,17.578125
2163,19.531250
2164,19.531250
2165,19.531250
2166,21.484375
2167,21.484375
2168,21.484375
2169,21.484375
2170,21.484375
2171,21.484375
2172,21.484375
2173,23.437500
2174,21.484375
2175,21.484375
2176,23.437500
2177,23.437500
2178,23.437500
2179,23.437500
2180,23.437500
2181,23.437500
2182,23.437500
2183,23.437500
2184,23.437500
2185,23.437500
2186,25.390625
2187,25.390625
2188,25.390625
2189,25.390625
2190,25.390625
2191,25.390625
2192,25.390625
2193,25.390625
2194,25.390625
2195,25.390625
2196,27.343750
2197,23.437500
2198,27.343750
2199,27.343750
2200,27.343750
2201,27.343750
2202,27.343750
2203,27.343750
2204,27.343750
2205,27.343750
2206,27.343750
2207,29.296875
2208,29.296875
2209,27.343750
2210,29.296875
2211,27.343750
2212,29.296875
2213,29.296875
2214,29.296875
2215,29.296875
2216,29.296875
2217,29.296875
2218,29.296875
2219,29.296875
2220,29.296875
2221,29.296875
2222,29.296875
2223,29.296875
2224,29.296875
2225,29.296875
2226,29.296875
2227,29.296875
2228,29.296875
2229,29.296875
2230,29.296875
2231,29.296875
2232,29.296875
2233,29.296875
2234,31.250000
2235,31.250000
2236,29.296875
2237,29.296875
2238,29.296875
2239,31.250000
2240,31.250000
2241,29.296875
2242,31.250000
2243,29.296875
2244,31.250000
2245,31.250000
2246,29.296875
2247,31.250000
2248,29.296875
2249,31.250000
2250,29.296875
2251,29.296875
2252,31.250000
2253,29.296875
2254,31.250000
2255,31.250000
2256,29.296875
2257,29.296875
2258,29.296875
2259,31.250000
2260,29.296875
2261,29.296875
2262,29.296875
2263,29.296875
2264,29.296875
2265,29.296875
2266,29.296875
2267,29.296875
2268,29.296875
2269,29.296875
2270,29.296875
2271,29.296875
2272,27.343750
2273,29.296875
2274,29.296875
2275,29.296875
2276,29.296875
2277,29.296875
2278,27.343750
2279,29.296875
2280,29.296875
2281,27.343750
2282,27.343750
2283,27.343750
2284,27.343750
2285,27.343750
2286,27.343750
2287,27.343750
2288,27.343750
2289,27.343750
2290,27.343750
2291,27.343750
2292,27.343750
2293,27.343750
2294,27.343750
2295,27.343750
2296,27.343750
2297,25.390625
2298,25.390625
2299,25.390625
2300,25.390625
2301,25.390625
2302,27.343750
2303,25.390625
2304,25.390625
2305,25.390625
2306,25.390625
2307,25.390625
2308,25.390625
2309,25.390625
2310,25.390625
2311,23.437500
2312,23.437500
2313,23.437500
2314,23.437500
2315,23.437500
2316,23.437500
2317,23.437500
2318,23.437500
2319,23.437500
2320,23.437500
2321,23.437500
2322,23.437500
2323,21.484375
2324,21.484375
2325,21.484375
2326,21.484375
2327,21.484375
2328,21.484375
2329,21.484375
2330,19.531250
2331,19.531250
2332,19.531250
2333,19.531250
2334,19.531250
2335,19.531250
2336,19.531250
2337,19.531250
2338,19.531250
2339,17.578125
2340,17.578125
2341,17.578125
2342,17.578125
2343,17.578125
2344,17.578125
2345,15.625000
2346,17.578125
2347,15.625000
2348,15.625000
2349,15.625000
2350,15.625000
2351,15.625000
2352,15.625000
2353,13.671875
2354,13.671875
2355,13.671875
2356,13.671875
2357,13.671875
2358,13.671875
2359,11.718750
2360,13.671875
2361,11.718750
2362,11.718750
2363,11.718750
2364,11.718750
2365,11.718750
2366,9.765625
2367,9.765625
2368,9.765625
2369,9.765625
2370,9.765625
2371,9.765625
2372,7.812500
2373,7.812500
2374,7.812500
2375,7.812500
2376,7.812500
2377,7.812500
2378,5.859375
2379,5.859375
2380,5.859375
2381,5.859375
2382,3.906250
2383,3.906250
2384,3.906250
2385,3.906250
2386,1.953125
2387,3.906250
2388,1.953125
2389,0.000000
2390,0.000000
2391,0.000000
2392,0.000000
2393,0.000000
2394,0.000000
2395,-1.953125
2396,-1.953125
2397,-1.953125
2398,-1.953125
2399,-1.953125
2400,-3.906250
2401,-3.906250
2402,-3.906250
2403,-5.859375
2404,-5.859375
2405,-5.859375
2406,-5.859375
2407,-5.859375
2408,-7.812500
2409,-7.812500
2410,-7.812500
2411,-7.812500
2412,-9.765625
2413,-9.765625
2414,-9.765625
2415,-9.765625
2416,-9.765625
2417,-11.718750
2418,-11.718750
2419,-11.718750
2420,-11.718750
2421,-11.718750
2422,-13.671875
2423,-13.671875
2424,-13.671875
2425,-15.625000
2426,-15.625000
2427,-15.625000
2428,-15.625000
2429,-17.578125
2430,-17.578125
2431,-17.578125
2432,-17.578125
2433,-17.578125
2434,-19.531250
2435,-19.531250
2436,-19.531250
2437,-19.531250
2438,-19.531250
2439,-21.484375
2440,-21.484375
2441,-21.484375
2442,-21.484375
2443,-21.484375
2444,-23.437500
2445,-23.437500
2446,-25.390625
2447,-25.390625
2448,-25.390625
2449,-25.390625
2450,-25.390625
2451,-27.343750
2452,-27.343750
2453,-27.343750
2454,-27.343750
2455,-29.296875
2456,-29.296875
2457,-29.296875
2458,-29.296875
2459,-31.250000
2460,-31.250000
2461,-31.250000
2462,-31.250000
2463,-31.250000
2464,-33.203125
2465,-33.203125
2466,-33.203125
2467,-35.156250
2468,-35.156250
2469,-35.156250
2470,-35.156250
2471,-35.156250
2472,-35.156250
2473,-37.109375
2474,-37.109375
2475,-37.109375
2476,-39.062500
2477,-39.062500
2478,-39.062500
2479,-39.062500
2480,-39.062500
2481,-39.062500
2482,-41.015625
2483,-41.015625
2484,-41.015625
2485,-42.968750
2486,-42.968750
2487,-42.968750
2488,-42.968750
2489,-42.968750
2490,-42.968750
2491,-42.968750
2492,-42.968750
2493,-44.921875
2494,-44.921875
2495,-44.921875
2496,-44.921875
2497,-44.921875
2498,-46.875000
2499,-46.875000
2500,-46.875000
2501,-46.875000
2502,-46.875000
2503,-46.875000
2504,-48.828125
2505,-48.828125
2506,-48.828125
2507,-48.828125
2508,-48.828125
2509,-48.828125
2510,-50.781250
2511,-50.781250
2512,-50.781250
2513,-50.781250
2514,-50.781250
2515,-50.781250
2516,-52.734375
2517,-52.734375
2518,-52.734375
2519,-52.734375
2520,-52.734375
2521,-52.734375
2522,-52.734375
2523,-54.687500
2524,-54.687500
2525,-54.687500
2526,-54.687500
2527,-54.687500
2528,-54.687500
2529,-54.687500
2530,-54.687500
2531,-54.687500
2532,-56.640625
2533,-54.687500
2534,-56.640625
2535,-56.640625
2536,-54.687500
2537,-56.640625
2538,-56.640625
2539,-56.640625
2540,-56.640625
2541,-56.640625
2542,-56.640625
2543,-56.640625
2544,-56.640625
2545,-56.640625
2546,-56.640625
2547,-56.640625
2548,-56.640625
2549,-56.640625
2550,-56.640625
2551,-56.640625
2552,-56.640625
2553,-56.640625
2554,-60.546875
2555,-56.640625
2556,-56.640625
2557,-56.640625
2558,-56.640625
2559,-56.640625
2560,-56.640625
2561,-56.640625
2562,-56.640625
2563,-56.640625
2564,-56.640625
2565,-56.640625
2566,-56.640625
2567,-56.640625
2568,-54.687500
2569,-56.640625
2570,-56.640625
2571,-54.687500
2572,-54.687500
2573,-56.640625
2574,-56.640625
2575,-54.687500
2576,-54.687500
2577,-54.687500
2578,-54.687500
2579,-54.687500
2580,-54.687500
2581,-54.687500
2582,-54.687500
2583,-54.687500
2584,-52.734375
2585,-52.734375
2586,-54.687500
2587,-52.734375
2588,-50.781250
2589,-52.734375
2590,-52.734375
2591,-52.734375
2592,-52.734375
2593,-52.734375
2594,-54.687500
2595,-50.781250
2596,-50.781250
2597,-50.781250
2598,-50.781250
2599,-50.781250
2600,-50.781250
2601,-48.828125
2602,-48.828125
2603,-48.828125
2604,-48.828125
2605,-48.828125
2606,-48.828125
2607,-46.875000
2608,-46.875000
2609,-46.875000
2610,-44.921875
2611,-44.921875
2612,-44.921875
2613,-44.921875
2614,-44.921875
2615,-44.921875
2616,-42.968750
2617,-42.968750
2618,-42.968750
2619,-42.968750
2620,-42.968750
2621,-41.015625
2622,-41.015625
2623,-41.015625
2624,-39.062500
2625,-39.062500
2626,-39.062500
2627,-39.062500
2628,-39.062500
2629,-37.109375
2630,-37.109375
2631,-37.109375
2632,-37.109375
2633,-35.156250
2634,-35.156250
2635,-35.156250
2636,-35.156250
2637,-33.203125
2638,-33.203125
2639,-33.203125
2640,-31.250000
2641,-31.250000
2642,-31.250000
2643,-31.250000
2644,-29.296875
2645,-29.296875
2646,-29.296875
2647,-29.296875
2648,-29.296875
2649,-29.296875
2650,-27.343750
2651,-25.390625
2652,-25.390625
2653,-25.390625
2654,-25.390625
2655,-25.390625
2656,-23.437500
2657,-23.437500
2658,-23.437500
2659,-23.437500
2660,-21.484375
2661,-21.484375
2662,-21.484375
2663,-19.531250
2664,-19.531250
2665,-19.531250
2666,-17.578125
2667,-17.578125
2668,-17.578125
2669,-15.625000
2670,-17.578125
2671,-13.671875
2672,-15.625000
2673,-13.671875
2674,-13.671875
2675,-13.671875
2676,-11.718750
2677,-11.718750
2678,-11.718750
2679,-11.718750
2680,-9.765625
2681,-9.765625
2682,-9.765625
2683,-7.812500
2684,-7.812500
2685,-7.812500
2686,-5.859375
2687,-5.859375
2688,-5.859375
2689,-5.859375
2690,-3.906250
2691,-3.906250
2692,-3.906250
2693,-1.953125
2694,-1.953125
2695,-1.953125
2696,-1.953125
2697,0.000000
2698,0.000000
2699,0.000000
2700,0.000000
2701,1.953125
2702,1.953125
2703,1.953125
2704,3.906250
2705,3.906250
2706,3.906250
2707,3.906250
2708,3.906250
2709,5.859375
2710,5.859375
2711,5.859375
2712,5.859375
2713,5.859375
2714,7.812500
2715,7.812500
2716,7.812500
2717,7.812500
2718,9.765625
2719,9.765625
2720,9.765625
2721,9.765625
2722,11.718750
2723,11.718750
2724,11.718750
2725,11.718750
2726,11.718750
2727,13.671875
2728,13.671875
2729,13.671875
2730,11.718750
2731,13.671875
2732,13.671875
2733,13.671875
2734,15.625000
2735,15.625000
2736,13.671875
2737,15.625000
2738,15.625000
2739,17.578125
2740,17.578125
2741,17.578125
2742,17.578125
2743,17.578125
2744,19.531250
2745,19.531250
2746,19.531250
2747,19.531250
2748,19.531250
2749,19.531250
2750,21.484375
2751,21.484375
2752,21.484375
2753,21.484375
2754,21.484375
2755,21.484375
2756,21.484375
2757,23.437500
2758,23.437500
2759,23.437500
2760,23.437500
2761,23.437500
2762,25.390625
2763,23.437500
2764,23.437500
2765,25.390625
2766,23.437500
2767,25.390625
2768,25.390625
2769,25.390625
2770,25.390625
2771,25.390625
2772,25.390625
2773,25.390625
2774,25.390625
2775,25.390625
2776,27.343750
2777,27.343750
2778,25.390625
2779,25.390625
2780,25.390625
2781,27.343750
2782,27.343750
2783,27.343750
2784,27.343750
2785,27.343750
2786,27.343750
2787,27.343750
2788,27.343750
2789,27.343750
2790,27.343750
2791,27.343750
2792,27.343750
2793,29.296875
2794,29.296875
2795,29.296875
2796,29.296875
2797,27.343750
2798,29.296875
2799,27.343750
2800,29.296875
2801,29.296875
2802,29.296875
2803,29.296875
2804,29.296875
2805,29.296875
2806,29.296875
2807,29.296875
2808,29.296875
2809,29.296875
2810,29.296875
2811,29.296875
2812,29.296875
2813,29.296875
2814,29.296875
2815,29.296875
2816,29.296875
2817,29.296875
2818,29.296875
2819,31.250000
2820,29.296875
2821,29.296875
2822,29.296875
2823,29.296875
2824,29.296875
2825,29.296875
2826,29.296875
2827,31.250000
2828,29.296875
2829,29.296875
2830,29.296875
2831,29.296875
2832,29.296875
2833,29.296875
2834,29.296875
2835,29.296875
2836,29.296875
2837,29.296875
2838,29.296875
2839,29.296875
2840,29.296875
2841,29.296875
2842,29.296875
2843,29.296875
2844,29.296875
2845,29.296875
2846,29.296875
2847,29.296875
2848,29.296875
2849,29.296875
2850,29.296875
2851,29.296875
2852,29.296875
2853,29.296875
2854,29.296875
2855,29.296875
2856,29.296875
2857,27.343750
2858,29.296875
2859,27.343750
2860,27.343750
2861,27.343750
2862,27.343750
2863,29.296875
2864,27.343750
2865,27.343750
2866,27.343750
2867,27.343750
2868,27.343750
2869,25.390625
2870,27.343750
2871,27.343750
2872,27.343750
2873,27.343750
2874,27.343750
2875,27.343750
2876,27.343750
2877,27.343750
2878,27.343750
2879,27.343750
2880,27.343750
2881,25.390625
2882,25.390625
2883,25.390625
2884,25.390625
2885,25.390625
2886,25.390625
2887,25.390625
2888,23.437500
2889,25.390625
2890,25.390625
2891,25.390625
2892,25.390625
2893,25.390625
2894,23.437500
2895,23.437500
2896,25.390625
2897,23.437500
2898,23.437500
2899,23.437500
2900,25.390625
2901,23.437500
2902,23.437500
2903,23.437500
2904,23.437500
2905,21.484375
2906,21.484375
2907,21.484375
2908,21.484375
2909,21.484375
2910,21.484375
2911,21.484375
2912,21.484375
2913,21.484375
2914,19.531250
2915,19.531250
2916,19.531250
2917,19.531250
2918,19.531250
2919,19.531250
2920,17.578125
2921,17.578125
2922,17.578125
2923,17.578125
2924,17.578125
2925,17.578125
2926,17.578125
2927,17.578125
2928,15.625000
2929,17.578125
2930,15.625000
2931,15.625000
2932,15.625000
2933,15.625000
2934,15.625000
2935,13.671875
2936,15.625000
2937,13.671875
2938,13.671875
2939,13.671875
2940,13.671875
2941,13.671875
2942,11.718750
2943,11.718750
2944,11.718750
2945,11.718750
2946,11.718750
2947,11.718750
2948,9.765625
2949,5.859375
2950,9.765625
2951,9.765625
2952,9.765625
2953,9.765625
2954,7.812500
2955,7.812500
2956,7.812500
2957,7.812500
2958,7.812500
2959,7.812500
2960,5.859375
2961,5.859375
2962,5.859375
2963,5.859375
2964,3.906250
2965,3.906250
2966,3.906250
2967,3.906250
2968,1.953125
2969,1.953125
2970,1.953125
2971,0.000000
2972,1.953125
2973,0.000000
2974,0.000000
2975,0.000000
2976,0.000000
2977,0.000000
2978,-1.953125
2979,-1.953125
2980,-1.953125
2981,-1.953125
2982,-3.906250
2983,-3.906250
2984,-3.906250
2985,-3.906250
2986,-5.859375
2987,-5.859375
2988,-5.859375
2989,-5.859375
2990,-5.859375
2991,-7.812500
2992,-7.812500
2993,-7.812500
2994,-9.765625
2995,-9.765625
2996,-9.765625
2997,-9.765625
2998,-9.765625
2999,-11.718750
3000,-11.718750
3001,-11.718750
3002,-11.718750
3003,-13.671875
3004,-13.671875
3005,-13.671875
3006,-13.671875
3007,-13.671875
3008,-15.625000
3009,-15.625000
3010,-15.625000
3011,-15.625000
3012,-17.578125
3013,-17.578125
3014,-17.578125
3015,-17.578125
3016,-17.578125
3017,-19.531250
3018,-19.531250
3019,-19.531250
3020,-21.484375
3021,-21.484375
3022,-21.484375
3023,-21.484375
3024,-21.484375
3025,-21.484375
3026,-23.437500
3027,-23.437500
3028,-23.437500
3029,-25.390625
3030,-25.390625
3031,-25.390625
3032,-25.390625
3033,-27.343750
3034,-27.343750
3035,-27.343750
3036,-29.296875
3037,-27.343750
3038,-29.296875
3039,-29.296875
3040,-29.296875
3041,-29.296875
3042,-31.250000
3043,-31.250000
3044,-31.250000
3045,-31.250000
3046,-31.250000
3047,-33.203125
3048,-33.203125
3049,-33.203125
3050,-33.203125
3051,-35.156250
3052,-35.156250
3053,-35.156250
3054,-37.109375
3055,-37.109375
3056,-37.109375
3057,-37.109375
3058,-37.109375
3059,-37.109375
3060,-39.062500
3061,-39.062500
3062,-39.062500
3063,-39.062500
3064,-39.062500
3065,-41.015625
3066,-41.015625
3067,-41.015625
3068,-41.015625
3069,-41.015625
3070,-41.015625
3071,-42.968750
3072,-42.968750
3073,-42.968750
3074,-42.968750
3075,-42.968750
3076,-44.921875
3077,-44.921875
3078,-44.921875
3079,-44.921875
3080,-44.921875
3081,-44.921875
3082,-46.875000
3083,-46.875000
3084,-46.875000
3085,-48.828125
3086,-48.828125
3087,-48.828125
3088,-48.828125
3089,-48.828125
3090,-48.828125
3091,-48.828125
3092,-48.828125
3093,-50.781250
3094,-50.781250
3095,-50.781250
3096,-50.781250
3097,-50.781250
3098,-50.781250
3099,-50.781250
3100,-52.734375
3101,-52.734375
3102,-52.734375
3103,-52.734375
3104,-52.734375
3105,-52.734375
3106,-54.687500
3107,-52.734375
3108,-52.734375
3109,-52.734375
3110,-54.687500
3111,-54.687500
3112,-54.687500
3113,-54.687500
3114,-54.687500
3115,-54.687500
3116,-54.687500
3117,-56.640625
3118,-54.687500
3119,-54.687500
3120,-54.687500
3121,-54.687500
3122,-56.640625
3123,-56.640625
3124,-54.687500
3125,-56.640625
3126,-56.640625
3127,-56.640625
3128,-56.640625
3129,-56.640625
3130,-56.640625
3131,-56.640625
3132,-56.640625
3133,-56.640625
3134,-56.640625
3135,-56.640625
3136,-56.640625
3137,-56.640625
3138,-56.640625
3139,-56.640625
3140,-56.640625
3141,-56.640625
3142,-58.593750
3143,-56.640625
3144,-56.640625
3145,-56.640625
3146,-56.640625
3147,-56.640625
3148,-56.640625
3149,-56.640625
3150,-56.640625
3151,-56.640625
3152,-54.687500
3153,-54.687500
3154,-54.687500
3155,-54.687500
3156,-54.687500
3157,-54.687500
3158,-54.687500
3159,-54.687500
3160,-54.687500
3161,-54.687500
3162,-54.687500
3163,-54.687500
3164,-54.687500
3165,-54.687500
3166,-52.734375
3167,-52.734375
3168,-52.734375
3169,-52.734375
3170,-52.734375
3171,-52.734375
3172,-52.734375
3173,-50.781250
3174,-50.781250
3175,-52.734375
3176,-52.734375
3177,-50.781250
3178,-50.781250
3179,-50.781250
3180,-50.781250
3181,-50.781250
3182,-48.828125
3183,-48.828125
3184,-48.828125
3185,-48.828125
3186,-48.828125
3187,-48.828125
3188,-46.875000
3189,-46.875000
3190,-46.875000
3191,-46.875000
3192,-46.875000
3193,-44.921875
3194,-44.921875
3195,-44.921875
3196,-44.921875
3197,-42.968750
3198,-42.968750
3199,-42.968750
3200,-42.968750
3201,-42.968750
3202,-42.968750
3203,-41.015625
3204,-41.015625
3205,-41.015625
3206,-41.015625
3207,-39.062500
3208,-39.062500
3209,-39.062500
3210,-39.062500
3211,-39.062500
3212,-37.109375
3213,-37.109375
3214,-35.156250
3215,-35.156250
3216,-35.156250
3217,-35.156250
3218,-33.203125
3219,-33.203125
3220,-33.203125
3221,-33.203125
3222,-33.203125
3223,-31.250000
3224,-31.250000
3225,-31.250000
3226,-31.250000
3227,-29.296875
3228,-29.296875
3229,-29.296875
3230,-29.296875
3231,-27.343750
3232,-27.343750
3233,-27.343750
3234,-25.390625
3235,-25.390625
3236,-25.390625
3237,-23.437500
3238,-23.437500
3239,-23.437500
3240,-23.437500
3241,-23.437500
3242,-21.484375
3243,-21.484375
3244,-21.484375
3245,-19.531250
3246,-19.531250
3247,-19.531250
3248,-17.578125
3249,-17.578125
3250,-17.578125
3251,-17.578125
3252,-15.625000
3253,-15.625000
3254,-15.625000
3255,-13.671875
3256,-13.671875
3257,-13.671875
3258,-13.671875
3259,-11.718750
3260,-11.718750
3261,-9.765625
3262,-9.765625
3263,-9.765625
3264,-9.765625
3265,-9.765625
3266,-7.812500
3267,-7.812500
3268,-5.859375
3269,-5.859375
3270,-5.859375
3271,-5.859375
3272,-5.859375
3273,-3.906250
3274,-3.906250
3275,-1.953125
3276,-1.953125
3277,-1.953125
3278,-1.953125
3279,-1.953125
3280,0.000000
3281,0.000000
3282,0.000000
3283,0.000000
3284,3.906250
3285,1.953125
3286,1.953125
3287,3.906250
3288,1.953125
3289,3.906250
3290,5.859375
3291,3.906250
3292,5.859375
3293,5.859375
3294,5.859375
3295,5.859375
3296,5.859375
3297,7.812500
3298,7.812500
3299,7.812500
3300,7.812500
3301,9.765625
3302,9.765625
3303,9.765625
3304,9.765625
3305,9.765625
3306,11.718750
3307,11.718750
3308,11.718750
3309,11.718750
3310,13.671875
3311,11.718750
3312,13.671875
3313,13.671875
3314,13.671875
3315,13.671875
3316,15.625000
3317,15.625000
3318,15.625000
3319,15.625000
3320,15.625000
3321,17.578125
3322,17.578125
3323,17.578125
3324,17.578125
3325,17.578125
3326,17.578125
3327,19.531250
3328,19.531250
3329,19.531250
3330,19.531250
3331,19.531250
3332,19.531250
3333,21.484375
3334,19.531250
3335,21.484375
3336,21.484375
3337,21.484375
3338,21.484375
3339,23.437500
3340,21.484375
3341,23.437500
3342,23.437500
3343,23.437500
3344,23.437500
3345,23.437500
3346,23.437500
3347,23.437500
3348,25.390625
3349,23.437500
3350,25.390625
3351,25.390625
3352,25.390625
3353,25.390625
3354,25.390625
3355,25.390625
3356,25.390625
3357,25.390625
3358,25.390625
3359,25.390625
3360,25.390625
3361,25.390625
3362,27.343750
3363,25.390625
3364,27.343750
3365,27.343750
3366,27.343750
3367,27.343750
3368,27.343750
3369,27.343750
3370,27.343750
3371,27.343750
3372,27.343750
3373,27.343750
3374,27.343750
3375,27.343750
3376,27.343750
3377,27.343750
3378,27.343750
3379,29.296875
3380,27.343750
3381,27.343750
3382,29.296875
3383,27.343750
3384,29.296875
3385,29.296875
3386,29.296875
3387,29.296875
3388,29.296875
3389,29.296875
3390,29.296875
3391,29.296875
3392,29.296875
3393,29.296875
3394,29.296875
3395,29.296875
3396,29.296875
3397,29.296875
3398,29.296875
3399,29.296875
3400,29.296875
3401,29.296875
3402,29.296875
3403,29.296875
3404,29.296875
3405,29.296875
3406,29.296875
3407,29.296875
3408,29.296875
3409,29.296875
3410,31.250000
3411,31.250000
3412,31.250000
3413,29.296875
3414,29.296875
3415,29.296875
3416,29.296875
3417,29.296875
3418,29.296875
3419,29.296875
3420,29.296875
3421,29.296875
3422,29.296875
3423,29.296875
3424,29.296875
3425,29.296875
3426,29.296875
3427,29.296875
3428,29.296875
3429,29.296875
3430,29.296875
3431,29.296875
3432,29.296875
3433,29.296875
3434,29.296875
3435,27.343750
3436,29.296875
3437,27.343750
3438,29.296875
3439,29.296875
3440,27.343750
3441,27.343750
3442,27.343750
3443,27.343750
3444,27.343750
3445,27.343750
3446,27.343750
3447,27.343750
3448,27.343750
3449,27.343750
3450,27.343750
3451,27.343750
3452,27.343750
3453,27.343750
3454,25.390625
3455,27.343750
3456,27.343750
3457,27.343750
3458,25.390625
3459,27.343750
3460,25.390625
3461,25.390625
3462,27.343750
3463,27.343750
3464,25.390625
3465,25.390625
3466,25.390625
3467,25.390625
3468,25.390625
3469,25.390625
3470,25.390625
3471,25.390625
3472,25.390625
3473,23.437500
3474,23.437500
3475,25.390625
3476,23.437500
3477,23.437500
3478,23.437500
3479,23.437500
3480,23.437500
3481,23.437500
3482,23.437500
3483,23.437500
3484,23.437500
3485,21.484375
3486,21.484375
3487,21.484375
3488,21.484375
3489,21.484375
3490,21.484375
3491,21.484375
3492,21.484375
3493,19.531250
3494,19.531250
3495,19.531250
3496,19.531250
3497,19.531250
3498,19.531250
3499,19.531250
3500,19.531250
3501,19.531250
3502,17.578125
3503,17.578125
3504,17.578125
3505,17.578125
3506,17.578125
3507,17.578125
3508,17.578125
3509,15.625000
3510,17.578125
3511,15.625000
3512,15.625000
3513,15.625000
3514,15.625000
3515,15.625000
3516,13.671875
3517,15.625000
3518,13.671875
3519,13.671875
3520,13.671875
3521,13.671875
3522,11.718750
3523,13.671875
3524,11.718750
3525,9.765625
3526,11.718750
3527,11.718750
3528,11.718750
3529,11.718750
3530,9.765625
3531,9.765625
3532,9.765625
3533,9.765625
3534,9.765625
3535,9.765625
3536,7.812500
3537,7.812500
3538,7.812500
3539,7.812500
3540,7.812500
3541,5.859375
3542,5.859375
3543,5.859375
3544,5.859375
3545,3.906250
3546,3.906250
3547,3.906250
3548,3.906250
3549,3.906250
3550,3.906250
3551,1.953125
3552,1.953125
3553,1.953125
3554,1.953125
3555,1.953125
3556,0.000000
3557,0.000000
3558,0.000000
3559,0.000000
3560,-1.953125
3561,-1.953125
3562,-1.953125
3563,-3.906250
3564,-3.906250
3565,-3.906250
3566,-3.906250
3567,-3.906250
3568,-3.906250
3569,-5.859375
3570,-5.859375
3571,-5.859375
3572,-5.859375
3573,-7.812500
3574,-7.812500
3575,-7.812500
3576,-7.812500
3577,-7.812500
3578,-9.765625
3579,-9.765625
3580,-9.765625
3581,-9.765625
3582,-9.765625
3583,-11.718750
3584,-11.718750
3585,-13.671875
3586,-11.718750
3587,-13.671875
3588,-13.671875
3589,-13.671875
3590,-13.671875
3591,-15.625000
3592,-15.625000
3593,-15.625000
3594,-15.625000
3595,-15.625000
3596,-17.578125
3597,-17.578125
3598,-17.578125
3599,-17.578125
3600,-19.531250
3601,-19.531250
3602,-19.531250
3603,-19.531250
3604,-21.484375
3605,-21.484375
3606,-21.484375
3607,-21.484375
3608,-21.484375
3609,-23.437500
3610,-23.437500
3611,-23.437500
3612,-25.390625
3613,-25.390625
3614,-25.390625
3615,-25.390625
3616,-27.343750
3617,-27.343750
3618,-27.343750
3619,-27.343750
3620,-29.296875
3621,-29.296875
3622,-29.296875
3623,-29.296875
3624,-29.296875
3625,-31.250000
3626,-31.250000
3627,-31.250000
3628,-31.250000
3629,-33.203125
3630,-33.203125
3631,-33.203125
3632,-33.203125
3633,-35.156250
3634,-35.156250
3635,-35.156250
3636,-35.156250
3637,-35.156250
3638,-37.109375
3639,-37.109375
3640,-37.109375
3641,-37.109375
3642,-37.109375
3643,-39.062500
3644,-39.062500
3645,-39.062500
3646,-39.062500
3647,-39.062500
3648,-41.015625
3649,-41.015625
3650,-41.015625
3651,-41.015625
3652,-41.015625
3653,-42.968750
3654,-42.968750
3655,-42.968750
3656,-42.968750
3657,-42.968750
3658,-42.968750
3659,-44.921875
3660,-44.921875
3661,-44.921875
3662,-44.921875
3663,-44.921875
3664,-44.921875
3665,-46.875000
3666,-46.875000
3667,-46.875000
3668,-46.875000
3669,-46.875000
3670,-48.828125
3671,-48.828125
3672,-48.828125
3673,-48.828125
3674,-48.828125
3675,-48.828125
3676,-48.828125
3677,-50.781250
3678,-50.781250
3679,-50.781250
3680,-50.781250
3681,-50.781250
3682,-50.781250
3683,-50.781250
3684,-52.734375
3685,-52.734375
3686,-52.734375
3687,-52.734375
3688,-52.734375
3689,-52.734375
3690,-54.687500
3691,-54.687500
3692,-52.734375
3693,-54.687500
3694,-54.687500
3695,-54.687500
3696,-54.687500
3697,-54.687500
3698,-54.687500
3699,-54.687500
3700,-54.687500
3701,-54.687500
3702,-56.640625
3703,-56.640625
3704,-54.687500
3705,-56.640625
3706,-56.640625
3707,-56.640625
3708,-56.640625
3709,-56.640625
3710,-56.640625
3711,-56.640625
3712,-56.640625
3713,-56.640625
3714,-56.640625
3715,-56.640625
3716,-56.640625
3717,-56.640625
3718,-56.640625
3719,-56.640625
3720,-56.640625
3721,-56.640625
3722,-56.640625
3723,-56.640625
3724,-56.640625
3725,-56.640625
3726,-56.640625
3727,-56.640625
3728,-54.687500
3729,-54.687500
3730,-56.640625
3731,-54.687500
3732,-56.640625
3733,-56.640625
3734,-56.640625
3735,-56.640625
3736,-54.687500
3737,-54.687500
3738,-54.687500
3739,-54.687500
3740,-54.687500
3741,-54.687500
3742,-54.687500
3743,-54.687500
3744,-54.687500
3745,-54.687500
3746,-54.687500
3747,-54.687500
3748,-54.687500
3749,-54.687500
3750,-52.734375
3751,-52.734375
3752,-52.734375
3753,-52.734375
3754,-52.734375
3755,-52.734375
3756,-52.734375
3757,-52.734375
3758,-52.734375
3759,-50.781250
3760,-50.781250
3761,-50.781250
3762,-50.781250
3763,-50.781250
3764,-50.781250
3765,-48.828125
3766,-48.828125
3767,-48.828125
3768,-48.828125
3769,-48.828125
3770,-46.875000
3771,-46.875000
3772,-46.875000
3773,-46.875000
3774,-46.875000
3775,-46.875000
3776,-44.921875
3777,-44.921875
3778,-44.921875
3779,-44.921875
3780,-44.921875
3781,-42.968750
3782,-42.968750
3783,-42.968750
3784,-42.968750
3785,-41.015625
3786,-41.015625
3787,-41.015625
3788,-41.015625
3789,-39.062500
3790,-39.062500
3791,-39.062500
3792,-39.062500
3793,-39.062500
3794,-37.109375
3795,-37.109375
3796,-37.109375
3797,-37.109375
3798,-35.156250
3799,-35.156250
3800,-35.156250
3801,-35.156250
3802,-35.156250
3803,-33.203125
3804,-33.203125
3805,-33.203125
3806,-31.250000
3807,-31.250000
3808,-31.250000
3809,-31.250000
3810,-29.296875
3811,-29.296875
3812,-29.296875
3813,-29.296875
3814,-27.343750
3815,-27.343750
3816,-27.343750
3817,-25.390625
3818,-25.390625
3819,-25.390625
3820,-25.390625
3821,-25.390625
3822,-23.437500
3823,-23.437500
3824,-21.484375
3825,-21.484375
3826,-21.484375
3827,-21.484375
3828,-19.531250
3829,-19.531250
3830,-19.531250
3831,-17.578125
3832,-17.578125
3833,-17.578125
3834,-17.578125
3835,-17.578125
3836,-15.625000
3837,-15.625000
3838,-13.671875
3839,-13.671875
3840,-13.671875
3841,-13.671875
3842,-11.718750
3843,-11.718750
3844,-9.765625
3845,-9.765625
3846,-9.765625
3847,-9.765625
3848,-9.765625
3849,-7.812500
3850,-7.812500
3851,-5.859375
3852,-5.859375
3853,-5.859375
3854,-5.859375
3855,-5.859375
3856,-3.906250
3857,-3.906250
3858,-1.953125
3859,-1.953125
3860,-1.953125
3861,-1.953125
3862,-1.953125
3863,0.000000
3864,0.000000
3865,0.000000
3866,1.953125
3867,1.953125
3868,1.953125
3869,1.953125
3870,1.953125
3871,3.906250
3872,3.906250
3873,3.906250
3874,5.859375
3875,5.859375
3876,5.859375
3877,7.812500
3878,5.859375
3879,5.859375
3880,7.812500
3881,7.812500
3882,7.812500
3883,7.812500
3884,7.812500
3885,9.765625
3886,9.765625
3887,9.765625
3888,9.765625
3889,9.765625
3890,11.718750
3891,11.718750
3892,11.718750
3893,11.718750
3894,13.671875
3895,13.671875
3896,13.671875
3897,13.671875
3898,15.625000
3899,15.625000
3900,15.625000
3901,15.625000
3902,15.625000
3903,17.578125
3904,15.625000
3905,17.578125
3906,17.578125
3907,17.578125
3908,17.578125
3909,17.578125
3910,19.531250
3911,19.531250
3912,19.531250
3913,19.531250
3914,19.531250
3915,19.531250
3916,21.484375
3917,21.484375
3918,21.484375
3919,21.484375
3920,21.484375
3921,23.437500
3922,21.484375
3923,21.484375
3924,23.437500
3925,23.437500
3926,23.437500
3927,23.437500
3928,23.437500
3929,23.437500
3930,23.437500
3931,23.437500
3932,23.437500
3933,25.390625
3934,25.390625
3935,23.437500
3936,25.390625
3937,25.390625
3938,25.390625
3939,25.390625
3940,25.390625
3941,25.390625
3942,25.390625
3943,27.343750
3944,25.390625
3945,27.343750
3946,27.343750
3947,27.343750
3948,27.343750
3949,27.343750
3950,27.343750
3951,27.343750
3952,27.343750
3953,27.343750
3954,27.343750
3955,27.343750
3956,27.343750
3957,27.343750
3958,27.343750
3959,27.343750
3960,27.343750
3961,27.343750
3962,27.343750
3963,29.296875
3964,29.296875
3965,29.296875
3966,29.296875
3967,29.296875
3968,29.296875
3969,29.296875
3970,29.296875
3971,29.296875
3972,29.296875
3973,29.296875
3974,29.296875
3975,29.296875
3976,29.296875
3977,29.296875
3978,29.296875
3979,29.296875
3980,29.296875
3981,29.296875
3982,29.296875
3983,29.296875
3984,29.296875
3985,29.296875
3986,29.296875
3987,29.296875
3988,29.296875
3989,29.296875
3990,29.296875
3991,29.296875
3992,29.296875
3993,29.296875
3994,29.296875
3995,29.296875
3996,29.296875
3997,29.296875
3998,29.296875
3999,29.296875
4000,29.296875
4001,29.296875
4002,29.296875
4003,29.296875
4004,29.296875
4005,29.296875
4006,29.296875
4007,29.296875
4008,29.296875
4009,29.296875
4010,29.296875
4011,29.296875
4012,29.296875
4013,29.296875
4014,29.296875
4015,29.296875
4016,29.296875
4017,29.296875
4018,29.296875
4019,29.296875
4020,29.296875
4021,27.343750
4022,27.343750
4023,29.296875
4024,27.343750
4025,27.343750
4026,27.343750
4027,27.343750
4028,27.343750
4029,27.343750
4030,27.343750
4031,27.343750
4032,27.343750
4033,27.343750
4034,27.343750
4035,27.343750
4036,27.343750
4037,27.343750
4038,27.343750
4039,27.343750
4040,27.343750
4041,25.390625
4042,27.343750
4043,27.343750
4044,25.390625
4045,27.343750
4046,27.343750
4047,25.390625
4048,25.390625
4049,25.390625
4050,25.390625
4051,25.390625
4052,25.390625
4053,25.390625
4054,25.390625
4055,25.390625
4056,23.437500
4057,23.437500
4058,23.437500
4059,25.390625
4060,25.390625
4061,23.437500
4062,23.437500
4063,23.437500
4064,23.437500
4065,23.437500
4066,23.437500
4067,23.437500
4068,23.437500
4069,23.437500
4070,23.437500
4071,21.484375
4072,21.484375
4073,21.484375
4074,21.484375
4075,21.484375
4076,21.484375
4077,19.531250
4078,19.531250
4079,19.531250
4080,19.531250
4081,19.531250
4082,19.531250
4083,19.531250
4084,19.531250
4085,17.578125
4086,17.578125
4087,17.578125
4088,17.578125
4089,17.578125
4090,17.578125
4091,17.578125
4092,17.578125
4093,17.578125
4094,15.625000
4095,15.625000
4096,15.625000
4097,15.625000
4098,15.625000
4099,15.625000
4100,15.625000
4101,15.625000
4102,13.671875
4103,13.671875
4104,13.671875
4105,11.718750
4106,13.671875
4107,15.625000
4108,11.718750
4109,11.718750
4110,11.718750
4111,9.765625
4112,11.718750
4113,9.765625
4114,9.765625
4115,11.718750
4116,9.765625
4117,9.765625
4118,9.765625
4119,9.765625
4120,7.812500
4121,7.812500
4122,7.812500
4123,7.812500
4124,5.859375
4125,5.859375
4126,5.859375
4127,5.859375
4128,5.859375
4129,3.906250
4130,3.906250
4131,3.906250
4132,3.906250
4133,1.953125
4134,3.906250
4135,1.953125
4136,1.953125
4137,1.953125
4138,1.953125
4139,0.000000
4140,-1.953125
4141,0.000000
4142,-1.953125
4143,-1.953125
4144,-1.953125
4145,-1.953125
4146,-1.953125
4147,-3.906250
4148,-3.906250
4149,-3.906250
4150,-3.906250
4151,-3.906250
4152,-5.859375
4153,-5.859375
4154,-5.859375
4155,-7.812500
4156,-7.812500
4157,-7.812500
4158,-7.812500
4159,-7.812500
4160,-7.812500
4161,-9.765625
4162,-9.765625
4163,-9.765625
4164,-9.765625
4165,-11.718750
4166,-11.718750
4167,-11.718750
4168,-11.718750
4169,-13.671875
4170,-13.671875
4171,-13.671875
4172,-13.671875
4173,-13.671875
4174,-15.625000
4175,-15.625000
4176,-15.625000
4177,-15.625000
4178,-17.578125
4179,-17.578125
4180,-17.578125
4181,-17.578125
4182,-19.531250
4183,-19.531250
4184,-19.531250
4185,-19.531250
4186,-19.531250
4187,-21.484375
4188,-21.484375
4189,-21.484375
4190,-23.437500
4191,-21.484375
4192,-23.437500
4193,-23.437500
4194,-23.437500
4195,-25.390625
4196,-25.390625
4197,-25.390625
4198,-25.390625
4199,-27.343750
4200,-27.343750
4201,-27.343750
4202,-27.343750
4203,-27.343750
4204,-29.296875
4205,-29.296875
4206,-29.296875
4207,-29.296875
4208,-29.296875
4209,-31.250000
4210,-31.250000
4211,-33.203125
4212,-33.203125
4213,-33.203125
4214,-33.203125
4215,-33.203125
4216,-33.203125
4217,-35.156250
4218,-35.156250
4219,-35.156250
4220,-35.156250
4221,-35.156250
4222,-37.109375
4223,-37.109375
4224,-37.109375
4225,-37.109375
4226,-39.062500
4227,-39.062500
4228,-39.062500
4229,-39.062500
4230,-39.062500
4231,-41.015625
4232,-41.015625
4233,-41.015625
4234,-41.015625
4235,-41.015625
4236,-42.968750
4237,-42.968750
4238,-42.968750
4239,-42.968750
4240,-42.968750
4241,-42.968750
4242,-42.968750
4243,-44.921875
4244,-44.921875
4245,-44.921875
4246,-44.921875
4247,-46.875000
4248,-44.921875
4249,-46.875000
4250,-46.875000
4251,-46.875000
4252,-46.875000
4253,-48.828125
4254,-48.828125
4255,-48.828125
4256,-48.828125
4257,-48.828125
4258,-48.828125
4259,-48.828125
4260,-48.828125
4261,-50.781250
4262,-50.781250
4263,-50.781250
4264,-50.781250
4265,-50.781250
4266,-52.734375
4267,-50.781250
4268,-50.781250
4269,-52.734375
4270,-52.734375
4271,-52.734375
4272,-52.734375
4273,-52.734375
4274,-52.734375
4275,-54.687500
4276,-54.687500
4277,-54.687500
4278,-54.687500
4279,-54.687500
4280,-54.687500
4281,-54.687500
4282,-54.687500
4283,-54.687500
4284,-54.687500
4285,-54.687500
4286,-54.687500
4287,-56.640625
4288,-56.640625
4289,-56.640625
4290,-54.687500
4291,-56.640625
4292,-54.687500
4293,-56.640625
4294,-56.640625
4295,-56.640625
4296,-56.640625
4297,-56.640625
4298,-56.640625
4299,-56.640625
4300,-56.640625
4301,-56.640625
4302,-56.640625
4303,-56.640625
4304,-56.640625
4305,-56.640625
4306,-56.640625
4307,-56.640625
4308,-56.640625
4309,-56.640625
4310,-56.640625
4311,-56.640625
4312,-56.640625
4313,-56.640625
4314,-56.640625
4315,-56.640625
4316,-56.640625
4317,-54.687500
4318,-54.687500
4319,-56.640625
4320,-54.687500
4321,-54.687500
4322,-56.640625
4323,-54.687500
4324,-54.687500
4325,-54.687500
4326,-54.687500
4327,-54.687500
4328,-54.687500
4329,-54.687500
4330,-54.687500
4331,-54.687500
4332,-54.687500
4333,-52.734375
4334,-54.687500
4335,-52.734375
4336,-52.734375
4337,-52.734375
4338,-52.734375
4339,-52.734375
4340,-52.734375
4341,-52.734375
4342,-50.781250
4343,-50.781250
4344,-50.781250
4345,-50.781250
4346,-50.781250
4347,-50.781250
4348,-48.828125
4349,-48.828125
4350,-48.828125
4351,-48.828125
4352,-48.828125
4353,-46.875000
4354,-48.828125
4355,-46.875000
4356,-46.875000
4357,-44.921875
4358,-46.875000
4359,-46.875000
4360,-44.921875
4361,-44.921875
4362,-44.921875
4363,-44.921875
4364,-42.968750
4365,-42.968750
4366,-42.968750
4367,-42.968750
4368,-41.015625
4369,-41.015625
4370,-41.015625
4371,-41.015625
4372,-41.015625
4373,-39.062500
4374,-39.062500
4375,-39.062500
4376,-39.062500
4377,-37.109375
4378,-37.109375
4379,-37.109375
4380,-37.109375
4381,-35.156250
4382,-35.156250
4383,-35.156250
4384,-35.156250
4385,-33.203125
4386,-33.203125
4387,-33.203125
4388,-33.203125
4389,-31.250000
4390,-31.250000
4391,-31.250000
4392,-31.250000
4393,-29.296875
4394,-29.296875
4395,-29.296875
4396,-27.343750
4397,-27.343750
4398,-27.343750
4399,-25.390625
4400,-25.390625
4401,-25.390625
4402,-25.390625
4403,-25.390625
4404,-23.437500
4405,-23.437500
4406,-23.437500
4407,-21.484375
4408,-21.484375
4409,-21.484375
4410,-19.531250
4411,-19.531250
4412,-19.531250
4413,-19.531250
4414,-19.531250
4415,-17.578125
4416,-17.578125
4417,-17.578125
4418,-17.578125
4419,-15.625000
4420,-15.625000
4421,-13.671875
4422,-13.671875
4423,-13.671875
4424,-11.718750
4425,-11.718750
4426,-11.718750
4427,-11.718750
4428,-9.765625
4429,-9.765625
4430,-9.765625
4431,-7.812500
4432,-7.812500
4433,-7.812500
4434,-5.859375
4435,-5.859375
4436,-5.859375
4437,-5.859375
4438,-3.906250
4439,-3.906250
4440,-3.906250
4441,-3.906250
4442,-1.953125
4443,-1.953125
4444,-1.953125
4445,0.000000
4446,0.000000
4447,1.953125
4448,0.000000
4449,0.000000
4450,1.953125
4451,1.953125
4452,1.953125
4453,1.953125
4454,3.906250
4455,3.906250
4456,3.906250
4457,5.859375
4458,5.859375
4459,5.859375
4460,5.859375
4461,5.859375
4462,7.812500
4463,7.812500
4464,7.812500
4465,7.812500
4466,7.812500
4467,9.765625
4468,9.765625
4469,9.765625
4470,9.765625
4471,11.718750
4472,11.718750
4473,11.718750
4474,11.718750
4475,11.718750
4476,13.671875
4477,13.671875
4478,13.671875
4479,13.671875
4480,13.671875
4481,15.625000
4482,15.625000
4483,15.625000
4484,15.625000
4485,15.625000
4486,15.625000
4487,17.578125
4488,17.578125
4489,17.578125
4490,17.578125
4491,17.578125
4492,19.531250
4493,19.531250
4494,19.531250
4495,19.531250
4496,19.531250
4497,21.484375
4498,21.484375
4499,21.484375
4500,21.484375
4501,21.484375
4502,21.484375
4503,21.484375
4504,21.484375
4505,21.484375
4506,21.484375
4507,23.437500
4508,23.437500
4509,23.437500
4510,23.437500
4511,23.437500
4512,23.437500
4513,23.437500
4514,25.390625
4515,23.437500
4516,23.437500
4517,23.437500
4518,25.390625
4519,25.390625
4520,25.390625
4521,25.390625
4522,25.390625
4523,25.390625
4524,25.390625
4525,25.390625
4526,25.390625
4527,25.390625
4528,25.390625
4529,27.343750
4530,25.390625
4531,27.343750
4532,27.343750
4533,27.343750
4534,27.343750
4535,27.343750
4536,27.343750
4537,27.343750
4538,27.343750
4539,27.343750
4540,27.343750
4541,29.296875
4542,27.343750
4543,27.343750
4544,27.343750
4545,29.296875
4546,29.296875
4547,29.296875
4548,27.343750
4549,29.296875
4550,29.296875
4551,29.296875
4552,29.296875
4553,29.296875
4554,29.296875
4555,29.296875
4556,29.296875
4557,29.296875
4558,29.296875
4559,29.296875
4560,29.296875
4561,31.250000
4562,29.296875
4563,29.296875
4564,29.296875
4565,29.296875
4566,29.296875
4567,31.250000
4568,29.296875
4569,29.296875
4570,29.296875
4571,31.250000
4572,29.296875
4573,29.296875
4574,29.296875
4575,31.250000
4576,31.250000
4577,29.296875
4578,29.296875
4579,29.296875
4580,29.296875
4581,31.250000
4582,29.296875
4583,29.296875
4584,29.296875
4585,29.296875
4586,29.296875
4587,29.296875
4588,29.296875
4589,29.296875
4590,29.296875
4591,29.296875
4592,29.296875
4593,29.296875
4594,29.296875
4595,29.296875
4596,29.296875
4597,29.296875
4598,29.296875
4599,29.296875
4600,29.296875
4601,29.296875
4602,29.296875
4603,27.343750
4604,29.296875
4605,27.343750
4606,29.296875
4607,29.296875
4608,27.343750
4609,29.296875
4610,27.343750
4611,27.343750
4612,27.343750
4613,27.343750
4614,27.343750
4615,27.343750
4616,27.343750
4617,29.296875
4618,27.343750
4619,27.343750
4620,27.343750
4621,27.343750
4622,27.343750
4623,27.343750
4624,27.343750
4625,25.390625
4626,27.343750
4627,27.343750
4628,27.343750
4629,27.343750
4630,25.390625
4631,25.390625
4632,27.343750
4633,25.390625
4634,25.390625
4635,25.390625
4636,25.390625
4637,25.390625
4638,25.390625
4639,25.390625
4640,23.437500
4641,25.390625
4642,25.390625
4643,23.437500
4644,23.437500
4645,23.437500
4646,23.437500
4647,23.437500
4648,23.437500
4649,23.437500
4650,23.437500
4651,23.437500
4652,21.484375
4653,21.484375
4654,21.484375
4655,21.484375
4656,21.484375
4657,21.484375
4658,21.484375
4659,21.484375
4660,19.531250
4661,21.484375
4662,19.531250
4663,19.531250
4664,19.531250
4665,19.531250
4666,19.531250
4667,19.531250
4668,19.531250
4669,17.578125
4670,17.578125
4671,17.578125
4672,17.578125
4673,17.578125
4674,17.578125
4675,17.578125
4676,17.578125
4677,15.625000
4678,15.625000
4679,15.625000
4680,15.625000
4681,15.625000
4682,15.625000
4683,15.625000
4684,15.625000
4685,9.765625
4686,13.671875
4687,13.671875
4688,13.671875
4689,13.671875
4690,13.671875
4691,11.718750
4692,11.718750
4693,11.718750
4694,11.718750
4695,11.718750
4696,9.765625
4697,9.765625
4698,5.859375
4699,9.765625
4700,9.765625
4701,5.859375
4702,7.812500
4703,7.812500
4704,7.812500
4705,7.812500
4706,5.859375
4707,5.859375
4708,5.859375
4709,5.859375
4710,5.859375
4711,3.906250
4712,3.906250
4713,3.906250
4714,3.906250
4715,3.906250
4716,3.906250
4717,1.953125
4718,1.953125
4719,1.953125
4720,1.953125
4721,0.000000
4722,0.000000
4723,0.000000
4724,0.000000
4725,-1.953125
4726,0.000000
4727,-1.953125
4728,-1.953125
4729,-1.953125
4730,-3.906250
4731,-3.906250
4732,-3.906250
4733,-3.906250
4734,-5.859375
4735,-5.859375
4736,-5.859375
4737,-5.859375
4738,-5.859375
4739,-7.812500
4740,-7.812500
4741,-7.812500
4742,-7.812500
4743,-7.812500
4744,-9.765625
4745,-9.765625
4746,-9.765625
4747,-9.765625
4748,-9.765625
4749,-11.718750
4750,-11.718750
4751,-13.671875
4752,-13.671875
4753,-13.671875
4754,-13.671875
4755,-13.671875
4756,-15.625000
4757,-15.625000
4758,-15.625000
4759,-15.625000
4760,-15.625000
4761,-17.578125
4762,-17.578125
4763,-17.578125
4764,-17.578125
4765,-19.531250
4766,-19.531250
4767,-19.531250
4768,-19.531250
4769,-21.484375
4770,-21.484375
4771,-21.484375
4772,-21.484375
4773,-23.437500
4774,-23.437500
4775,-23.437500
4776,-23.437500
4777,-23.437500
4778,-25.390625
4779,-25.390625
4780,-25.390625
4781,-27.343750
4782,-25.390625
4783,-27.343750
4784,-27.343750
4785,-29.296875
4786,-27.343750
4787,-29.296875
4788,-29.296875
4789,-29.296875
4790,-31.250000
4791,-31.250000
4792,-31.250000
4793,-31.250000
4794,-33.203125
4795,-33.203125
4796,-33.203125
4797,-33.203125
4798,-33.203125
4799,-35.156250
4800,-35.156250
4801,-35.156250
4802,-35.156250
4803,-37.109375
4804,-37.109375
4805,-37.109375
4806,-37.109375
4807,-37.109375
4808,-39.062500
4809,-39.062500
4810,-39.062500
4811,-39.062500
4812,-39.062500
4813,-41.015625
4814,-41.015625
4815,-41.015625
4816,-41.015625
4817,-41.015625
4818,-42.968750
4819,-41.015625
4820,-42.968750
4821,-42.968750
4822,-42.968750
4823,-42.968750
4824,-42.968750
4825,-44.921875
4826,-44.921875
4827,-44.921875
4828,-44.921875
4829,-44.921875
4830,-46.875000
4831,-46.875000
4832,-46.875000
4833,-46.875000
4834,-46.875000
4835,-48.828125
4836,-48.828125
4837,-48.828125
4838,-48.828125
4839,-48.828125
4840,-48.828125
4841,-48.828125
4842,-48.828125
4843,-50.781250
4844,-50.781250
4845,-50.781250
4846,-50.781250
4847,-50.781250
4848,-50.781250
4849,-50.781250
4850,-52.734375
4851,-52.734375
4852,-52.734375
4853,-52.734375
4854,-52.734375
4855,-52.734375
4856,-52.734375
4857,-54.687500
4858,-54.687500
4859,-54.687500
4860,-54.687500
4861,-54.687500
4862,-54.687500
4863,-54.687500
4864,-54.687500
4865,-54.687500
4866,-54.687500
4867,-54.687500
4868,-56.640625
4869,-56.640625
4870,-56.640625
4871,-56.640625
4872,-56.640625
4873,-56.640625
4874,-56.640625
4875,-56.640625
4876,-56.640625
4877,-56.640625
4878,-56.640625
4879,-56.640625
4880,-56.640625
4881,-56.640625
4882,-56.640625
4883,-56.640625
4884,-56.640625
4885,-56.640625
4886,-56.640625
4887,-56.640625
4888,-56.640625
4889,-56.640625
4890,-56.640625
4891,-56.640625
4892,-56.640625
4893,-56.640625
4894,-56.640625
4895,-56.640625
4896,-56.640625
4897,-56.640625
4898,-56.640625
4899,-56.640625
4900,-56.640625
4901,-56.640625
4902,-56.640625
4903,-54.687500
4904,-54.687500
4905,-54.687500
4906,-54.687500
4907,-54.687500
4908,-54.687500
4909,-54.687500
4910,-54.687500
4911,-54.687500
4912,-54.687500
4913,-54.687500
4914,-52.734375
4915,-54.687500
4916,-54.687500
4917,-52.734375
4918,-52.734375
4919,-52.734375
4920,-52.734375
4921,-52.734375
4922,-52.734375
4923,-52.734375
4924,-52.734375
4925,-50.781250
4926,-50.781250
4927,-50.781250
4928,-50.781250
4929,-50.781250
4930,-50.781250
4931,-48.828125
4932,-48.828125
4933,-48.828125
4934,-48.828125
4935,-48.828125
4936,-48.828125
4937,-48.828125
4938,-46.875000
4939,-46.875000
4940,-44.921875
4941,-44.921875
4942,-46.875000
4943,-44.921875
4944,-44.921875
4945,-44.921875
4946,-44.921875
4947,-42.968750
4948,-42.968750
4949,-42.968750
4950,-42.968750
4951,-42.968750
4952,-41.015625
4953,-41.015625
4954,-41.015625
4955,-39.062500
4956,-39.062500
4957,-39.062500
4958,-39.062500
4959,-39.062500
4960,-37.109375
4961,-37.109375
4962,-37.109375
4963,-37.109375
4964,-35.156250
4965,-35.156250
4966,-35.156250
4967,-35.156250
4968,-33.203125
4969,-33.203125
4970,-33.203125
4971,-33.203125
4972,-33.203125
4973,-31.250000
4974,-31.250000
4975,-29.296875
4976,-29.296875
4977,-29.296875
4978,-29.296875
4979,-29.296875
4980,-27.343750
4981,-27.343750
4982,-27.343750
4983,-27.343750
4984,-25.390625
4985,-25.390625
4986,-23.437500
4987,-23.437500
4988,-23.437500
4989,-23.437500
4990,-21.484375
4991,-21.484375
4992,-21.484375
4993,-19.531250
4994,-19.531250
4995,-19.531250
4996,-19.531250
4997,-17.578125
4998,-17.578125
4999,-17.578125
5000,-15.625000
5001,-15.625000
5002,-15.625000
5003,-13.671875
5004,-13.671875
5005,-13.671875
5006,-13.671875
5007,-11.718750
5008,-11.718750
5009,-11.718750
5010,-9.765625
5011,-9.765625
5012,-9.765625
5013,-9.765625
5014,-7.812500
5015,-7.812500
5016,-7.812500
5017,-5.859375
5018,-5.859375
5019,-5.859375
5020,-3.906250
5021,-3.906250
5022,-3.906250
5023,-3.906250
5024,-1.953125
5025,-1.953125
5026,-1.953125
5027,-1.953125
5028,0.000000
5029,0.000000
5030,1.953125
5031,0.000000
5032,0.000000
5033,1.953125
5034,1.953125
5035,1.953125
5036,3.906250
5037,3.906250
5038,3.906250
5039,3.906250
5040,5.859375
5041,5.859375
5042,5.859375
5043,5.859375
5044,5.859375
5045,7.812500
5046,7.812500
5047,7.812500
5048,7.812500
5049,9.765625
5050,9.765625
5051,9.765625
5052,9.765625
5053,9.765625
5054,11.718750
5055,11.718750
5056,11.718750
5057,11.718750
5058,11.718750
5059,13.671875
5060,13.671875
5061,13.671875
5062,13.671875
5063,13.671875
5064,15.625000
5065,15.625000
5066,15.625000
5067,15.625000
5068,15.625000
5069,17.578125
5070,17.578125
5071,17.578125
5072,17.578125
5073,17.578125
5074,17.578125
5075,17.578125
5076,19.531250
5077,19.531250
5078,19.531250
5079,19.531250
5080,21.484375
5081,21.484375
5082,21.484375
5083,21.484375
5084,21.484375
5085,21.484375
5086,21.484375
5087,23.437500
5088,23.437500
5089,21.484375
5090,23.437500
5091,23.437500
5092,23.437500
5093,25.390625
5094,23.437500
5095,23.437500
5096,23.437500
5097,25.390625
5098,25.390625
5099,25.390625
5100,25.390625
5101,25.390625
5102,25.390625
5103,25.390625
5104,25.390625
5105,27.343750
5106,25.390625
5107,25.390625
5108,27.343750
5109,27.343750
5110,25.390625
5111,27.343750
5112,27.343750
5113,27.343750
5114,27.343750
5115,27.343750
5116,27.343750
5117,27.343750
5118,27.343750
5119,27.343750
5120,27.343750
5121,27.343750
5122,27.343750
5123,27.343750
5124,27.343750
5125,29.296875
5126,29.296875
5127,27.343750
5128,29.296875
5129,29.296875
5130,29.296875
5131,29.296875
5132,29.296875
5133,29.296875
5134,29.296875
5135,29.296875
5136,29.296875
5137,29.296875
5138,29.296875
5139,29.296875
5140,29.296875
5141,29.296875
5142,29.296875
5143,29.296875
5144,29.296875
5145,31.250000
5146,29.296875
5147,29.296875
5148,31.250000
5149,31.250000
5150,29.296875
5151,29.296875
5152,31.250000
5153,29.296875
5154,31.250000
5155,31.250000
5156,31.250000
5157,31.250000
5158,29.296875
5159,29.296875
5160,31.250000
5161,29.296875
5162,29.296875
5163,29.296875
5164,29.296875
5165,29.296875
5166,29.296875
5167,29.296875
5168,29.296875
5169,29.296875
5170,29.296875
5171,29.296875
5172,29.296875
5173,29.296875
5174,29.296875
5175,29.296875
5176,29.296875
5177,29.296875
5178,29.296875
5179,29.296875
5180,29.296875
5181,29.296875
5182,29.296875
5183,27.343750
5184,29.296875
5185,29.296875
5186,29.296875
5187,29.296875
5188,29.296875
5189,29.296875
5190,29.296875
5191,27.343750
5192,27.343750
5193,27.343750
5194,27.343750
5195,27.343750
5196,27.343750
5197,27.343750
5198,27.343750
5199,27.343750
5200,27.343750
5201,27.343750
5202,27.343750
5203,27.343750
5204,27.343750
5205,27.343750
5206,27.343750
5207,27.343750
5208,27.343750
5209,27.343750
5210,27.343750
5211,25.390625
5212,25.390625
5213,25.390625
5214,25.390625
5215,25.390625
5216,25.390625
5217,25.390625
5218,25.390625
5219,25.390625
5220,25.390625
5221,25.390625
5222,25.390625
5223,23.437500
5224,23.437500
5225,23.437500
5226,23.437500
5227,25.390625
5228,23.437500
5229,23.437500
5230,23.437500
5231,23.437500
5232,23.437500
5233,21.484375
5234,21.484375
5235,21.484375
5236,21.484375
5237,21.484375
5238,21.484375
5239,21.484375
5240,21.484375
5241,21.484375
5242,19.531250
5243,19.531250
5244,21.484375
5245,19.531250
5246,19.531250
5247,19.531250
5248,19.531250
5249,19.531250
5250,19.531250
5251,19.531250
5252,17.578125
5253,17.578125
5254,17.578125
5255,17.578125
5256,17.578125
5257,17.578125
5258,17.578125
5259,17.578125
5260,15.625000
5261,15.625000
5262,15.625000
5263,15.625000
5264,15.625000
5265,15.625000
5266,13.671875
5267,13.671875
5268,13.671875
5269,13.671875
5270,13.671875
5271,13.671875
5272,11.718750
5273,11.718750
5274,11.718750
5275,11.718750
5276,11.718750
5277,11.718750
5278,11.718750
5279,9.765625
5280,9.765625
5281,9.765625
5282,9.765625
5283,9.765625
5284,7.812500
5285,7.812500
5286,7.812500
5287,7.812500
5288,7.812500
5289,7.812500
5290,5.859375
5291,5.859375
5292,5.859375
5293,3.906250
5294,3.906250
5295,1.953125
5296,3.906250
5297,3.906250
5298,3.906250
5299,1.953125
5300,3.906250
5301,1.953125
5302,1.953125
5303,0.000000
5304,0.000000
5305,0.000000
5306,0.000000
5307,0.000000
5308,-1.953125
5309,-1.953125
5310,-1.953125
5311,-1.953125
5312,-1.953125
5313,-3.906250
5314,-3.906250
5315,-3.906250
5316,-3.906250
5317,-5.859375
5318,-5.859375
5319,-5.859375
5320,-5.859375
5321,-7.812500
5322,-7.812500
5323,-7.812500
5324,-7.812500
5325,-7.812500
5326,-9.765625
5327,-9.765625
5328,-9.765625
5329,-9.765625
5330,-9.765625
5331,-11.718750
5332,-11.718750
5333,-13.671875
5334,-11.718750
5335,-13.671875
5336,-13.671875
5337,-13.671875
5338,-13.671875
5339,-15.625000
5340,-15.625000
5341,-15.625000
5342,-15.625000
5343,-17.578125
5344,-17.578125
5345,-17.578125
5346,-17.578125
5347,-17.578125
5348,-19.531250
5349,-19.531250
5350,-19.531250
5351,-21.484375
5352,-21.484375
5353,-21.484375
5354,-21.484375
5355,-21.484375
5356,-23.437500
5357,-23.437500
5358,-23.437500
5359,-23.437500
5360,-25.390625
5361,-25.390625
5362,-25.390625
5363,-25.390625
5364,-27.343750
5365,-27.343750
5366,-27.343750
5367,-27.343750
5368,-29.296875
5369,-29.296875
5370,-29.296875
5371,-29.296875
5372,-31.250000
5373,-31.250000
5374,-31.250000
5375,-31.250000
5376,-31.250000
5377,-33.203125
5378,-33.203125
5379,-33.203125
5380,-33.203125
5381,-33.203125
5382,-35.156250
5383,-35.156250
5384,-35.156250
5385,-35.156250
5386,-37.109375
5387,-37.109375
5388,-37.109375
5389,-37.109375
5390,-37.109375
5391,-39.062500
5392,-39.062500
5393,-39.062500
5394,-39.062500
5395,-39.062500
5396,-41.015625
5397,-41.015625
5398,-41.015625
5399,-41.015625
5400,-41.015625
5401,-42.968750
5402,-42.968750
5403,-42.968750
5404,-42.968750
5405,-42.968750
5406,-42.968750
5407,-44.921875
5408,-44.921875
5409,-44.921875
5410,-44.921875
5411,-44.921875
5412,-46.875000
5413,-46.875000
5414,-46.875000
5415,-46.875000
5416,-46.875000
5417,-48.828125
5418,-46.875000
5419,-48.828125
5420,-48.828125
5421,-48.828125
5422,-48.828125
5423,-48.828125
5424,-50.781250
5425,-50.781250
5426,-50.781250
5427,-50.781250
5428,-50.781250
5429,-52.734375
5430,-50.781250
5431,-52.734375
5432,-50.781250
5433,-52.734375
5434,-52.734375
5435,-52.734375
5436,-52.734375
5437,-52.734375
5438,-52.734375
5439,-52.734375
5440,-52.734375
5441,-54.687500
5442,-54.687500
5443,-54.687500
5444,-54.687500
5445,-54.687500
5446,-54.687500
5447,-54.687500
5448,-56.640625
5449,-54.687500
5450,-54.687500
5451,-54.687500
5452,-54.687500
5453,-54.687500
5454,-54.687500
5455,-54.687500
5456,-56.640625
5457,-56.640625
5458,-56.640625
5459,-56.640625
5460,-56.640625
5461,-56.640625
5462,-56.640625
5463,-56.640625
5464,-56.640625
5465,-56.640625
5466,-56.640625
5467,-56.640625
5468,-56.640625
5469,-56.640625
5470,-56.640625
5471,-56.640625
5472,-56.640625
5473,-56.640625
5474,-56.640625
5475,-56.640625
5476,-56.640625
5477,-56.640625
5478,-56.640625
5479,-56.640625
5480,-54.687500
5481,-56.640625
5482,-56.640625
5483,-56.640625
5484,-56.640625
5485,-54.687500
5486,-54.687500
5487,-54.687500
5488,-54.687500
5489,-54.687500
5490,-54.687500
5491,-54.687500
5492,-54.687500
5493,-54.687500
5494,-52.734375
5495,-54.687500
5496,-54.687500
5497,-52.734375
5498,-54.687500
5499,-52.734375
5500,-52.734375
5501,-52.734375
5502,-52.734375
5503,-50.781250
5504,-52.734375
5505,-52.734375
5506,-50.781250
5507,-50.781250
5508,-50.781250
5509,-50.781250
5510,-50.781250
5511,-48.828125
5512,-50.781250
5513,-50.781250
5514,-48.828125
5515,-48.828125
5516,-48.828125
5517,-48.828125
5518,-48.828125
5519,-46.875000
5520,-46.875000
5521,-46.875000
5522,-46.875000
5523,-46.875000
5524,-44.921875
5525,-44.921875
5526,-44.921875
5527,-44.921875
5528,-42.968750
5529,-42.968750
5530,-42.968750
5531,-42.968750
5532,-42.968750
5533,-41.015625
5534,-41.015625
5535,-41.015625
5536,-41.015625
5537,-39.062500
5538,-39.062500
5539,-39.062500
5540,-39.062500
5541,-37.109375
5542,-37.109375
5543,-37.109375
5544,-37.109375
5545,-37.109375
5546,-35.156250
5547,-35.156250
5548,-35.156250
5549,-35.156250
5550,-33.203125
5551,-33.203125
5552,-33.203125
5553,-33.203125
5554,-31.250000
5555,-31.250000
5556,-31.250000
5557,-29.296875
5558,-31.250000
5559,-29.296875
5560,-29.296875
5561,-29.296875
5562,-27.343750
5563,-27.343750
5564,-27.343750
5565,-27.343750
5566,-25.390625
5567,-25.390625
5568,-23.437500
5569,-25.390625
5570,-23.437500
5571,-21.484375
5572,-21.484375
5573,-21.484375
5574,-21.484375
5575,-19.531250
5576,-19.531250
5577,-19.531250
5578,-19.531250
5579,-19.531250
5580,-17.578125
5581,-17.578125
5582,-17.578125
5583,-17.578125
5584,-15.625000
5585,-13.671875
5586,-13.671875
5587,-13.671875
5588,-13.671875
5589,-11.718750
5590,-11.718750
5591,-11.718750
5592,-11.718750
5593,-9.765625
5594,-9.765625
5595,-9.765625
5596,-7.812500
5597,-7.812500
5598,-7.812500
5599,-5.859375
5600,-5.859375
5601,-5.859375
5602,-5.859375
5603,-3.906250
5604,-5.859375
5605,-3.906250
5606,-3.906250
5607,-1.953125
5608,-1.953125
5609,-1.953125
5610,0.000000
5611,0.000000
5612,1.953125
5613,0.000000
5614,0.000000
5615,1.953125
5616,1.953125
5617,1.953125
5618,1.953125
5619,3.906250
5620,3.906250
5621,3.906250
5622,3.906250
5623,5.859375
5624,5.859375
5625,5.859375
5626,5.859375
5627,7.812500
5628,7.812500
5629,7.812500
5630,7.812500
5631,9.765625
5632,9.765625
5633,9.765625
5634,9.765625
5635,11.718750
5636,11.718750
5637,11.718750
5638,11.718750
5639,11.718750
5640,13.671875
5641,13.671875
5642,13.671875
5643,13.671875
5644,13.671875
5645,15.625000
5646,15.625000
5647,15.625000
5648,15.625000
5649,15.625000
5650,17.578125
5651,17.578125
5652,17.578125
5653,17.578125
5654,17.578125
5655,17.578125
5656,19.531250
5657,19.531250
5658,19.531250
5659,19.531250
5660,19.531250
5661,19.531250
5662,19.531250
5663,19.531250
5664,21.484375
5665,21.484375
5666,21.484375
5667,21.484375
5668,21.484375
5669,23.437500
5670,23.437500
5671,21.484375
5672,23.437500
5673,23.437500
5674,23.437500
5675,23.437500
5676,23.437500
5677,23.437500
5678,23.437500
5679,25.390625
5680,25.390625
5681,25.390625
5682,25.390625
5683,25.390625
5684,25.390625
5685,25.390625
5686,25.390625
5687,25.390625
5688,25.390625
5689,27.343750
5690,25.390625
5691,27.343750
5692,27.343750
5693,27.343750
5694,27.343750
5695,27.343750
5696,27.343750
5697,27.343750
5698,27.343750
5699,27.343750
5700,27.343750
5701,27.343750
5702,27.343750
5703,27.343750
5704,27.343750
5705,27.343750
5706,27.343750
5707,29.296875
5708,29.296875
5709,29.296875
5710,29.296875
5711,29.296875
5712,29.296875
5713,29.296875
5714,29.296875
5715,29.296875
5716,29.296875
5717,29.296875
5718,29.296875
5719,29.296875
5720,29.296875
5721,29.296875
5722,29.296875
5723,29.296875
5724,29.296875
5725,31.250000
5726,29.296875
5727,29.296875
5728,29.296875
5729,29.296875
5730,29.296875
5731,29.296875
5732,31.250000
5733,29.296875
5734,31.250000
5735,29.296875
5736,31.250000
5737,31.250000
5738,31.250000
5739,29.296875
5740,29.296875
5741,29.296875
5742,31.250000
5743,31.250000
5744,29.296875
5745,29.296875
5746,31.250000
5747,31.250000
5748,29.296875
5749,29.296875
5750,29.296875
5751,29.296875
5752,29.296875
5753,29.296875
5754,29.296875
5755,29.296875
5756,29.296875
5757,29.296875
5758,29.296875
5759,29.296875
5760,29.296875
5761,29.296875
5762,29.296875
5763,29.296875
5764,29.296875
5765,29.296875
5766,29.296875
5767,29.296875
5768,27.343750
5769,29.296875
5770,27.343750
5771,29.296875
5772,27.343750
5773,27.343750
5774,29.296875
5775,29.296875
5776,27.343750
5777,27.343750
5778,27.343750
5779,27.343750
5780,27.343750
5781,27.343750
5782,27.343750
5783,27.343750
5784,27.343750
5785,27.343750
5786,27.343750
5787,27.343750
5788,27.343750
5789,27.343750
5790,27.343750
5791,27.343750
5792,27.343750
5793,27.343750
5794,27.343750
5795,25.390625
5796,25.390625
5797,25.390625
5798,25.390625
5799,27.343750
5800,25.390625
5801,25.390625
5802,25.390625
5803,25.390625
5804,25.390625
5805,21.484375
5806,25.390625
5807,27.343750
5808,23.437500
5809,25.390625
5810,23.437500
5811,23.437500
5812,23.437500
5813,23.437500
5814,23.437500
5815,23.437500
5816,21.484375
5817,23.437500
5818,21.484375
5819,21.484375
5820,21.484375
5821,21.484375
5822,21.484375
5823,21.484375
5824,21.484375
5825,19.531250
5826,19.531250
5827,19.531250
5828,19.531250
5829,19.531250
5830,17.578125
5831,19.531250
5832,19.531250
5833,19.531250
5834,17.578125
5835,17.578125
5836,17.578125
5837,17.578125
5838,21.484375
5839,17.578125
5840,21.484375
5841,17.578125
5842,17.578125
5843,15.625000
5844,15.625000
5845,15.625000
5846,15.625000
5847,15.625000
5848,13.671875
5849,15.625000
5850,13.671875
5851,13.671875
5852,13.671875
5853,13.671875
5854,11.718750
5855,11.718750
5856,11.718750
5857,15.625000
5858,11.718750
5859,11.718750
5860,9.765625
5861,11.718750
5862,9.765625
5863,9.765625
5864,9.765625
5865,9.765625
5866,9.765625
5867,7.812500
5868,7.812500
5869,7.812500
5870,7.812500
5871,5.859375
5872,9.765625
5873,5.859375
5874,3.906250
5875,5.859375
5876,1.953125
5877,3.906250
5878,3.906250
5879,3.906250
5880,1.953125
5881,1.953125
5882,1.953125
5883,1.953125
5884,0.000000
5885,1.953125
5886,0.000000
5887,0.000000
5888,0.000000
5889,3.906250
5890,-1.953125
5891,0.000000
5892,-1.953125
5893,0.000000
5894,-3.906250
5895,-3.906250
5896,-3.906250
5897,-3.906250
5898,-3.906250
5899,-3.906250
5900,-5.859375
5901,-5.859375
5902,-5.859375
5903,-5.859375
5904,-7.812500
5905,-7.812500
5906,-7.812500
5907,-7.812500
5908,-9.765625
5909,-9.765625
5910,-9.765625
5911,-9.765625
5912,-9.765625
5913,-9.765625
5914,-11.718750
5915,-11.718750
5916,-11.718750
5917,-11.718750
5918,-13.671875
5919,-13.671875
5920,-13.671875
5921,-13.671875
5922,-15.625000
5923,-15.625000
5924,-15.625000
5925,-17.578125
5926,-15.625000
5927,-17.578125
5928,-17.578125
5929,-17.578125
5930,-19.531250
5931,-19.531250
5932,-19.531250
5933,-19.531250
5934,-19.531250
5935,-21.484375
5936,-21.484375
5937,-21.484375
5938,-21.484375
5939,-23.437500
5940,-23.437500
5941,-23.437500
5942,-25.390625
5943,-23.437500
5944,-25.390625
5945,-25.390625
5946,-27.343750
5947,-27.343750
5948,-27.343750
5949,-27.343750
5950,-27.343750
5951,-29.296875
5952,-29.296875
5953,-29.296875
5954,-29.296875
5955,-29.296875
5956,-31.250000
5957,-31.250000
5958,-31.250000
5959,-31.250000
5960,-33.203125
5961,-33.203125
5962,-33.203125
5963,-33.203125
5964,-35.156250
5965,-35.156250
5966,-35.156250
5967,-35.156250
5968,-35.156250
5969,-37.109375
5970,-35.156250
5971,-37.109375
5972,-37.109375
5973,-37.109375
5974,-39.062500
5975,-39.062500
5976,-39.062500
5977,-39.062500
5978,-39.062500
5979,-39.062500
5980,-39.062500
5981,-41.015625
5982,-41.015625
5983,-41.015625
5984,-41.015625
5985,-42.968750
5986,-42.968750
5987,-42.968750
5988,-42.968750
5989,-42.968750
5990,-44.921875
5991,-44.921875
5992,-44.921875
5993,-44.921875
5994,-44.921875
5995,-44.921875
5996,-44.921875
5997,-46.875000
5998,-46.875000
5999,-46.875000
6000,-48.828125
6001,-48.828125
6002,-46.875000
6003,-48.828125
6004,-48.828125
6005,-48.828125
6006,-48.828125
6007,-50.781250
6008,-50.781250
6009,-50.781250
6010,-50.781250
6011,-50.781250
6012,-50.781250
6013,-50.781250
6014,-50.781250
6015,-52.734375
6016,-52.734375
6017,-52.734375
6018,-52.734375
6019,-52.734375
6020,-52.734375
6021,-52.734375
6022,-52.734375
6023,-52.734375
6024,-52.734375
6025,-54.687500
6026,-52.734375
6027,-54.687500
6028,-54.687500
6029,-54.687500
6030,-54.687500
6031,-54.687500
6032,-54.687500
6033,-54.687500
6034,-54.687500
6035,-54.687500
6036,-54.687500
6037,-54.687500
6038,-54.687500
6039,-56.640625
6040,-56.640625
6041,-54.687500
6042,-56.640625
6043,-56.640625
6044,-54.687500
6045,-56.640625
6046,-56.640625
6047,-56.640625
6048,-56.640625
6049,-56.640625
6050,-56.640625
6051,-56.640625
6052,-56.640625
6053,-56.640625
6054,-56.640625
6055,-56.640625
6056,-54.687500
6057,-56.640625
6058,-56.640625
6059,-56.640625
6060,-54.687500
6061,-54.687500
6062,-56.640625
6063,-54.687500
6064,-54.687500
6065,-54.687500
6066,-56.640625
6067,-54.687500
6068,-54.687500
6069,-54.687500
6070,-54.687500
6071,-54.687500
6072,-54.687500
6073,-54.687500
6074,-54.687500
6075,-54.687500
6076,-54.687500
6077,-52.734375
6078,-52.734375
6079,-54.687500
6080,-54.687500
6081,-54.687500
6082,-52.734375
6083,-52.734375
6084,-52.734375
6085,-52.734375
6086,-50.781250
6087,-52.734375
6088,-52.734375
6089,-52.734375
6090,-50.781250
6091,-50.781250
6092,-50.781250
6093,-50.781250
6094,-50.781250
6095,-48.828125
6096,-48.828125
6097,-48.828125
6098,-48.828125
6099,-48.828125
6100,-46.875000
6101,-48.828125
6102,-46.875000
6103,-46.875000
6104,-46.875000
6105,-46.875000
6106,-46.875000
6107,-44.921875
6108,-44.921875
6109,-44.921875
6110,-44.921875
6111,-42.968750
6112,-42.968750
6113,-42.968750
6114,-42.968750
6115,-41.015625
6116,-41.015625
6117,-41.015625
6118,-41.015625
6119,-41.015625
6120,-39.062500
6121,-39.062500
6122,-39.062500
6123,-39.062500
6124,-37.109375
6125,-37.109375
6126,-37.109375
6127,-37.109375
6128,-35.156250
6129,-35.156250
6130,-35.156250
6131,-35.156250
6132,-33.203125
6133,-35.156250
6134,-33.203125
6135,-33.203125
6136,-33.203125
6137,-31.250000
6138,-31.250000
6139,-31.250000
6140,-31.250000
6141,-31.250000
6142,-29.296875
6143,-29.296875
6144,-27.343750
6145,-27.343750
6146,-27.343750
6147,-27.343750
6148,-25.390625
6149,-25.390625
6150,-25.390625
6151,-23.437500
6152,-23.437500
6153,-23.437500
6154,-23.437500
6155,-21.484375
6156,-21.484375
6157,-21.484375
6158,-21.484375
6159,-19.531250
6160,-19.531250
6161,-19.531250
6162,-17.578125
6163,-17.578125
6164,-17.578125
6165,-17.578125
6166,-15.625000
6167,-15.625000
6168,-13.671875
6169,-13.671875
6170,-13.671875
6171,-13.671875
6172,-11.718750
6173,-11.718750
6174,-11.718750
6175,-9.765625
6176,-9.765625
6177,-9.765625
6178,-9.765625
6179,-7.812500
6180,-7.812500
6181,-7.812500
6182,-5.859375
6183,-5.859375
6184,-5.859375
6185,-5.859375
6186,-3.906250
6187,-3.906250
6188,-3.906250
6189,-1.953125
6190,-1.953125
6191,-1.953125
6192,-1.953125
6193,0.000000
6194,0.000000
6195,0.000000
6196,1.953125
6197,1.953125
6198,1.953125
6199,1.953125
6200,1.953125
6201,3.906250
6202,3.906250
6203,3.906250
6204,5.859375
6205,5.859375
6206,5.859375
6207,5.859375
6208,5.859375
6209,5.859375
6210,5.859375
6211,7.812500
6212,7.812500
6213,7.812500
6214,9.765625
6215,9.765625
6216,9.765625
6217,9.765625
6218,11.718750
6219,11.718750
6220,11.718750
6221,11.718750
6222,11.718750
6223,13.671875
6224,13.671875
6225,13.671875
6226,13.671875
6227,13.671875
6228,15.625000
6229,15.625000
6230,15.625000
6231,15.625000
6232,15.625000
6233,15.625000
6234,17.578125
6235,17.578125
6236,17.578125
6237,17.578125
6238,19.531250
6239,19.531250
6240,19.531250
6241,19.531250
6242,19.531250
6243,19.531250
6244,19.531250
6245,21.484375
6246,19.531250
6247,21.484375
6248,21.484375
6249,21.484375
6250,21.484375
6251,21.484375
6252,21.484375
6253,21.484375
6254,23.437500
6255,23.437500
6256,23.437500
6257,23.437500
6258,23.437500
6259,23.437500
6260,25.390625
6261,25.390625
6262,25.390625
6263,25.390625
6264,25.390625
6265,25.390625
6266,25.390625
6267,25.390625
6268,25.390625
6269,25.390625
6270,25.390625
6271,25.390625
6272,27.343750
6273,25.390625
6274,25.390625
6275,27.343750
6276,25.390625
6277,27.343750
6278,27.343750
6279,27.343750
6280,27.343750
6281,27.343750
6282,27.343750
6283,27.343750
6284,27.343750
6285,27.343750
6286,27.343750
6287,27.343750
6288,27.343750
6289,29.296875
6290,27.343750
6291,29.296875
6292,29.296875
6293,29.296875
6294,29.296875
6295,29.296875
6296,29.296875
6297,27.343750
6298,29.296875
6299,29.296875
6300,29.296875
6301,29.296875
6302,29.296875
6303,31.250000
6304,29.296875
6305,29.296875
6306,29.296875
6307,29.296875
6308,29.296875
6309,31.250000
6310,29.296875
6311,29.296875
6312,31.250000
6313,29.296875
6314,29.296875
6315,29.296875
6316,31.250000
6317,29.296875
6318,29.296875
6319,29.296875
6320,29.296875
6321,29.296875
6322,29.296875
6323,29.296875
6324,29.296875
6325,29.296875
6326,31.250000
6327,29.296875
6328,29.296875
6329,29.296875
6330,29.296875
6331,29.296875
6332,29.296875
6333,29.296875
6334,29.296875
6335,29.296875
6336,29.296875
6337,29.296875
6338,29.296875
6339,29.296875
6340,29.296875
6341,29.296875
6342,29.296875
6343,29.296875
6344,29.296875
6345,29.296875
6346,29.296875
6347,29.296875
6348,29.296875
6349,29.296875
6350,29.296875
6351,27.343750
6352,29.296875
6353,29.296875
6354,29.296875
6355,27.343750
6356,29.296875
6357,27.343750
6358,27.343750
6359,29.296875
6360,27.343750
6361,29.296875
6362,27.343750
6363,27.343750
6364,27.343750
6365,27.343750
6366,27.343750
6367,27.343750
6368,27.343750
6369,27.343750
6370,27.343750
6371,27.343750
6372,27.343750
6373,27.343750
6374,27.343750
6375,25.390625
6376,27.343750
6377,25.390625
6378,25.390625
6379,25.390625
6380,25.390625
6381,25.390625
6382,25.390625
6383,25.390625
6384,25.390625
6385,25.390625
6386,25.390625
6387,25.390625
6388,23.437500
6389,23.437500
6390,23.437500
6391,23.437500
6392,23.437500
6393,25.390625
6394,23.437500
6395,23.437500
6396,23.437500
6397,23.437500
6398,21.484375
6399,23.437500
6400,21.484375
6401,21.484375
6402,21.484375
6403,21.484375
6404,21.484375
6405,21.484375
6406,21.484375
6407,21.484375
6408,21.484375
6409,21.484375
6410,17.578125
6411,19.531250
6412,19.531250
6413,19.531250
6414,19.531250
6415,17.578125
6416,17.578125
6417,19.531250
6418,17.578125
6419,17.578125
6420,17.578125
6421,17.578125
6422,17.578125
6423,17.578125
6424,17.578125
6425,15.625000
6426,15.625000
6427,15.625000
6428,11.718750
6429,15.625000
6430,15.625000
6431,13.671875
6432,13.671875
6433,13.671875
6434,13.671875
6435,13.671875
6436,13.671875
6437,13.671875
6438,11.718750
6439,11.718750
6440,11.718750
6441,11.718750
6442,11.718750
6443,11.718750
6444,11.718750
6445,9.765625
6446,9.765625
6447,9.765625
6448,7.812500
6449,7.812500
6450,9.765625
6451,7.812500
6452,7.812500
6453,7.812500
6454,5.859375
6455,5.859375
6456,5.859375
6457,5.859375
6458,5.859375
6459,3.906250
6460,3.906250
6461,3.906250
6462,1.953125
6463,3.906250
6464,1.953125
6465,1.953125
6466,1.953125
6467,1.953125
6468,1.953125
6469,0.000000
6470,0.000000
6471,0.000000
6472,0.000000
6473,0.000000
6474,-1.953125
6475,-1.953125
6476,-1.953125
6477,-1.953125
6478,-3.906250
6479,-3.906250
6480,-3.906250
6481,-3.906250
6482,-5.859375
6483,-5.859375
6484,-5.859375
6485,-5.859375
6486,-7.812500
6487,-7.812500
6488,-7.812500
6489,-7.812500
6490,-7.812500
6491,-7.812500
6492,-9.765625
6493,-9.765625
6494,-9.765625
6495,-9.765625
6496,-11.718750
6497,-11.718750
6498,-11.718750
6499,-11.718750
6500,-13.671875
6501,-13.671875
6502,-13.671875
6503,-13.671875
6504,-15.625000
6505,-15.625000
6506,-17.578125
6507,-17.578125
6508,-15.625000
6509,-17.578125
6510,-17.578125
6511,-19.531250
6512,-17.578125
6513,-19.531250
6514,-19.531250
6515,-19.531250
6516,-19.531250
6517,-19.531250
6518,-21.484375
6519,-21.484375
6520,-21.484375
6521,-23.437500
6522,-23.437500
6523,-23.437500
6524,-23.437500
6525,-25.390625
6526,-25.390625
6527,-25.390625
6528,-25.390625
6529,-25.390625
6530,-25.390625
6531,-27.343750
6532,-27.343750
6533,-27.343750
6534,-27.343750
6535,-29.296875
6536,-29.296875
6537,-29.296875
6538,-29.296875
6539,-31.250000
6540,-31.250000
6541,-31.250000
6542,-31.250000
6543,-31.250000
6544,-33.203125
6545,-33.203125
6546,-33.203125
6547,-35.156250
6548,-33.203125
6549,-35.156250
6550,-35.156250
6551,-35.156250
6552,-35.156250
6553,-37.109375
6554,-37.109375
6555,-37.109375
6556,-37.109375
6557,-37.109375
6558,-39.062500
6559,-39.062500
6560,-39.062500
6561,-39.062500
6562,-39.062500
6563,-41.015625
6564,-41.015625
6565,-41.015625
6566,-41.015625
6567,-41.015625
6568,-42.968750
6569,-42.968750
6570,-42.968750
6571,-42.968750
6572,-44.921875
6573,-44.921875
6574,-44.921875
6575,-44.921875
6576,-44.921875
6577,-44.921875
6578,-46.875000
6579,-46.875000
6580,-46.875000
6581,-46.875000
6582,-46.875000
6583,-48.828125
6584,-48.828125
6585,-46.875000
6586,-48.828125
6587,-48.828125
6588,-48.828125
6589,-48.828125
6590,-50.781250
6591,-50.781250
6592,-50.781250
6593,-50.781250
6594,-50.781250
6595,-50.781250
6596,-50.781250
6597,-52.734375
6598,-50.781250
6599,-52.734375
6600,-52.734375
6601,-52.734375
6602,-52.734375
6603,-52.734375
6604,-52.734375
6605,-52.734375
6606,-52.734375
6607,-54.687500
6608,-52.734375
6609,-54.687500
6610,-54.687500
6611,-54.687500
6612,-54.687500
6613,-54.687500
6614,-54.687500
6615,-54.687500
6616,-54.687500
6617,-54.687500
6618,-54.687500
6619,-54.687500
6620,-54.687500
6621,-54.687500
6622,-54.687500
6623,-54.687500
6624,-56.640625
6625,-56.640625
6626,-54.687500
6627,-56.640625
6628,-54.687500
6629,-56.640625
6630,-56.640625
6631,-54.687500
6632,-56.640625
6633,-56.640625
6634,-56.640625
6635,-54.687500
6636,-56.640625
6637,-56.640625
6638,-56.640625
6639,-56.640625
6640,-56.640625
6641,-56.640625
6642,-56.640625
6643,-56.640625
6644,-56.640625
6645,-56.640625
6646,-54.687500
6647,-56.640625
6648,-54.687500
6649,-54.687500
6650,-54.687500
6651,-54.687500
6652,-56.640625
6653,-54.687500
6654,-54.687500
6655,-54.687500
6656,-54.687500
6657,-54.687500
6658,-54.687500
6659,-54.687500
6660,-54.687500
6661,-54.687500
6662,-54.687500
6663,-54.687500
6664,-52.734375
6665,-52.734375
6666,-52.734375
6667,-52.734375
6668,-52.734375
6669,-52.734375
6670,-52.734375
6671,-52.734375
6672,-52.734375
6673,-50.781250
6674,-50.781250
6675,-50.781250
6676,-50.781250
6677,-50.781250
6678,-50.781250
6679,-48.828125
6680,-48.828125
6681,-48.828125
6682,-48.828125
6683,-48.828125
6684,-48.828125
6685,-46.875000
6686,-46.875000
6687,-46.875000
6688,-46.875000
6689,-46.875000
6690,-44.921875
6691,-44.921875
6692,-44.921875
6693,-44.921875
6694,-42.968750
6695,-42.968750
6696,-42.968750
6697,-42.968750
6698,-42.968750
6699,-41.015625
6700,-41.015625
6701,-41.015625
6702,-41.015625
6703,-41.015625
6704,-39.062500
6705,-39.062500
6706,-39.062500
6707,-39.062500
6708,-37.109375
6709,-37.109375
6710,-37.109375
6711,-37.109375
6712,-35.156250
6713,-35.156250
6714,-35.156250
6715,-35.156250
6716,-33.203125
6717,-33.203125
6718,-33.203125
6719,-33.203125
6720,-31.250000
6721,-31.250000
6722,-31.250000
6723,-31.250000
6724,-29.296875
6725,-29.296875
6726,-29.296875
6727,-29.296875
6728,-27.343750
6729,-27.343750
6730,-27.343750
6731,-25.390625
6732,-25.390625
6733,-25.390625
6734,-23.437500
6735,-23.437500
6736,-23.437500
6737,-23.437500
6738,-21.484375
6739,-21.484375
6740,-21.484375
6741,-19.531250
6742,-19.531250
6743,-19.531250
6744,-19.531250
6745,-17.578125
6746,-17.578125
6747,-17.578125
6748,-15.625000
6749,-15.625000
6750,-15.625000
6751,-15.625000
6752,-13.671875
6753,-13.671875
6754,-13.671875
6755,-11.718750
6756,-11.718750
6757,-11.718750
6758,-9.765625
6759,-9.765625
6760,-9.765625
6761,-9.765625
6762,-7.812500
6763,-7.812500
6764,-7.812500
6765,-5.859375
6766,-5.859375
6767,-5.859375
6768,-5.859375
6769,-3.906250
6770,-3.906250
6771,-3.906250
6772,-1.953125
6773,-1.953125
6774,-1.953125
6775,-1.953125
6776,0.000000
6777,0.000000
6778,0.000000
6779,0.000000
6780,1.953125
6781,1.953125
6782,1.953125
6783,1.953125
6784,1.953125
6785,3.906250
6786,3.906250
6787,5.859375
6788,3.906250
6789,5.859375
6790,5.859375
6791,5.859375
6792,5.859375
6793,7.812500
6794,7.812500
6795,7.812500
6796,7.812500
6797,9.765625
6798,9.765625
6799,9.765625
6800,9.765625
6801,11.718750
6802,9.765625
6803,11.718750
6804,11.718750
6805,11.718750
6806,11.718750
6807,13.671875
6808,13.671875
6809,13.671875
6810,13.671875
6811,15.625000
6812,15.625000
6813,15.625000
6814,15.625000
6815,15.625000
6816,15.625000
6817,17.578125
6818,17.578125
6819,17.578125
6820,17.578125
6821,17.578125
6822,17.578125
6823,19.531250
6824,19.531250
6825,19.531250
6826,19.531250
6827,19.531250
6828,19.531250
6829,21.484375
6830,21.484375
6831,21.484375
6832,21.484375
6833,21.484375
6834,21.484375
6835,23.437500
6836,23.437500
6837,21.484375
6838,23.437500
6839,23.437500
6840,23.437500
6841,23.437500
6842,23.437500
6843,23.437500
6844,23.437500
6845,23.437500
6846,25.390625
6847,25.390625
6848,25.390625
6849,25.390625
6850,25.390625
6851,25.390625
6852,25.390625
6853,25.390625
6854,27.343750
6855,25.390625
6856,25.390625
6857,25.390625
6858,27.343750
6859,27.343750
6860,25.390625
6861,27.343750
6862,27.343750
6863,27.343750
6864,27.343750
6865,27.343750
6866,27.343750
6867,27.343750
6868,29.296875
6869,27.343750
6870,27.343750
6871,27.343750
6872,29.296875
6873,27.343750
6874,29.296875
6875,29.296875
6876,29.296875
6877,29.296875
6878,29.296875
6879,29.296875
6880,29.296875
6881,29.296875
6882,29.296875
6883,29.296875
6884,29.296875
6885,29.296875
6886,29.296875
6887,29.296875
6888,29.296875
6889,29.296875
6890,29.296875
6891,29.296875
6892,29.296875
6893,29.296875
6894,29.296875
6895,29.296875
6896,29.296875
6897,29.296875
6898,29.296875
6899,31.250000
6900,29.296875
6901,31.250000
6902,29.296875
6903,29.296875
6904,31.250000
6905,31.250000
6906,29.296875
6907,29.296875
6908,29.296875
6909,31.250000
6910,29.296875
6911,31.250000
6912,29.296875
6913,29.296875
6914,29.296875
6915,29.296875
6916,29.296875
6917,29.296875
6918,29.296875
6919,29.296875
6920,29.296875
6921,29.296875
6922,29.296875
6923,29.296875
6924,29.296875
6925,29.296875
6926,29.296875
6927,29.296875
6928,29.296875
6929,29.296875
6930,29.296875
6931,29.296875
6932,29.296875
6933,27.343750
6934,29.296875
6935,29.296875
6936,27.343750
6937,29.296875
6938,29.296875
6939,29.296875
6940,27.343750
6941,29.296875
6942,29.296875
6943,29.296875
6944,27.343750
6945,29.296875
6946,27.343750
6947,27.343750
6948,29.296875
6949,27.343750
6950,27.343750
6951,27.343750
6952,27.343750
6953,27.343750
6954,27.343750
6955,27.343750
6956,27.343750
6957,27.343750
6958,27.343750
6959,27.343750
6960,25.390625
6961,25.390625
6962,25.390625
6963,25.390625
6964,25.390625
6965,25.390625
6966,25.390625
6967,25.390625
6968,23.437500
6969,25.390625
6970,23.437500
6971,23.437500
6972,23.437500
6973,25.390625
6974,23.437500
6975,23.437500
6976,23.437500
6977,23.437500
6978,21.484375
6979,23.437500
6980,23.437500
6981,23.437500
6982,21.484375
6983,21.484375
6984,21.484375
6985,21.484375
6986,21.484375
6987,21.484375
6988,21.484375
6989,21.484375
6990,21.484375
6991,21.484375
6992,19.531250
6993,19.531250
6994,19.531250
6995,19.531250
6996,19.531250
6997,19.531250
6998,19.531250
6999,19.531250
7000,17.578125
7001,17.578125
7002,17.578125
7003,17.578125
7004,17.578125
7005,17.578125
7006,17.578125
7007,17.578125
7008,15.625000
7009,15.625000
7010,15.625000
7011,15.625000
7012,15.625000
7013,15.625000
7014,15.625000
7015,13.671875
7016,13.671875
7017,13.671875
7018,13.671875
7019,13.671875
7020,11.718750
7021,13.671875
7022,11.718750
7023,11.718750
7024,11.718750
7025,9.765625
7026,9.765625
7027,11.718750
7028,9.765625
7029,9.765625
7030,9.765625
7031,7.812500
7032,9.765625
7033,7.812500
7034,7.812500
7035,7.812500
7036,5.859375
7037,5.859375
7038,5.859375
7039,5.859375
7040,5.859375
7041,3.906250
7042,3.906250
7043,3.906250
7044,3.906250
7045,3.906250
7046,3.906250
7047,1.953125
7048,1.953125
7049,1.953125
7050,1.953125
7051,0.000000
7052,0.000000
7053,0.000000
7054,0.000000
7055,0.000000
7056,-1.953125
7057,-1.953125
7058,-1.953125
7059,-1.953125
7060,-3.906250
7061,-3.906250
7062,-3.906250
7063,-3.906250
7064,-3.906250
7065,-5.859375
7066,-5.859375
7067,-5.859375
7068,-5.859375
7069,-7.812500
7070,-7.812500
7071,-7.812500
7072,-7.812500
7073,-7.812500
7074,-7.812500
7075,-9.765625
7076,-9.765625
7077,-9.765625
7078,-9.765625
7079,-9.765625
7080,-11.718750
7081,-11.718750
7082,-13.671875
7083,-11.718750
7084,-13.671875
7085,-13.671875
7086,-13.671875
7087,-15.625000
7088,-15.625000
7089,-15.625000
7090,-15.625000
7091,-17.578125
7092,-17.578125
7093,-17.578125
7094,-17.578125
7095,-19.531250
7096,-17.578125
7097,-19.531250
7098,-19.531250
7099,-19.531250
7100,-21.484375
7101,-21.484375
7102,-21.484375
7103,-21.484375
7104,-23.437500
7105,-23.437500
7106,-23.437500
7107,-23.437500
7108,-25.390625
7109,-23.437500
7110,-25.390625
7111,-25.390625
7112,-27.343750
7113,-27.343750
7114,-27.343750
7115,-27.343750
7116,-27.343750
7117,-29.296875
7118,-27.343750
7119,-29.296875
7120,-29.296875
7121,-31.250000
7122,-31.250000
7123,-31.250000
7124,-31.250000
7125,-31.250000
7126,-33.203125
7127,-33.203125
7128,-33.203125
7129,-33.203125
7130,-35.156250
7131,-35.156250
7132,-35.156250
7133,-35.156250
7134,-35.156250
7135,-35.156250
7136,-37.109375
7137,-37.109375
7138,-37.109375
7139,-37.109375
7140,-37.109375
7141,-39.062500
7142,-39.062500
7143,-39.062500
7144,-39.062500
7145,-39.062500
7146,-41.015625
7147,-41.015625
7148,-41.015625
7149,-41.015625
7150,-42.968750
7151,-42.968750
7152,-42.968750
7153,-42.968750
7154,-42.968750
7155,-42.968750
7156,-44.921875
7157,-44.921875
7158,-44.921875
7159,-44.921875
7160,-44.921875
7161,-44.921875
7162,-46.875000
7163,-46.875000
7164,-46.875000
7165,-46.875000
7166,-48.828125
7167,-48.828125
7168,-48.828125
7169,-48.828125
7170,-48.828125
7171,-48.828125
7172,-48.828125
7173,-50.781250
7174,-50.781250
7175,-50.781250
7176,-50.781250
7177,-50.781250
7178,-50.781250
7179,-50.781250
7180,-52.734375
7181,-52.734375
7182,-52.734375
7183,-52.734375
7184,-52.734375
7185,-52.734375
7186,-52.734375
7187,-52.734375
7188,-52.734375
7189,-54.687500
7190,-54.687500
7191,-54.687500
7192,-54.687500
7193,-54.687500
7194,-54.687500
7195,-54.687500
7196,-54.687500
7197,-54.687500
7198,-54.687500
7199,-54.687500
7200,-56.640625
7201,-54.687500
7202,-54.687500
7203,-54.687500
7204,-56.640625
7205,-56.640625
7206,-56.640625
7207,-56.640625
7208,-56.640625
7209,-56.640625
7210,-56.640625
7211,-56.640625
7212,-56.640625
7213,-56.640625
7214,-56.640625
7215,-56.640625
7216,-56.640625
7217,-56.640625
7218,-56.640625
7219,-56.640625
7220,-56.640625
7221,-56.640625
7222,-56.640625
7223,-56.640625
7224,-56.640625
7225,-56.640625
7226,-56.640625
7227,-56.640625
7228,-56.640625
7229,-56.640625
7230,-56.640625
7231,-56.640625
7232,-56.640625
7233,-56.640625
7234,-54.687500
7235,-56.640625
7236,-54.687500
7237,-54.687500
7238,-54.687500
7239,-54.687500
7240,-54.687500
7241,-54.687500
7242,-54.687500
7243,-54.687500
7244,-54.687500
7245,-54.687500
7246,-54.687500
7247,-52.734375
7248,-52.734375
7249,-52.734375
7250,-52.734375
7251,-52.734375
7252,-52.734375
7253,-52.734375
7254,-52.734375
7255,-50.781250
7256,-50.781250
7257,-50.781250
7258,-50.781250
7259,-50.781250
7260,-50.781250
7261,-50.781250
7262,-48.828125
7263,-48.828125
7264,-48.828125
7265,-48.828125
7266,-48.828125
7267,-46.875000
7268,-46.875000
7269,-46.875000
7270,-46.875000
7271,-46.875000
7272,-44.921875
7273,-44.921875
7274,-44.921875
7275,-44.921875
7276,-44.921875
7277,-44.921875
7278,-42.968750
7279,-42.968750
7280,-42.968750
7281,-42.968750
7282,-42.968750
7283,-41.015625
7284,-41.015625
7285,-41.015625
7286,-41.015625
7287,-41.015625
7288,-39.062500
7289,-39.062500
7290,-39.062500
7291,-37.109375
7292,-37.109375
7293,-37.109375
7294,-35.156250
7295,-35.156250
7296,-35.156250
7297,-35.156250
7298,-35.156250
7299,-33.203125
7300,-33.203125
7301,-33.203125
7302,-33.203125
7303,-33.203125
7304,-31.250000
7305,-31.250000
7306,-31.250000
7307,-29.296875
7308,-29.296875
7309,-29.296875
7310,-29.296875
7311,-27.343750
7312,-27.343750
7313,-25.390625
7314,-25.390625
7315,-25.390625
7316,-25.390625
7317,-23.437500
7318,-23.437500
7319,-23.437500
7320,-23.437500
7321,-23.437500
7322,-21.484375
7323,-21.484375
7324,-21.484375
7325,-19.531250
7326,-19.531250
7327,-17.578125
7328,-17.578125
7329,-17.578125
7330,-17.578125
7331,-17.578125
7332,-15.625000
7333,-15.625000
7334,-13.671875
7335,-13.671875
7336,-13.671875
7337,-11.718750
7338,-11.718750
7339,-11.718750
7340,-9.765625
7341,-9.765625
7342,-9.765625
7343,-9.765625
7344,-7.812500
7345,-7.812500
7346,-7.812500
7347,-7.812500
7348,-5.859375
7349,-5.859375
7350,-5.859375
7351,-3.906250
7352,-3.906250
7353,-3.906250
7354,-1.953125
7355,-3.906250
7356,-1.953125
7357,-1.953125
7358,0.000000
7359,0.000000
7360,0.000000
7361,0.000000
7362,1.953125
7363,1.953125
7364,1.953125
7365,3.906250
7366,1.953125
7367,1.953125
7368,3.906250
7369,3.906250
7370,3.906250
7371,3.906250
7372,3.906250
7373,5.859375
7374,5.859375
7375,7.812500
7376,7.812500
7377,7.812500
7378,7.812500
7379,7.812500
7380,7.812500
7381,9.765625
7382,9.765625
7383,9.765625
7384,9.765625
7385,11.718750
7386,11.718750
7387,11.718750
7388,11.718750
7389,11.718750
7390,13.671875
7391,13.671875
7392,13.671875
7393,13.671875
7394,13.671875
7395,15.625000
7396,15.625000
7397,15.625000
7398,15.625000
7399,15.625000
7400,17.578125
7401,17.578125
7402,17.578125
7403,17.578125
7404,17.578125
7405,19.531250
7406,19.531250
7407,19.531250
7408,19.531250
7409,19.531250
7410,19.531250
7411,21.484375
7412,19.531250
7413,21.484375
7414,21.484375
7415,21.484375
7416,21.484375
7417,21.484375
7418,23.437500
7419,23.437500
7420,23.437500
7421,23.437500
7422,23.437500
7423,23.437500
7424,23.437500
7425,23.437500
7426,25.390625
7427,25.390625
7428,25.390625
7429,25.390625
7430,25.390625
7431,25.390625
7432,25.390625
7433,25.390625
7434,25.390625
7435,25.390625
7436,27.343750
7437,27.343750
7438,25.390625
7439,27.343750
7440,25.390625
7441,27.343750
7442,27.343750
7443,27.343750
7444,27.343750
7445,27.343750
7446,27.343750
7447,27.343750
7448,27.343750
7449,27.343750
7450,27.343750
7451,29.296875
7452,27.343750
7453,29.296875
7454,27.343750
7455,29.296875
7456,27.343750
7457,29.296875
7458,29.296875
7459,29.296875
7460,29.296875
7461,29.296875
7462,29.296875
7463,29.296875
7464,29.296875
7465,29.296875
7466,29.296875
7467,29.296875
7468,29.296875
7469,29.296875
7470,29.296875
7471,31.250000
7472,29.296875
7473,29.296875
7474,29.296875
7475,31.250000
7476,29.296875
7477,29.296875
7478,31.250000
7479,31.250000
7480,29.296875
7481,29.296875
7482,29.296875
7483,29.296875
7484,31.250000
7485,29.296875
7486,31.250000
7487,31.250000
7488,29.296875
7489,29.296875
7490,29.296875
7491,31.250000
7492,29.296875
7493,29.296875
7494,31.250000
7495,31.250000
7496,29.296875
7497,29.296875
7498,31.250000
7499,29.296875
7500,29.296875
7501,29.296875
7502,29.296875
7503,29.296875
7504,29.296875
7505,29.296875
7506,29.296875
7507,29.296875
7508,29.296875
7509,29.296875
7510,29.296875
7511,27.343750
7512,29.296875
7513,29.296875
7514,29.296875
7515,29.296875
7516,29.296875
7517,29.296875
7518,29.296875
7519,27.343750
7520,29.296875
7521,27.343750
7522,27.343750
7523,27.343750
7524,27.343750
7525,27.343750
7526,27.343750
7527,29.296875
7528,25.390625
7529,27.343750
7530,27.343750
7531,27.343750
7532,27.343750
7533,27.343750
7534,27.343750
7535,27.343750
7536,27.343750
7537,27.343750
7538,29.296875
7539,27.343750
7540,27.343750
7541,25.390625
7542,27.343750
7543,25.390625
7544,25.390625
7545,27.343750
7546,25.390625
7547,25.390625
7548,25.390625
7549,25.390625
7550,25.390625
7551,25.390625
7552,23.437500
7553,27.343750
7554,25.390625
7555,25.390625
7556,23.437500
7557,25.390625
7558,23.437500
7559,23.437500
7560,23.437500
7561,23.437500
7562,23.437500
7563,23.437500
7564,23.437500
7565,21.484375
7566,21.484375
7567,21.484375
7568,21.484375
7569,21.484375
7570,21.484375
7571,21.484375
7572,21.484375
7573,21.484375
7574,19.531250
7575,19.531250
7576,19.531250
7577,19.531250
7578,19.531250
7579,19.531250
7580,19.531250
7581,19.531250
7582,17.578125
7583,17.578125
7584,17.578125
7585,17.578125
7586,17.578125
7587,17.578125
7588,15.625000
7589,15.625000
7590,17.578125
7591,17.578125
7592,15.625000
7593,15.625000
7594,15.625000
7595,15.625000
7596,15.625000
7597,15.625000
7598,13.671875
7599,13.671875
7600,13.671875
7601,13.671875
7602,13.671875
7603,13.671875
7604,11.718750
7605,11.718750
7606,11.718750
7607,11.718750
7608,11.718750
7609,9.765625
7610,9.765625
7611,9.765625
7612,9.765625
7613,9.765625
7614,7.812500
7615,7.812500
7616,7.812500
7617,7.812500
7618,5.859375
7619,7.812500
7620,5.859375
7621,5.859375
7622,5.859375
7623,5.859375
7624,5.859375
7625,3.906250
7626,3.906250
7627,3.906250
7628,3.906250
7629,3.906250
7630,1.953125
7631,1.953125
7632,1.953125
7633,0.000000
7634,0.000000
7635,0.000000
7636,0.000000
7637,0.000000
7638,0.000000
7639,-3.906250
7640,-1.953125
7641,-1.953125
7642,-1.953125
7643,-3.906250
7644,-3.906250
7645,-5.859375
7646,-3.906250
7647,-3.906250
7648,-5.859375
7649,-5.859375
7650,-5.859375
7651,-5.859375
7652,-5.859375
7653,-7.812500
7654,-7.812500
7655,-7.812500
7656,-7.812500
7657,-7.812500
7658,-9.765625
7659,-9.765625
7660,-9.765625
7661,-11.718750
7662,-11.718750
7663,-11.718750
7664,-11.718750
7665,-13.671875
7666,-13.671875
7667,-13.671875
7668,-13.671875
7669,-15.625000
7670,-13.671875
7671,-15.625000
7672,-15.625000
7673,-15.625000
7674,-15.625000
7675,-17.578125
7676,-17.578125
7677,-17.578125
7678,-19.531250
7679,-19.531250
7680,-19.531250
7681,-21.484375
7682,-19.531250
7683,-19.531250
7684,-21.484375
7685,-21.484375
7686,-21.484375
7687,-23.437500
7688,-23.437500
7689,-23.437500
7690,-23.437500
7691,-25.390625
7692,-25.390625
7693,-25.390625
7694,-25.390625
7695,-27.343750
7696,-27.343750
7697,-27.343750
7698,-27.343750
7699,-29.296875
7700,-29.296875
7701,-29.296875
7702,-29.296875
7703,-29.296875
7704,-29.296875
7705,-31.250000
7706,-31.250000
7707,-31.250000
7708,-31.250000
7709,-33.203125
7710,-33.203125
7711,-33.203125
7712,-33.203125
7713,-35.156250
7714,-35.156250
7715,-35.156250
7716,-35.156250
7717,-37.109375
7718,-35.156250
7719,-37.109375
7720,-37.109375
7721,-37.109375
7722,-37.109375
7723,-37.109375
7724,-39.062500
7725,-39.062500
7726,-39.062500
7727,-41.015625
7728,-39.062500
7729,-41.015625
7730,-41.015625
7731,-42.968750
7732,-41.015625
7733,-41.015625
7734,-42.968750
7735,-42.968750
7736,-42.968750
7737,-42.968750
7738,-44.921875
7739,-44.921875
7740,-44.921875
7741,-44.921875
7742,-44.921875
7743,-46.875000
7744,-44.921875
7745,-46.875000
7746,-46.875000
7747,-46.875000
7748,-46.875000
7749,-48.828125
7750,-48.828125
7751,-48.828125
7752,-48.828125
7753,-48.828125
7754,-48.828125
7755,-50.781250
7756,-50.781250
7757,-50.781250
7758,-50.781250
7759,-50.781250
7760,-50.781250
7761,-52.734375
7762,-52.734375
7763,-52.734375
7764,-52.734375
7765,-52.734375
7766,-54.687500
7767,-52.734375
7768,-52.734375
7769,-54.687500
7770,-54.687500
7771,-52.734375
7772,-54.687500
7773,-54.687500
7774,-54.687500
7775,-56.640625
7776,-54.687500
7777,-54.687500
7778,-54.687500
7779,-54.687500
7780,-56.640625
7781,-54.687500
7782,-56.640625
7783,-54.687500
7784,-56.640625
7785,-56.640625
7786,-56.640625
7787,-56.640625
7788,-56.640625
7789,-56.640625
7790,-56.640625
7791,-56.640625
7792,-56.640625
7793,-56.640625
7794,-60.546875
7795,-56.640625
7796,-56.640625
7797,-56.640625
7798,-56.640625
7799,-56.640625
7800,-56.640625
7801,-56.640625
7802,-56.640625
7803,-56.640625
7804,-56.640625
7805,-56.640625
7806,-56.640625
7807,-56.640625
7808,-56.640625
7809,-56.640625
7810,-56.640625
7811,-56.640625
7812,-56.640625
7813,-56.640625
7814,-56.640625
7815,-56.640625
7816,-56.640625
7817,-56.640625
7818,-56.640625
7819,-56.640625
7820,-54.687500
7821,-54.687500
7822,-54.687500
7823,-54.687500
7824,-54.687500
7825,-54.687500
7826,-54.687500
7827,-54.687500
7828,-54.687500
7829,-52.734375
7830,-52.734375
7831,-52.734375
7832,-52.734375
7833,-52.734375
7834,-52.734375
7835,-52.734375
7836,-52.734375
7837,-52.734375
7838,-50.781250
7839,-50.781250
7840,-50.781250
7841,-50.781250
7842,-50.781250
7843,-50.781250
7844,-50.781250
7845,-48.828125
7846,-48.828125
7847,-48.828125
7848,-48.828125
7849,-48.828125
7850,-46.875000
7851,-46.875000
7852,-46.875000
7853,-46.875000
7854,-46.875000
7855,-46.875000
7856,-44.921875
7857,-44.921875
7858,-44.921875
7859,-44.921875
7860,-42.968750
7861,-42.968750
7862,-42.968750
7863,-42.968750
7864,-41.015625
7865,-41.015625
7866,-41.015625
7867,-41.015625
7868,-41.015625
7869,-41.015625
7870,-39.062500
7871,-39.062500
7872,-39.062500
7873,-39.062500
7874,-37.109375
7875,-37.109375
7876,-37.109375
7877,-37.109375
7878,-37.109375
7879,-35.156250
7880,-35.156250
7881,-35.156250
7882,-35.156250
7883,-33.203125
7884,-33.203125
7885,-33.203125
7886,-31.250000
7887,-31.250000
7888,-31.250000
7889,-31.250000
7890,-29.296875
7891,-29.296875
7892,-29.296875
7893,-29.296875
7894,-27.343750
7895,-27.343750
7896,-27.343750
7897,-27.343750
7898,-25.390625
7899,-25.390625
7900,-25.390625
7901,-23.437500
7902,-23.437500
7903,-21.484375
7904,-21.484375
7905,-21.484375
7906,-21.484375
7907,-19.531250
7908,-19.531250
7909,-19.531250
7910,-17.578125
7911,-17.578125
7912,-17.578125
7913,-17.578125
7914,-15.625000
7915,-15.625000
7916,-15.625000
7917,-15.625000
7918,-13.671875
7919,-11.718750
7920,-11.718750
7921,-11.718750
7922,-11.718750
7923,-9.765625
7924,-9.765625
7925,-9.765625
7926,-7.812500
7927,-7.812500
7928,-7.812500
7929,-7.812500
7930,-5.859375
7931,-5.859375
7932,-5.859375
7933,-5.859375
7934,-3.906250
7935,-3.906250
7936,-3.906250
7937,-3.906250
7938,-1.953125
7939,-1.953125
7940,-1.953125
7941,0.000000
7942,0.000000
7943,0.000000
7944,0.000000
7945,1.953125
7946,1.953125
7947,1.953125
7948,1.953125
7949,3.906250
7950,3.906250
7951,3.906250
7952,3.906250
7953,5.859375
7954,5.859375
7955,5.859375
7956,5.859375
7957,5.859375
7958,7.812500
7959,7.812500
7960,7.812500
7961,7.812500
7962,9.765625
7963,9.765625
7964,9.765625
7965,9.765625
7966,11.718750
7967,11.718750
7968,11.718750
7969,11.718750
7970,13.671875
7971,13.671875
7972,13.671875
7973,13.671875
7974,13.671875
7975,15.625000
7976,15.625000
7977,15.625000
7978,15.625000
7979,15.625000
7980,15.625000
7981,17.578125
7982,17.578125
7983,17.578125
7984,17.578125
7985,17.578125
7986,17.578125
7987,17.578125
7988,17.578125
7989,19.531250
7990,19.531250
7991,19.531250
7992,19.531250
7993,21.484375
7994,19.531250
7995,21.484375
7996,21.484375
7997,21.484375
7998,21.484375
7999,21.484375
8000,21.484375
8001,23.437500
8002,23.437500
8003,23.437500
8004,23.437500
8005,23.437500
8006,23.437500
8007,23.437500
8008,23.437500
8009,23.437500
8010,25.390625
8011,23.437500
8012,25.390625
8013,25.390625
8014,25.390625
8015,25.390625
8016,25.390625
8017,25.390625
8018,23.437500
8019,25.390625
8020,27.343750
8021,25.390625
8022,25.390625
8023,27.343750
8024,27.343750
8025,27.343750
8026,27.343750
8027,27.343750
8028,27.343750
8029,27.343750
8030,27.343750
8031,27.343750
8032,27.343750
8033,27.343750
8034,27.343750
8035,27.343750
8036,27.343750
8037,29.296875
8038,29.296875
8039,29.296875
8040,29.296875
8041,29.296875
8042,29.296875
8043,29.296875
8044,29.296875
8045,29.296875
8046,29.296875
8047,29.296875
8048,29.296875
8049,29.296875
8050,29.296875
8051,29.296875
8052,31.250000
8053,29.296875
8054,29.296875
8055,29.296875
8056,31.250000
8057,29.296875
8058,29.296875
8059,29.296875
8060,31.250000
8061,31.250000
8062,29.296875
8063,31.250000
8064,31.250000
8065,31.250000
8066,29.296875
8067,31.250000
8068,31.250000
8069,31.250000
8070,29.296875
8071,29.296875
8072,29.296875
8073,31.250000
8074,29.296875
8075,29.296875
8076,31.250000
8077,31.250000
8078,29.296875
8079,29.296875
8080,31.250000
8081,29.296875
8082,29.296875
8083,29.296875
8084,29.296875
8085,29.296875
8086,29.296875
8087,29.296875
8088,29.296875
8089,29.296875
8090,29.296875
8091,29.296875
8092,29.296875
8093,29.296875
8094,29.296875
8095,29.296875
8096,29.296875
8097,29.296875
8098,29.296875
8099,29.296875
8100,29.296875
8101,29.296875
8102,29.296875
8103,29.296875
8104,29.296875
8105,27.343750
8106,29.296875
8107,29.296875
8108,27.343750
8109,27.343750
8110,27.343750
8111,27.343750
8112,27.343750
8113,27.343750
8114,27.343750
8115,27.343750
8116,27.343750
8117,27.343750
8118,27.343750
8119,27.343750
8120,27.343750
8121,25.390625
8122,27.343750
8123,27.343750
8124,27.343750
8125,25.390625
8126,25.390625
8127,27.343750
8128,25.390625
8129,25.390625
8130,25.390625
8131,27.343750
8132,25.390625
8133,25.390625
8134,25.390625
8135,25.390625
8136,25.390625
8137,25.390625
8138,23.437500
8139,23.437500
8140,23.437500
8141,23.437500
8142,23.437500
8143,23.437500
8144,23.437500
8145,23.437500
8146,23.437500
8147,23.437500
8148,21.484375
8149,21.484375
8150,21.484375
8151,21.484375
8152,21.484375
8153,21.484375
8154,21.484375
8155,21.484375
8156,19.531250
8157,21.484375
8158,19.531250
8159,19.531250
8160,19.531250
8161,19.531250
8162,19.531250
8163,19.531250
8164,17.578125
8165,19.531250
8166,17.578125
8167,17.578125
8168,17.578125
8169,17.578125
8170,17.578125
8171,17.578125
8172,17.578125
8173,15.625000
8174,15.625000
8175,15.625000
8176,15.625000
8177,15.625000
8178,15.625000
8179,13.671875
8180,13.671875
8181,13.671875
8182,13.671875
8183,11.718750
8184,13.671875
8185,11.718750
8186,13.671875
8187,13.671875
8188,11.718750
8189,9.765625
8190,11.718750
8191,11.718750
8192,11.718750
8193,9.765625
8194,9.765625
8195,9.765625
8196,9.765625
8197,7.812500
8198,7.812500
8199,7.812500
8200,7.812500
8201,5.859375
8202,5.859375
8203,5.859375
8204,5.859375
8205,5.859375
8206,3.906250
8207,3.906250
8208,3.906250
8209,3.906250
8210,3.906250
8211,3.906250
8212,1.953125
8213,1.953125
8214,1.953125
8215,1.953125
8216,0.000000
8217,0.000000
8218,0.000000
8219,0.000000
8220,0.000000
8221,-1.953125
8222,-1.953125
8223,-1.953125
8224,-3.906250
8225,-1.953125
8226,-1.953125
8227,-3.906250
8228,-3.906250
8229,-3.906250
8230,-5.859375
8231,-5.859375
8232,-5.859375
8233,-5.859375
8234,-5.859375
8235,-7.812500
8236,-7.812500
8237,-7.812500
8238,-7.812500
8239,-9.765625
8240,-7.812500
8241,-9.765625
8242,-9.765625
8243,-11.718750
8244,-11.718750
8245,-11.718750
8246,-11.718750
8247,-11.718750
8248,-13.671875
8249,-13.671875
8250,-13.671875
8251,-13.671875
8252,-15.625000
8253,-15.625000
8254,-15.625000
8255,-15.625000
8256,-17.578125
8257,-17.578125
8258,-17.578125
8259,-17.578125
8260,-17.578125
8261,-19.531250
8262,-19.531250
8263,-19.531250
8264,-19.531250
8265,-21.484375
8266,-21.484375
8267,-21.484375
8268,-21.484375
8269,-23.437500
8270,-23.437500
8271,-23.437500
8272,-23.437500
8273,-23.437500
8274,-25.390625
8275,-25.390625
8276,-25.390625
8277,-25.390625
8278,-27.343750
8279,-27.343750
8280,-29.296875
8281,-27.343750
8282,-27.343750
8283,-29.296875
8284,-29.296875
8285,-31.250000
8286,-31.250000
8287,-31.250000
8288,-31.250000
8289,-33.203125
8290,-31.250000
8291,-31.250000
8292,-33.203125
8293,-33.203125
8294,-33.203125
8295,-33.203125
8296,-35.156250
8297,-35.156250
8298,-35.156250
8299,-35.156250
8300,-37.109375
8301,-37.109375
8302,-37.109375
8303,-37.109375
8304,-37.109375
8305,-39.062500
8306,-39.062500
8307,-39.062500
8308,-39.062500
8309,-41.015625
8310,-41.015625
8311,-41.015625
8312,-41.015625
8313,-41.015625
8314,-41.015625
8315,-42.968750
8316,-42.968750
8317,-42.968750
8318,-42.968750
8319,-42.968750
8320,-44.921875
8321,-44.921875
8322,-44.921875
8323,-44.921875
8324,-44.921875
8325,-46.875000
8326,-44.921875
8327,-46.875000
8328,-46.875000
8329,-46.875000
8330,-46.875000
8331,-48.828125
8332,-48.828125
8333,-48.828125
8334,-48.828125
8335,-48.828125
8336,-48.828125
8337,-50.781250
8338,-50.781250
8339,-48.828125
8340,-50.781250
8341,-50.781250
8342,-50.781250
8343,-50.781250
8344,-52.734375
8345,-52.734375
8346,-52.734375
8347,-52.734375
8348,-52.734375
8349,-52.734375
8350,-52.734375
8351,-54.687500
8352,-54.687500
8353,-54.687500
8354,-54.687500
8355,-54.687500
8356,-54.687500
8357,-54.687500
8358,-54.687500
8359,-54.687500
8360,-54.687500
8361,-54.687500
8362,-54.687500
8363,-56.640625
8364,-54.687500
8365,-54.687500
8366,-56.640625
8367,-56.640625
8368,-56.640625
8369,-56.640625
8370,-56.640625
8371,-56.640625
8372,-56.640625
8373,-56.640625
8374,-56.640625
8375,-56.640625
8376,-56.640625
8377,-56.640625
8378,-56.640625
8379,-56.640625
8380,-56.640625
8381,-56.640625
8382,-56.640625
8383,-56.640625
8384,-56.640625
8385,-56.640625
8386,-56.640625
8387,-56.640625
8388,-56.640625
8389,-56.640625
8390,-56.640625
8391,-56.640625
8392,-56.640625
8393,-56.640625
8394,-56.640625
8395,-56.640625
8396,-56.640625
8397,-56.640625
8398,-56.640625
8399,-56.640625
8400,-56.640625
8401,-56.640625
8402,-56.640625
8403,-56.640625
8404,-54.687500
8405,-54.687500
8406,-54.687500
8407,-54.687500
8408,-54.687500
8409,-54.687500
8410,-54.687500
8411,-54.687500
8412,-52.734375
8413,-52.734375
8414,-52.734375
8415,-52.734375
8416,-52.734375
8417,-52.734375
8418,-52.734375
8419,-52.734375
8420,-52.734375
8421,-50.781250
8422,-50.781250
8423,-50.781250
8424,-50.781250
8425,-50.781250
8426,-50.781250
8427,-50.781250
8428,-48.828125
8429,-48.828125
8430,-48.828125
8431,-48.828125
8432,-48.828125
8433,-46.875000
8434,-46.875000
8435,-46.875000
8436,-46.875000
8437,-46.875000
8438,-44.921875
8439,-44.921875
8440,-44.921875
8441,-44.921875
8442,-42.968750
8443,-42.968750
8444,-42.968750
8445,-42.968750
8446,-42.968750
8447,-41.015625
8448,-42.968750
8449,-41.015625
8450,-41.015625
8451,-41.015625
8452,-39.062500
8453,-39.062500
8454,-39.062500
8455,-39.062500
8456,-39.062500
8457,-37.109375
8458,-37.109375
8459,-37.109375
8460,-37.109375
8461,-37.109375
8462,-35.156250
8463,-35.156250
8464,-33.203125
8465,-33.203125
8466,-33.203125
8467,-31.250000
8468,-33.203125
8469,-31.250000
8470,-31.250000
8471,-31.250000
8472,-31.250000
8473,-29.296875
8474,-29.296875
8475,-29.296875
8476,-27.343750
8477,-27.343750
8478,-27.343750
8479,-25.390625
8480,-25.390625
8481,-25.390625
8482,-25.390625
8483,-23.437500
8484,-23.437500
8485,-23.437500
8486,-23.437500
8487,-21.484375
8488,-21.484375
8489,-21.484375
8490,-19.531250
8491,-19.531250
8492,-19.531250
8493,-17.578125
8494,-17.578125
8495,-17.578125
8496,-15.625000
8497,-15.625000
8498,-15.625000
8499,-13.671875
8500,-13.671875
8501,-13.671875
8502,-11.718750
8503,-11.718750
8504,-11.718750
8505,-11.718750
8506,-9.765625
8507,-9.765625
8508,-9.765625
8509,-7.812500
8510,-7.812500
8511,-7.812500
8512,-7.812500
8513,-7.812500
8514,-5.859375
8515,-5.859375
8516,-3.906250
8517,-3.906250
8518,-3.906250
8519,-3.906250
8520,-1.953125
8521,-1.953125
8522,-1.953125
8523,-1.953125
8524,0.000000
8525,0.000000
8526,0.000000
8527,0.000000
8528,1.953125
8529,1.953125
8530,1.953125
8531,1.953125
8532,3.906250
8533,3.906250
8534,3.906250
8535,3.906250
8536,5.859375
8537,5.859375
8538,5.859375
8539,5.859375
8540,7.812500
8541,5.859375
8542,7.812500
8543,7.812500
8544,9.765625
8545,9.765625
8546,9.765625
8547,9.765625
8548,9.765625
8549,11.718750
8550,11.718750
8551,11.718750
8552,11.718750
8553,13.671875
8554,13.671875
8555,13.671875
8556,13.671875
8557,13.671875
8558,13.671875
8559,15.625000
8560,15.625000
8561,15.625000
8562,15.625000
8563,17.578125
8564,17.578125
8565,17.578125
8566,17.578125
8567,17.578125
8568,17.578125
8569,19.531250
8570,19.531250
8571,19.531250
8572,19.531250
8573,19.531250
8574,19.531250
8575,21.484375
8576,21.484375
8577,21.484375
8578,21.484375
8579,21.484375
8580,21.484375
8581,23.437500
8582,21.484375
8583,21.484375
8584,23.437500
8585,23.437500
8586,23.437500
8587,23.437500
8588,23.437500
8589,23.437500
8590,23.437500
8591,25.390625
8592,23.437500
8593,25.390625
8594,25.390625
8595,25.390625
8596,25.390625
8597,25.390625
8598,25.390625
8599,25.390625
8600,25.390625
8601,25.390625
8602,25.390625
8603,25.390625
8604,27.343750
8605,27.343750
8606,27.343750
8607,25.390625
8608,27.343750
8609,27.343750
8610,27.343750
8611,27.343750
8612,27.343750
8613,27.343750
8614,27.343750
8615,29.296875
8616,27.343750
8617,27.343750
8618,27.343750
8619,27.343750
8620,29.296875
8621,29.296875
8622,29.296875
8623,29.296875
8624,29.296875
8625,29.296875
8626,29.296875
8627,29.296875
8628,29.296875
8629,29.296875
8630,29.296875
8631,29.296875
8632,29.296875
8633,29.296875
8634,29.296875
8635,29.296875
8636,29.296875
8637,31.250000
8638,29.296875
8639,29.296875
8640,29.296875
8641,29.296875
8642,29.296875
8643,31.250000
8644,29.296875
8645,29.296875
8646,31.250000
8647,31.250000
8648,31.250000
8649,31.250000
8650,29.296875
8651,31.250000
8652,31.250000
8653,29.296875
8654,29.296875
8655,29.296875
8656,31.250000
8657,29.296875
8658,29.296875
8659,29.296875
8660,29.296875
8661,29.296875
8662,29.296875
8663,29.296875
8664,29.296875
8665,29.296875
8666,29.296875
8667,29.296875
8668,29.296875
8669,29.296875
8670,29.296875
8671,29.296875
8672,29.296875
8673,29.296875
8674,29.296875
8675,29.296875
8676,29.296875
8677,29.296875
8678,29.296875
8679,29.296875
8680,29.296875
8681,29.296875
8682,29.296875
8683,29.296875
8684,27.343750
8685,29.296875
8686,29.296875
8687,27.343750
8688,29.296875
8689,29.296875
8690,27.343750
8691,27.343750
8692,27.343750
8693,27.343750
8694,29.296875
8695,27.343750
8696,27.343750
8697,27.343750
8698,27.343750
8699,27.343750
8700,27.343750
8701,27.343750
8702,27.343750
8703,27.343750
8704,27.343750
8705,27.343750
8706,27.343750
8707,25.390625
8708,25.390625
8709,27.343750
8710,25.390625
8711,25.390625
8712,25.390625
8713,25.390625
8714,25.390625
8715,25.390625
8716,25.390625
8717,25.390625
8718,25.390625
8719,23.437500
8720,23.437500
8721,23.437500
8722,23.437500
8723,23.437500
8724,23.437500
8725,23.437500
8726,23.437500
8727,21.484375
8728,23.437500
8729,23.437500
8730,23.437500
8731,21.484375
8732,21.484375
8733,21.484375
8734,21.484375
8735,21.484375
8736,21.484375
8737,21.484375
8738,21.484375
8739,19.531250
8740,19.531250
8741,19.531250
8742,19.531250
8743,19.531250
8744,19.531250
8745,19.531250
8746,19.531250
8747,17.578125
8748,17.578125
8749,17.578125
8750,17.578125
8751,17.578125
8752,17.578125
8753,17.578125
8754,15.625000
8755,17.578125
8756,15.625000
8757,15.625000
8758,15.625000
8759,15.625000
8760,15.625000
8761,13.671875
8762,13.671875
8763,13.671875
8764,13.671875
8765,13.671875
8766,13.671875
8767,11.718750
8768,13.671875
8769,11.718750
8770,11.718750
8771,11.718750
8772,11.718750
8773,9.765625
8774,9.765625
8775,9.765625
8776,9.765625
8777,9.765625
8778,7.812500
8779,9.765625
8780,7.812500
8781,7.812500
8782,7.812500
8783,5.859375
8784,7.812500
8785,5.859375
8786,5.859375
8787,5.859375
8788,5.859375
8789,3.906250
8790,3.906250
8791,3.906250
8792,3.906250
8793,3.906250
8794,3.906250
8795,1.953125
8796,1.953125
8797,1.953125
8798,0.000000
8799,0.000000
8800,0.000000
8801,0.000000
8802,-1.953125
8803,0.000000
8804,-1.953125
8805,-1.953125
8806,-1.953125
8807,-3.906250
8808,-1.953125
8809,-1.953125
8810,-3.906250
8811,-3.906250
8812,-3.906250
8813,-5.859375
8814,-5.859375
8815,-5.859375
8816,-5.859375
8817,-5.859375
8818,-7.812500
8819,-7.812500
8820,-7.812500
8821,-9.765625
8822,-9.765625
8823,-9.765625
8824,-9.765625
8825,-9.765625
8826,-11.718750
8827,-11.718750
8828,-11.718750
8829,-11.718750
8830,-11.718750
8831,-13.671875
8832,-13.671875
8833,-13.671875
8834,-13.671875
8835,-15.625000
8836,-15.625000
8837,-17.578125
8838,-15.625000
8839,-15.625000
8840,-17.578125
8841,-17.578125
8842,-17.578125
8843,-17.578125
8844,-19.531250
8845,-19.531250
8846,-19.531250
8847,-19.531250
8848,-21.484375
8849,-21.484375
8850,-21.484375
8851,-21.484375
8852,-21.484375
8853,-23.437500
8854,-25.390625
8855,-25.390625
8856,-25.390625
8857,-25.390625
8858,-25.390625
8859,-25.390625
8860,-27.343750
8861,-27.343750
8862,-27.343750
8863,-27.343750
8864,-29.296875
8865,-29.296875
8866,-27.343750
8867,-29.296875
8868,-29.296875
8869,-31.250000
8870,-31.250000
8871,-31.250000
8872,-31.250000
8873,-31.250000
8874,-31.250000
8875,-33.203125
8876,-33.203125
8877,-35.156250
8878,-35.156250
8879,-35.156250
8880,-35.156250
8881,-35.156250
8882,-35.156250
8883,-35.156250
8884,-37.109375
8885,-37.109375
8886,-37.109375
8887,-37.109375
8888,-37.109375
8889,-39.062500
8890,-39.062500
8891,-39.062500
8892,-39.062500
8893,-41.015625
8894,-41.015625
8895,-41.015625
8896,-41.015625
8897,-41.015625
8898,-41.015625
8899,-42.968750
8900,-42.968750
8901,-42.968750
8902,-42.968750
8903,-42.968750
8904,-44.921875
8905,-44.921875
8906,-44.921875
8907,-44.921875
8908,-44.921875
8909,-44.921875
8910,-46.875000
8911,-46.875000
8912,-46.875000
8913,-46.875000
8914,-46.875000
8915,-48.828125
8916,-48.828125
8917,-48.828125
8918,-48.828125
8919,-48.828125
8920,-50.781250
8921,-50.781250
8922,-50.781250
8923,-50.781250
8924,-50.781250
8925,-50.781250
8926,-50.781250
8927,-52.734375
8928,-52.734375
8929,-52.734375
8930,-52.734375
8931,-52.734375
8932,-52.734375
8933,-52.734375
8934,-52.734375
8935,-52.734375
8936,-54.687500
8937,-54.687500
8938,-54.687500
8939,-54.687500
8940,-54.687500
8941,-54.687500
8942,-54.687500
8943,-54.687500
8944,-54.687500
8945,-54.687500
8946,-54.687500
8947,-56.640625
8948,-54.687500
8949,-54.687500
8950,-56.640625
8951,-56.640625
8952,-56.640625
8953,-56.640625
8954,-56.640625
8955,-56.640625
8956,-56.640625
8957,-56.640625
8958,-56.640625
8959,-56.640625
8960,-56.640625
8961,-56.640625
8962,-56.640625
8963,-56.640625
8964,-56.640625
8965,-56.640625
8966,-56.640625
8967,-56.640625
8968,-56.640625
8969,-56.640625
8970,-54.687500
8971,-56.640625
8972,-56.640625
8973,-56.640625
8974,-56.640625
8975,-56.640625
8976,-56.640625
8977,-56.640625
8978,-56.640625
8979,-56.640625
8980,-56.640625
8981,-56.640625
8982,-56.640625
8983,-56.640625
8984,-56.640625
8985,-54.687500
8986,-56.640625
8987,-54.687500
8988,-54.687500
8989,-54.687500
8990,-54.687500
8991,-54.687500
8992,-54.687500
8993,-54.687500
8994,-54.687500
8995,-52.734375
8996,-52.734375
8997,-52.734375
8998,-52.734375
8999,-52.734375
9000,-52.734375
9001,-52.734375
9002,-50.781250
9003,-52.734375
9004,-52.734375
9005,-50.781250
9006,-50.781250
9007,-50.781250
9008,-50.781250
9009,-50.781250
9010,-48.828125
9011,-48.828125
9012,-48.828125
9013,-48.828125
9014,-46.875000
9015,-46.875000
9016,-46.875000
9017,-46.875000
9018,-46.875000
9019,-44.921875
9020,-44.921875
9021,-44.921875
9022,-46.875000
9023,-44.921875
9024,-44.921875
9025,-42.968750
9026,-42.968750
9027,-42.968750
9028,-42.968750
9029,-41.015625
9030,-41.015625
9031,-41.015625
9032,-41.015625
9033,-41.015625
9034,-39.062500
9035,-39.062500
9036,-39.062500
9037,-39.062500
9038,-39.062500
9039,-37.109375
9040,-37.109375
9041,-37.109375
9042,-35.156250
9043,-35.156250
9044,-35.156250
9045,-35.156250
9046,-35.156250
9047,-35.156250
9048,-33.203125
9049,-33.203125
9050,-31.250000
9051,-31.250000
9052,-31.250000
9053,-31.250000
9054,-31.250000
9055,-29.296875
9056,-29.296875
9057,-29.296875
9058,-27.343750
9059,-27.343750
9060,-27.343750
9061,-25.390625
9062,-25.390625
9063,-25.390625
9064,-25.390625
9065,-23.437500
9066,-23.437500
9067,-23.437500
9068,-21.484375
9069,-21.484375
9070,-21.484375
9071,-19.531250
9072,-19.531250
9073,-19.531250
9074,-19.531250
9075,-17.578125
9076,-17.578125
9077,-17.578125
9078,-15.625000
9079,-15.625000
9080,-15.625000
9081,-13.671875
9082,-13.671875
9083,-13.671875
9084,-13.671875
9085,-11.718750
9086,-11.718750
9087,-11.718750
9088,-9.765625
9089,-9.765625
9090,-9.765625
9091,-7.812500
9092,-7.812500
9093,-7.812500
9094,-7.812500
9095,-7.812500
9096,-5.859375
9097,-5.859375
9098,-3.906250
9099,-3.906250
9100,-3.906250
9101,-3.906250
9102,-3.906250
9103,-1.953125
9104,-1.953125
9105,-1.953125
9106,0.000000
9107,0.000000
9108,0.000000
9109,0.000000
9110,1.953125
9111,1.953125
9112,1.953125
9113,3.906250
9114,3.906250
9115,3.906250
9116,3.906250
9117,3.906250
9118,3.906250
9119,5.859375
9120,5.859375
9121,5.859375
9122,5.859375
9123,7.812500
9124,7.812500
9125,7.812500
9126,7.812500
9127,7.812500
9128,9.765625
9129,9.765625
9130,11.718750
9131,11.718750
9132,11.718750
9133,11.718750
9134,11.718750
9135,11.718750
9136,13.671875
9137,13.671875
9138,13.671875
9139,13.671875
9140,13.671875
9141,13.671875
9142,17.578125
9143,15.625000
9144,15.625000
9145,15.625000
9146,15.625000
9147,17.578125
9148,17.578125
9149,17.578125
9150,17.578125
9151,19.531250
9152,17.578125
9153,19.531250
9154,19.531250
9155,19.531250
9156,19.531250
9157,19.531250
9158,21.484375
9159,21.484375
9160,21.484375
9161,21.484375
9162,21.484375
9163,21.484375
9164,21.484375
9165,21.484375
9166,21.484375
9167,23.437500
9168,23.437500
9169,23.437500
9170,23.437500
9171,23.437500
9172,23.437500
9173,23.437500
9174,23.437500
9175,23.437500
9176,25.390625
9177,25.390625
9178,23.437500
9179,25.390625
9180,25.390625
9181,23.437500
9182,25.390625
9183,25.390625
9184,25.390625
9185,25.390625
9186,25.390625
9187,25.390625
9188,27.343750
9189,25.390625
9190,27.343750
9191,27.343750
9192,27.343750
9193,27.343750
9194,27.343750
9195,27.343750
9196,27.343750
9197,27.343750
9198,27.343750
9199,27.343750
9200,27.343750
9201,29.296875
9202,27.343750
9203,29.296875
9204,29.296875
9205,29.296875
9206,29.296875
9207,29.296875
9208,29.296875
9209,29.296875
9210,29.296875
9211,29.296875
9212,29.296875
9213,29.296875
9214,29.296875
9215,29.296875
9216,29.296875
9217,29.296875
9218,29.296875
9219,29.296875
9220,29.296875
9221,29.296875
9222,29.296875
9223,31.250000
9224,31.250000
9225,29.296875
9226,31.250000
9227,29.296875
9228,31.250000
9229,31.250000
9230,29.296875
9231,29.296875
9232,29.296875
9233,31.250000
9234,31.250000
9235,29.296875
9236,29.296875
9237,31.250000
9238,29.296875
9239,31.250000
9240,29.296875
9241,29.296875
9242,29.296875
9243,29.296875
9244,31.250000
9245,29.296875
9246,29.296875
9247,29.296875
9248,29.296875
9249,29.296875
9250,29.296875
9251,29.296875
9252,29.296875
9253,29.296875
9254,29.296875
9255,29.296875
9256,29.296875
9257,29.296875
9258,29.296875
9259,29.296875
9260,29.296875
9261,27.343750
9262,29.296875
9263,29.296875
9264,29.296875
9265,29.296875
9266,27.343750
9267,29.296875
9268,29.296875
9269,27.343750
9270,29.296875
9271,27.343750
9272,27.343750
9273,29.296875
9274,27.343750
9275,27.343750
9276,29.296875
9277,27.343750
9278,27.343750
9279,27.343750
9280,27.343750
9281,27.343750
9282,27.343750
9283,27.343750
9284,27.343750
9285,27.343750
9286,27.343750
9287,27.343750
9288,27.343750
9289,25.390625
9290,25.390625
9291,25.390625
9292,25.390625
9293,27.343750
9294,25.390625
9295,25.390625
9296,25.390625
9297,25.390625
9298,25.390625
9299,25.390625
9300,23.437500
9301,23.437500
9302,23.437500
9303,25.390625
9304,23.437500
9305,23.437500
9306,23.437500
9307,23.437500
9308,23.437500
9309,23.437500
9310,21.484375
9311,21.484375
9312,23.437500
9313,23.437500
9314,21.484375
9315,21.484375
9316,21.484375
9317,21.484375
9318,21.484375
9319,21.484375
9320,19.531250
9321,19.531250
9322,19.531250
9323,19.531250
9324,19.531250
9325,19.531250
9326,19.531250
9327,19.531250
9328,19.531250
9329,17.578125
9330,17.578125
9331,17.578125
9332,17.578125
9333,17.578125
9334,17.578125
9335,15.625000
9336,17.578125
9337,15.625000
9338,17.578125
9339,15.625000
9340,15.625000
9341,15.625000
9342,15.625000
9343,15.625000
9344,13.671875
9345,13.671875
9346,13.671875
9347,13.671875
9348,13.671875
9349,13.671875
9350,11.718750
9351,11.718750
9352,13.671875
9353,11.718750
9354,9.765625
9355,11.718750
9356,9.765625
9357,9.765625
9358,9.765625
9359,11.718750
9360,9.765625
9361,7.812500
9362,7.812500
9363,9.765625
9364,7.812500
9365,7.812500
9366,5.859375
9367,5.859375
9368,5.859375
9369,5.859375
9370,5.859375
9371,5.859375
9372,3.906250
9373,3.906250
9374,3.906250
9375,3.906250
9376,1.953125
9377,3.906250
9378,1.953125
9379,1.953125
9380,1.953125
9381,0.000000
9382,0.000000
9383,0.000000
9384,0.000000
9385,0.000000
9386,-1.953125
9387,-1.953125
9388,-1.953125
9389,-1.953125
9390,-3.906250
9391,-3.906250
9392,-3.906250
9393,-3.906250
9394,-3.906250
9395,-3.906250
9396,-5.859375
9397,-5.859375
9398,-5.859375
9399,-5.859375
9400,-5.859375
9401,-7.812500
9402,-7.812500
9403,-7.812500
9404,-9.765625
9405,-9.765625
9406,-9.765625
9407,-9.765625
9408,-9.765625
9409,-9.765625
9410,-11.718750
9411,-11.718750
9412,-11.718750
9413,-13.671875
9414,-13.671875
9415,-13.671875
9416,-13.671875
9417,-13.671875
9418,-15.625000
9419,-15.625000
9420,-15.625000
9421,-15.625000
9422,-17.578125
9423,-17.578125
9424,-17.578125
9425,-17.578125
9426,-19.531250
9427,-19.531250
9428,-19.531250
9429,-19.531250
9430,-19.531250
9431,-21.484375
9432,-21.484375
9433,-21.484375
9434,-23.437500
9435,-23.437500
9436,-23.437500
9437,-23.437500
9438,-23.437500
9439,-25.390625
9440,-25.390625
9441,-25.390625
9442,-25.390625
9443,-27.343750
9444,-25.390625
9445,-27.343750
9446,-27.343750
9447,-27.343750
9448,-29.296875
9449,-29.296875
9450,-29.296875
9451,-29.296875
9452,-31.250000
9453,-31.250000
9454,-31.250000
9455,-31.250000
9456,-31.250000
9457,-33.203125
9458,-33.203125
9459,-33.203125
9460,-35.156250
9461,-35.156250
9462,-35.156250
9463,-35.156250
9464,-35.156250
9465,-35.156250
9466,-35.156250
9467,-37.109375
9468,-37.109375
9469,-37.109375
9470,-37.109375
9471,-39.062500
9472,-39.062500
9473,-39.062500
9474,-39.062500
9475,-39.062500
9476,-41.015625
9477,-41.015625
9478,-41.015625
9479,-42.968750
9480,-41.015625
9481,-42.968750
9482,-42.968750
9483,-42.968750
9484,-42.968750
9485,-44.921875
9486,-44.921875
9487,-44.921875
9488,-44.921875
9489,-44.921875
9490,-44.921875
9491,-44.921875
9492,-46.875000
9493,-46.875000
9494,-46.875000
9495,-46.875000
9496,-48.828125
9497,-46.875000
9498,-48.828125
9499,-48.828125
9500,-48.828125
9501,-48.828125
9502,-50.781250
9503,-48.828125
9504,-50.781250
9505,-50.781250
9506,-50.781250
9507,-52.734375
9508,-50.781250
9509,-52.734375
9510,-52.734375
9511,-50.781250
9512,-52.734375
9513,-52.734375
9514,-52.734375
9515,-52.734375
9516,-52.734375
9517,-52.734375
9518,-52.734375
9519,-52.734375
9520,-54.687500
9521,-54.687500
9522,-54.687500
9523,-54.687500
9524,-54.687500
9525,-54.687500
9526,-54.687500
9527,-54.687500
9528,-54.687500
9529,-54.687500
9530,-54.687500
9531,-54.687500
9532,-56.640625
9533,-54.687500
9534,-54.687500
9535,-56.640625
9536,-56.640625
9537,-56.640625
9538,-56.640625
9539,-56.640625
9540,-56.640625
9541,-56.640625
9542,-56.640625
9543,-56.640625
9544,-56.640625
9545,-56.640625
9546,-56.640625
9547,-56.640625
9548,-56.640625
9549,-56.640625
9550,-56.640625
9551,-56.640625
9552,-56.640625
9553,-56.640625
9554,-56.640625
9555,-56.640625
9556,-56.640625
9557,-56.640625
9558,-56.640625
9559,-56.640625
9560,-56.640625
9561,-56.640625
9562,-56.640625
9563,-56.640625
9564,-56.640625
9565,-56.640625
9566,-54.687500
9567,-54.687500
9568,-54.687500
9569,-54.687500
9570,-56.640625
9571,-54.687500
9572,-54.687500
9573,-54.687500
9574,-54.687500
9575,-54.687500
9576,-52.734375
9577,-54.687500
9578,-52.734375
9579,-52.734375
9580,-52.734375
9581,-52.734375
9582,-52.734375
9583,-52.734375
9584,-50.781250
9585,-50.781250
9586,-50.781250
9587,-50.781250
9588,-50.781250
9589,-50.781250
9590,-50.781250
9591,-50.781250
9592,-48.828125
9593,-48.828125
9594,-48.828125
9595,-48.828125
9596,-48.828125
9597,-48.828125
9598,-46.875000
9599,-46.875000
9600,-46.875000
9601,-46.875000
9602,-44.921875
9603,-44.921875
9604,-44.921875
9605,-44.921875
9606,-44.921875
9607,-44.921875
9608,-42.968750
9609,-42.968750
9610,-42.968750
9611,-42.968750
9612,-42.968750
9613,-41.015625
9614,-41.015625
9615,-41.015625
9616,-41.015625
9617,-41.015625
9618,-39.062500
9619,-39.062500
9620,-39.062500
9621,-37.109375
9622,-37.109375
9623,-37.109375
9624,-37.109375
9625,-35.156250
9626,-35.156250
9627,-35.156250
9628,-35.156250
9629,-35.156250
9630,-33.203125
9631,-33.203125
9632,-33.203125
9633,-33.203125
9634,-31.250000
9635,-31.250000
9636,-31.250000
9637,-29.296875
9638,-29.296875
9639,-29.296875
9640,-29.296875
9641,-27.343750
9642,-27.343750
9643,-27.343750
9644,-25.390625
9645,-25.390625
9646,-25.390625
9647,-25.390625
9648,-23.437500
9649,-23.437500
9650,-23.437500
9651,-21.484375
9652,-21.484375
9653,-21.484375
9654,-21.484375
9655,-19.531250
9656,-19.531250
9657,-17.578125
9658,-17.578125
9659,-17.578125
9660,-17.578125
9661,-17.578125
9662,-15.625000
9663,-15.625000
9664,-13.671875
9665,-13.671875
9666,-13.671875
9667,-13.671875
9668,-11.718750
9669,-11.718750
9670,-11.718750
9671,-11.718750
9672,-9.765625
9673,-9.765625
9674,-9.765625
9675,-7.812500
9676,-7.812500
9677,-7.812500
9678,-7.812500
9679,-5.859375
9680,-5.859375
9681,-5.859375
9682,-3.906250
9683,-3.906250
9684,-3.906250
9685,-1.953125
9686,-1.953125
9687,-1.953125
9688,-1.953125
9689,-1.953125
9690,0.000000
9691,0.000000
9692,0.000000
9693,1.953125
9694,1.953125
9695,1.953125
9696,1.953125
9697,1.953125
9698,3.906250
9699,3.906250
9700,3.906250
9701,5.859375
9702,5.859375
9703,5.859375
9704,5.859375
9705,5.859375
9706,5.859375
9707,7.812500
9708,7.812500
9709,7.812500
9710,7.812500
9711,9.765625
9712,9.765625
9713,9.765625
9714,11.718750
9715,11.718750
9716,11.718750
9717,11.718750
9718,11.718750
9719,13.671875
9720,13.671875
9721,13.671875
9722,13.671875
9723,13.671875
9724,15.625000
9725,15.625000
9726,15.625000
9727,15.625000
9728,15.625000
9729,17.578125
9730,17.578125
9731,17.578125
9732,17.578125
9733,17.578125
9734,17.578125
9735,19.531250
9736,19.531250
9737,19.531250
9738,19.531250
9739,19.531250
9740,19.531250
9741,19.531250
9742,19.531250
9743,21.484375
9744,21.484375
9745,21.484375
9746,21.484375
9747,21.484375
9748,21.484375
9749,23.437500
9750,21.484375
9751,23.437500
9752,23.437500
9753,23.437500
9754,23.437500
9755,23.437500
9756,23.437500
9757,23.437500
9758,23.437500
9759,23.437500
9760,23.437500
9761,25.390625
9762,25.390625
9763,23.437500
9764,25.390625
9765,25.390625
9766,25.390625
9767,25.390625
9768,25.390625
9769,25.390625
9770,25.390625
9771,25.390625
9772,27.343750
9773,25.390625
9774,27.343750
9775,27.343750
9776,27.343750
9777,27.343750
9778,27.343750
9779,27.343750
9780,27.343750
9781,27.343750
9782,27.343750
9783,27.343750
9784,27.343750
9785,29.296875
9786,29.296875
9787,27.343750
9788,27.343750
9789,29.296875
9790,29.296875
9791,29.296875
9792,29.296875
9793,29.296875
9794,29.296875
9795,29.296875
9796,29.296875
9797,29.296875
9798,29.296875
9799,29.296875
9800,29.296875
9801,29.296875
9802,29.296875
9803,29.296875
9804,31.250000
9805,29.296875
9806,29.296875
9807,31.250000
9808,29.296875
9809,29.296875
9810,31.250000
9811,31.250000
9812,29.296875
9813,31.250000
9814,29.296875
9815,29.296875
9816,31.250000
9817,31.250000
9818,29.296875
9819,29.296875
9820,29.296875
9821,29.296875
9822,29.296875
9823,29.296875
9824,29.296875
9825,29.296875
9826,29.296875
9827,29.296875
9828,29.296875
9829,29.296875
9830,29.296875
9831,29.296875
9832,29.296875
9833,29.296875
9834,29.296875
9835,29.296875
9836,29.296875
9837,29.296875
9838,29.296875
9839,29.296875
9840,29.296875
9841,29.296875
9842,29.296875
9843,29.296875
9844,29.296875
9845,29.296875
9846,29.296875
9847,27.343750
9848,29.296875
9849,27.343750
9850,29.296875
9851,29.296875
9852,29.296875
9853,27.343750
9854,27.343750
9855,27.343750
9856,27.343750
9857,27.343750
9858,27.343750
9859,27.343750
9860,27.343750
9861,27.343750
9862,27.343750
9863,27.343750
9864,27.343750
9865,27.343750
9866,27.343750
9867,27.343750
9868,27.343750
9869,27.343750
9870,27.343750
9871,27.343750
9872,25.390625
9873,25.390625
9874,25.390625
9875,25.390625
9876,25.390625
9877,25.390625
9878,25.390625
9879,25.390625
9880,25.390625
9881,25.390625
9882,25.390625
9883,23.437500
9884,23.437500
9885,23.437500
9886,23.437500
9887,23.437500
9888,23.437500
9889,23.437500
9890,23.437500
9891,23.437500
9892,23.437500
9893,23.437500
9894,21.484375
9895,23.437500
9896,23.437500
9897,21.484375
9898,21.484375
9899,21.484375
9900,21.484375
9901,21.484375
9902,21.484375
9903,19.531250
9904,19.531250
9905,19.531250
9906,19.531250
9907,19.531250
9908,19.531250
9909,19.531250
9910,19.531250
9911,19.531250
9912,17.578125
9913,17.578125
9914,17.578125
9915,19.531250
9916,17.578125
9917,17.578125
9918,15.625000
9919,17.578125
9920,15.625000
9921,15.625000
9922,15.625000
9923,15.625000
9924,15.625000
9925,15.625000
9926,15.625000
9927,13.671875
9928,13.671875
9929,13.671875
9930,13.671875
9931,13.671875
9932,13.671875
9933,11.718750
9934,11.718750
9935,11.718750
9936,11.718750
9937,11.718750
9938,11.718750
9939,9.765625
9940,11.718750
9941,9.765625
9942,9.765625
9943,9.765625
9944,9.765625
9945,7.812500
9946,7.812500
9947,7.812500
9948,7.812500
9949,5.859375
9950,5.859375
9951,5.859375
9952,5.859375
9953,5.859375
9954,5.859375
9955,3.906250
9956,3.906250
9957,3.906250
9958,3.906250
9959,1.953125
9960,1.953125
9961,1.953125
9962,1.953125
9963,1.953125
9964,0.000000
9965,0.000000
9966,0.000000
9967,0.000000
9968,0.000000
9969,-1.953125
9970,-1.953125
9971,-1.953125
9972,-1.953125
9973,-3.906250
9974,-3.906250
9975,-3.906250
9976,-3.906250
9977,-3.906250
9978,-5.859375
9979,-5.859375
9980,-5.859375
9981,-5.859375
9982,-5.859375
9983,-5.859375
9984,-7.812500
9985,-7.812500
9986,-7.812500
9987,-7.812500
9988,-9.765625
9989,-9.765625
9990,-9.765625
9991,-9.765625
9992,-9.765625
9993,-11.718750
9994,-11.718750
9995,-13.671875
9996,-11.718750
9997,-13.671875
9998,-13.671875
9999,-13.671875
10000,-15.625000
