Channel              :,CH1
Frequency            :,1.010kHz
Period               :,0.990ms
PK-PK                :,140.6mV
Probe attenuation    :,1X
Voltage per ADC value:,0.244141mV
Time interval        :,1.00000us

index,CH1_Voltage(mV)
1,-46.875000
2,-46.875000
3,-46.875000
4,-42.968750
5,-42.968750
6,-42.968750
7,-42.968750
8,-42.968750
9,-42.968750
10,-42.968750
11,-42.968750
12,-42.968750
13,-42.968750
14,-39.062500
15,-39.062500
16,-39.062500
17,-39.062500
18,-39.062500
19,-39.062500
20,-39.062500
21,-39.062500
22,-39.062500
23,-39.062500
24,-35.156250
25,-35.156250
26,-35.156250
27,-35.156250
28,-35.156250
29,-35.156250
30,-35.156250
31,-35.156250
32,-35.156250
33,-35.156250
34,-31.250000
35,-31.250000
36,-31.250000
37,-31.250000
38,-31.250000
39,-31.250000
40,-31.250000
41,-31.250000
42,-31.250000
43,-27.343750
44,-27.343750
45,-27.343750
46,-27.343750
47,-27.343750
48,-27.343750
49,-27.343750
50,-27.343750
51,-27.343750
52,-27.343750
53,-23.437500
54,-23.437500
55,-23.437500
56,-23.437500
57,-23.437500
58,-23.437500
59,-23.437500
60,-19.531250
61,-19.531250
62,-19.531250
63,-19.531250
64,-19.531250
65,-19.531250
66,-19.531250
67,-19.531250
68,-19.531250
69,-19.531250
70,-15.625000
71,-15.625000
72,-15.625000
73,-15.625000
74,-15.625000
75,-15.625000
76,-15.625000
77,-15.625000
78,-15.625000
79,-15.625000
80,-11.718750
81,-11.718750
82,-11.718750
83,-11.718750
84,-11.718750
85,-11.718750
86,-11.718750
87,-7.812500
88,-7.812500
89,-7.812500
90,-7.812500
91,-7.812500
92,-7.812500
93,-7.812500
94,-7.812500
95,-7.812500
96,-3.906250
97,-3.906250
98,-3.906250
99,-3.906250
100,-3.906250
101,-3.906250
102,-3.906250
103,-3.906250
104,-3.906250
105,-3.906250
106,0.000000
107,0.000000
108,0.000000
109,0.000000
110,0.000000
111,0.000000
112,0.000000
113,0.000000
114,0.000000
115,0.000000
116,3.906250
117,3.906250
118,3.906250
119,3.906250
120,3.906250
121,3.906250
122,3.906250
123,3.906250
124,3.906250
125,7.812500
126,7.812500
127,3.906250
128,7.812500
129,7.812500
130,7.812500
131,7.812500
132,7.812500
133,7.812500
134,7.812500
135,7.812500
136,11.718750
137,11.718750
138,11.718750
139,11.718750
140,11.718750
141,11.718750
142,11.718750
143,11.718750
144,11.718750
145,11.718750
146,11.718750
147,15.625000
148,15.625000
149,15.625000
150,15.625000
151,15.625000
152,15.625000
153,15.625000
154,15.625000
155,15.625000
156,15.625000
157,15.625000
158,19.531250
159,19.531250
160,19.531250
161,19.531250
162,19.531250
163,19.531250
164,19.531250
165,19.531250
166,19.531250
167,19.531250
168,23.437500
169,23.437500
170,23.437500
171,23.437500
172,23.437500
173,23.437500
174,23.437500
175,23.437500
176,23.437500
177,23.437500
178,23.437500
179,27.343750
180,23.437500
181,27.343750
182,27.343750
183,27.343750
184,27.343750
185,27.343750
186,27.343750
187,27.343750
188,27.343750
189,27.343750
190,27.343750
191,27.343750
192,27.343750
193,31.250000
194,31.250000
195,31.250000
196,31.250000
197,31.250000
198,31.250000
199,31.250000
200,31.250000
201,31.250000
202,31.250000
203,31.250000
204,31.250000
205,31.250000
206,35.156250
207,35.156250
208,35.156250
209,35.156250
210,35.156250
211,35.156250
212,35.156250
213,35.156250
214,35.156250
215,35.156250
216,35.156250
217,35.156250
218,35.156250
219,35.156250
220,39.062500
221,39.062500
222,39.062500
223,39.062500
224,39.062500
225,39.062500
226,39.062500
227,39.062500
228,39.062500
229,39.062500
230,39.062500
231,39.062500
232,39.062500
233,39.062500
234,39.062500
235,39.062500
236,39.062500
237,39.062500
238,39.062500
239,42.968750
240,42.968750
241,42.968750
242,42.968750
243,42.968750
244,42.968750
245,42.968750
246,42.968750
247,42.968750
248,42.968750
249,42.968750
250,42.968750
251,42.968750
252,42.968750
253,42.968750
254,42.968750
255,42.968750
256,42.968750
257,46.875000
258,42.968750
259,42.968750
260,42.968750
261,46.875000
262,46.875000
263,46.875000
264,46.875000
265,46.875000
266,46.875000
267,46.875000
268,46.875000
269,46.875000
270,46.875000
271,46.875000
272,46.875000
273,46.875000
274,46.875000
275,46.875000
276,46.875000
277,46.875000
278,46.875000
279,46.875000
280,46.875000
281,46.875000
282,46.875000
283,46.875000
284,46.875000
285,46.875000
286,46.875000
287,46.875000
288,46.875000
289,46.875000
290,46.875000
291,46.875000
292,46.875000
293,50.781250
294,50.781250
295,46.875000
296,50.781250
297,50.781250
298,50.781250
299,50.781250
300,50.781250
301,50.781250
302,50.781250
303,50.781250
304,50.781250
305,50.781250
306,50.781250
307,50.781250
308,50.781250
309,50.781250
310,50.781250
311,50.781250
312,50.781250
313,50.781250
314,50.781250
315,50.781250
316,50.781250
317,50.781250
318,50.781250
319,50.781250
320,50.781250
321,50.781250
322,50.781250
323,50.781250
324,50.781250
325,50.781250
326,50.781250
327,50.781250
328,50.781250
329,50.781250
330,50.781250
331,50.781250
332,50.781250
333,50.781250
334,50.781250
335,50.781250
336,50.781250
337,50.781250
338,50.781250
339,50.781250
340,50.781250
341,50.781250
342,50.781250
343,50.781250
344,50.781250
345,50.781250
346,50.781250
347,50.781250
348,50.781250
349,50.781250
350,50.781250
351,50.781250
352,50.781250
353,50.781250
354,50.781250
355,50.781250
356,50.781250
357,50.781250
358,50.781250
359,50.781250
360,46.875000
361,46.875000
362,50.781250
363,50.781250
364,50.781250
365,46.875000
366,50.781250
367,46.875000
368,46.875000
369,46.875000
370,50.781250
371,46.875000
372,46.875000
373,46.875000
374,46.875000
375,46.875000
376,46.875000
377,46.875000
378,46.875000
379,46.875000
380,46.875000
381,46.875000
382,46.875000
383,46.875000
384,46.875000
385,46.875000
386,46.875000
387,46.875000
388,46.875000
389,46.875000
390,46.875000
391,46.875000
392,46.875000
393,42.968750
394,46.875000
395,46.875000
396,46.875000
397,42.968750
398,42.968750
399,42.968750
400,42.968750
401,42.968750
402,42.968750
403,42.968750
404,42.968750
405,42.968750
406,42.968750
407,42.968750
408,42.968750
409,42.968750
410,42.968750
411,42.968750
412,42.968750
413,42.968750
414,42.968750
415,39.062500
416,39.062500
417,39.062500
418,39.062500
419,39.062500
420,39.062500
421,39.062500
422,39.062500
423,39.062500
424,39.062500
425,39.062500
426,39.062500
427,39.062500
428,35.156250
429,39.062500
430,39.062500
431,39.062500
432,35.156250
433,35.156250
434,35.156250
435,35.156250
436,35.156250
437,35.156250
438,35.156250
439,35.156250
440,35.156250
441,35.156250
442,35.156250
443,35.156250
444,35.156250
445,35.156250
446,35.156250
447,35.156250
448,31.250000
449,31.250000
450,31.250000
451,31.250000
452,31.250000
453,31.250000
454,31.250000
455,31.250000
456,31.250000
457,31.250000
458,31.250000
459,31.250000
460,27.343750
461,31.250000
462,27.343750
463,31.250000
464,31.250000
465,27.343750
466,27.343750
467,27.343750
468,27.343750
469,27.343750
470,27.343750
471,27.343750
472,27.343750
473,27.343750
474,27.343750
475,23.437500
476,23.437500
477,23.437500
478,23.437500
479,23.437500
480,23.437500
481,23.437500
482,23.437500
483,23.437500
484,23.437500
485,23.437500
486,19.531250
487,19.531250
488,23.437500
489,23.437500
490,23.437500
491,19.531250
492,19.531250
493,19.531250
494,19.531250
495,19.531250
496,19.531250
497,19.531250
498,19.531250
499,15.625000
500,15.625000
501,15.625000
502,15.625000
503,15.625000
504,15.625000
505,15.625000
506,15.625000
507,15.625000
508,15.625000
509,15.625000
510,15.625000
511,11.718750
512,11.718750
513,11.718750
514,11.718750
515,11.718750
516,11.718750
517,11.718750
518,11.718750
519,11.718750
520,7.812500
521,7.812500
522,7.812500
523,7.812500
524,7.812500
525,7.812500
526,7.812500
527,7.812500
528,7.812500
529,7.812500
530,7.812500
531,3.906250
532,7.812500
533,3.906250
534,3.906250
535,3.906250
536,3.906250
537,3.906250
538,3.906250
539,3.906250
540,0.000000
541,3.906250
542,0.000000
543,0.000000
544,0.000000
545,0.000000
546,0.000000
547,0.000000
548,0.000000
549,0.000000
550,-3.906250
551,-3.906250
552,-3.906250
553,-3.906250
554,-3.906250
555,-3.906250
556,-3.906250
557,-3.906250
558,-3.906250
559,-7.812500
560,-7.812500
561,-7.812500
562,-7.812500
563,-7.812500
564,-7.812500
565,-7.812500
566,-7.812500
567,-11.718750
568,-7.812500
569,-7.812500
570,-7.812500
571,-11.718750
572,-11.718750
573,-11.718750
574,-11.718750
575,-11.718750
576,-11.718750
577,-11.718750
578,-11.718750
579,-11.718750
580,-15.625000
581,-15.625000
582,-15.625000
583,-15.625000
584,-15.625000
585,-15.625000
586,-15.625000
587,-15.625000
588,-15.625000
589,-15.625000
590,-19.531250
591,-19.531250
592,-19.531250
593,-19.531250
594,-19.531250
595,-19.531250
596,-19.531250
597,-19.531250
598,-23.437500
599,-23.437500
600,-23.437500
601,-23.437500
602,-23.437500
603,-23.437500
604,-23.437500
605,-23.437500
606,-23.437500
607,-23.437500
608,-27.343750
609,-27.343750
610,-27.343750
611,-27.343750
612,-27.343750
613,-27.343750
614,-27.343750
615,-27.343750
616,-27.343750
617,-31.250000
618,-31.250000
619,-31.250000
620,-31.250000
621,-31.250000
622,-31.250000
623,-31.250000
624,-31.250000
625,-31.250000
626,-31.250000
627,-35.156250
628,-35.156250
629,-35.156250
630,-35.156250
631,-35.156250
632,-35.156250
633,-35.156250
634,-35.156250
635,-35.156250
636,-39.062500
637,-39.062500
638,-39.062500
639,-39.062500
640,-39.062500
641,-39.062500
642,-39.062500
643,-39.062500
644,-39.062500
645,-42.968750
646,-42.968750
647,-42.968750
648,-42.968750
649,-42.968750
650,-42.968750
651,-42.968750
652,-42.968750
653,-42.968750
654,-42.968750
655,-46.875000
656,-46.875000
657,-46.875000
658,-46.875000
659,-46.875000
660,-46.875000
661,-46.875000
662,-46.875000
663,-46.875000
664,-46.875000
665,-50.781250
666,-50.781250
667,-50.781250
668,-50.781250
669,-50.781250
670,-50.781250
671,-50.781250
672,-50.781250
673,-50.781250
674,-50.781250
675,-50.781250
676,-54.687500
677,-54.687500
678,-54.687500
679,-54.687500
680,-54.687500
681,-54.687500
682,-54.687500
683,-54.687500
684,-54.687500
685,-54.687500
686,-54.687500
687,-58.593750
688,-58.593750
689,-58.593750
690,-58.593750
691,-58.593750
692,-58.593750
693,-58.593750
694,-58.593750
695,-58.593750
696,-58.593750
697,-62.500000
698,-62.500000
699,-62.500000
700,-62.500000
701,-62.500000
702,-62.500000
703,-62.500000
704,-62.500000
705,-62.500000
706,-62.500000
707,-62.500000
708,-62.500000
709,-62.500000
710,-62.500000
711,-66.406250
712,-66.406250
713,-66.406250
714,-66.406250
715,-66.406250
716,-66.406250
717,-66.406250
718,-66.406250
719,-66.406250
720,-66.406250
721,-66.406250
722,-66.406250
723,-70.312500
724,-66.406250
725,-70.312500
726,-70.312500
727,-70.312500
728,-70.312500
729,-70.312500
730,-70.312500
731,-70.312500
732,-70.312500
733,-70.312500
734,-70.312500
735,-70.312500
736,-70.312500
737,-70.312500
738,-70.312500
739,-70.312500
740,-70.312500
741,-74.218750
742,-74.218750
743,-74.218750
744,-74.218750
745,-74.218750
746,-74.218750
747,-74.218750
748,-74.218750
749,-74.218750
750,-74.218750
751,-74.218750
752,-74.218750
753,-74.218750
754,-74.218750
755,-74.218750
756,-74.218750
757,-74.218750
758,-74.218750
759,-74.218750
760,-74.218750
761,-74.218750
762,-78.125000
763,-78.125000
764,-78.125000
765,-78.125000
766,-78.125000
767,-78.125000
768,-78.125000
769,-78.125000
770,-78.125000
771,-78.125000
772,-78.125000
773,-78.125000
774,-78.125000
775,-78.125000
776,-78.125000
777,-78.125000
778,-78.125000
779,-78.125000
780,-78.125000
781,-78.125000
782,-78.125000
783,-82.031250
784,-78.125000
785,-82.031250
786,-78.125000
787,-82.031250
788,-78.125000
789,-82.031250
790,-82.031250
791,-82.031250
792,-82.031250
793,-82.031250
794,-82.031250
795,-82.031250
796,-82.031250
797,-82.031250
798,-82.031250
799,-82.031250
800,-82.031250
801,-82.031250
802,-82.031250
803,-82.031250
804,-82.031250
805,-82.031250
806,-82.031250
807,-82.031250
808,-82.031250
809,-82.031250
810,-82.031250
811,-82.031250
812,-82.031250
813,-82.031250
814,-82.031250
815,-82.031250
816,-82.031250
817,-82.031250
818,-82.031250
819,-82.031250
820,-82.031250
821,-82.031250
822,-82.031250
823,-82.031250
824,-82.031250
825,-82.031250
826,-82.031250
827,-82.031250
828,-82.031250
829,-82.031250
830,-82.031250
831,-82.031250
832,-82.031250
833,-82.031250
834,-82.031250
835,-82.031250
836,-82.031250
837,-82.031250
838,-82.031250
839,-82.031250
840,-82.031250
841,-82.031250
842,-82.031250
843,-82.031250
844,-82.031250
845,-82.031250
846,-82.031250
847,-82.031250
848,-82.031250
849,-82.031250
850,-82.031250
851,-82.031250
852,-82.031250
853,-82.031250
854,-82.031250
855,-82.031250
856,-82.031250
857,-82.031250
858,-82.031250
859,-82.031250
860,-82.031250
861,-82.031250
862,-82.031250
863,-78.125000
864,-82.031250
865,-82.031250
866,-78.125000
867,-78.125000
868,-82.031250
869,-78.125000
870,-78.125000
871,-78.125000
872,-78.125000
873,-78.125000
874,-78.125000
875,-78.125000
876,-78.125000
877,-78.125000
878,-78.125000
879,-78.125000
880,-78.125000
881,-78.125000
882,-78.125000
883,-78.125000
884,-78.125000
885,-78.125000
886,-78.125000
887,-78.125000
888,-78.125000
889,-78.125000
890,-74.218750
891,-74.218750
892,-74.218750
893,-74.218750
894,-74.218750
895,-74.218750
896,-74.218750
897,-74.218750
898,-74.218750
899,-74.218750
900,-74.218750
901,-74.218750
902,-74.218750
903,-74.218750
904,-74.218750
905,-74.218750
906,-74.218750
907,-74.218750
908,-74.218750
909,-74.218750
910,-70.312500
911,-74.218750
912,-70.312500
913,-70.312500
914,-70.312500
915,-70.312500
916,-70.312500
917,-70.312500
918,-70.312500
919,-70.312500
920,-70.312500
921,-70.312500
922,-70.312500
923,-70.312500
924,-70.312500
925,-70.312500
926,-70.312500
927,-66.406250
928,-66.406250
929,-66.406250
930,-66.406250
931,-66.406250
932,-66.406250
933,-66.406250
934,-66.406250
935,-66.406250
936,-66.406250
937,-66.406250
938,-66.406250
939,-66.406250
940,-62.500000
941,-66.406250
942,-62.500000
943,-62.500000
944,-62.500000
945,-62.500000
946,-62.500000
947,-62.500000
948,-62.500000
949,-62.500000
950,-62.500000
951,-62.500000
952,-58.593750
953,-62.500000
954,-58.593750
955,-58.593750
956,-58.593750
957,-58.593750
958,-58.593750
959,-58.593750
960,-58.593750
961,-58.593750
962,-58.593750
963,-58.593750
964,-54.687500
965,-58.593750
966,-54.687500
967,-54.687500
968,-54.687500
969,-54.687500
970,-54.687500
971,-54.687500
972,-54.687500
973,-54.687500
974,-50.781250
975,-50.781250
976,-50.781250
977,-50.781250
978,-50.781250
979,-50.781250
980,-50.781250
981,-50.781250
982,-50.781250
983,-50.781250
984,-46.875000
985,-46.875000
986,-46.875000
987,-46.875000
988,-46.875000
989,-46.875000
990,-46.875000
991,-46.875000
992,-46.875000
993,-42.968750
994,-42.968750
995,-42.968750
996,-42.968750
997,-42.968750
998,-42.968750
999,-42.968750
1000,-42.968750
1001,-42.968750
1002,-42.968750
1003,-42.968750
1004,-39.062500
1005,-39.062500
1006,-39.062500
1007,-39.062500
1008,-39.062500
1009,-39.062500
1010,-39.062500
1011,-39.062500
1012,-39.062500
1013,-35.156250
1014,-35.156250
1015,-35.156250
1016,-35.156250
1017,-35.156250
1018,-35.156250
1019,-35.156250
1020,-35.156250
1021,-31.250000
1022,-31.250000
1023,-31.250000
1024,-31.250000
1025,-31.250000
1026,-31.250000
1027,-31.250000
1028,-31.250000
1029,-31.250000
1030,-31.250000
1031,-27.343750
1032,-27.343750
1033,-31.250000
1034,-27.343750
1035,-27.343750
1036,-27.343750
1037,-27.343750
1038,-27.343750
1039,-27.343750
1040,-23.437500
1041,-27.343750
1042,-23.437500
1043,-27.343750
1044,-23.437500
1045,-23.437500
1046,-23.437500
1047,-23.437500
1048,-23.437500
1049,-23.437500
1050,-23.437500
1051,-19.531250
1052,-19.531250
1053,-19.531250
1054,-19.531250
1055,-19.531250
1056,-19.531250
1057,-19.531250
1058,-19.531250
1059,-15.625000
1060,-15.625000
1061,-15.625000
1062,-15.625000
1063,-15.625000
1064,-15.625000
1065,-15.625000
1066,-15.625000
1067,-15.625000
1068,-15.625000
1069,-15.625000
1070,-11.718750
1071,-11.718750
1072,-11.718750
1073,-11.718750
1074,-11.718750
1075,-11.718750
1076,-11.718750
1077,-11.718750
1078,-7.812500
1079,-7.812500
1080,-7.812500
1081,-7.812500
1082,-7.812500
1083,-7.812500
1084,-7.812500
1085,-7.812500
1086,-7.812500
1087,-7.812500
1088,-3.906250
1089,-3.906250
1090,-3.906250
1091,-3.906250
1092,-3.906250
1093,-3.906250
1094,-3.906250
1095,-3.906250
1096,-3.906250
1097,0.000000
1098,0.000000
1099,0.000000
1100,0.000000
1101,0.000000
1102,0.000000
1103,0.000000
1104,0.000000
1105,0.000000
1106,0.000000
1107,3.906250
1108,3.906250
1109,3.906250
1110,3.906250
1111,3.906250
1112,3.906250
1113,3.906250
1114,3.906250
1115,7.812500
1116,7.812500
1117,7.812500
1118,7.812500
1119,7.812500
1120,7.812500
1121,7.812500
1122,7.812500
1123,7.812500
1124,7.812500
1125,11.718750
1126,11.718750
1127,11.718750
1128,11.718750
1129,11.718750
1130,11.718750
1131,11.718750
1132,11.718750
1133,11.718750
1134,11.718750
1135,11.718750
1136,15.625000
1137,15.625000
1138,15.625000
1139,15.625000
1140,15.625000
1141,15.625000
1142,15.625000
1143,15.625000
1144,15.625000
1145,15.625000
1146,15.625000
1147,19.531250
1148,19.531250
1149,19.531250
1150,19.531250
1151,19.531250
1152,19.531250
1153,19.531250
1154,19.531250
1155,19.531250
1156,19.531250
1157,19.531250
1158,23.437500
1159,23.437500
1160,23.437500
1161,23.437500
1162,23.437500
1163,23.437500
1164,23.437500
1165,23.437500
1166,23.437500
1167,23.437500
1168,27.343750
1169,23.437500
1170,23.437500
1171,23.437500
1172,27.343750
1173,27.343750
1174,27.343750
1175,27.343750
1176,27.343750
1177,27.343750
1178,27.343750
1179,27.343750
1180,27.343750
1181,27.343750
1182,31.250000
1183,31.250000
1184,31.250000
1185,31.250000
1186,31.250000
1187,31.250000
1188,31.250000
1189,31.250000
1190,31.250000
1191,31.250000
1192,31.250000
1193,31.250000
1194,35.156250
1195,31.250000
1196,35.156250
1197,35.156250
1198,35.156250
1199,35.156250
1200,35.156250
1201,35.156250
1202,35.156250
1203,35.156250
1204,35.156250
1205,35.156250
1206,35.156250
1207,35.156250
1208,35.156250
1209,35.156250
1210,39.062500
1211,39.062500
1212,39.062500
1213,39.062500
1214,39.062500
1215,39.062500
1216,39.062500
1217,39.062500
1218,39.062500
1219,39.062500
1220,39.062500
1221,39.062500
1222,39.062500
1223,39.062500
1224,39.062500
1225,39.062500
1226,39.062500
1227,39.062500
1228,42.968750
1229,42.968750
1230,42.968750
1231,42.968750
1232,42.968750
1233,42.968750
1234,42.968750
1235,42.968750
1236,42.968750
1237,42.968750
1238,42.968750
1239,42.968750
1240,42.968750
1241,42.968750
1242,42.968750
1243,42.968750
1244,46.875000
1245,46.875000
1246,46.875000
1247,46.875000
1248,46.875000
1249,46.875000
1250,46.875000
1251,46.875000
1252,46.875000
1253,46.875000
1254,46.875000
1255,46.875000
1256,46.875000
1257,46.875000
1258,46.875000
1259,46.875000
1260,46.875000
1261,46.875000
1262,46.875000
1263,46.875000
1264,46.875000
1265,46.875000
1266,46.875000
1267,50.781250
1268,46.875000
1269,46.875000
1270,46.875000
1271,46.875000
1272,46.875000
1273,46.875000
1274,46.875000
1275,50.781250
1276,50.781250
1277,50.781250
1278,50.781250
1279,50.781250
1280,50.781250
1281,50.781250
1282,50.781250
1283,50.781250
1284,50.781250
1285,50.781250
1286,50.781250
1287,50.781250
1288,50.781250
1289,50.781250
1290,50.781250
1291,50.781250
1292,50.781250
1293,50.781250
1294,50.781250
1295,50.781250
1296,50.781250
1297,50.781250
1298,50.781250
1299,50.781250
1300,50.781250
1301,50.781250
1302,50.781250
1303,50.781250
1304,50.781250
1305,50.781250
1306,50.781250
1307,50.781250
1308,50.781250
1309,50.781250
1310,50.781250
1311,50.781250
1312,50.781250
1313,50.781250
1314,50.781250
1315,50.781250
1316,50.781250
1317,50.781250
1318,50.781250
1319,50.781250
1320,50.781250
1321,50.781250
1322,50.781250
1323,50.781250
1324,50.781250
1325,50.781250
1326,50.781250
1327,50.781250
1328,50.781250
1329,50.781250
1330,50.781250
1331,50.781250
1332,50.781250
1333,50.781250
1334,50.781250
1335,50.781250
1336,50.781250
1337,50.781250
1338,50.781250
1339,50.781250
1340,50.781250
1341,50.781250
1342,50.781250
1343,50.781250
1344,50.781250
1345,50.781250
1346,46.875000
1347,46.875000
1348,46.875000
1349,46.875000
1350,46.875000
1351,46.875000
1352,46.875000
1353,46.875000
1354,46.875000
1355,46.875000
1356,46.875000
1357,46.875000
1358,46.875000
1359,46.875000
1360,46.875000
1361,46.875000
1362,46.875000
1363,46.875000
1364,46.875000
1365,46.875000
1366,46.875000
1367,46.875000
1368,46.875000
1369,46.875000
1370,46.875000
1371,46.875000
1372,46.875000
1373,46.875000
1374,46.875000
1375,46.875000
1376,46.875000
1377,46.875000
1378,46.875000
1379,46.875000
1380,46.875000
1381,46.875000
1382,46.875000
1383,46.875000
1384,46.875000
1385,42.968750
1386,42.968750
1387,42.968750
1388,42.968750
1389,42.968750
1390,42.968750
1391,42.968750
1392,42.968750
1393,42.968750
1394,42.968750
1395,42.968750
1396,42.968750
1397,42.968750
1398,42.968750
1399,42.968750
1400,42.968750
1401,42.968750
1402,42.968750
1403,42.968750
1404,42.968750
1405,39.062500
1406,42.968750
1407,39.062500
1408,39.062500
1409,39.062500
1410,39.062500
1411,39.062500
1412,39.062500
1413,39.062500
1414,39.062500
1415,39.062500
1416,39.062500
1417,39.062500
1418,39.062500
1419,39.062500
1420,39.062500
1421,39.062500
1422,39.062500
1423,39.062500
1424,35.156250
1425,35.156250
1426,35.156250
1427,35.156250
1428,35.156250
1429,35.156250
1430,35.156250
1431,35.156250
1432,35.156250
1433,35.156250
1434,35.156250
1435,35.156250
1436,35.156250
1437,35.156250
1438,31.250000
1439,31.250000
1440,35.156250
1441,31.250000
1442,31.250000
1443,31.250000
1444,31.250000
1445,31.250000
1446,31.250000
1447,31.250000
1448,31.250000
1449,31.250000
1450,31.250000
1451,31.250000
1452,27.343750
1453,27.343750
1454,27.343750
1455,27.343750
1456,27.343750
1457,27.343750
1458,27.343750
1459,27.343750
1460,27.343750
1461,27.343750
1462,27.343750
1463,27.343750
1464,23.437500
1465,23.437500
1466,23.437500
1467,23.437500
1468,27.343750
1469,23.437500
1470,23.437500
1471,23.437500
1472,23.437500
1473,23.437500
1474,23.437500
1475,19.531250
1476,23.437500
1477,23.437500
1478,19.531250
1479,19.531250
1480,19.531250
1481,19.531250
1482,19.531250
1483,19.531250
1484,19.531250
1485,19.531250
1486,19.531250
1487,19.531250
1488,19.531250
1489,19.531250
1490,19.531250
1491,15.625000
1492,15.625000
1493,15.625000
1494,15.625000
1495,15.625000
1496,15.625000
1497,15.625000
1498,15.625000
1499,15.625000
1500,15.625000
1501,15.625000
1502,11.718750
1503,11.718750
1504,11.718750
1505,11.718750
1506,11.718750
1507,11.718750
1508,11.718750
1509,11.718750
1510,7.812500
1511,7.812500
1512,11.718750
1513,7.812500
1514,7.812500
1515,7.812500
1516,7.812500
1517,7.812500
1518,7.812500
1519,7.812500
1520,7.812500
1521,7.812500
1522,7.812500
1523,3.906250
1524,3.906250
1525,3.906250
1526,3.906250
1527,3.906250
1528,3.906250
1529,3.906250
1530,3.906250
1531,0.000000
1532,0.000000
1533,0.000000
1534,0.000000
1535,0.000000
1536,0.000000
1537,0.000000
1538,0.000000
1539,0.000000
1540,0.000000
1541,0.000000
1542,-3.906250
1543,-3.906250
1544,-3.906250
1545,-3.906250
1546,-3.906250
1547,-3.906250
1548,-3.906250
1549,-3.906250
1550,-7.812500
1551,-7.812500
1552,-7.812500
1553,-7.812500
1554,-7.812500
1555,-7.812500
1556,-7.812500
1557,-7.812500
1558,-7.812500
1559,-7.812500
1560,-11.718750
1561,-11.718750
1562,-11.718750
1563,-11.718750
1564,-11.718750
1565,-11.718750
1566,-11.718750
1567,-11.718750
1568,-11.718750
1569,-11.718750
1570,-15.625000
1571,-15.625000
1572,-15.625000
1573,-15.625000
1574,-15.625000
1575,-15.625000
1576,-15.625000
1577,-15.625000
1578,-15.625000
1579,-19.531250
1580,-19.531250
1581,-19.531250
1582,-19.531250
1583,-19.531250
1584,-19.531250
1585,-19.531250
1586,-19.531250
1587,-23.437500
1588,-23.437500
1589,-23.437500
1590,-23.437500
1591,-23.437500
1592,-23.437500
1593,-23.437500
1594,-23.437500
1595,-23.437500
1596,-27.343750
1597,-27.343750
1598,-27.343750
1599,-27.343750
1600,-27.343750
1601,-27.343750
1602,-27.343750
1603,-27.343750
1604,-27.343750
1605,-31.250000
1606,-27.343750
1607,-27.343750
1608,-31.250000
1609,-31.250000
1610,-31.250000
1611,-27.343750
1612,-31.250000
1613,-31.250000
1614,-31.250000
1615,-31.250000
1616,-35.156250
1617,-35.156250
1618,-35.156250
1619,-35.156250
1620,-35.156250
1621,-35.156250
1622,-35.156250
1623,-35.156250
1624,-35.156250
1625,-39.062500
1626,-35.156250
1627,-39.062500
1628,-39.062500
1629,-39.062500
1630,-39.062500
1631,-39.062500
1632,-39.062500
1633,-39.062500
1634,-42.968750
1635,-42.968750
1636,-39.062500
1637,-42.968750
1638,-42.968750
1639,-42.968750
1640,-42.968750
1641,-42.968750
1642,-42.968750
1643,-42.968750
1644,-42.968750
1645,-42.968750
1646,-42.968750
1647,-46.875000
1648,-46.875000
1649,-46.875000
1650,-46.875000
1651,-46.875000
1652,-46.875000
1653,-46.875000
1654,-46.875000
1655,-46.875000
1656,-46.875000
1657,-50.781250
1658,-50.781250
1659,-50.781250
1660,-50.781250
1661,-50.781250
1662,-50.781250
1663,-50.781250
1664,-50.781250
1665,-50.781250
1666,-50.781250
1667,-50.781250
1668,-54.687500
1669,-54.687500
1670,-54.687500
1671,-54.687500
1672,-54.687500
1673,-54.687500
1674,-54.687500
1675,-54.687500
1676,-54.687500
1677,-58.593750
1678,-54.687500
1679,-58.593750
1680,-58.593750
1681,-58.593750
1682,-58.593750
1683,-58.593750
1684,-58.593750
1685,-58.593750
1686,-58.593750
1687,-58.593750
1688,-58.593750
1689,-62.500000
1690,-58.593750
1691,-58.593750
1692,-62.500000
1693,-62.500000
1694,-62.500000
1695,-62.500000
1696,-62.500000
1697,-62.500000
1698,-62.500000
1699,-62.500000
1700,-66.406250
1701,-66.406250
1702,-66.406250
1703,-66.406250
1704,-66.406250
1705,-66.406250
1706,-66.406250
1707,-66.406250
1708,-66.406250
1709,-66.406250
1710,-66.406250
1711,-66.406250
1712,-66.406250
1713,-66.406250
1714,-66.406250
1715,-70.312500
1716,-70.312500
1717,-70.312500
1718,-70.312500
1719,-70.312500
1720,-70.312500
1721,-70.312500
1722,-70.312500
1723,-70.312500
1724,-70.312500
1725,-70.312500
1726,-70.312500
1727,-70.312500
1728,-70.312500
1729,-74.218750
1730,-74.218750
1731,-74.218750
1732,-74.218750
1733,-74.218750
1734,-74.218750
1735,-74.218750
1736,-74.218750
1737,-74.218750
1738,-74.218750
1739,-74.218750
1740,-74.218750
1741,-74.218750
1742,-74.218750
1743,-74.218750
1744,-74.218750
1745,-78.125000
1746,-78.125000
1747,-78.125000
1748,-74.218750
1749,-78.125000
1750,-74.218750
1751,-78.125000
1752,-78.125000
1753,-78.125000
1754,-78.125000
1755,-78.125000
1756,-78.125000
1757,-78.125000
1758,-78.125000
1759,-78.125000
1760,-78.125000
1761,-78.125000
1762,-78.125000
1763,-78.125000
1764,-78.125000
1765,-78.125000
1766,-78.125000
1767,-78.125000
1768,-78.125000
1769,-78.125000
1770,-78.125000
1771,-82.031250
1772,-78.125000
1773,-78.125000
1774,-82.031250
1775,-82.031250
1776,-82.031250
1777,-82.031250
1778,-82.031250
1779,-82.031250
1780,-82.031250
1781,-82.031250
1782,-82.031250
1783,-82.031250
1784,-82.031250
1785,-82.031250
1786,-82.031250
1787,-82.031250
1788,-82.031250
1789,-82.031250
1790,-82.031250
1791,-82.031250
1792,-82.031250
1793,-82.031250
1794,-82.031250
1795,-82.031250
1796,-82.031250
1797,-82.031250
1798,-82.031250
1799,-82.031250
1800,-82.031250
1801,-82.031250
1802,-82.031250
1803,-82.031250
1804,-82.031250
1805,-82.031250
1806,-82.031250
1807,-82.031250
1808,-82.031250
1809,-82.031250
1810,-82.031250
1811,-82.031250
1812,-82.031250
1813,-82.031250
1814,-82.031250
1815,-82.031250
1816,-82.031250
1817,-82.031250
1818,-82.031250
1819,-82.031250
1820,-82.031250
1821,-82.031250
1822,-82.031250
1823,-82.031250
1824,-82.031250
1825,-82.031250
1826,-82.031250
1827,-82.031250
1828,-82.031250
1829,-82.031250
1830,-82.031250
1831,-82.031250
1832,-82.031250
1833,-82.031250
1834,-82.031250
1835,-82.031250
1836,-82.031250
1837,-82.031250
1838,-82.031250
1839,-82.031250
1840,-82.031250
1841,-82.031250
1842,-82.031250
1843,-82.031250
1844,-82.031250
1845,-82.031250
1846,-82.031250
1847,-82.031250
1848,-82.031250
1849,-82.031250
1850,-82.031250
1851,-82.031250
1852,-82.031250
1853,-82.031250
1854,-82.031250
1855,-82.031250
1856,-82.031250
1857,-82.031250
1858,-78.125000
1859,-82.031250
1860,-78.125000
1861,-82.031250
1862,-78.125000
1863,-78.125000
1864,-78.125000
1865,-78.125000
1866,-78.125000
1867,-78.125000
1868,-78.125000
1869,-78.125000
1870,-78.125000
1871,-78.125000
1872,-78.125000
1873,-78.125000
1874,-78.125000
1875,-78.125000
1876,-78.125000
1877,-78.125000
1878,-78.125000
1879,-78.125000
1880,-78.125000
1881,-74.218750
1882,-74.218750
1883,-78.125000
1884,-74.218750
1885,-74.218750
1886,-74.218750
1887,-74.218750
1888,-74.218750
1889,-74.218750
1890,-74.218750
1891,-74.218750
1892,-74.218750
1893,-74.218750
1894,-74.218750
1895,-74.218750
1896,-74.218750
1897,-74.218750
1898,-74.218750
1899,-74.218750
1900,-74.218750
1901,-74.218750
1902,-70.312500
1903,-70.312500
1904,-70.312500
1905,-70.312500
1906,-70.312500
1907,-70.312500
1908,-70.312500
1909,-70.312500
1910,-70.312500
1911,-70.312500
1912,-70.312500
1913,-70.312500
1914,-70.312500
1915,-70.312500
1916,-66.406250
1917,-66.406250
1918,-66.406250
1919,-66.406250
1920,-66.406250
1921,-66.406250
1922,-66.406250
1923,-66.406250
1924,-66.406250
1925,-66.406250
1926,-66.406250
1927,-66.406250
1928,-66.406250
1929,-66.406250
1930,-62.500000
1931,-66.406250
1932,-62.500000
1933,-66.406250
1934,-62.500000
1935,-62.500000
1936,-62.500000
1937,-62.500000
1938,-62.500000
1939,-62.500000
1940,-62.500000
1941,-62.500000
1942,-58.593750
1943,-58.593750
1944,-58.593750
1945,-58.593750
1946,-58.593750
1947,-58.593750
1948,-58.593750
1949,-58.593750
1950,-58.593750
1951,-58.593750
1952,-58.593750
1953,-54.687500
1954,-58.593750
1955,-58.593750
1956,-54.687500
1957,-54.687500
1958,-54.687500
1959,-54.687500
1960,-54.687500
1961,-54.687500
1962,-54.687500
1963,-54.687500
1964,-54.687500
1965,-54.687500
1966,-50.781250
1967,-50.781250
1968,-50.781250
1969,-50.781250
1970,-50.781250
1971,-50.781250
1972,-50.781250
1973,-50.781250
1974,-50.781250
1975,-46.875000
1976,-46.875000
1977,-46.875000
1978,-46.875000
1979,-46.875000
1980,-46.875000
1981,-46.875000
1982,-46.875000
1983,-46.875000
1984,-42.968750
1985,-42.968750
1986,-42.968750
1987,-42.968750
1988,-42.968750
1989,-42.968750
1990,-42.968750
1991,-42.968750
1992,-42.968750
1993,-42.968750
1994,-42.968750
1995,-42.968750
1996,-39.062500
1997,-39.062500
1998,-39.062500
1999,-39.062500
2000,-39.062500
2001,-39.062500
2002,-39.062500
2003,-39.062500
2004,-39.062500
2005,-35.156250
2006,-35.156250
2007,-35.156250
2008,-35.156250
2009,-35.156250
2010,-35.156250
2011,-35.156250
2012,-35.156250
2013,-35.156250
2014,-31.250000
2015,-31.250000
2016,-31.250000
2017,-31.250000
2018,-31.250000
2019,-31.250000
2020,-31.250000
2021,-31.250000
2022,-27.343750
2023,-31.250000
2024,-27.343750
2025,-27.343750
2026,-27.343750
2027,-27.343750
2028,-27.343750
2029,-27.343750
2030,-27.343750
2031,-23.437500
2032,-23.437500
2033,-23.437500
2034,-23.437500
2035,-23.437500
2036,-23.437500
2037,-23.437500
2038,-23.437500
2039,-23.437500
2040,-19.531250
2041,-19.531250
2042,-19.531250
2043,-19.531250
2044,-19.531250
2045,-19.531250
2046,-19.531250
2047,-19.531250
2048,-19.531250
2049,-19.531250
2050,-15.625000
2051,-15.625000
2052,-15.625000
2053,-15.625000
2054,-15.625000
2055,-15.625000
2056,-11.718750
2057,-15.625000
2058,-15.625000
2059,-11.718750
2060,-11.718750
2061,-11.718750
2062,-11.718750
2063,-11.718750
2064,-11.718750
2065,-11.718750
2066,-11.718750
2067,-11.718750
2068,-7.812500
2069,-7.812500
2070,-7.812500
2071,-7.812500
2072,-7.812500
2073,-7.812500
2074,-7.812500
2075,-7.812500
2076,-3.906250
2077,-3.906250
2078,-3.906250
2079,-3.906250
2080,-3.906250
2081,-3.906250
2082,-3.906250
2083,-3.906250
2084,-3.906250
2085,-3.906250
2086,0.000000
2087,0.000000
2088,0.000000
2089,0.000000
2090,0.000000
2091,0.000000
2092,0.000000
2093,0.000000
2094,0.000000
2095,0.000000
2096,3.906250
2097,3.906250
2098,3.906250
2099,3.906250
2100,3.906250
2101,3.906250
2102,3.906250
2103,3.906250
2104,7.812500
2105,3.906250
2106,7.812500
2107,7.812500
2108,7.812500
2109,7.812500
2110,7.812500
2111,7.812500
2112,7.812500
2113,7.812500
2114,7.812500
2115,7.812500
2116,11.718750
2117,11.718750
2118,11.718750
2119,11.718750
2120,11.718750
2121,11.718750
2122,11.718750
2123,11.718750
2124,15.625000
2125,11.718750
2126,15.625000
2127,15.625000
2128,15.625000
2129,15.625000
2130,15.625000
2131,15.625000
2132,15.625000
2133,15.625000
2134,15.625000
2135,15.625000
2136,19.531250
2137,19.531250
2138,19.531250
2139,19.531250
2140,19.531250
2141,19.531250
2142,19.531250
2143,19.531250
2144,19.531250
2145,19.531250
2146,23.437500
2147,23.437500
2148,23.437500
2149,19.531250
2150,23.437500
2151,23.437500
2152,23.437500
2153,23.437500
2154,23.437500
2155,23.437500
2156,23.437500
2157,23.437500
2158,27.343750
2159,27.343750
2160,27.343750
2161,27.343750
2162,27.343750
2163,27.343750
2164,27.343750
2165,27.343750
2166,27.343750
2167,27.343750
2168,27.343750
2169,31.250000
2170,31.250000
2171,31.250000
2172,31.250000
2173,31.250000
2174,31.250000
2175,31.250000
2176,31.250000
2177,31.250000
2178,31.250000
2179,31.250000
2180,31.250000
2181,31.250000
2182,35.156250
2183,35.156250
2184,35.156250
2185,35.156250
2186,35.156250
2187,35.156250
2188,35.156250
2189,35.156250
2190,35.156250
2191,35.156250
2192,35.156250
2193,35.156250
2194,35.156250
2195,35.156250
2196,35.156250
2197,35.156250
2198,35.156250
2199,39.062500
2200,39.062500
2201,39.062500
2202,39.062500
2203,39.062500
2204,39.062500
2205,39.062500
2206,39.062500
2207,39.062500
2208,39.062500
2209,39.062500
2210,39.062500
2211,39.062500
2212,39.062500
2213,39.062500
2214,39.062500
2215,39.062500
2216,42.968750
2217,42.968750
2218,42.968750
2219,42.968750
2220,42.968750
2221,42.968750
2222,42.968750
2223,42.968750
2224,42.968750
2225,42.968750
2226,42.968750
2227,42.968750
2228,42.968750
2229,42.968750
2230,42.968750
2231,42.968750
2232,42.968750
2233,42.968750
2234,42.968750
2235,46.875000
2236,46.875000
2237,42.968750
2238,42.968750
2239,42.968750
2240,46.875000
2241,46.875000
2242,46.875000
2243,46.875000
2244,46.875000
2245,46.875000
2246,46.875000
2247,46.875000
2248,46.875000
2249,46.875000
2250,46.875000
2251,46.875000
2252,46.875000
2253,46.875000
2254,46.875000
2255,46.875000
2256,46.875000
2257,46.875000
2258,46.875000
2259,46.875000
2260,46.875000
2261,46.875000
2262,46.875000
2263,46.875000
2264,46.875000
2265,46.875000
2266,50.781250
2267,50.781250
2268,50.781250
2269,50.781250
2270,50.781250
2271,46.875000
2272,50.781250
2273,50.781250
2274,50.781250
2275,50.781250
2276,50.781250
2277,50.781250
2278,50.781250
2279,50.781250
2280,50.781250
2281,50.781250
2282,50.781250
2283,50.781250
2284,50.781250
2285,50.781250
2286,50.781250
2287,50.781250
2288,50.781250
2289,50.781250
2290,50.781250
2291,50.781250
2292,50.781250
2293,50.781250
2294,50.781250
2295,50.781250
2296,50.781250
2297,50.781250
2298,50.781250
2299,50.781250
2300,50.781250
2301,50.781250
2302,50.781250
2303,50.781250
2304,50.781250
2305,50.781250
2306,50.781250
2307,50.781250
2308,50.781250
2309,50.781250
2310,50.781250
2311,50.781250
2312,50.781250
2313,50.781250
2314,50.781250
2315,50.781250
2316,50.781250
2317,50.781250
2318,50.781250
2319,50.781250
2320,50.781250
2321,50.781250
2322,50.781250
2323,50.781250
2324,50.781250
2325,50.781250
2326,50.781250
2327,50.781250
2328,50.781250
2329,50.781250
2330,50.781250
2331,50.781250
2332,50.781250
2333,50.781250
2334,50.781250
2335,50.781250
2336,50.781250
2337,50.781250
2338,46.875000
2339,46.875000
2340,50.781250
2341,50.781250
2342,50.781250
2343,50.781250
2344,50.781250
2345,50.781250
2346,46.875000
2347,46.875000
2348,46.875000
2349,46.875000
2350,46.875000
2351,46.875000
2352,46.875000
2353,46.875000
2354,46.875000
2355,46.875000
2356,46.875000
2357,46.875000
2358,46.875000
2359,46.875000
2360,46.875000
2361,46.875000
2362,46.875000
2363,46.875000
2364,46.875000
2365,46.875000
2366,46.875000
2367,46.875000
2368,46.875000
2369,46.875000
2370,46.875000
2371,46.875000
2372,46.875000
2373,42.968750
2374,42.968750
2375,46.875000
2376,42.968750
2377,42.968750
2378,42.968750
2379,42.968750
2380,42.968750
2381,42.968750
2382,42.968750
2383,42.968750
2384,42.968750
2385,42.968750
2386,42.968750
2387,42.968750
2388,42.968750
2389,42.968750
2390,42.968750
2391,42.968750
2392,42.968750
2393,42.968750
2394,42.968750
2395,42.968750
2396,39.062500
2397,39.062500
2398,39.062500
2399,39.062500
2400,39.062500
2401,39.062500
2402,39.062500
2403,39.062500
2404,39.062500
2405,39.062500
2406,39.062500
2407,39.062500
2408,39.062500
2409,39.062500
2410,39.062500
2411,39.062500
2412,39.062500
2413,39.062500
2414,39.062500
2415,35.156250
2416,35.156250
2417,35.156250
2418,35.156250
2419,35.156250
2420,35.156250
2421,35.156250
2422,35.156250
2423,35.156250
2424,35.156250
2425,35.156250
2426,35.156250
2427,35.156250
2428,35.156250
2429,31.250000
2430,31.250000
2431,31.250000
2432,31.250000
2433,31.250000
2434,31.250000
2435,31.250000
2436,31.250000
2437,31.250000
2438,31.250000
2439,31.250000
2440,31.250000
2441,31.250000
2442,31.250000
2443,31.250000
2444,27.343750
2445,27.343750
2446,27.343750
2447,27.343750
2448,27.343750
2449,27.343750
2450,27.343750
2451,27.343750
2452,27.343750
2453,27.343750
2454,23.437500
2455,27.343750
2456,23.437500
2457,23.437500
2458,23.437500
2459,23.437500
2460,23.437500
2461,23.437500
2462,23.437500
2463,23.437500
2464,23.437500
2465,23.437500
2466,19.531250
2467,19.531250
2468,19.531250
2469,19.531250
2470,19.531250
2471,19.531250
2472,19.531250
2473,19.531250
2474,19.531250
2475,19.531250
2476,19.531250
2477,19.531250
2478,19.531250
2479,15.625000
2480,15.625000
2481,15.625000
2482,15.625000
2483,15.625000
2484,15.625000
2485,15.625000
2486,15.625000
2487,11.718750
2488,15.625000
2489,11.718750
2490,11.718750
2491,11.718750
2492,11.718750
2493,11.718750
2494,11.718750
2495,11.718750
2496,11.718750
2497,11.718750
2498,11.718750
2499,7.812500
2500,7.812500
2501,7.812500
2502,7.812500
2503,7.812500
2504,7.812500
2505,7.812500
2506,7.812500
2507,7.812500
2508,7.812500
2509,3.906250
2510,3.906250
2511,3.906250
2512,3.906250
2513,3.906250
2514,3.906250
2515,3.906250
2516,3.906250
2517,3.906250
2518,3.906250
2519,3.906250
2520,0.000000
2521,0.000000
2522,0.000000
2523,0.000000
2524,0.000000
2525,0.000000
2526,0.000000
2527,0.000000
2528,0.000000
2529,0.000000
2530,0.000000
2531,-3.906250
2532,-3.906250
2533,-3.906250
2534,-3.906250
2535,-3.906250
2536,-3.906250
2537,-3.906250
2538,-3.906250
2539,-7.812500
2540,-7.812500
2541,-7.812500
2542,-7.812500
2543,-7.812500
2544,-7.812500
2545,-7.812500
2546,-7.812500
2547,-7.812500
2548,-7.812500
2549,-7.812500
2550,-11.718750
2551,-11.718750
2552,-11.718750
2553,-11.718750
2554,-11.718750
2555,-11.718750
2556,-11.718750
2557,-11.718750
2558,-11.718750
2559,-15.625000
2560,-15.625000
2561,-15.625000
2562,-15.625000
2563,-15.625000
2564,-15.625000
2565,-15.625000
2566,-15.625000
2567,-19.531250
2568,-15.625000
2569,-19.531250
2570,-19.531250
2571,-19.531250
2572,-19.531250
2573,-19.531250
2574,-19.531250
2575,-19.531250
2576,-19.531250
2577,-23.437500
2578,-23.437500
2579,-23.437500
2580,-23.437500
2581,-23.437500
2582,-23.437500
2583,-23.437500
2584,-23.437500
2585,-23.437500
2586,-27.343750
2587,-27.343750
2588,-27.343750
2589,-27.343750
2590,-27.343750
2591,-27.343750
2592,-27.343750
2593,-31.250000
2594,-27.343750
2595,-27.343750
2596,-27.343750
2597,-31.250000
2598,-31.250000
2599,-31.250000
2600,-31.250000
2601,-31.250000
2602,-31.250000
2603,-35.156250
2604,-35.156250
2605,-35.156250
2606,-35.156250
2607,-35.156250
2608,-35.156250
2609,-35.156250
2610,-35.156250
2611,-35.156250
2612,-35.156250
2613,-35.156250
2614,-39.062500
2615,-39.062500
2616,-39.062500
2617,-39.062500
2618,-39.062500
2619,-39.062500
2620,-39.062500
2621,-39.062500
2622,-39.062500
2623,-42.968750
2624,-42.968750
2625,-42.968750
2626,-42.968750
2627,-42.968750
2628,-42.968750
2629,-42.968750
2630,-42.968750
2631,-42.968750
2632,-46.875000
2633,-46.875000
2634,-46.875000
2635,-46.875000
2636,-46.875000
2637,-46.875000
2638,-46.875000
2639,-46.875000
2640,-46.875000
2641,-46.875000
2642,-50.781250
2643,-50.781250
2644,-46.875000
2645,-50.781250
2646,-50.781250
2647,-50.781250
2648,-50.781250
2649,-50.781250
2650,-50.781250
2651,-50.781250
2652,-50.781250
2653,-50.781250
2654,-54.687500
2655,-54.687500
2656,-54.687500
2657,-54.687500
2658,-54.687500
2659,-54.687500
2660,-54.687500
2661,-54.687500
2662,-54.687500
2663,-54.687500
2664,-54.687500
2665,-58.593750
2666,-58.593750
2667,-58.593750
2668,-58.593750
2669,-58.593750
2670,-58.593750
2671,-58.593750
2672,-58.593750
2673,-58.593750
2674,-58.593750
2675,-58.593750
2676,-58.593750
2677,-58.593750
2678,-62.500000
2679,-62.500000
2680,-62.500000
2681,-62.500000
2682,-62.500000
2683,-62.500000
2684,-62.500000
2685,-62.500000
2686,-62.500000
2687,-62.500000
2688,-62.500000
2689,-62.500000
2690,-62.500000
2691,-66.406250
2692,-66.406250
2693,-66.406250
2694,-66.406250
2695,-66.406250
2696,-66.406250
2697,-66.406250
2698,-66.406250
2699,-66.406250
2700,-66.406250
2701,-66.406250
2702,-66.406250
2703,-66.406250
2704,-70.312500
2705,-70.312500
2706,-70.312500
2707,-70.312500
2708,-70.312500
2709,-70.312500
2710,-70.312500
2711,-70.312500
2712,-70.312500
2713,-70.312500
2714,-70.312500
2715,-70.312500
2716,-70.312500
2717,-74.218750
2718,-74.218750
2719,-74.218750
2720,-74.218750
2721,-74.218750
2722,-74.218750
2723,-74.218750
2724,-74.218750
2725,-74.218750
2726,-74.218750
2727,-74.218750
2728,-74.218750
2729,-74.218750
2730,-74.218750
2731,-74.218750
2732,-74.218750
2733,-74.218750
2734,-74.218750
2735,-78.125000
2736,-78.125000
2737,-74.218750
2738,-78.125000
2739,-78.125000
2740,-78.125000
2741,-78.125000
2742,-78.125000
2743,-78.125000
2744,-78.125000
2745,-78.125000
2746,-78.125000
2747,-78.125000
2748,-78.125000
2749,-78.125000
2750,-78.125000
2751,-78.125000
2752,-78.125000
2753,-78.125000
2754,-78.125000
2755,-78.125000
2756,-78.125000
2757,-78.125000
2758,-78.125000
2759,-82.031250
2760,-82.031250
2761,-78.125000
2762,-82.031250
2763,-82.031250
2764,-82.031250
2765,-82.031250
2766,-82.031250
2767,-82.031250
2768,-82.031250
2769,-82.031250
2770,-82.031250
2771,-82.031250
2772,-82.031250
2773,-82.031250
2774,-82.031250
2775,-82.031250
2776,-82.031250
2777,-82.031250
2778,-82.031250
2779,-82.031250
2780,-82.031250
2781,-82.031250
2782,-82.031250
2783,-82.031250
2784,-82.031250
2785,-82.031250
2786,-82.031250
2787,-82.031250
2788,-82.031250
2789,-82.031250
2790,-82.031250
2791,-82.031250
2792,-82.031250
2793,-82.031250
2794,-82.031250
2795,-82.031250
2796,-82.031250
2797,-82.031250
2798,-82.031250
2799,-82.031250
2800,-82.031250
2801,-82.031250
2802,-82.031250
2803,-82.031250
2804,-85.937500
2805,-82.031250
2806,-82.031250
2807,-82.031250
2808,-82.031250
2809,-82.031250
2810,-82.031250
2811,-82.031250
2812,-82.031250
2813,-82.031250
2814,-82.031250
2815,-82.031250
2816,-82.031250
2817,-82.031250
2818,-82.031250
2819,-82.031250
2820,-82.031250
2821,-82.031250
2822,-82.031250
2823,-82.031250
2824,-82.031250
2825,-82.031250
2826,-82.031250
2827,-82.031250
2828,-82.031250
2829,-82.031250
2830,-82.031250
2831,-82.031250
2832,-82.031250
2833,-82.031250
2834,-82.031250
2835,-82.031250
2836,-82.031250
2837,-82.031250
2838,-82.031250
2839,-82.031250
2840,-82.031250
2841,-82.031250
2842,-82.031250
2843,-82.031250
2844,-82.031250
2845,-82.031250
2846,-82.031250
2847,-82.031250
2848,-78.125000
2849,-82.031250
2850,-82.031250
2851,-78.125000
2852,-78.125000
2853,-82.031250
2854,-78.125000
2855,-82.031250
2856,-78.125000
2857,-78.125000
2858,-78.125000
2859,-78.125000
2860,-78.125000
2861,-78.125000
2862,-78.125000
2863,-78.125000
2864,-78.125000
2865,-78.125000
2866,-78.125000
2867,-78.125000
2868,-78.125000
2869,-78.125000
2870,-78.125000
2871,-78.125000
2872,-78.125000
2873,-78.125000
2874,-78.125000
2875,-78.125000
2876,-74.218750
2877,-74.218750
2878,-74.218750
2879,-74.218750
2880,-74.218750
2881,-74.218750
2882,-74.218750
2883,-74.218750
2884,-74.218750
2885,-74.218750
2886,-74.218750
2887,-74.218750
2888,-74.218750
2889,-74.218750
2890,-70.312500
2891,-74.218750
2892,-70.312500
2893,-74.218750
2894,-70.312500
2895,-70.312500
2896,-70.312500
2897,-70.312500
2898,-70.312500
2899,-70.312500
2900,-70.312500
2901,-70.312500
2902,-70.312500
2903,-70.312500
2904,-70.312500
2905,-70.312500
2906,-66.406250
2907,-70.312500
2908,-70.312500
2909,-66.406250
2910,-66.406250
2911,-66.406250
2912,-66.406250
2913,-66.406250
2914,-66.406250
2915,-66.406250
2916,-66.406250
2917,-66.406250
2918,-66.406250
2919,-66.406250
2920,-66.406250
2921,-62.500000
2922,-62.500000
2923,-62.500000
2924,-62.500000
2925,-62.500000
2926,-62.500000
2927,-62.500000
2928,-62.500000
2929,-62.500000
2930,-62.500000
2931,-62.500000
2932,-58.593750
2933,-58.593750
2934,-58.593750
2935,-58.593750
2936,-58.593750
2937,-58.593750
2938,-58.593750
2939,-58.593750
2940,-58.593750
2941,-58.593750
2942,-54.687500
2943,-58.593750
2944,-54.687500
2945,-54.687500
2946,-54.687500
2947,-54.687500
2948,-54.687500
2949,-54.687500
2950,-54.687500
2951,-54.687500
2952,-54.687500
2953,-50.781250
2954,-50.781250
2955,-50.781250
2956,-50.781250
2957,-50.781250
2958,-50.781250
2959,-50.781250
2960,-50.781250
2961,-50.781250
2962,-50.781250
2963,-46.875000
2964,-50.781250
2965,-46.875000
2966,-46.875000
2967,-46.875000
2968,-46.875000
2969,-46.875000
2970,-46.875000
2971,-46.875000
2972,-46.875000
2973,-46.875000
2974,-42.968750
2975,-42.968750
2976,-42.968750
2977,-42.968750
2978,-42.968750
2979,-42.968750
2980,-42.968750
2981,-42.968750
2982,-42.968750
2983,-39.062500
2984,-39.062500
2985,-39.062500
2986,-39.062500
2987,-39.062500
2988,-39.062500
2989,-39.062500
2990,-39.062500
2991,-39.062500
2992,-39.062500
2993,-39.062500
2994,-35.156250
2995,-35.156250
2996,-35.156250
2997,-35.156250
2998,-35.156250
2999,-35.156250
3000,-35.156250
3001,-35.156250
3002,-35.156250
3003,-35.156250
3004,-31.250000
3005,-31.250000
3006,-31.250000
3007,-31.250000
3008,-31.250000
3009,-31.250000
3010,-31.250000
3011,-31.250000
3012,-27.343750
3013,-27.343750
3014,-27.343750
3015,-27.343750
3016,-27.343750
3017,-27.343750
3018,-27.343750
3019,-27.343750
3020,-27.343750
3021,-27.343750
3022,-23.437500
3023,-23.437500
3024,-23.437500
3025,-23.437500
3026,-23.437500
3027,-23.437500
3028,-19.531250
3029,-19.531250
3030,-19.531250
3031,-19.531250
3032,-19.531250
3033,-19.531250
3034,-19.531250
3035,-19.531250
3036,-19.531250
3037,-19.531250
3038,-15.625000
3039,-15.625000
3040,-15.625000
3041,-15.625000
3042,-15.625000
3043,-15.625000
3044,-15.625000
3045,-15.625000
3046,-15.625000
3047,-11.718750
3048,-11.718750
3049,-11.718750
3050,-11.718750
3051,-11.718750
3052,-11.718750
3053,-11.718750
3054,-11.718750
3055,-7.812500
3056,-7.812500
3057,-7.812500
3058,-7.812500
3059,-7.812500
3060,-7.812500
3061,-7.812500
3062,-7.812500
3063,-7.812500
3064,-7.812500
3065,-3.906250
3066,-3.906250
3067,-3.906250
3068,-3.906250
3069,-3.906250
3070,-3.906250
3071,-3.906250
3072,-3.906250
3073,-3.906250
3074,-3.906250
3075,0.000000
3076,0.000000
3077,0.000000
3078,0.000000
3079,0.000000
3080,0.000000
3081,0.000000
3082,0.000000
3083,0.000000
3084,3.906250
3085,3.906250
3086,3.906250
3087,3.906250
3088,3.906250
3089,3.906250
3090,3.906250
3091,3.906250
3092,7.812500
3093,7.812500
3094,7.812500
3095,7.812500
3096,7.812500
3097,7.812500
3098,7.812500
3099,7.812500
3100,7.812500
3101,7.812500
3102,7.812500
3103,11.718750
3104,11.718750
3105,11.718750
3106,11.718750
3107,11.718750
3108,11.718750
3109,11.718750
3110,11.718750
3111,11.718750
3112,15.625000
3113,15.625000
3114,15.625000
3115,15.625000
3116,15.625000
3117,15.625000
3118,15.625000
3119,15.625000
3120,15.625000
3121,15.625000
3122,15.625000
3123,15.625000
3124,19.531250
3125,19.531250
3126,19.531250
3127,19.531250
3128,19.531250
3129,19.531250
3130,19.531250
3131,19.531250
3132,19.531250
3133,19.531250
3134,19.531250
3135,19.531250
3136,23.437500
3137,23.437500
3138,23.437500
3139,23.437500
3140,23.437500
3141,23.437500
3142,23.437500
3143,23.437500
3144,27.343750
3145,23.437500
3146,23.437500
3147,27.343750
3148,27.343750
3149,27.343750
3150,27.343750
3151,27.343750
3152,27.343750
3153,27.343750
3154,27.343750
3155,27.343750
3156,27.343750
3157,27.343750
3158,31.250000
3159,27.343750
3160,31.250000
3161,31.250000
3162,31.250000
3163,31.250000
3164,31.250000
3165,31.250000
3166,31.250000
3167,31.250000
3168,31.250000
3169,31.250000
3170,31.250000
3171,31.250000
3172,31.250000
3173,35.156250
3174,35.156250
3175,35.156250
3176,35.156250
3177,35.156250
3178,35.156250
3179,35.156250
3180,35.156250
3181,35.156250
3182,35.156250
3183,35.156250
3184,35.156250
3185,35.156250
3186,35.156250
3187,39.062500
3188,39.062500
3189,39.062500
3190,39.062500
3191,39.062500
3192,39.062500
3193,39.062500
3194,39.062500
3195,39.062500
3196,39.062500
3197,39.062500
3198,42.968750
3199,39.062500
3200,39.062500
3201,39.062500
3202,42.968750
3203,42.968750
3204,42.968750
3205,42.968750
3206,42.968750
3207,42.968750
3208,42.968750
3209,42.968750
3210,42.968750
3211,42.968750
3212,42.968750
3213,42.968750
3214,42.968750
3215,42.968750
3216,46.875000
3217,42.968750
3218,46.875000
3219,46.875000
3220,42.968750
3221,46.875000
3222,42.968750
3223,42.968750
3224,46.875000
3225,46.875000
3226,46.875000
3227,46.875000
3228,46.875000
3229,46.875000
3230,46.875000
3231,46.875000
3232,46.875000
3233,46.875000
3234,46.875000
3235,46.875000
3236,46.875000
3237,46.875000
3238,46.875000
3239,46.875000
3240,46.875000
3241,46.875000
3242,46.875000
3243,46.875000
3244,46.875000
3245,46.875000
3246,46.875000
3247,46.875000
3248,46.875000
3249,46.875000
3250,46.875000
3251,50.781250
3252,46.875000
3253,50.781250
3254,46.875000
3255,50.781250
3256,50.781250
3257,50.781250
3258,50.781250
3259,50.781250
3260,50.781250
3261,50.781250
3262,50.781250
3263,50.781250
3264,50.781250
3265,50.781250
3266,50.781250
3267,50.781250
3268,50.781250
3269,50.781250
3270,50.781250
3271,50.781250
3272,50.781250
3273,50.781250
3274,50.781250
3275,50.781250
3276,50.781250
3277,50.781250
3278,50.781250
3279,50.781250
3280,50.781250
3281,50.781250
3282,50.781250
3283,50.781250
3284,50.781250
3285,50.781250
3286,50.781250
3287,50.781250
3288,50.781250
3289,50.781250
3290,50.781250
3291,50.781250
3292,50.781250
3293,50.781250
3294,50.781250
3295,50.781250
3296,50.781250
3297,50.781250
3298,50.781250
3299,50.781250
3300,50.781250
3301,50.781250
3302,50.781250
3303,50.781250
3304,50.781250
3305,50.781250
3306,50.781250
3307,50.781250
3308,50.781250
3309,50.781250
3310,50.781250
3311,50.781250
3312,50.781250
3313,50.781250
3314,50.781250
3315,50.781250
3316,50.781250
3317,50.781250
3318,50.781250
3319,50.781250
3320,50.781250
3321,50.781250
3322,50.781250
3323,50.781250
3324,50.781250
3325,50.781250
3326,50.781250
3327,50.781250
3328,50.781250
3329,50.781250
3330,50.781250
3331,50.781250
3332,50.781250
3333,50.781250
3334,50.781250
3335,46.875000
3336,50.781250
3337,50.781250
3338,50.781250
3339,46.875000
3340,50.781250
3341,50.781250
3342,50.781250
3343,46.875000
3344,46.875000
3345,46.875000
3346,46.875000
3347,46.875000
3348,46.875000
3349,46.875000
3350,46.875000
3351,46.875000
3352,46.875000
3353,46.875000
3354,46.875000
3355,46.875000
3356,46.875000
3357,46.875000
3358,46.875000
3359,46.875000
3360,46.875000
3361,46.875000
3362,46.875000
3363,46.875000
3364,46.875000
3365,46.875000
3366,42.968750
3367,42.968750
3368,46.875000
3369,42.968750
3370,42.968750
3371,42.968750
3372,42.968750
3373,42.968750
3374,42.968750
3375,42.968750
3376,42.968750
3377,42.968750
3378,42.968750
3379,42.968750
3380,42.968750
3381,42.968750
3382,42.968750
3383,42.968750
3384,42.968750
3385,42.968750
3386,42.968750
3387,39.062500
3388,39.062500
3389,39.062500
3390,39.062500
3391,39.062500
3392,39.062500
3393,39.062500
3394,39.062500
3395,39.062500
3396,39.062500
3397,39.062500
3398,39.062500
3399,39.062500
3400,39.062500
3401,35.156250
3402,35.156250
3403,39.062500
3404,39.062500
3405,35.156250
3406,35.156250
3407,35.156250
3408,35.156250
3409,35.156250
3410,35.156250
3411,35.156250
3412,35.156250
3413,35.156250
3414,35.156250
3415,35.156250
3416,35.156250
3417,31.250000
3418,35.156250
3419,31.250000
3420,31.250000
3421,31.250000
3422,31.250000
3423,31.250000
3424,31.250000
3425,31.250000
3426,31.250000
3427,31.250000
3428,31.250000
3429,31.250000
3430,31.250000
3431,31.250000
3432,27.343750
3433,27.343750
3434,27.343750
3435,27.343750
3436,27.343750
3437,27.343750
3438,27.343750
3439,27.343750
3440,27.343750
3441,27.343750
3442,27.343750
3443,27.343750
3444,27.343750
3445,23.437500
3446,23.437500
3447,23.437500
3448,23.437500
3449,23.437500
3450,23.437500
3451,23.437500
3452,23.437500
3453,23.437500
3454,23.437500
3455,23.437500
3456,23.437500
3457,23.437500
3458,19.531250
3459,19.531250
3460,19.531250
3461,19.531250
3462,19.531250
3463,19.531250
3464,19.531250
3465,19.531250
3466,19.531250
3467,15.625000
3468,19.531250
3469,15.625000
3470,15.625000
3471,15.625000
3472,15.625000
3473,15.625000
3474,15.625000
3475,15.625000
3476,15.625000
3477,15.625000
3478,15.625000
3479,11.718750
3480,11.718750
3481,11.718750
3482,11.718750
3483,11.718750
3484,11.718750
3485,11.718750
3486,11.718750
3487,11.718750
3488,11.718750
3489,7.812500
3490,7.812500
3491,7.812500
3492,7.812500
3493,7.812500
3494,7.812500
3495,7.812500
3496,7.812500
3497,3.906250
3498,7.812500
3499,7.812500
3500,3.906250
3501,3.906250
3502,3.906250
3503,3.906250
3504,3.906250
3505,3.906250
3506,3.906250
3507,3.906250
3508,0.000000
3509,3.906250
3510,0.000000
3511,0.000000
3512,0.000000
3513,0.000000
3514,0.000000
3515,0.000000
3516,0.000000
3517,0.000000
3518,0.000000
3519,-3.906250
3520,-3.906250
3521,-3.906250
3522,-3.906250
3523,-3.906250
3524,-3.906250
3525,-3.906250
3526,-3.906250
3527,-3.906250
3528,-3.906250
3529,-7.812500
3530,-7.812500
3531,-7.812500
3532,-7.812500
3533,-7.812500
3534,-7.812500
3535,-7.812500
3536,-11.718750
3537,-7.812500
3538,-11.718750
3539,-11.718750
3540,-11.718750
3541,-11.718750
3542,-11.718750
3543,-11.718750
3544,-11.718750
3545,-11.718750
3546,-11.718750
3547,-15.625000
3548,-15.625000
3549,-15.625000
3550,-15.625000
3551,-15.625000
3552,-15.625000
3553,-15.625000
3554,-15.625000
3555,-19.531250
3556,-15.625000
3557,-15.625000
3558,-15.625000
3559,-19.531250
3560,-19.531250
3561,-19.531250
3562,-19.531250
3563,-19.531250
3564,-19.531250
3565,-23.437500
3566,-23.437500
3567,-23.437500
3568,-23.437500
3569,-23.437500
3570,-23.437500
3571,-23.437500
3572,-23.437500
3573,-23.437500
3574,-23.437500
3575,-23.437500
3576,-23.437500
3577,-27.343750
3578,-27.343750
3579,-27.343750
3580,-27.343750
3581,-27.343750
3582,-27.343750
3583,-27.343750
3584,-27.343750
3585,-31.250000
3586,-31.250000
3587,-31.250000
3588,-31.250000
3589,-31.250000
3590,-31.250000
3591,-31.250000
3592,-31.250000
3593,-31.250000
3594,-31.250000
3595,-35.156250
3596,-35.156250
3597,-35.156250
3598,-35.156250
3599,-35.156250
3600,-35.156250
3601,-35.156250
3602,-35.156250
3603,-35.156250
3604,-35.156250
3605,-39.062500
3606,-39.062500
3607,-39.062500
3608,-39.062500
3609,-39.062500
3610,-39.062500
3611,-39.062500
3612,-39.062500
3613,-42.968750
3614,-42.968750
3615,-42.968750
3616,-42.968750
3617,-42.968750
3618,-42.968750
3619,-42.968750
3620,-42.968750
3621,-42.968750
3622,-46.875000
3623,-46.875000
3624,-46.875000
3625,-46.875000
3626,-46.875000
3627,-46.875000
3628,-46.875000
3629,-46.875000
3630,-46.875000
3631,-46.875000
3632,-46.875000
3633,-50.781250
3634,-50.781250
3635,-50.781250
3636,-50.781250
3637,-50.781250
3638,-50.781250
3639,-50.781250
3640,-50.781250
3641,-50.781250
3642,-50.781250
3643,-54.687500
3644,-54.687500
3645,-54.687500
3646,-54.687500
3647,-54.687500
3648,-54.687500
3649,-54.687500
3650,-54.687500
3651,-54.687500
3652,-54.687500
3653,-58.593750
3654,-58.593750
3655,-58.593750
3656,-58.593750
3657,-58.593750
3658,-58.593750
3659,-58.593750
3660,-58.593750
3661,-58.593750
3662,-58.593750
3663,-58.593750
3664,-58.593750
3665,-62.500000
3666,-62.500000
3667,-62.500000
3668,-62.500000
3669,-62.500000
3670,-62.500000
3671,-62.500000
3672,-62.500000
3673,-62.500000
3674,-62.500000
3675,-62.500000
3676,-62.500000
3677,-66.406250
3678,-62.500000
3679,-66.406250
3680,-66.406250
3681,-66.406250
3682,-66.406250
3683,-66.406250
3684,-66.406250
3685,-66.406250
3686,-66.406250
3687,-66.406250
3688,-66.406250
3689,-66.406250
3690,-66.406250
3691,-70.312500
3692,-70.312500
3693,-70.312500
3694,-70.312500
3695,-70.312500
3696,-70.312500
3697,-70.312500
3698,-70.312500
3699,-70.312500
3700,-70.312500
3701,-70.312500
3702,-70.312500
3703,-70.312500
3704,-70.312500
3705,-70.312500
3706,-70.312500
3707,-74.218750
3708,-74.218750
3709,-74.218750
3710,-74.218750
3711,-74.218750
3712,-74.218750
3713,-74.218750
3714,-74.218750
3715,-74.218750
3716,-74.218750
3717,-74.218750
3718,-74.218750
3719,-74.218750
3720,-74.218750
3721,-74.218750
3722,-78.125000
3723,-74.218750
3724,-78.125000
3725,-78.125000
3726,-78.125000
3727,-78.125000
3728,-78.125000
3729,-78.125000
3730,-78.125000
3731,-78.125000
3732,-78.125000
3733,-78.125000
3734,-78.125000
3735,-78.125000
3736,-78.125000
3737,-78.125000
3738,-78.125000
3739,-78.125000
3740,-78.125000
3741,-78.125000
3742,-78.125000
3743,-78.125000
3744,-78.125000
3745,-78.125000
3746,-78.125000
3747,-82.031250
3748,-82.031250
3749,-82.031250
3750,-82.031250
3751,-82.031250
3752,-82.031250
3753,-82.031250
3754,-82.031250
3755,-82.031250
3756,-82.031250
3757,-82.031250
3758,-82.031250
3759,-82.031250
3760,-82.031250
3761,-82.031250
3762,-82.031250
3763,-82.031250
3764,-82.031250
3765,-82.031250
3766,-82.031250
3767,-82.031250
3768,-82.031250
3769,-82.031250
3770,-82.031250
3771,-82.031250
3772,-82.031250
3773,-82.031250
3774,-82.031250
3775,-82.031250
3776,-82.031250
3777,-82.031250
3778,-82.031250
3779,-82.031250
3780,-82.031250
3781,-82.031250
3782,-82.031250
3783,-82.031250
3784,-85.937500
3785,-85.937500
3786,-82.031250
3787,-82.031250
3788,-82.031250
3789,-85.937500
3790,-82.031250
3791,-82.031250
3792,-82.031250
3793,-82.031250
3794,-85.937500
3795,-82.031250
3796,-82.031250
3797,-82.031250
3798,-82.031250
3799,-82.031250
3800,-82.031250
3801,-82.031250
3802,-82.031250
3803,-82.031250
3804,-82.031250
3805,-82.031250
3806,-82.031250
3807,-82.031250
3808,-82.031250
3809,-85.937500
3810,-82.031250
3811,-82.031250
3812,-82.031250
3813,-82.031250
3814,-82.031250
3815,-82.031250
3816,-82.031250
3817,-85.937500
3818,-82.031250
3819,-82.031250
3820,-82.031250
3821,-82.031250
3822,-82.031250
3823,-82.031250
3824,-82.031250
3825,-82.031250
3826,-82.031250
3827,-82.031250
3828,-82.031250
3829,-82.031250
3830,-82.031250
3831,-82.031250
3832,-82.031250
3833,-82.031250
3834,-82.031250
3835,-82.031250
3836,-82.031250
3837,-78.125000
3838,-82.031250
3839,-82.031250
3840,-78.125000
3841,-78.125000
3842,-78.125000
3843,-78.125000
3844,-78.125000
3845,-78.125000
3846,-78.125000
3847,-78.125000
3848,-78.125000
3849,-78.125000
3850,-78.125000
3851,-78.125000
3852,-78.125000
3853,-78.125000
3854,-78.125000
3855,-78.125000
3856,-78.125000
3857,-78.125000
3858,-78.125000
3859,-78.125000
3860,-78.125000
3861,-78.125000
3862,-78.125000
3863,-74.218750
3864,-74.218750
3865,-74.218750
3866,-74.218750
3867,-74.218750
3868,-74.218750
3869,-74.218750
3870,-74.218750
3871,-74.218750
3872,-74.218750
3873,-74.218750
3874,-74.218750
3875,-74.218750
3876,-74.218750
3877,-74.218750
3878,-74.218750
3879,-74.218750
3880,-74.218750
3881,-74.218750
3882,-70.312500
3883,-70.312500
3884,-70.312500
3885,-70.312500
3886,-70.312500
3887,-70.312500
3888,-70.312500
3889,-70.312500
3890,-70.312500
3891,-70.312500
3892,-70.312500
3893,-70.312500
3894,-70.312500
3895,-70.312500
3896,-66.406250
3897,-66.406250
3898,-66.406250
3899,-66.406250
3900,-66.406250
3901,-66.406250
3902,-66.406250
3903,-66.406250
3904,-66.406250
3905,-66.406250
3906,-66.406250
3907,-66.406250
3908,-66.406250
3909,-66.406250
3910,-62.500000
3911,-66.406250
3912,-62.500000
3913,-62.500000
3914,-62.500000
3915,-62.500000
3916,-62.500000
3917,-62.500000
3918,-62.500000
3919,-62.500000
3920,-62.500000
3921,-62.500000
3922,-58.593750
3923,-58.593750
3924,-58.593750
3925,-58.593750
3926,-58.593750
3927,-58.593750
3928,-58.593750
3929,-58.593750
3930,-58.593750
3931,-58.593750
3932,-58.593750
3933,-58.593750
3934,-54.687500
3935,-54.687500
3936,-54.687500
3937,-54.687500
3938,-54.687500
3939,-54.687500
3940,-54.687500
3941,-54.687500
3942,-50.781250
3943,-54.687500
3944,-50.781250
3945,-50.781250
3946,-54.687500
3947,-50.781250
3948,-50.781250
3949,-50.781250
3950,-50.781250
3951,-50.781250
3952,-50.781250
3953,-50.781250
3954,-50.781250
3955,-46.875000
3956,-46.875000
3957,-42.968750
3958,-46.875000
3959,-46.875000
3960,-46.875000
3961,-46.875000
3962,-46.875000
3963,-46.875000
3964,-42.968750
3965,-42.968750
3966,-42.968750
3967,-42.968750
3968,-42.968750
3969,-42.968750
3970,-42.968750
3971,-42.968750
3972,-39.062500
3973,-39.062500
3974,-39.062500
3975,-39.062500
3976,-39.062500
3977,-39.062500
3978,-39.062500
3979,-39.062500
3980,-39.062500
3981,-39.062500
3982,-35.156250
3983,-35.156250
3984,-35.156250
3985,-35.156250
3986,-35.156250
3987,-35.156250
3988,-35.156250
3989,-35.156250
3990,-31.250000
3991,-31.250000
3992,-31.250000
3993,-31.250000
3994,-31.250000
3995,-31.250000
3996,-31.250000
3997,-31.250000
3998,-31.250000
3999,-31.250000
4000,-27.343750
4001,-27.343750
4002,-27.343750
4003,-27.343750
4004,-27.343750
4005,-27.343750
4006,-27.343750
4007,-27.343750
4008,-27.343750
4009,-27.343750
4010,-23.437500
4011,-23.437500
4012,-23.437500
4013,-23.437500
4014,-23.437500
4015,-23.437500
4016,-23.437500
4017,-23.437500
4018,-23.437500
4019,-19.531250
4020,-19.531250
4021,-19.531250
4022,-19.531250
4023,-19.531250
4024,-19.531250
4025,-19.531250
4026,-19.531250
4027,-19.531250
4028,-15.625000
4029,-15.625000
4030,-15.625000
4031,-15.625000
4032,-15.625000
4033,-15.625000
4034,-15.625000
4035,-15.625000
4036,-11.718750
4037,-11.718750
4038,-11.718750
4039,-11.718750
4040,-11.718750
4041,-11.718750
4042,-11.718750
4043,-11.718750
4044,-11.718750
4045,-7.812500
4046,-7.812500
4047,-7.812500
4048,-7.812500
4049,-7.812500
4050,-7.812500
4051,-7.812500
4052,-7.812500
4053,-7.812500
4054,-3.906250
4055,-3.906250
4056,-3.906250
4057,-3.906250
4058,-3.906250
4059,-3.906250
4060,-3.906250
4061,-3.906250
4062,0.000000
4063,-3.906250
4064,0.000000
4065,0.000000
4066,0.000000
4067,0.000000
4068,0.000000
4069,0.000000
4070,0.000000
4071,0.000000
4072,3.906250
4073,3.906250
4074,3.906250
4075,3.906250
4076,3.906250
4077,3.906250
4078,3.906250
4079,3.906250
4080,7.812500
4081,3.906250
4082,7.812500
4083,7.812500
4084,7.812500
4085,7.812500
4086,7.812500
4087,7.812500
4088,7.812500
4089,7.812500
4090,7.812500
4091,11.718750
4092,11.718750
4093,11.718750
4094,11.718750
4095,11.718750
4096,11.718750
4097,11.718750
4098,11.718750
4099,11.718750
4100,11.718750
4101,15.625000
4102,15.625000
4103,15.625000
4104,15.625000
4105,15.625000
4106,15.625000
4107,15.625000
4108,15.625000
4109,15.625000
4110,15.625000
4111,19.531250
4112,19.531250
4113,19.531250
4114,19.531250
4115,19.531250
4116,19.531250
4117,19.531250
4118,19.531250
4119,19.531250
4120,23.437500
4121,23.437500
4122,23.437500
4123,23.437500
4124,23.437500
4125,23.437500
4126,23.437500
4127,23.437500
4128,23.437500
4129,23.437500
4130,23.437500
4131,23.437500
4132,23.437500
4133,23.437500
4134,27.343750
4135,27.343750
4136,27.343750
4137,27.343750
4138,27.343750
4139,27.343750
4140,27.343750
4141,27.343750
4142,27.343750
4143,31.250000
4144,31.250000
4145,31.250000
4146,27.343750
4147,31.250000
4148,31.250000
4149,31.250000
4150,31.250000
4151,31.250000
4152,31.250000
4153,31.250000
4154,31.250000
4155,31.250000
4156,31.250000
4157,31.250000
4158,35.156250
4159,35.156250
4160,35.156250
4161,35.156250
4162,35.156250
4163,35.156250
4164,35.156250
4165,35.156250
4166,35.156250
4167,35.156250
4168,35.156250
4169,35.156250
4170,35.156250
4171,35.156250
4172,39.062500
4173,39.062500
4174,39.062500
4175,39.062500
4176,39.062500
4177,39.062500
4178,39.062500
4179,39.062500
4180,39.062500
4181,39.062500
4182,39.062500
4183,39.062500
4184,39.062500
4185,39.062500
4186,39.062500
4187,39.062500
4188,42.968750
4189,42.968750
4190,42.968750
4191,42.968750
4192,42.968750
4193,42.968750
4194,42.968750
4195,42.968750
4196,42.968750
4197,42.968750
4198,42.968750
4199,42.968750
4200,42.968750
4201,42.968750
4202,42.968750
4203,42.968750
4204,42.968750
4205,42.968750
4206,42.968750
4207,46.875000
4208,46.875000
4209,46.875000
4210,46.875000
4211,42.968750
4212,46.875000
4213,46.875000
4214,46.875000
4215,46.875000
4216,46.875000
4217,46.875000
4218,46.875000
4219,46.875000
4220,46.875000
4221,46.875000
4222,46.875000
4223,46.875000
4224,50.781250
4225,46.875000
4226,46.875000
4227,46.875000
4228,46.875000
4229,50.781250
4230,50.781250
4231,50.781250
4232,50.781250
4233,50.781250
4234,50.781250
4235,50.781250
4236,50.781250
4237,50.781250
4238,50.781250
4239,50.781250
4240,50.781250
4241,50.781250
4242,50.781250
4243,50.781250
4244,50.781250
4245,50.781250
4246,50.781250
4247,50.781250
4248,50.781250
4249,50.781250
4250,50.781250
4251,50.781250
4252,50.781250
4253,50.781250
4254,50.781250
4255,50.781250
4256,50.781250
4257,50.781250
4258,50.781250
4259,50.781250
4260,50.781250
4261,50.781250
4262,50.781250
4263,50.781250
4264,50.781250
4265,50.781250
4266,50.781250
4267,50.781250
4268,50.781250
4269,50.781250
4270,50.781250
4271,50.781250
4272,50.781250
4273,50.781250
4274,50.781250
4275,50.781250
4276,50.781250
4277,50.781250
4278,50.781250
4279,50.781250
4280,50.781250
4281,50.781250
4282,50.781250
4283,50.781250
4284,50.781250
4285,50.781250
4286,50.781250
4287,50.781250
4288,50.781250
4289,50.781250
4290,50.781250
4291,50.781250
4292,50.781250
4293,50.781250
4294,50.781250
4295,50.781250
4296,50.781250
4297,50.781250
4298,50.781250
4299,50.781250
4300,50.781250
4301,50.781250
4302,50.781250
4303,50.781250
4304,50.781250
4305,50.781250
4306,50.781250
4307,50.781250
4308,50.781250
4309,50.781250
4310,50.781250
4311,50.781250
4312,50.781250
4313,50.781250
4314,46.875000
4315,50.781250
4316,50.781250
4317,50.781250
4318,50.781250
4319,50.781250
4320,50.781250
4321,50.781250
4322,46.875000
4323,46.875000
4324,50.781250
4325,50.781250
4326,46.875000
4327,46.875000
4328,46.875000
4329,46.875000
4330,50.781250
4331,46.875000
4332,46.875000
4333,46.875000
4334,46.875000
4335,46.875000
4336,46.875000
4337,46.875000
4338,46.875000
4339,46.875000
4340,46.875000
4341,46.875000
4342,46.875000
4343,46.875000
4344,46.875000
4345,46.875000
4346,46.875000
4347,46.875000
4348,46.875000
4349,46.875000
4350,46.875000
4351,46.875000
4352,46.875000
4353,46.875000
4354,42.968750
4355,46.875000
4356,46.875000
4357,42.968750
4358,42.968750
4359,42.968750
4360,42.968750
4361,42.968750
4362,42.968750
4363,42.968750
4364,42.968750
4365,42.968750
4366,42.968750
4367,42.968750
4368,42.968750
4369,42.968750
4370,42.968750
4371,42.968750
4372,42.968750
4373,42.968750
4374,42.968750
4375,42.968750
4376,39.062500
4377,39.062500
4378,39.062500
4379,42.968750
4380,39.062500
4381,39.062500
4382,39.062500
4383,39.062500
4384,39.062500
4385,39.062500
4386,39.062500
4387,39.062500
4388,39.062500
4389,39.062500
4390,39.062500
4391,35.156250
4392,35.156250
4393,35.156250
4394,35.156250
4395,35.156250
4396,35.156250
4397,35.156250
4398,35.156250
4399,35.156250
4400,35.156250
4401,35.156250
4402,35.156250
4403,35.156250
4404,35.156250
4405,35.156250
4406,31.250000
4407,31.250000
4408,31.250000
4409,31.250000
4410,31.250000
4411,31.250000
4412,31.250000
4413,31.250000
4414,31.250000
4415,27.343750
4416,31.250000
4417,31.250000
4418,31.250000
4419,27.343750
4420,27.343750
4421,27.343750
4422,27.343750
4423,27.343750
4424,27.343750
4425,27.343750
4426,27.343750
4427,27.343750
4428,27.343750
4429,27.343750
4430,23.437500
4431,23.437500
4432,27.343750
4433,23.437500
4434,23.437500
4435,23.437500
4436,23.437500
4437,23.437500
4438,23.437500
4439,23.437500
4440,23.437500
4441,23.437500
4442,23.437500
4443,23.437500
4444,19.531250
4445,19.531250
4446,19.531250
4447,19.531250
4448,19.531250
4449,19.531250
4450,19.531250
4451,19.531250
4452,19.531250
4453,19.531250
4454,19.531250
4455,15.625000
4456,15.625000
4457,15.625000
4458,15.625000
4459,15.625000
4460,15.625000
4461,15.625000
4462,15.625000
4463,15.625000
4464,15.625000
4465,11.718750
4466,11.718750
4467,11.718750
4468,11.718750
4469,11.718750
4470,11.718750
4471,11.718750
4472,11.718750
4473,11.718750
4474,11.718750
4475,11.718750
4476,11.718750
4477,7.812500
4478,7.812500
4479,7.812500
4480,7.812500
4481,7.812500
4482,7.812500
4483,7.812500
4484,7.812500
4485,7.812500
4486,7.812500
4487,7.812500
4488,3.906250
4489,3.906250
4490,3.906250
4491,3.906250
4492,3.906250
4493,3.906250
4494,3.906250
4495,3.906250
4496,3.906250
4497,3.906250
4498,0.000000
4499,0.000000
4500,0.000000
4501,0.000000
4502,0.000000
4503,0.000000
4504,0.000000
4505,0.000000
4506,0.000000
4507,0.000000
4508,-3.906250
4509,-3.906250
4510,-3.906250
4511,-3.906250
4512,-3.906250
4513,-3.906250
4514,-3.906250
4515,-7.812500
4516,-3.906250
4517,-7.812500
4518,-7.812500
4519,-7.812500
4520,-7.812500
4521,-7.812500
4522,-7.812500
4523,-7.812500
4524,-7.812500
4525,-11.718750
4526,-7.812500
4527,-11.718750
4528,-11.718750
4529,-11.718750
4530,-11.718750
4531,-11.718750
4532,-11.718750
4533,-11.718750
4534,-15.625000
4535,-15.625000
4536,-15.625000
4537,-15.625000
4538,-15.625000
4539,-15.625000
4540,-15.625000
4541,-15.625000
4542,-15.625000
4543,-19.531250
4544,-19.531250
4545,-19.531250
4546,-19.531250
4547,-19.531250
4548,-19.531250
4549,-19.531250
4550,-19.531250
4551,-23.437500
4552,-23.437500
4553,-23.437500
4554,-23.437500
4555,-23.437500
4556,-23.437500
4557,-23.437500
4558,-23.437500
4559,-23.437500
4560,-23.437500
4561,-23.437500
4562,-27.343750
4563,-27.343750
4564,-27.343750
4565,-27.343750
4566,-27.343750
4567,-27.343750
4568,-27.343750
4569,-27.343750
4570,-27.343750
4571,-31.250000
4572,-31.250000
4573,-31.250000
4574,-31.250000
4575,-31.250000
4576,-31.250000
4577,-31.250000
4578,-31.250000
4579,-35.156250
4580,-35.156250
4581,-35.156250
4582,-35.156250
4583,-35.156250
4584,-35.156250
4585,-35.156250
4586,-35.156250
4587,-35.156250
4588,-35.156250
4589,-35.156250
4590,-35.156250
4591,-39.062500
4592,-39.062500
4593,-39.062500
4594,-39.062500
4595,-39.062500
4596,-39.062500
4597,-39.062500
4598,-39.062500
4599,-39.062500
4600,-42.968750
4601,-42.968750
4602,-42.968750
4603,-42.968750
4604,-42.968750
4605,-42.968750
4606,-42.968750
4607,-42.968750
4608,-42.968750
4609,-42.968750
4610,-42.968750
4611,-46.875000
4612,-46.875000
4613,-46.875000
4614,-46.875000
4615,-46.875000
4616,-46.875000
4617,-46.875000
4618,-46.875000
4619,-50.781250
4620,-46.875000
4621,-50.781250
4622,-50.781250
4623,-50.781250
4624,-50.781250
4625,-50.781250
4626,-50.781250
4627,-50.781250
4628,-50.781250
4629,-50.781250
4630,-50.781250
4631,-54.687500
4632,-54.687500
4633,-50.781250
4634,-54.687500
4635,-54.687500
4636,-54.687500
4637,-54.687500
4638,-54.687500
4639,-54.687500
4640,-54.687500
4641,-54.687500
4642,-58.593750
4643,-54.687500
4644,-58.593750
4645,-58.593750
4646,-58.593750
4647,-58.593750
4648,-58.593750
4649,-58.593750
4650,-58.593750
4651,-58.593750
4652,-62.500000
4653,-58.593750
4654,-58.593750
4655,-62.500000
4656,-62.500000
4657,-62.500000
4658,-62.500000
4659,-62.500000
4660,-62.500000
4661,-62.500000
4662,-62.500000
4663,-62.500000
4664,-62.500000
4665,-66.406250
4666,-66.406250
4667,-66.406250
4668,-66.406250
4669,-66.406250
4670,-66.406250
4671,-66.406250
4672,-66.406250
4673,-66.406250
4674,-66.406250
4675,-66.406250
4676,-66.406250
4677,-66.406250
4678,-70.312500
4679,-70.312500
4680,-70.312500
4681,-70.312500
4682,-70.312500
4683,-70.312500
4684,-70.312500
4685,-70.312500
4686,-70.312500
4687,-70.312500
4688,-70.312500
4689,-70.312500
4690,-70.312500
4691,-70.312500
4692,-74.218750
4693,-74.218750
4694,-70.312500
4695,-74.218750
4696,-74.218750
4697,-74.218750
4698,-74.218750
4699,-74.218750
4700,-74.218750
4701,-74.218750
4702,-74.218750
4703,-74.218750
4704,-74.218750
4705,-74.218750
4706,-74.218750
4707,-74.218750
4708,-78.125000
4709,-78.125000
4710,-78.125000
4711,-74.218750
4712,-78.125000
4713,-78.125000
4714,-78.125000
4715,-78.125000
4716,-78.125000
4717,-78.125000
4718,-78.125000
4719,-78.125000
4720,-78.125000
4721,-78.125000
4722,-78.125000
4723,-78.125000
4724,-78.125000
4725,-78.125000
4726,-78.125000
4727,-78.125000
4728,-78.125000
4729,-82.031250
4730,-82.031250
4731,-78.125000
4732,-82.031250
4733,-82.031250
4734,-82.031250
4735,-82.031250
4736,-82.031250
4737,-82.031250
4738,-82.031250
4739,-82.031250
4740,-82.031250
4741,-82.031250
4742,-82.031250
4743,-82.031250
4744,-82.031250
4745,-82.031250
4746,-82.031250
4747,-82.031250
4748,-82.031250
4749,-82.031250
4750,-82.031250
4751,-82.031250
4752,-82.031250
4753,-82.031250
4754,-82.031250
4755,-82.031250
4756,-82.031250
4757,-82.031250
4758,-82.031250
4759,-82.031250
4760,-82.031250
4761,-82.031250
4762,-82.031250
4763,-82.031250
4764,-82.031250
4765,-82.031250
4766,-82.031250
4767,-82.031250
4768,-82.031250
4769,-82.031250
4770,-82.031250
4771,-82.031250
4772,-82.031250
4773,-85.937500
4774,-82.031250
4775,-82.031250
4776,-82.031250
4777,-82.031250
4778,-82.031250
4779,-82.031250
4780,-85.937500
4781,-82.031250
4782,-82.031250
4783,-82.031250
4784,-85.937500
4785,-82.031250
4786,-82.031250
4787,-82.031250
4788,-82.031250
4789,-82.031250
4790,-82.031250
4791,-82.031250
4792,-82.031250
4793,-82.031250
4794,-82.031250
4795,-82.031250
4796,-82.031250
4797,-82.031250
4798,-82.031250
4799,-82.031250
4800,-78.125000
4801,-82.031250
4802,-82.031250
4803,-82.031250
4804,-82.031250
4805,-82.031250
4806,-78.125000
4807,-82.031250
4808,-82.031250
4809,-78.125000
4810,-82.031250
4811,-82.031250
4812,-82.031250
4813,-82.031250
4814,-82.031250
4815,-82.031250
4816,-82.031250
4817,-82.031250
4818,-82.031250
4819,-82.031250
4820,-82.031250
4821,-82.031250
4822,-82.031250
4823,-82.031250
4824,-82.031250
4825,-82.031250
4826,-82.031250
4827,-82.031250
4828,-82.031250
4829,-82.031250
4830,-78.125000
4831,-82.031250
4832,-78.125000
4833,-78.125000
4834,-78.125000
4835,-78.125000
4836,-78.125000
4837,-78.125000
4838,-78.125000
4839,-78.125000
4840,-78.125000
4841,-78.125000
4842,-78.125000
4843,-78.125000
4844,-78.125000
4845,-78.125000
4846,-78.125000
4847,-78.125000
4848,-78.125000
4849,-78.125000
4850,-78.125000
4851,-78.125000
4852,-74.218750
4853,-74.218750
4854,-74.218750
4855,-74.218750
4856,-74.218750
4857,-74.218750
4858,-74.218750
4859,-74.218750
4860,-74.218750
4861,-74.218750
4862,-74.218750
4863,-74.218750
4864,-74.218750
4865,-74.218750
4866,-74.218750
4867,-74.218750
4868,-74.218750
4869,-70.312500
4870,-70.312500
4871,-70.312500
4872,-70.312500
4873,-70.312500
4874,-70.312500
4875,-70.312500
4876,-70.312500
4877,-70.312500
4878,-70.312500
4879,-70.312500
4880,-70.312500
4881,-70.312500
4882,-70.312500
4883,-66.406250
4884,-70.312500
4885,-66.406250
4886,-66.406250
4887,-66.406250
4888,-66.406250
4889,-66.406250
4890,-66.406250
4891,-66.406250
4892,-66.406250
4893,-66.406250
4894,-66.406250
4895,-62.500000
4896,-62.500000
4897,-62.500000
4898,-62.500000
4899,-62.500000
4900,-62.500000
4901,-62.500000
4902,-62.500000
4903,-62.500000
4904,-62.500000
4905,-62.500000
4906,-58.593750
4907,-62.500000
4908,-58.593750
4909,-62.500000
4910,-58.593750
4911,-58.593750
4912,-58.593750
4913,-58.593750
4914,-58.593750
4915,-58.593750
4916,-58.593750
4917,-58.593750
4918,-58.593750
4919,-58.593750
4920,-58.593750
4921,-54.687500
4922,-54.687500
4923,-54.687500
4924,-54.687500
4925,-54.687500
4926,-54.687500
4927,-54.687500
4928,-54.687500
4929,-54.687500
4930,-54.687500
4931,-50.781250
4932,-50.781250
4933,-50.781250
4934,-50.781250
4935,-50.781250
4936,-50.781250
4937,-50.781250
4938,-50.781250
4939,-50.781250
4940,-50.781250
4941,-50.781250
4942,-50.781250
4943,-46.875000
4944,-46.875000
4945,-46.875000
4946,-46.875000
4947,-46.875000
4948,-46.875000
4949,-46.875000
4950,-46.875000
4951,-46.875000
4952,-42.968750
4953,-42.968750
4954,-42.968750
4955,-42.968750
4956,-42.968750
4957,-42.968750
4958,-42.968750
4959,-42.968750
4960,-42.968750
4961,-42.968750
4962,-39.062500
4963,-39.062500
4964,-39.062500
4965,-39.062500
4966,-39.062500
4967,-39.062500
4968,-39.062500
4969,-39.062500
4970,-39.062500
4971,-35.156250
4972,-35.156250
4973,-35.156250
4974,-35.156250
4975,-35.156250
4976,-35.156250
4977,-35.156250
4978,-35.156250
4979,-35.156250
4980,-31.250000
4981,-31.250000
4982,-35.156250
4983,-31.250000
4984,-31.250000
4985,-31.250000
4986,-31.250000
4987,-31.250000
4988,-31.250000
4989,-27.343750
4990,-27.343750
4991,-27.343750
4992,-27.343750
4993,-27.343750
4994,-27.343750
4995,-27.343750
4996,-27.343750
4997,-23.437500
4998,-23.437500
4999,-27.343750
5000,-23.437500
5001,-23.437500
5002,-23.437500
5003,-23.437500
5004,-23.437500
5005,-23.437500
5006,-19.531250
5007,-23.437500
5008,-19.531250
5009,-19.531250
5010,-19.531250
5011,-19.531250
5012,-15.625000
5013,-19.531250
5014,-19.531250
5015,-15.625000
5016,-15.625000
5017,-15.625000
5018,-15.625000
5019,-15.625000
5020,-15.625000
5021,-15.625000
5022,-15.625000
5023,-15.625000
5024,-11.718750
5025,-11.718750
5026,-11.718750
5027,-11.718750
5028,-11.718750
5029,-11.718750
5030,-11.718750
5031,-11.718750
5032,-7.812500
5033,-11.718750
5034,-7.812500
5035,-7.812500
5036,-7.812500
5037,-7.812500
5038,-7.812500
5039,-7.812500
5040,-7.812500
5041,-7.812500
5042,-3.906250
5043,-3.906250
5044,-3.906250
5045,-3.906250
5046,-3.906250
5047,-3.906250
5048,-3.906250
5049,-3.906250
5050,-3.906250
5051,-3.906250
5052,0.000000
5053,0.000000
5054,0.000000
5055,0.000000
5056,0.000000
5057,0.000000
5058,0.000000
5059,0.000000
5060,0.000000
5061,3.906250
5062,3.906250
5063,3.906250
5064,3.906250
5065,3.906250
5066,3.906250
5067,3.906250
5068,3.906250
5069,3.906250
5070,7.812500
5071,7.812500
5072,7.812500
5073,7.812500
5074,7.812500
5075,7.812500
5076,7.812500
5077,7.812500
5078,7.812500
5079,11.718750
5080,11.718750
5081,7.812500
5082,11.718750
5083,11.718750
5084,11.718750
5085,11.718750
5086,11.718750
5087,11.718750
5088,11.718750
5089,15.625000
5090,15.625000
5091,15.625000
5092,15.625000
5093,15.625000
5094,15.625000
5095,15.625000
5096,15.625000
5097,15.625000
5098,19.531250
5099,15.625000
5100,15.625000
5101,15.625000
5102,19.531250
5103,19.531250
5104,19.531250
5105,19.531250
5106,19.531250
5107,19.531250
5108,19.531250
5109,19.531250
5110,19.531250
5111,23.437500
5112,23.437500
5113,23.437500
5114,23.437500
5115,23.437500
5116,23.437500
5117,23.437500
5118,23.437500
5119,23.437500
5120,23.437500
5121,23.437500
5122,27.343750
5123,27.343750
5124,27.343750
5125,27.343750
5126,27.343750
5127,27.343750
5128,27.343750
5129,27.343750
5130,27.343750
5131,27.343750
5132,27.343750
5133,31.250000
5134,31.250000
5135,31.250000
5136,31.250000
5137,31.250000
5138,31.250000
5139,31.250000
5140,31.250000
5141,31.250000
5142,31.250000
5143,31.250000
5144,31.250000
5145,31.250000
5146,35.156250
5147,35.156250
5148,35.156250
5149,35.156250
5150,35.156250
5151,35.156250
5152,35.156250
5153,35.156250
5154,35.156250
5155,35.156250
5156,35.156250
5157,35.156250
5158,35.156250
5159,39.062500
5160,35.156250
5161,39.062500
5162,39.062500
5163,39.062500
5164,39.062500
5165,39.062500
5166,39.062500
5167,39.062500
5168,39.062500
5169,39.062500
5170,39.062500
5171,39.062500
5172,39.062500
5173,39.062500
5174,42.968750
5175,42.968750
5176,42.968750
5177,42.968750
5178,42.968750
5179,42.968750
5180,42.968750
5181,42.968750
5182,42.968750
5183,42.968750
5184,42.968750
5185,42.968750
5186,42.968750
5187,42.968750
5188,42.968750
5189,42.968750
5190,42.968750
5191,42.968750
5192,42.968750
5193,42.968750
5194,42.968750
5195,42.968750
5196,46.875000
5197,46.875000
5198,46.875000
5199,46.875000
5200,46.875000
5201,46.875000
5202,46.875000
5203,46.875000
5204,46.875000
5205,46.875000
5206,46.875000
5207,46.875000
5208,46.875000
5209,46.875000
5210,46.875000
5211,46.875000
5212,46.875000
5213,46.875000
5214,46.875000
5215,46.875000
5216,46.875000
5217,46.875000
5218,46.875000
5219,46.875000
5220,46.875000
5221,46.875000
5222,46.875000
5223,50.781250
5224,50.781250
5225,50.781250
5226,46.875000
5227,46.875000
5228,46.875000
5229,46.875000
5230,46.875000
5231,50.781250
5232,50.781250
5233,50.781250
5234,50.781250
5235,50.781250
5236,50.781250
5237,50.781250
5238,50.781250
5239,50.781250
5240,50.781250
5241,50.781250
5242,50.781250
5243,50.781250
5244,50.781250
5245,50.781250
5246,50.781250
5247,50.781250
5248,50.781250
5249,50.781250
5250,50.781250
5251,50.781250
5252,50.781250
5253,50.781250
5254,50.781250
5255,50.781250
5256,50.781250
5257,50.781250
5258,50.781250
5259,50.781250
5260,50.781250
5261,50.781250
5262,50.781250
5263,50.781250
5264,50.781250
5265,50.781250
5266,50.781250
5267,50.781250
5268,50.781250
5269,50.781250
5270,50.781250
5271,50.781250
5272,50.781250
5273,50.781250
5274,50.781250
5275,50.781250
5276,50.781250
5277,50.781250
5278,50.781250
5279,50.781250
5280,50.781250
5281,50.781250
5282,50.781250
5283,50.781250
5284,50.781250
5285,50.781250
5286,50.781250
5287,50.781250
5288,50.781250
5289,50.781250
5290,50.781250
5291,50.781250
5292,50.781250
5293,50.781250
5294,50.781250
5295,50.781250
5296,50.781250
5297,50.781250
5298,50.781250
5299,50.781250
5300,50.781250
5301,50.781250
5302,50.781250
5303,50.781250
5304,50.781250
5305,50.781250
5306,50.781250
5307,50.781250
5308,50.781250
5309,50.781250
5310,50.781250
5311,50.781250
5312,50.781250
5313,50.781250
5314,50.781250
5315,46.875000
5316,46.875000
5317,46.875000
5318,46.875000
5319,46.875000
5320,46.875000
5321,46.875000
5322,46.875000
5323,46.875000
5324,46.875000
5325,46.875000
5326,46.875000
5327,46.875000
5328,46.875000
5329,46.875000
5330,46.875000
5331,46.875000
5332,46.875000
5333,46.875000
5334,46.875000
5335,46.875000
5336,46.875000
5337,46.875000
5338,46.875000
5339,46.875000
5340,46.875000
5341,42.968750
5342,42.968750
5343,42.968750
5344,42.968750
5345,42.968750
5346,42.968750
5347,42.968750
5348,42.968750
5349,42.968750
5350,42.968750
5351,42.968750
5352,42.968750
5353,42.968750
5354,42.968750
5355,42.968750
5356,42.968750
5357,42.968750
5358,42.968750
5359,42.968750
5360,39.062500
5361,42.968750
5362,42.968750
5363,39.062500
5364,39.062500
5365,39.062500
5366,39.062500
5367,39.062500
5368,39.062500
5369,39.062500
5370,39.062500
5371,39.062500
5372,39.062500
5373,39.062500
5374,39.062500
5375,39.062500
5376,39.062500
5377,39.062500
5378,39.062500
5379,39.062500
5380,35.156250
5381,35.156250
5382,35.156250
5383,35.156250
5384,35.156250
5385,35.156250
5386,35.156250
5387,35.156250
5388,35.156250
5389,35.156250
5390,35.156250
5391,35.156250
5392,35.156250
5393,35.156250
5394,35.156250
5395,35.156250
5396,35.156250
5397,31.250000
5398,31.250000
5399,31.250000
5400,31.250000
5401,31.250000
5402,31.250000
5403,31.250000
5404,31.250000
5405,31.250000
5406,31.250000
5407,27.343750
5408,31.250000
5409,27.343750
5410,27.343750
5411,27.343750
5412,27.343750
5413,27.343750
5414,27.343750
5415,27.343750
5416,27.343750
5417,27.343750
5418,27.343750
5419,27.343750
5420,27.343750
5421,23.437500
5422,23.437500
5423,23.437500
5424,23.437500
5425,23.437500
5426,23.437500
5427,23.437500
5428,23.437500
5429,23.437500
5430,23.437500
5431,19.531250
5432,19.531250
5433,23.437500
5434,19.531250
5435,19.531250
5436,19.531250
5437,19.531250
5438,19.531250
5439,19.531250
5440,19.531250
5441,19.531250
5442,15.625000
5443,15.625000
5444,15.625000
5445,15.625000
5446,15.625000
5447,15.625000
5448,15.625000
5449,15.625000
5450,15.625000
5451,15.625000
5452,11.718750
5453,11.718750
5454,11.718750
5455,11.718750
5456,11.718750
5457,11.718750
5458,11.718750
5459,11.718750
5460,11.718750
5461,11.718750
5462,11.718750
5463,11.718750
5464,11.718750
5465,7.812500
5466,7.812500
5467,7.812500
5468,7.812500
5469,7.812500
5470,3.906250
5471,7.812500
5472,7.812500
5473,3.906250
5474,3.906250
5475,3.906250
5476,3.906250
5477,3.906250
5478,3.906250
5479,3.906250
5480,3.906250
5481,3.906250
5482,3.906250
5483,3.906250
5484,0.000000
5485,0.000000
5486,0.000000
5487,0.000000
5488,0.000000
5489,0.000000
5490,0.000000
5491,0.000000
5492,0.000000
5493,0.000000
5494,-3.906250
5495,-3.906250
5496,-3.906250
5497,-3.906250
5498,-3.906250
5499,-3.906250
5500,-3.906250
5501,-3.906250
5502,-3.906250
5503,-7.812500
5504,-7.812500
5505,-7.812500
5506,-7.812500
5507,-7.812500
5508,-7.812500
5509,-7.812500
5510,-7.812500
5511,-7.812500
5512,-7.812500
5513,-11.718750
5514,-11.718750
5515,-11.718750
5516,-11.718750
5517,-11.718750
5518,-11.718750
5519,-11.718750
5520,-11.718750
5521,-11.718750
5522,-15.625000
5523,-15.625000
5524,-15.625000
5525,-15.625000
5526,-15.625000
5527,-15.625000
5528,-15.625000
5529,-15.625000
5530,-15.625000
5531,-19.531250
5532,-19.531250
5533,-19.531250
5534,-19.531250
5535,-19.531250
5536,-19.531250
5537,-19.531250
5538,-19.531250
5539,-19.531250
5540,-19.531250
5541,-23.437500
5542,-19.531250
5543,-23.437500
5544,-23.437500
5545,-23.437500
5546,-23.437500
5547,-23.437500
5548,-23.437500
5549,-23.437500
5550,-23.437500
5551,-27.343750
5552,-27.343750
5553,-27.343750
5554,-27.343750
5555,-27.343750
5556,-27.343750
5557,-27.343750
5558,-27.343750
5559,-31.250000
5560,-31.250000
5561,-31.250000
5562,-31.250000
5563,-31.250000
5564,-31.250000
5565,-31.250000
5566,-31.250000
5567,-31.250000
5568,-31.250000
5569,-35.156250
5570,-35.156250
5571,-35.156250
5572,-35.156250
5573,-35.156250
5574,-35.156250
5575,-35.156250
5576,-35.156250
5577,-35.156250
5578,-39.062500
5579,-39.062500
5580,-39.062500
5581,-39.062500
5582,-39.062500
5583,-39.062500
5584,-39.062500
5585,-39.062500
5586,-39.062500
5587,-42.968750
5588,-42.968750
5589,-42.968750
5590,-42.968750
5591,-42.968750
5592,-42.968750
5593,-42.968750
5594,-42.968750
5595,-42.968750
5596,-42.968750
5597,-42.968750
5598,-46.875000
5599,-46.875000
5600,-46.875000
5601,-46.875000
5602,-46.875000
5603,-46.875000
5604,-46.875000
5605,-46.875000
5606,-46.875000
5607,-46.875000
5608,-50.781250
5609,-50.781250
5610,-50.781250
5611,-50.781250
5612,-50.781250
5613,-50.781250
5614,-50.781250
5615,-50.781250
5616,-50.781250
5617,-50.781250
5618,-54.687500
5619,-54.687500
5620,-54.687500
5621,-54.687500
5622,-54.687500
5623,-54.687500
5624,-54.687500
5625,-54.687500
5626,-54.687500
5627,-54.687500
5628,-54.687500
5629,-58.593750
5630,-58.593750
5631,-58.593750
5632,-58.593750
5633,-58.593750
5634,-58.593750
5635,-58.593750
5636,-58.593750
5637,-58.593750
5638,-58.593750
5639,-58.593750
5640,-58.593750
5641,-58.593750
5642,-62.500000
5643,-62.500000
5644,-62.500000
5645,-62.500000
5646,-62.500000
5647,-62.500000
5648,-62.500000
5649,-62.500000
5650,-62.500000
5651,-62.500000
5652,-62.500000
5653,-66.406250
5654,-62.500000
5655,-66.406250
5656,-66.406250
5657,-66.406250
5658,-62.500000
5659,-66.406250
5660,-66.406250
5661,-66.406250
5662,-66.406250
5663,-66.406250
5664,-66.406250
5665,-66.406250
5666,-66.406250
5667,-66.406250
5668,-66.406250
5669,-66.406250
5670,-70.312500
5671,-70.312500
5672,-70.312500
5673,-70.312500
5674,-70.312500
5675,-70.312500
5676,-70.312500
5677,-70.312500
5678,-70.312500
5679,-70.312500
5680,-70.312500
5681,-70.312500
5682,-70.312500
5683,-70.312500
5684,-74.218750
5685,-74.218750
5686,-74.218750
5687,-74.218750
5688,-74.218750
5689,-74.218750
5690,-74.218750
5691,-74.218750
5692,-74.218750
5693,-74.218750
5694,-74.218750
5695,-74.218750
5696,-74.218750
5697,-74.218750
5698,-74.218750
5699,-74.218750
5700,-74.218750
5701,-74.218750
5702,-78.125000
5703,-78.125000
5704,-78.125000
5705,-78.125000
5706,-78.125000
5707,-78.125000
5708,-78.125000
5709,-78.125000
5710,-78.125000
5711,-78.125000
5712,-78.125000
5713,-78.125000
5714,-78.125000
5715,-78.125000
5716,-78.125000
5717,-78.125000
5718,-78.125000
5719,-78.125000
5720,-78.125000
5721,-78.125000
5722,-78.125000
5723,-78.125000
5724,-78.125000
5725,-82.031250
5726,-78.125000
5727,-78.125000
5728,-82.031250
5729,-82.031250
5730,-82.031250
5731,-82.031250
5732,-82.031250
5733,-82.031250
5734,-82.031250
5735,-82.031250
5736,-82.031250
5737,-82.031250
5738,-82.031250
5739,-82.031250
5740,-82.031250
5741,-82.031250
5742,-82.031250
5743,-82.031250
5744,-82.031250
5745,-82.031250
5746,-82.031250
5747,-82.031250
5748,-82.031250
5749,-82.031250
5750,-82.031250
5751,-82.031250
5752,-82.031250
5753,-82.031250
5754,-82.031250
5755,-82.031250
5756,-82.031250
5757,-82.031250
5758,-82.031250
5759,-82.031250
5760,-82.031250
5761,-82.031250
5762,-82.031250
5763,-82.031250
5764,-82.031250
5765,-82.031250
5766,-82.031250
5767,-82.031250
5768,-82.031250
5769,-82.031250
5770,-82.031250
5771,-82.031250
5772,-82.031250
5773,-82.031250
5774,-82.031250
5775,-82.031250
5776,-82.031250
5777,-82.031250
5778,-82.031250
5779,-82.031250
5780,-82.031250
5781,-82.031250
5782,-82.031250
5783,-82.031250
5784,-82.031250
5785,-82.031250
5786,-82.031250
5787,-82.031250
5788,-82.031250
5789,-82.031250
5790,-82.031250
5791,-82.031250
5792,-82.031250
5793,-82.031250
5794,-82.031250
5795,-82.031250
5796,-82.031250
5797,-82.031250
5798,-82.031250
5799,-82.031250
5800,-82.031250
5801,-82.031250
5802,-82.031250
5803,-82.031250
5804,-82.031250
5805,-82.031250
5806,-78.125000
5807,-82.031250
5808,-78.125000
5809,-78.125000
5810,-78.125000
5811,-78.125000
5812,-78.125000
5813,-78.125000
5814,-78.125000
5815,-78.125000
5816,-78.125000
5817,-78.125000
5818,-78.125000
5819,-78.125000
5820,-78.125000
5821,-78.125000
5822,-78.125000
5823,-78.125000
5824,-78.125000
5825,-78.125000
5826,-78.125000
5827,-78.125000
5828,-78.125000
5829,-78.125000
5830,-78.125000
5831,-78.125000
5832,-78.125000
5833,-78.125000
5834,-74.218750
5835,-78.125000
5836,-78.125000
5837,-74.218750
5838,-74.218750
5839,-74.218750
5840,-74.218750
5841,-74.218750
5842,-74.218750
5843,-74.218750
5844,-74.218750
5845,-74.218750
5846,-74.218750
5847,-74.218750
5848,-74.218750
5849,-74.218750
5850,-74.218750
5851,-74.218750
5852,-74.218750
5853,-74.218750
5854,-74.218750
5855,-70.312500
5856,-70.312500
5857,-74.218750
5858,-74.218750
5859,-70.312500
5860,-70.312500
5861,-70.312500
5862,-70.312500
5863,-70.312500
5864,-70.312500
5865,-70.312500
5866,-70.312500
5867,-70.312500
5868,-70.312500
5869,-70.312500
5870,-70.312500
5871,-66.406250
5872,-70.312500
5873,-66.406250
5874,-66.406250
5875,-66.406250
5876,-66.406250
5877,-66.406250
5878,-66.406250
5879,-66.406250
5880,-66.406250
5881,-66.406250
5882,-66.406250
5883,-62.500000
5884,-66.406250
5885,-62.500000
5886,-62.500000
5887,-62.500000
5888,-62.500000
5889,-62.500000
5890,-62.500000
5891,-62.500000
5892,-62.500000
5893,-62.500000
5894,-62.500000
5895,-62.500000
5896,-62.500000
5897,-62.500000
5898,-58.593750
5899,-58.593750
5900,-58.593750
5901,-58.593750
5902,-58.593750
5903,-58.593750
5904,-58.593750
5905,-58.593750
5906,-54.687500
5907,-58.593750
5908,-54.687500
5909,-54.687500
5910,-54.687500
5911,-54.687500
5912,-54.687500
5913,-54.687500
5914,-54.687500
5915,-54.687500
5916,-54.687500
5917,-54.687500
5918,-54.687500
5919,-50.781250
5920,-50.781250
5921,-50.781250
5922,-50.781250
5923,-50.781250
5924,-50.781250
5925,-50.781250
5926,-50.781250
5927,-50.781250
5928,-50.781250
5929,-50.781250
5930,-46.875000
5931,-46.875000
5932,-46.875000
5933,-46.875000
5934,-46.875000
5935,-46.875000
5936,-46.875000
5937,-46.875000
5938,-42.968750
5939,-42.968750
5940,-42.968750
5941,-42.968750
5942,-42.968750
5943,-42.968750
5944,-42.968750
5945,-42.968750
5946,-42.968750
5947,-39.062500
5948,-39.062500
5949,-39.062500
5950,-39.062500
5951,-39.062500
5952,-39.062500
5953,-39.062500
5954,-39.062500
5955,-39.062500
5956,-39.062500
5957,-39.062500
5958,-35.156250
5959,-35.156250
5960,-35.156250
5961,-35.156250
5962,-35.156250
5963,-35.156250
5964,-35.156250
5965,-35.156250
5966,-35.156250
5967,-35.156250
5968,-31.250000
5969,-31.250000
5970,-31.250000
5971,-31.250000
5972,-31.250000
5973,-31.250000
5974,-31.250000
5975,-31.250000
5976,-31.250000
5977,-27.343750
5978,-27.343750
5979,-27.343750
5980,-27.343750
5981,-27.343750
5982,-27.343750
5983,-27.343750
5984,-27.343750
5985,-27.343750
5986,-27.343750
5987,-23.437500
5988,-23.437500
5989,-23.437500
5990,-23.437500
5991,-23.437500
5992,-23.437500
5993,-23.437500
5994,-19.531250
5995,-19.531250
5996,-19.531250
5997,-19.531250
5998,-19.531250
5999,-19.531250
6000,-19.531250
6001,-19.531250
6002,-19.531250
6003,-15.625000
6004,-15.625000
6005,-15.625000
6006,-15.625000
6007,-15.625000
6008,-15.625000
6009,-15.625000
6010,-15.625000
6011,-15.625000
6012,-15.625000
6013,-11.718750
6014,-11.718750
6015,-11.718750
6016,-11.718750
6017,-11.718750
6018,-11.718750
6019,-11.718750
6020,-11.718750
6021,-11.718750
6022,-11.718750
6023,-7.812500
6024,-7.812500
6025,-7.812500
6026,-7.812500
6027,-7.812500
6028,-7.812500
6029,-7.812500
6030,-7.812500
6031,-7.812500
6032,-3.906250
6033,-3.906250
6034,-3.906250
6035,-3.906250
6036,-3.906250
6037,-3.906250
6038,-3.906250
6039,-3.906250
6040,0.000000
6041,0.000000
6042,0.000000
6043,0.000000
6044,0.000000
6045,0.000000
6046,0.000000
6047,0.000000
6048,0.000000
6049,3.906250
6050,3.906250
6051,3.906250
6052,3.906250
6053,3.906250
6054,3.906250
6055,3.906250
6056,3.906250
6057,3.906250
6058,3.906250
6059,7.812500
6060,7.812500
6061,7.812500
6062,7.812500
6063,7.812500
6064,7.812500
6065,7.812500
6066,7.812500
6067,7.812500
6068,11.718750
6069,11.718750
6070,11.718750
6071,11.718750
6072,11.718750
6073,11.718750
6074,11.718750
6075,11.718750
6076,11.718750
6077,11.718750
6078,11.718750
6079,11.718750
6080,15.625000
6081,15.625000
6082,15.625000
6083,15.625000
6084,15.625000
6085,15.625000
6086,15.625000
6087,15.625000
6088,15.625000
6089,15.625000
6090,15.625000
6091,15.625000
6092,19.531250
6093,19.531250
6094,19.531250
6095,19.531250
6096,19.531250
6097,19.531250
6098,19.531250
6099,19.531250
6100,19.531250
6101,19.531250
6102,23.437500
6103,23.437500
6104,23.437500
6105,23.437500
6106,23.437500
6107,23.437500
6108,23.437500
6109,23.437500
6110,23.437500
6111,23.437500
6112,23.437500
6113,23.437500
6114,27.343750
6115,27.343750
6116,27.343750
6117,27.343750
6118,27.343750
6119,27.343750
6120,27.343750
6121,27.343750
6122,27.343750
6123,27.343750
6124,27.343750
6125,27.343750
6126,31.250000
6127,31.250000
6128,31.250000
6129,31.250000
6130,31.250000
6131,31.250000
6132,31.250000
6133,31.250000
6134,31.250000
6135,31.250000
6136,31.250000
6137,31.250000
6138,35.156250
6139,35.156250
6140,35.156250
6141,35.156250
6142,35.156250
6143,35.156250
6144,35.156250
6145,35.156250
6146,35.156250
6147,35.156250
6148,35.156250
6149,35.156250
6150,35.156250
6151,35.156250
6152,35.156250
6153,35.156250
6154,39.062500
6155,39.062500
6156,39.062500
6157,39.062500
6158,39.062500
6159,39.062500
6160,39.062500
6161,39.062500
6162,39.062500
6163,39.062500
6164,39.062500
6165,39.062500
6166,39.062500
6167,39.062500
6168,42.968750
6169,39.062500
6170,42.968750
6171,42.968750
6172,42.968750
6173,42.968750
6174,42.968750
6175,42.968750
6176,42.968750
6177,42.968750
6178,42.968750
6179,42.968750
6180,42.968750
6181,42.968750
6182,42.968750
6183,42.968750
6184,46.875000
6185,42.968750
6186,46.875000
6187,46.875000
6188,46.875000
6189,42.968750
6190,46.875000
6191,46.875000
6192,46.875000
6193,46.875000
6194,46.875000
6195,46.875000
6196,46.875000
6197,46.875000
6198,46.875000
6199,46.875000
6200,46.875000
6201,46.875000
6202,46.875000
6203,46.875000
6204,46.875000
6205,46.875000
6206,46.875000
6207,46.875000
6208,46.875000
6209,46.875000
6210,46.875000
6211,46.875000
6212,46.875000
6213,46.875000
6214,46.875000
6215,46.875000
6216,50.781250
6217,50.781250
6218,50.781250
6219,50.781250
6220,50.781250
6221,50.781250
6222,50.781250
6223,50.781250
6224,50.781250
6225,50.781250
6226,50.781250
6227,50.781250
6228,50.781250
6229,50.781250
6230,50.781250
6231,50.781250
6232,50.781250
6233,50.781250
6234,50.781250
6235,50.781250
6236,50.781250
6237,50.781250
6238,50.781250
6239,50.781250
6240,50.781250
6241,50.781250
6242,50.781250
6243,50.781250
6244,50.781250
6245,50.781250
6246,50.781250
6247,50.781250
6248,50.781250
6249,50.781250
6250,50.781250
6251,50.781250
6252,50.781250
6253,50.781250
6254,50.781250
6255,50.781250
6256,50.781250
6257,50.781250
6258,50.781250
6259,50.781250
6260,50.781250
6261,50.781250
6262,50.781250
6263,46.875000
6264,50.781250
6265,50.781250
6266,50.781250
6267,50.781250
6268,50.781250
6269,50.781250
6270,50.781250
6271,50.781250
6272,50.781250
6273,50.781250
6274,50.781250
6275,50.781250
6276,50.781250
6277,50.781250
6278,50.781250
6279,50.781250
6280,50.781250
6281,50.781250
6282,50.781250
6283,50.781250
6284,50.781250
6285,50.781250
6286,50.781250
6287,50.781250
6288,50.781250
6289,50.781250
6290,50.781250
6291,50.781250
6292,50.781250
6293,50.781250
6294,50.781250
6295,50.781250
6296,46.875000
6297,50.781250
6298,50.781250
6299,46.875000
6300,50.781250
6301,50.781250
6302,50.781250
6303,50.781250
6304,50.781250
6305,46.875000
6306,46.875000
6307,46.875000
6308,46.875000
6309,46.875000
6310,46.875000
6311,46.875000
6312,46.875000
6313,46.875000
6314,46.875000
6315,46.875000
6316,46.875000
6317,46.875000
6318,46.875000
6319,46.875000
6320,46.875000
6321,46.875000
6322,46.875000
6323,46.875000
6324,46.875000
6325,46.875000
6326,46.875000
6327,46.875000
6328,46.875000
6329,46.875000
6330,46.875000
6331,42.968750
6332,42.968750
6333,42.968750
6334,46.875000
6335,42.968750
6336,42.968750
6337,42.968750
6338,42.968750
6339,42.968750
6340,42.968750
6341,42.968750
6342,42.968750
6343,42.968750
6344,42.968750
6345,42.968750
6346,42.968750
6347,42.968750
6348,42.968750
6349,42.968750
6350,39.062500
6351,42.968750
6352,39.062500
6353,39.062500
6354,39.062500
6355,39.062500
6356,39.062500
6357,39.062500
6358,39.062500
6359,39.062500
6360,39.062500
6361,39.062500
6362,39.062500
6363,39.062500
6364,39.062500
6365,35.156250
6366,39.062500
6367,39.062500
6368,39.062500
6369,35.156250
6370,35.156250
6371,35.156250
6372,35.156250
6373,35.156250
6374,35.156250
6375,35.156250
6376,35.156250
6377,35.156250
6378,35.156250
6379,35.156250
6380,35.156250
6381,31.250000
6382,31.250000
6383,31.250000
6384,35.156250
6385,31.250000
6386,31.250000
6387,31.250000
6388,31.250000
6389,31.250000
6390,31.250000
6391,31.250000
6392,31.250000
6393,31.250000
6394,27.343750
6395,31.250000
6396,31.250000
6397,31.250000
6398,27.343750
6399,27.343750
6400,27.343750
6401,27.343750
6402,27.343750
6403,27.343750
6404,27.343750
6405,27.343750
6406,27.343750
6407,27.343750
6408,27.343750
6409,23.437500
6410,23.437500
6411,23.437500
6412,23.437500
6413,23.437500
6414,23.437500
6415,23.437500
6416,23.437500
6417,23.437500
6418,23.437500
6419,23.437500
6420,23.437500
6421,19.531250
6422,19.531250
6423,19.531250
6424,19.531250
6425,19.531250
6426,19.531250
6427,19.531250
6428,19.531250
6429,19.531250
6430,19.531250
6431,15.625000
6432,19.531250
6433,19.531250
6434,19.531250
6435,15.625000
6436,15.625000
6437,15.625000
6438,15.625000
6439,15.625000
6440,15.625000
6441,15.625000
6442,15.625000
6443,15.625000
6444,11.718750
6445,11.718750
6446,11.718750
6447,11.718750
6448,11.718750
6449,11.718750
6450,11.718750
6451,11.718750
6452,11.718750
6453,11.718750
6454,11.718750
6455,7.812500
6456,7.812500
6457,7.812500
6458,7.812500
6459,7.812500
6460,7.812500
6461,7.812500
6462,7.812500
6463,7.812500
6464,7.812500
6465,3.906250
6466,3.906250
6467,3.906250
6468,3.906250
6469,3.906250
6470,3.906250
6471,3.906250
6472,3.906250
6473,3.906250
6474,0.000000
6475,0.000000
6476,0.000000
6477,0.000000
6478,0.000000
6479,0.000000
6480,0.000000
6481,0.000000
6482,0.000000
6483,-3.906250
6484,-3.906250
6485,-3.906250
6486,-3.906250
6487,-3.906250
6488,-3.906250
6489,-3.906250
6490,-3.906250
6491,-3.906250
6492,-3.906250
6493,-3.906250
6494,-7.812500
6495,-7.812500
6496,-7.812500
6497,-7.812500
6498,-7.812500
6499,-7.812500
6500,-7.812500
6501,-7.812500
6502,-11.718750
6503,-11.718750
6504,-11.718750
6505,-11.718750
6506,-11.718750
6507,-11.718750
6508,-11.718750
6509,-11.718750
6510,-11.718750
6511,-15.625000
6512,-15.625000
6513,-15.625000
6514,-15.625000
6515,-15.625000
6516,-15.625000
6517,-15.625000
6518,-15.625000
6519,-15.625000
6520,-15.625000
6521,-19.531250
6522,-19.531250
6523,-19.531250
6524,-19.531250
6525,-19.531250
6526,-19.531250
6527,-19.531250
6528,-19.531250
6529,-19.531250
6530,-23.437500
6531,-23.437500
6532,-23.437500
6533,-23.437500
6534,-23.437500
6535,-23.437500
6536,-23.437500
6537,-23.437500
6538,-23.437500
6539,-23.437500
6540,-27.343750
6541,-27.343750
6542,-27.343750
6543,-27.343750
6544,-27.343750
6545,-27.343750
6546,-27.343750
6547,-27.343750
6548,-27.343750
6549,-27.343750
6550,-31.250000
6551,-31.250000
6552,-31.250000
6553,-31.250000
6554,-31.250000
6555,-31.250000
6556,-31.250000
6557,-31.250000
6558,-31.250000
6559,-31.250000
6560,-35.156250
6561,-35.156250
6562,-31.250000
6563,-35.156250
6564,-35.156250
6565,-35.156250
6566,-35.156250
6567,-35.156250
6568,-35.156250
6569,-39.062500
6570,-39.062500
6571,-39.062500
6572,-39.062500
6573,-39.062500
6574,-39.062500
6575,-39.062500
6576,-39.062500
6577,-39.062500
6578,-39.062500
6579,-39.062500
6580,-42.968750
6581,-42.968750
6582,-39.062500
6583,-42.968750
6584,-42.968750
6585,-42.968750
6586,-42.968750
6587,-42.968750
6588,-42.968750
6589,-42.968750
6590,-42.968750
6591,-46.875000
6592,-46.875000
6593,-46.875000
6594,-42.968750
6595,-46.875000
6596,-46.875000
6597,-46.875000
6598,-46.875000
6599,-46.875000
6600,-50.781250
6601,-50.781250
6602,-50.781250
6603,-50.781250
6604,-50.781250
6605,-50.781250
6606,-50.781250
6607,-50.781250
6608,-54.687500
6609,-54.687500
6610,-50.781250
6611,-54.687500
6612,-54.687500
6613,-54.687500
6614,-54.687500
6615,-54.687500
6616,-54.687500
6617,-54.687500
6618,-54.687500
6619,-58.593750
6620,-54.687500
6621,-58.593750
6622,-58.593750
6623,-58.593750
6624,-58.593750
6625,-58.593750
6626,-58.593750
6627,-58.593750
6628,-58.593750
6629,-58.593750
6630,-58.593750
6631,-58.593750
6632,-58.593750
6633,-62.500000
6634,-62.500000
6635,-62.500000
6636,-62.500000
6637,-62.500000
6638,-62.500000
6639,-62.500000
6640,-62.500000
6641,-62.500000
6642,-62.500000
6643,-62.500000
6644,-62.500000
6645,-66.406250
6646,-66.406250
6647,-66.406250
6648,-66.406250
6649,-70.312500
6650,-66.406250
6651,-66.406250
6652,-66.406250
6653,-66.406250
6654,-66.406250
6655,-66.406250
6656,-66.406250
6657,-66.406250
6658,-66.406250
6659,-66.406250
6660,-70.312500
6661,-70.312500
6662,-70.312500
6663,-70.312500
6664,-70.312500
6665,-70.312500
6666,-70.312500
6667,-70.312500
6668,-70.312500
6669,-70.312500
6670,-70.312500
6671,-74.218750
6672,-70.312500
6673,-70.312500
6674,-70.312500
6675,-74.218750
6676,-74.218750
6677,-74.218750
6678,-74.218750
6679,-74.218750
6680,-74.218750
6681,-74.218750
6682,-74.218750
6683,-74.218750
6684,-74.218750
6685,-74.218750
6686,-74.218750
6687,-74.218750
6688,-74.218750
6689,-74.218750
6690,-74.218750
6691,-74.218750
6692,-74.218750
6693,-74.218750
6694,-74.218750
6695,-74.218750
6696,-78.125000
6697,-78.125000
6698,-78.125000
6699,-78.125000
6700,-78.125000
6701,-78.125000
6702,-78.125000
6703,-78.125000
6704,-78.125000
6705,-78.125000
6706,-78.125000
6707,-78.125000
6708,-78.125000
6709,-78.125000
6710,-78.125000
6711,-78.125000
6712,-78.125000
6713,-78.125000
6714,-78.125000
6715,-78.125000
6716,-78.125000
6717,-78.125000
6718,-78.125000
6719,-78.125000
6720,-82.031250
6721,-78.125000
6722,-82.031250
6723,-82.031250
6724,-78.125000
6725,-82.031250
6726,-82.031250
6727,-78.125000
6728,-82.031250
6729,-82.031250
6730,-82.031250
6731,-82.031250
6732,-82.031250
6733,-82.031250
6734,-82.031250
6735,-82.031250
6736,-82.031250
6737,-82.031250
6738,-82.031250
6739,-82.031250
6740,-82.031250
6741,-82.031250
6742,-82.031250
6743,-82.031250
6744,-82.031250
6745,-82.031250
6746,-82.031250
6747,-82.031250
6748,-82.031250
6749,-82.031250
6750,-82.031250
6751,-82.031250
6752,-82.031250
6753,-85.937500
6754,-82.031250
6755,-82.031250
6756,-82.031250
6757,-82.031250
6758,-82.031250
6759,-82.031250
6760,-82.031250
6761,-82.031250
6762,-82.031250
6763,-82.031250
6764,-82.031250
6765,-82.031250
6766,-82.031250
6767,-82.031250
6768,-82.031250
6769,-82.031250
6770,-82.031250
6771,-82.031250
6772,-82.031250
6773,-82.031250
6774,-82.031250
6775,-82.031250
6776,-82.031250
6777,-82.031250
6778,-82.031250
6779,-82.031250
6780,-82.031250
6781,-82.031250
6782,-82.031250
6783,-82.031250
6784,-82.031250
6785,-82.031250
6786,-82.031250
6787,-82.031250
6788,-82.031250
6789,-82.031250
6790,-82.031250
6791,-82.031250
6792,-82.031250
6793,-82.031250
6794,-82.031250
6795,-82.031250
6796,-78.125000
6797,-82.031250
6798,-82.031250
6799,-82.031250
6800,-82.031250
6801,-78.125000
6802,-78.125000
6803,-78.125000
6804,-78.125000
6805,-78.125000
6806,-78.125000
6807,-78.125000
6808,-78.125000
6809,-78.125000
6810,-78.125000
6811,-78.125000
6812,-78.125000
6813,-78.125000
6814,-78.125000
6815,-78.125000
6816,-78.125000
6817,-78.125000
6818,-78.125000
6819,-78.125000
6820,-78.125000
6821,-78.125000
6822,-78.125000
6823,-78.125000
6824,-74.218750
6825,-74.218750
6826,-78.125000
6827,-74.218750
6828,-74.218750
6829,-74.218750
6830,-74.218750
6831,-74.218750
6832,-74.218750
6833,-74.218750
6834,-74.218750
6835,-74.218750
6836,-74.218750
6837,-74.218750
6838,-74.218750
6839,-74.218750
6840,-74.218750
6841,-74.218750
6842,-74.218750
6843,-70.312500
6844,-70.312500
6845,-70.312500
6846,-70.312500
6847,-70.312500
6848,-70.312500
6849,-70.312500
6850,-70.312500
6851,-70.312500
6852,-70.312500
6853,-70.312500
6854,-70.312500
6855,-70.312500
6856,-70.312500
6857,-70.312500
6858,-70.312500
6859,-66.406250
6860,-70.312500
6861,-70.312500
6862,-70.312500
6863,-66.406250
6864,-66.406250
6865,-66.406250
6866,-66.406250
6867,-66.406250
6868,-66.406250
6869,-66.406250
6870,-66.406250
6871,-66.406250
6872,-66.406250
6873,-66.406250
6874,-62.500000
6875,-62.500000
6876,-62.500000
6877,-62.500000
6878,-62.500000
6879,-62.500000
6880,-62.500000
6881,-62.500000
6882,-62.500000
6883,-62.500000
6884,-62.500000
6885,-62.500000
6886,-58.593750
6887,-58.593750
6888,-58.593750
6889,-58.593750
6890,-58.593750
6891,-58.593750
6892,-58.593750
6893,-58.593750
6894,-58.593750
6895,-58.593750
6896,-54.687500
6897,-54.687500
6898,-54.687500
6899,-54.687500
6900,-54.687500
6901,-54.687500
6902,-54.687500
6903,-54.687500
6904,-54.687500
6905,-54.687500
6906,-54.687500
6907,-54.687500
6908,-54.687500
6909,-50.781250
6910,-50.781250
6911,-50.781250
6912,-50.781250
6913,-50.781250
6914,-50.781250
6915,-50.781250
6916,-50.781250
6917,-50.781250
6918,-50.781250
6919,-46.875000
6920,-46.875000
6921,-46.875000
6922,-46.875000
6923,-46.875000
6924,-46.875000
6925,-46.875000
6926,-46.875000
6927,-46.875000
6928,-46.875000
6929,-42.968750
6930,-42.968750
6931,-42.968750
6932,-42.968750
6933,-42.968750
6934,-42.968750
6935,-42.968750
6936,-42.968750
6937,-42.968750
6938,-39.062500
6939,-39.062500
6940,-39.062500
6941,-39.062500
6942,-39.062500
6943,-39.062500
6944,-39.062500
6945,-39.062500
6946,-39.062500
6947,-35.156250
6948,-35.156250
6949,-35.156250
6950,-35.156250
6951,-35.156250
6952,-35.156250
6953,-35.156250
6954,-35.156250
6955,-35.156250
6956,-31.250000
6957,-31.250000
6958,-31.250000
6959,-31.250000
6960,-31.250000
6961,-31.250000
6962,-31.250000
6963,-31.250000
6964,-31.250000
6965,-31.250000
6966,-31.250000
6967,-31.250000
6968,-27.343750
6969,-27.343750
6970,-27.343750
6971,-27.343750
6972,-23.437500
6973,-27.343750
6974,-23.437500
6975,-27.343750
6976,-23.437500
6977,-23.437500
6978,-23.437500
6979,-23.437500
6980,-23.437500
6981,-23.437500
6982,-23.437500
6983,-23.437500
6984,-19.531250
6985,-19.531250
6986,-19.531250
6987,-19.531250
6988,-19.531250
6989,-19.531250
6990,-19.531250
6991,-19.531250
6992,-19.531250
6993,-15.625000
6994,-15.625000
6995,-15.625000
6996,-15.625000
6997,-15.625000
6998,-15.625000
6999,-15.625000
7000,-15.625000
7001,-11.718750
7002,-11.718750
7003,-11.718750
7004,-11.718750
7005,-11.718750
7006,-11.718750
7007,-11.718750
7008,-11.718750
7009,-11.718750
7010,-11.718750
7011,-11.718750
7012,-7.812500
7013,-7.812500
7014,-7.812500
7015,-7.812500
7016,-7.812500
7017,-7.812500
7018,-7.812500
7019,-7.812500
7020,-7.812500
7021,-7.812500
7022,-3.906250
7023,-3.906250
7024,-3.906250
7025,-3.906250
7026,-3.906250
7027,-3.906250
7028,-3.906250
7029,0.000000
7030,0.000000
7031,0.000000
7032,0.000000
7033,0.000000
7034,0.000000
7035,0.000000
7036,0.000000
7037,0.000000
7038,0.000000
7039,0.000000
7040,3.906250
7041,3.906250
7042,3.906250
7043,3.906250
7044,3.906250
7045,3.906250
7046,3.906250
7047,3.906250
7048,3.906250
7049,7.812500
7050,7.812500
7051,7.812500
7052,7.812500
7053,7.812500
7054,7.812500
7055,7.812500
7056,7.812500
7057,7.812500
7058,11.718750
7059,7.812500
7060,11.718750
7061,11.718750
7062,11.718750
7063,11.718750
7064,11.718750
7065,11.718750
7066,11.718750
7067,11.718750
7068,11.718750
7069,15.625000
7070,15.625000
7071,15.625000
7072,15.625000
7073,15.625000
7074,15.625000
7075,15.625000
7076,15.625000
7077,15.625000
7078,19.531250
7079,19.531250
7080,19.531250
7081,19.531250
7082,19.531250
7083,19.531250
7084,19.531250
7085,19.531250
7086,19.531250
7087,19.531250
7088,19.531250
7089,19.531250
7090,23.437500
7091,23.437500
7092,23.437500
7093,23.437500
7094,23.437500
7095,23.437500
7096,23.437500
7097,23.437500
7098,23.437500
7099,23.437500
7100,27.343750
7101,27.343750
7102,27.343750
7103,27.343750
7104,27.343750
7105,27.343750
7106,27.343750
7107,27.343750
7108,27.343750
7109,27.343750
7110,27.343750
7111,27.343750
7112,27.343750
7113,31.250000
7114,31.250000
7115,31.250000
7116,31.250000
7117,31.250000
7118,31.250000
7119,31.250000
7120,31.250000
7121,31.250000
7122,31.250000
7123,31.250000
7124,31.250000
7125,31.250000
7126,31.250000
7127,31.250000
7128,31.250000
7129,35.156250
7130,35.156250
7131,35.156250
7132,35.156250
7133,35.156250
7134,35.156250
7135,39.062500
7136,35.156250
7137,35.156250
7138,35.156250
7139,35.156250
7140,35.156250
7141,35.156250
7142,39.062500
7143,35.156250
7144,39.062500
7145,35.156250
7146,39.062500
7147,39.062500
7148,39.062500
7149,39.062500
7150,39.062500
7151,39.062500
7152,39.062500
7153,39.062500
7154,39.062500
7155,39.062500
7156,39.062500
7157,39.062500
7158,42.968750
7159,42.968750
7160,42.968750
7161,42.968750
7162,42.968750
7163,42.968750
7164,42.968750
7165,42.968750
7166,42.968750
7167,42.968750
7168,42.968750
7169,42.968750
7170,42.968750
7171,42.968750
7172,42.968750
7173,42.968750
7174,42.968750
7175,42.968750
7176,42.968750
7177,42.968750
7178,46.875000
7179,42.968750
7180,42.968750
7181,46.875000
7182,46.875000
7183,46.875000
7184,46.875000
7185,46.875000
7186,46.875000
7187,46.875000
7188,46.875000
7189,46.875000
7190,46.875000
7191,46.875000
7192,46.875000
7193,46.875000
7194,46.875000
7195,46.875000
7196,46.875000
7197,46.875000
7198,46.875000
7199,46.875000
7200,46.875000
7201,46.875000
7202,46.875000
7203,46.875000
7204,46.875000
7205,46.875000
7206,50.781250
7207,46.875000
7208,46.875000
7209,46.875000
7210,46.875000
7211,50.781250
7212,50.781250
7213,50.781250
7214,50.781250
7215,50.781250
7216,50.781250
7217,50.781250
7218,50.781250
7219,50.781250
7220,50.781250
7221,50.781250
7222,50.781250
7223,50.781250
7224,50.781250
7225,50.781250
7226,50.781250
7227,50.781250
7228,50.781250
7229,50.781250
7230,50.781250
7231,50.781250
7232,50.781250
7233,50.781250
7234,50.781250
7235,50.781250
7236,50.781250
7237,50.781250
7238,50.781250
7239,50.781250
7240,50.781250
7241,50.781250
7242,50.781250
7243,50.781250
7244,50.781250
7245,50.781250
7246,50.781250
7247,50.781250
7248,50.781250
7249,50.781250
7250,50.781250
7251,50.781250
7252,50.781250
7253,50.781250
7254,50.781250
7255,50.781250
7256,50.781250
7257,50.781250
7258,50.781250
7259,50.781250
7260,50.781250
7261,50.781250
7262,50.781250
7263,50.781250
7264,50.781250
7265,50.781250
7266,50.781250
7267,50.781250
7268,50.781250
7269,50.781250
7270,50.781250
7271,50.781250
7272,50.781250
7273,50.781250
7274,50.781250
7275,50.781250
7276,50.781250
7277,50.781250
7278,50.781250
7279,50.781250
7280,50.781250
7281,50.781250
7282,50.781250
7283,50.781250
7284,50.781250
7285,50.781250
7286,50.781250
7287,50.781250
7288,50.781250
7289,50.781250
7290,50.781250
7291,46.875000
7292,46.875000
7293,46.875000
7294,46.875000
7295,46.875000
7296,46.875000
7297,46.875000
7298,46.875000
7299,46.875000
7300,46.875000
7301,46.875000
7302,46.875000
7303,46.875000
7304,46.875000
7305,46.875000
7306,46.875000
7307,46.875000
7308,46.875000
7309,46.875000
7310,46.875000
7311,46.875000
7312,46.875000
7313,46.875000
7314,46.875000
7315,46.875000
7316,46.875000
7317,46.875000
7318,46.875000
7319,46.875000
7320,46.875000
7321,42.968750
7322,42.968750
7323,42.968750
7324,42.968750
7325,42.968750
7326,42.968750
7327,42.968750
7328,42.968750
7329,42.968750
7330,42.968750
7331,42.968750
7332,42.968750
7333,42.968750
7334,42.968750
7335,42.968750
7336,42.968750
7337,42.968750
7338,42.968750
7339,42.968750
7340,42.968750
7341,42.968750
7342,42.968750
7343,42.968750
7344,42.968750
7345,42.968750
7346,42.968750
7347,39.062500
7348,39.062500
7349,39.062500
7350,39.062500
7351,39.062500
7352,39.062500
7353,39.062500
7354,39.062500
7355,39.062500
7356,39.062500
7357,39.062500
7358,39.062500
7359,39.062500
7360,39.062500
7361,35.156250
7362,35.156250
7363,35.156250
7364,35.156250
7365,35.156250
7366,35.156250
7367,35.156250
7368,35.156250
7369,35.156250
7370,35.156250
7371,35.156250
7372,31.250000
7373,35.156250
7374,35.156250
7375,35.156250
7376,35.156250
7377,31.250000
7378,31.250000
7379,31.250000
7380,31.250000
7381,31.250000
7382,31.250000
7383,31.250000
7384,31.250000
7385,31.250000
7386,31.250000
7387,31.250000
7388,27.343750
7389,27.343750
7390,27.343750
7391,27.343750
7392,27.343750
7393,27.343750
7394,27.343750
7395,27.343750
7396,27.343750
7397,27.343750
7398,27.343750
7399,23.437500
7400,23.437500
7401,23.437500
7402,23.437500
7403,23.437500
7404,23.437500
7405,23.437500
7406,23.437500
7407,23.437500
7408,23.437500
7409,23.437500
7410,23.437500
7411,19.531250
7412,19.531250
7413,19.531250
7414,19.531250
7415,19.531250
7416,19.531250
7417,19.531250
7418,19.531250
7419,19.531250
7420,19.531250
7421,19.531250
7422,19.531250
7423,15.625000
7424,15.625000
7425,15.625000
7426,15.625000
7427,15.625000
7428,15.625000
7429,15.625000
7430,15.625000
7431,15.625000
7432,15.625000
7433,15.625000
7434,15.625000
7435,11.718750
7436,11.718750
7437,11.718750
7438,11.718750
7439,11.718750
7440,11.718750
7441,11.718750
7442,11.718750
7443,11.718750
7444,7.812500
7445,7.812500
7446,7.812500
7447,7.812500
7448,7.812500
7449,7.812500
7450,7.812500
7451,7.812500
7452,7.812500
7453,7.812500
7454,7.812500
7455,3.906250
7456,3.906250
7457,3.906250
7458,3.906250
7459,3.906250
7460,3.906250
7461,3.906250
7462,3.906250
7463,3.906250
7464,3.906250
7465,0.000000
7466,0.000000
7467,0.000000
7468,0.000000
7469,0.000000
7470,0.000000
7471,0.000000
7472,0.000000
7473,0.000000
7474,0.000000
7475,-3.906250
7476,-3.906250
7477,-3.906250
7478,-3.906250
7479,-3.906250
7480,-3.906250
7481,-3.906250
7482,-3.906250
7483,-3.906250
7484,-3.906250
7485,-7.812500
7486,-7.812500
7487,-7.812500
7488,-7.812500
7489,-7.812500
7490,-7.812500
7491,-7.812500
7492,-11.718750
7493,-11.718750
7494,-11.718750
7495,-11.718750
7496,-11.718750
7497,-11.718750
7498,-11.718750
7499,-11.718750
7500,-11.718750
7501,-11.718750
7502,-11.718750
7503,-15.625000
7504,-15.625000
7505,-15.625000
7506,-15.625000
7507,-15.625000
7508,-15.625000
7509,-15.625000
7510,-15.625000
7511,-15.625000
7512,-15.625000
7513,-19.531250
7514,-19.531250
7515,-19.531250
7516,-19.531250
7517,-19.531250
7518,-19.531250
7519,-19.531250
7520,-23.437500
7521,-23.437500
7522,-23.437500
7523,-23.437500
7524,-23.437500
7525,-23.437500
7526,-23.437500
7527,-23.437500
7528,-23.437500
7529,-23.437500
7530,-27.343750
7531,-27.343750
7532,-27.343750
7533,-27.343750
7534,-27.343750
7535,-27.343750
7536,-27.343750
7537,-27.343750
7538,-27.343750
7539,-31.250000
7540,-31.250000
7541,-31.250000
7542,-31.250000
7543,-31.250000
7544,-31.250000
7545,-31.250000
7546,-31.250000
7547,-31.250000
7548,-31.250000
7549,-35.156250
7550,-35.156250
7551,-35.156250
7552,-35.156250
7553,-35.156250
7554,-35.156250
7555,-35.156250
7556,-35.156250
7557,-39.062500
7558,-39.062500
7559,-39.062500
7560,-39.062500
7561,-39.062500
7562,-39.062500
7563,-39.062500
7564,-39.062500
7565,-39.062500
7566,-39.062500
7567,-42.968750
7568,-39.062500
7569,-42.968750
7570,-42.968750
7571,-42.968750
7572,-42.968750
7573,-42.968750
7574,-42.968750
7575,-42.968750
7576,-42.968750
7577,-46.875000
7578,-42.968750
7579,-46.875000
7580,-46.875000
7581,-46.875000
7582,-46.875000
7583,-46.875000
7584,-46.875000
7585,-46.875000
7586,-46.875000
7587,-46.875000
7588,-50.781250
7589,-50.781250
7590,-50.781250
7591,-50.781250
7592,-50.781250
7593,-50.781250
7594,-50.781250
7595,-50.781250
7596,-50.781250
7597,-50.781250
7598,-50.781250
7599,-50.781250
7600,-54.687500
7601,-54.687500
7602,-54.687500
7603,-54.687500
7604,-54.687500
7605,-54.687500
7606,-54.687500
7607,-54.687500
7608,-54.687500
7609,-54.687500
7610,-54.687500
7611,-58.593750
7612,-58.593750
7613,-58.593750
7614,-58.593750
7615,-58.593750
7616,-58.593750
7617,-58.593750
7618,-58.593750
7619,-58.593750
7620,-58.593750
7621,-62.500000
7622,-58.593750
7623,-62.500000
7624,-62.500000
7625,-62.500000
7626,-62.500000
7627,-62.500000
7628,-62.500000
7629,-62.500000
7630,-62.500000
7631,-62.500000
7632,-62.500000
7633,-62.500000
7634,-62.500000
7635,-62.500000
7636,-66.406250
7637,-66.406250
7638,-66.406250
7639,-66.406250
7640,-66.406250
7641,-66.406250
7642,-66.406250
7643,-66.406250
7644,-66.406250
7645,-70.312500
7646,-66.406250
7647,-66.406250
7648,-70.312500
7649,-70.312500
7650,-70.312500
7651,-70.312500
7652,-70.312500
7653,-70.312500
7654,-70.312500
7655,-70.312500
7656,-70.312500
7657,-70.312500
7658,-70.312500
7659,-70.312500
7660,-70.312500
7661,-70.312500
7662,-70.312500
7663,-74.218750
7664,-74.218750
7665,-74.218750
7666,-74.218750
7667,-74.218750
7668,-74.218750
7669,-74.218750
7670,-74.218750
7671,-74.218750
7672,-74.218750
7673,-74.218750
7674,-74.218750
7675,-74.218750
7676,-74.218750
7677,-74.218750
7678,-78.125000
7679,-74.218750
7680,-74.218750
7681,-78.125000
7682,-78.125000
7683,-78.125000
7684,-78.125000
7685,-78.125000
7686,-78.125000
7687,-78.125000
7688,-78.125000
7689,-78.125000
7690,-78.125000
7691,-78.125000
7692,-78.125000
7693,-78.125000
7694,-78.125000
7695,-78.125000
7696,-78.125000
7697,-78.125000
7698,-78.125000
7699,-78.125000
7700,-82.031250
7701,-82.031250
7702,-78.125000
7703,-78.125000
7704,-78.125000
7705,-78.125000
7706,-78.125000
7707,-82.031250
7708,-82.031250
7709,-78.125000
7710,-82.031250
7711,-82.031250
7712,-82.031250
7713,-82.031250
7714,-82.031250
7715,-82.031250
7716,-82.031250
7717,-82.031250
7718,-82.031250
7719,-82.031250
7720,-82.031250
7721,-82.031250
7722,-82.031250
7723,-82.031250
7724,-82.031250
7725,-82.031250
7726,-82.031250
7727,-82.031250
7728,-82.031250
7729,-82.031250
7730,-82.031250
7731,-82.031250
7732,-82.031250
7733,-82.031250
7734,-82.031250
7735,-82.031250
7736,-82.031250
7737,-82.031250
7738,-82.031250
7739,-82.031250
7740,-82.031250
7741,-82.031250
7742,-82.031250
7743,-82.031250
7744,-82.031250
7745,-82.031250
7746,-82.031250
7747,-82.031250
7748,-82.031250
7749,-82.031250
7750,-82.031250
7751,-82.031250
7752,-82.031250
7753,-82.031250
7754,-82.031250
7755,-82.031250
7756,-82.031250
7757,-82.031250
7758,-82.031250
7759,-82.031250
7760,-82.031250
7761,-82.031250
7762,-82.031250
7763,-82.031250
7764,-82.031250
7765,-82.031250
7766,-82.031250
7767,-82.031250
7768,-82.031250
7769,-82.031250
7770,-82.031250
7771,-82.031250
7772,-82.031250
7773,-82.031250
7774,-82.031250
7775,-82.031250
7776,-82.031250
7777,-82.031250
7778,-82.031250
7779,-82.031250
7780,-82.031250
7781,-82.031250
7782,-82.031250
7783,-82.031250
7784,-82.031250
7785,-82.031250
7786,-82.031250
7787,-82.031250
7788,-82.031250
7789,-78.125000
7790,-78.125000
7791,-78.125000
7792,-78.125000
7793,-82.031250
7794,-78.125000
7795,-78.125000
7796,-78.125000
7797,-78.125000
7798,-78.125000
7799,-78.125000
7800,-78.125000
7801,-78.125000
7802,-78.125000
7803,-78.125000
7804,-78.125000
7805,-78.125000
7806,-78.125000
7807,-78.125000
7808,-78.125000
7809,-78.125000
7810,-78.125000
7811,-78.125000
7812,-78.125000
7813,-78.125000
7814,-78.125000
7815,-78.125000
7816,-78.125000
7817,-74.218750
7818,-74.218750
7819,-74.218750
7820,-74.218750
7821,-74.218750
7822,-74.218750
7823,-74.218750
7824,-74.218750
7825,-74.218750
7826,-74.218750
7827,-74.218750
7828,-74.218750
7829,-74.218750
7830,-74.218750
7831,-74.218750
7832,-74.218750
7833,-74.218750
7834,-70.312500
7835,-74.218750
7836,-70.312500
7837,-70.312500
7838,-70.312500
7839,-70.312500
7840,-70.312500
7841,-70.312500
7842,-70.312500
7843,-70.312500
7844,-70.312500
7845,-70.312500
7846,-70.312500
7847,-70.312500
7848,-70.312500
7849,-66.406250
7850,-66.406250
7851,-66.406250
7852,-66.406250
7853,-66.406250
7854,-66.406250
7855,-66.406250
7856,-66.406250
7857,-66.406250
7858,-66.406250
7859,-66.406250
7860,-66.406250
7861,-66.406250
7862,-66.406250
7863,-66.406250
7864,-66.406250
7865,-62.500000
7866,-62.500000
7867,-62.500000
7868,-62.500000
7869,-62.500000
7870,-62.500000
7871,-62.500000
7872,-62.500000
7873,-62.500000
7874,-62.500000
7875,-62.500000
7876,-58.593750
7877,-58.593750
7878,-58.593750
7879,-58.593750
7880,-58.593750
7881,-58.593750
7882,-58.593750
7883,-58.593750
7884,-54.687500
7885,-58.593750
7886,-58.593750
7887,-54.687500
7888,-54.687500
7889,-54.687500
7890,-54.687500
7891,-54.687500
7892,-54.687500
7893,-54.687500
7894,-54.687500
7895,-54.687500
7896,-54.687500
7897,-50.781250
7898,-50.781250
7899,-50.781250
7900,-50.781250
7901,-50.781250
7902,-50.781250
7903,-50.781250
7904,-50.781250
7905,-50.781250
7906,-50.781250
7907,-46.875000
7908,-46.875000
7909,-46.875000
7910,-46.875000
7911,-46.875000
7912,-46.875000
7913,-46.875000
7914,-46.875000
7915,-46.875000
7916,-46.875000
7917,-46.875000
7918,-42.968750
7919,-46.875000
7920,-42.968750
7921,-42.968750
7922,-42.968750
7923,-42.968750
7924,-42.968750
7925,-42.968750
7926,-42.968750
7927,-42.968750
7928,-42.968750
7929,-42.968750
7930,-39.062500
7931,-39.062500
7932,-39.062500
7933,-39.062500
7934,-39.062500
7935,-39.062500
7936,-39.062500
7937,-39.062500
7938,-35.156250
7939,-35.156250
7940,-35.156250
7941,-35.156250
7942,-35.156250
7943,-35.156250
7944,-35.156250
7945,-35.156250
7946,-35.156250
7947,-35.156250
7948,-31.250000
7949,-31.250000
7950,-31.250000
7951,-31.250000
7952,-31.250000
7953,-31.250000
7954,-31.250000
7955,-31.250000
7956,-27.343750
7957,-31.250000
7958,-27.343750
7959,-27.343750
7960,-27.343750
7961,-27.343750
7962,-27.343750
7963,-27.343750
7964,-27.343750
7965,-23.437500
7966,-23.437500
7967,-23.437500
7968,-23.437500
7969,-23.437500
7970,-23.437500
7971,-23.437500
7972,-23.437500
7973,-23.437500
7974,-23.437500
7975,-19.531250
7976,-19.531250
7977,-19.531250
7978,-19.531250
7979,-19.531250
7980,-19.531250
7981,-15.625000
7982,-19.531250
7983,-15.625000
7984,-15.625000
7985,-15.625000
7986,-15.625000
7987,-15.625000
7988,-15.625000
7989,-15.625000
7990,-11.718750
7991,-11.718750
7992,-11.718750
7993,-11.718750
7994,-11.718750
7995,-11.718750
7996,-11.718750
7997,-11.718750
7998,-11.718750
7999,-11.718750
8000,-7.812500
8001,-7.812500
8002,-11.718750
8003,-7.812500
8004,-7.812500
8005,-7.812500
8006,-7.812500
8007,-7.812500
8008,-7.812500
8009,-7.812500
8010,-3.906250
8011,-3.906250
8012,-3.906250
8013,-3.906250
8014,-3.906250
8015,-3.906250
8016,-3.906250
8017,-3.906250
8018,-3.906250
8019,-3.906250
8020,0.000000
8021,0.000000
8022,0.000000
8023,0.000000
8024,0.000000
8025,0.000000
8026,0.000000
8027,0.000000
8028,0.000000
8029,0.000000
8030,3.906250
8031,3.906250
8032,3.906250
8033,3.906250
8034,3.906250
8035,3.906250
8036,7.812500
8037,7.812500
8038,7.812500
8039,7.812500
8040,7.812500
8041,7.812500
8042,7.812500
8043,7.812500
8044,7.812500
8045,7.812500
8046,7.812500
8047,7.812500
8048,7.812500
8049,11.718750
8050,11.718750
8051,11.718750
8052,11.718750
8053,11.718750
8054,11.718750
8055,11.718750
8056,11.718750
8057,15.625000
8058,15.625000
8059,15.625000
8060,15.625000
8061,15.625000
8062,15.625000
8063,15.625000
8064,15.625000
8065,15.625000
8066,15.625000
8067,15.625000
8068,15.625000
8069,19.531250
8070,19.531250
8071,19.531250
8072,19.531250
8073,19.531250
8074,19.531250
8075,19.531250
8076,19.531250
8077,19.531250
8078,23.437500
8079,23.437500
8080,23.437500
8081,23.437500
8082,23.437500
8083,23.437500
8084,23.437500
8085,23.437500
8086,23.437500
8087,23.437500
8088,23.437500
8089,23.437500
8090,23.437500
8091,27.343750
8092,27.343750
8093,27.343750
8094,27.343750
8095,27.343750
8096,27.343750
8097,27.343750
8098,27.343750
8099,27.343750
8100,27.343750
8101,31.250000
8102,31.250000
8103,31.250000
8104,31.250000
8105,31.250000
8106,31.250000
8107,31.250000
8108,31.250000
8109,31.250000
8110,31.250000
8111,31.250000
8112,31.250000
8113,31.250000
8114,31.250000
8115,35.156250
8116,35.156250
8117,35.156250
8118,35.156250
8119,35.156250
8120,35.156250
8121,35.156250
8122,35.156250
8123,35.156250
8124,35.156250
8125,35.156250
8126,35.156250
8127,35.156250
8128,39.062500
8129,35.156250
8130,39.062500
8131,39.062500
8132,39.062500
8133,39.062500
8134,39.062500
8135,39.062500
8136,39.062500
8137,39.062500
8138,39.062500
8139,39.062500
8140,39.062500
8141,39.062500
8142,42.968750
8143,42.968750
8144,39.062500
8145,39.062500
8146,42.968750
8147,42.968750
8148,42.968750
8149,42.968750
8150,42.968750
8151,42.968750
8152,42.968750
8153,42.968750
8154,42.968750
8155,42.968750
8156,42.968750
8157,42.968750
8158,42.968750
8159,42.968750
8160,42.968750
8161,42.968750
8162,42.968750
8163,42.968750
8164,46.875000
8165,46.875000
8166,46.875000
8167,46.875000
8168,46.875000
8169,46.875000
8170,46.875000
8171,46.875000
8172,42.968750
8173,46.875000
8174,46.875000
8175,46.875000
8176,46.875000
8177,46.875000
8178,46.875000
8179,46.875000
8180,46.875000
8181,46.875000
8182,46.875000
8183,46.875000
8184,46.875000
8185,46.875000
8186,46.875000
8187,46.875000
8188,46.875000
8189,46.875000
8190,46.875000
8191,46.875000
8192,46.875000
8193,46.875000
8194,46.875000
8195,50.781250
8196,50.781250
8197,46.875000
8198,46.875000
8199,46.875000
8200,50.781250
8201,50.781250
8202,50.781250
8203,50.781250
8204,50.781250
8205,46.875000
8206,50.781250
8207,50.781250
8208,50.781250
8209,50.781250
8210,50.781250
8211,50.781250
8212,50.781250
8213,50.781250
8214,50.781250
8215,50.781250
8216,50.781250
8217,50.781250
8218,50.781250
8219,50.781250
8220,50.781250
8221,50.781250
8222,50.781250
8223,50.781250
8224,50.781250
8225,50.781250
8226,50.781250
8227,50.781250
8228,50.781250
8229,50.781250
8230,50.781250
8231,50.781250
8232,50.781250
8233,50.781250
8234,50.781250
8235,50.781250
8236,50.781250
8237,50.781250
8238,50.781250
8239,50.781250
8240,50.781250
8241,50.781250
8242,50.781250
8243,50.781250
8244,50.781250
8245,50.781250
8246,50.781250
8247,50.781250
8248,50.781250
8249,50.781250
8250,50.781250
8251,50.781250
8252,50.781250
8253,50.781250
8254,50.781250
8255,50.781250
8256,50.781250
8257,50.781250
8258,50.781250
8259,50.781250
8260,50.781250
8261,50.781250
8262,50.781250
8263,50.781250
8264,50.781250
8265,50.781250
8266,50.781250
8267,50.781250
8268,50.781250
8269,50.781250
8270,50.781250
8271,50.781250
8272,50.781250
8273,50.781250
8274,50.781250
8275,50.781250
8276,50.781250
8277,50.781250
8278,50.781250
8279,46.875000
8280,46.875000
8281,46.875000
8282,50.781250
8283,50.781250
8284,46.875000
8285,46.875000
8286,46.875000
8287,46.875000
8288,46.875000
8289,46.875000
8290,46.875000
8291,46.875000
8292,46.875000
8293,46.875000
8294,46.875000
8295,46.875000
8296,46.875000
8297,46.875000
8298,46.875000
8299,46.875000
8300,46.875000
8301,46.875000
8302,46.875000
8303,42.968750
8304,46.875000
8305,46.875000
8306,46.875000
8307,46.875000
8308,42.968750
8309,46.875000
8310,42.968750
8311,42.968750
8312,42.968750
8313,42.968750
8314,42.968750
8315,42.968750
8316,42.968750
8317,42.968750
8318,42.968750
8319,42.968750
8320,42.968750
8321,42.968750
8322,42.968750
8323,42.968750
8324,42.968750
8325,42.968750
8326,42.968750
8327,42.968750
8328,42.968750
8329,42.968750
8330,42.968750
8331,39.062500
8332,39.062500
8333,39.062500
8334,39.062500
8335,39.062500
8336,39.062500
8337,39.062500
8338,39.062500
8339,39.062500
8340,39.062500
8341,39.062500
8342,39.062500
8343,39.062500
8344,39.062500
8345,39.062500
8346,39.062500
8347,39.062500
8348,35.156250
8349,35.156250
8350,35.156250
8351,35.156250
8352,35.156250
8353,35.156250
8354,35.156250
8355,35.156250
8356,35.156250
8357,35.156250
8358,35.156250
8359,35.156250
8360,35.156250
8361,35.156250
8362,35.156250
8363,31.250000
8364,31.250000
8365,31.250000
8366,31.250000
8367,31.250000
8368,31.250000
8369,31.250000
8370,31.250000
8371,31.250000
8372,31.250000
8373,31.250000
8374,31.250000
8375,31.250000
8376,27.343750
8377,27.343750
8378,31.250000
8379,27.343750
8380,27.343750
8381,27.343750
8382,27.343750
8383,27.343750
8384,27.343750
8385,27.343750
8386,27.343750
8387,27.343750
8388,27.343750
8389,23.437500
8390,23.437500
8391,23.437500
8392,23.437500
8393,23.437500
8394,23.437500
8395,23.437500
8396,23.437500
8397,23.437500
8398,23.437500
8399,23.437500
8400,23.437500
8401,19.531250
8402,19.531250
8403,19.531250
8404,19.531250
8405,19.531250
8406,19.531250
8407,19.531250
8408,19.531250
8409,19.531250
8410,19.531250
8411,19.531250
8412,19.531250
8413,15.625000
8414,15.625000
8415,15.625000
8416,15.625000
8417,15.625000
8418,15.625000
8419,15.625000
8420,15.625000
8421,15.625000
8422,15.625000
8423,11.718750
8424,11.718750
8425,11.718750
8426,11.718750
8427,11.718750
8428,11.718750
8429,11.718750
8430,11.718750
8431,11.718750
8432,7.812500
8433,7.812500
8434,7.812500
8435,7.812500
8436,7.812500
8437,7.812500
8438,7.812500
8439,7.812500
8440,7.812500
8441,7.812500
8442,3.906250
8443,3.906250
8444,3.906250
8445,3.906250
8446,3.906250
8447,3.906250
8448,3.906250
8449,3.906250
8450,3.906250
8451,3.906250
8452,3.906250
8453,3.906250
8454,0.000000
8455,0.000000
8456,0.000000
8457,0.000000
8458,0.000000
8459,0.000000
8460,0.000000
8461,0.000000
8462,-3.906250
8463,-3.906250
8464,-3.906250
8465,-3.906250
8466,-3.906250
8467,-3.906250
8468,-3.906250
8469,-3.906250
8470,-3.906250
8471,-3.906250
8472,-7.812500
8473,-3.906250
8474,-7.812500
8475,-7.812500
8476,-7.812500
8477,-7.812500
8478,-7.812500
8479,-7.812500
8480,-7.812500
8481,-7.812500
8482,-11.718750
8483,-11.718750
8484,-11.718750
8485,-11.718750
8486,-11.718750
8487,-11.718750
8488,-11.718750
8489,-11.718750
8490,-11.718750
8491,-11.718750
8492,-15.625000
8493,-11.718750
8494,-15.625000
8495,-15.625000
8496,-15.625000
8497,-15.625000
8498,-15.625000
8499,-15.625000
8500,-15.625000
8501,-19.531250
8502,-15.625000
8503,-19.531250
8504,-19.531250
8505,-19.531250
8506,-19.531250
8507,-19.531250
8508,-19.531250
8509,-19.531250
8510,-19.531250
8511,-19.531250
8512,-23.437500
8513,-23.437500
8514,-23.437500
8515,-23.437500
8516,-23.437500
8517,-23.437500
8518,-23.437500
8519,-23.437500
8520,-23.437500
8521,-27.343750
8522,-27.343750
8523,-27.343750
8524,-27.343750
8525,-27.343750
8526,-27.343750
8527,-27.343750
8528,-27.343750
8529,-31.250000
8530,-31.250000
8531,-31.250000
8532,-31.250000
8533,-31.250000
8534,-31.250000
8535,-31.250000
8536,-31.250000
8537,-35.156250
8538,-35.156250
8539,-35.156250
8540,-31.250000
8541,-35.156250
8542,-35.156250
8543,-35.156250
8544,-35.156250
8545,-35.156250
8546,-35.156250
8547,-39.062500
8548,-39.062500
8549,-39.062500
8550,-39.062500
8551,-39.062500
8552,-39.062500
8553,-39.062500
8554,-39.062500
8555,-39.062500
8556,-42.968750
8557,-42.968750
8558,-42.968750
8559,-42.968750
8560,-42.968750
8561,-42.968750
8562,-42.968750
8563,-42.968750
8564,-42.968750
8565,-42.968750
8566,-46.875000
8567,-46.875000
8568,-46.875000
8569,-46.875000
8570,-46.875000
8571,-46.875000
8572,-46.875000
8573,-46.875000
8574,-46.875000
8575,-46.875000
8576,-46.875000
8577,-50.781250
8578,-50.781250
8579,-50.781250
8580,-50.781250
8581,-50.781250
8582,-50.781250
8583,-50.781250
8584,-50.781250
8585,-54.687500
8586,-54.687500
8587,-50.781250
8588,-54.687500
8589,-54.687500
8590,-54.687500
8591,-54.687500
8592,-54.687500
8593,-54.687500
8594,-54.687500
8595,-54.687500
8596,-54.687500
8597,-58.593750
8598,-54.687500
8599,-58.593750
8600,-58.593750
8601,-58.593750
8602,-58.593750
8603,-58.593750
8604,-58.593750
8605,-58.593750
8606,-58.593750
8607,-62.500000
8608,-58.593750
8609,-58.593750
8610,-58.593750
8611,-62.500000
8612,-62.500000
8613,-62.500000
8614,-62.500000
8615,-62.500000
8616,-62.500000
8617,-62.500000
8618,-62.500000
8619,-62.500000
8620,-62.500000
8621,-62.500000
8622,-66.406250
8623,-66.406250
8624,-66.406250
8625,-66.406250
8626,-66.406250
8627,-66.406250
8628,-66.406250
8629,-66.406250
8630,-66.406250
8631,-66.406250
8632,-66.406250
8633,-66.406250
8634,-66.406250
8635,-70.312500
8636,-66.406250
8637,-66.406250
8638,-66.406250
8639,-66.406250
8640,-70.312500
8641,-70.312500
8642,-70.312500
8643,-70.312500
8644,-70.312500
8645,-70.312500
8646,-70.312500
8647,-70.312500
8648,-70.312500
8649,-70.312500
8650,-70.312500
8651,-74.218750
8652,-70.312500
8653,-74.218750
8654,-74.218750
8655,-74.218750
8656,-74.218750
8657,-74.218750
8658,-74.218750
8659,-74.218750
8660,-74.218750
8661,-74.218750
8662,-74.218750
8663,-74.218750
8664,-74.218750
8665,-74.218750
8666,-74.218750
8667,-74.218750
8668,-74.218750
8669,-78.125000
8670,-78.125000
8671,-78.125000
8672,-78.125000
8673,-78.125000
8674,-78.125000
8675,-78.125000
8676,-78.125000
8677,-78.125000
8678,-78.125000
8679,-78.125000
8680,-78.125000
8681,-78.125000
8682,-78.125000
8683,-78.125000
8684,-78.125000
8685,-78.125000
8686,-78.125000
8687,-82.031250
8688,-78.125000
8689,-78.125000
8690,-78.125000
8691,-82.031250
8692,-82.031250
8693,-82.031250
8694,-82.031250
8695,-82.031250
8696,-82.031250
8697,-82.031250
8698,-78.125000
8699,-82.031250
8700,-82.031250
8701,-82.031250
8702,-82.031250
8703,-82.031250
8704,-82.031250
8705,-82.031250
8706,-82.031250
8707,-82.031250
8708,-82.031250
8709,-82.031250
8710,-82.031250
8711,-82.031250
8712,-82.031250
8713,-82.031250
8714,-82.031250
8715,-82.031250
8716,-82.031250
8717,-82.031250
8718,-82.031250
8719,-82.031250
8720,-82.031250
8721,-82.031250
8722,-82.031250
8723,-82.031250
8724,-82.031250
8725,-82.031250
8726,-82.031250
8727,-82.031250
8728,-82.031250
8729,-82.031250
8730,-82.031250
8731,-82.031250
8732,-82.031250
8733,-82.031250
8734,-82.031250
8735,-82.031250
8736,-82.031250
8737,-85.937500
8738,-82.031250
8739,-82.031250
8740,-82.031250
8741,-82.031250
8742,-82.031250
8743,-82.031250
8744,-82.031250
8745,-82.031250
8746,-82.031250
8747,-82.031250
8748,-82.031250
8749,-82.031250
8750,-82.031250
8751,-82.031250
8752,-82.031250
8753,-82.031250
8754,-82.031250
8755,-82.031250
8756,-82.031250
8757,-82.031250
8758,-82.031250
8759,-82.031250
8760,-82.031250
8761,-82.031250
8762,-82.031250
8763,-82.031250
8764,-82.031250
8765,-82.031250
8766,-82.031250
8767,-82.031250
8768,-82.031250
8769,-82.031250
8770,-82.031250
8771,-82.031250
8772,-82.031250
8773,-82.031250
8774,-82.031250
8775,-82.031250
8776,-82.031250
8777,-82.031250
8778,-82.031250
8779,-82.031250
8780,-82.031250
8781,-78.125000
8782,-78.125000
8783,-78.125000
8784,-78.125000
8785,-82.031250
8786,-78.125000
8787,-78.125000
8788,-78.125000
8789,-78.125000
8790,-78.125000
8791,-78.125000
8792,-78.125000
8793,-78.125000
8794,-78.125000
8795,-78.125000
8796,-78.125000
8797,-78.125000
8798,-78.125000
8799,-78.125000
8800,-78.125000
8801,-78.125000
8802,-78.125000
8803,-78.125000
8804,-78.125000
8805,-78.125000
8806,-78.125000
8807,-74.218750
8808,-78.125000
8809,-74.218750
8810,-74.218750
8811,-74.218750
8812,-74.218750
8813,-74.218750
8814,-74.218750
8815,-74.218750
8816,-74.218750
8817,-74.218750
8818,-74.218750
8819,-74.218750
8820,-74.218750
8821,-74.218750
8822,-74.218750
8823,-74.218750
8824,-74.218750
8825,-70.312500
8826,-70.312500
8827,-70.312500
8828,-70.312500
8829,-70.312500
8830,-70.312500
8831,-70.312500
8832,-70.312500
8833,-70.312500
8834,-70.312500
8835,-70.312500
8836,-70.312500
8837,-70.312500
8838,-70.312500
8839,-70.312500
8840,-70.312500
8841,-70.312500
8842,-66.406250
8843,-66.406250
8844,-66.406250
8845,-66.406250
8846,-66.406250
8847,-66.406250
8848,-66.406250
8849,-66.406250
8850,-66.406250
8851,-66.406250
8852,-62.500000
8853,-66.406250
8854,-62.500000
8855,-62.500000
8856,-62.500000
8857,-62.500000
8858,-62.500000
8859,-62.500000
8860,-62.500000
8861,-62.500000
8862,-62.500000
8863,-62.500000
8864,-62.500000
8865,-62.500000
8866,-62.500000
8867,-62.500000
8868,-58.593750
8869,-58.593750
8870,-58.593750
8871,-58.593750
8872,-58.593750
8873,-58.593750
8874,-58.593750
8875,-58.593750
8876,-58.593750
8877,-54.687500
8878,-54.687500
8879,-54.687500
8880,-54.687500
8881,-54.687500
8882,-54.687500
8883,-54.687500
8884,-54.687500
8885,-54.687500
8886,-50.781250
8887,-50.781250
8888,-50.781250
8889,-50.781250
8890,-50.781250
8891,-50.781250
8892,-50.781250
8893,-50.781250
8894,-50.781250
8895,-50.781250
8896,-46.875000
8897,-46.875000
8898,-46.875000
8899,-46.875000
8900,-46.875000
8901,-46.875000
8902,-46.875000
8903,-46.875000
8904,-46.875000
8905,-42.968750
8906,-46.875000
8907,-46.875000
8908,-42.968750
8909,-42.968750
8910,-42.968750
8911,-42.968750
8912,-42.968750
8913,-42.968750
8914,-42.968750
8915,-42.968750
8916,-39.062500
8917,-39.062500
8918,-39.062500
8919,-39.062500
8920,-39.062500
8921,-39.062500
8922,-39.062500
8923,-39.062500
8924,-39.062500
8925,-39.062500
8926,-35.156250
8927,-35.156250
8928,-35.156250
8929,-35.156250
8930,-35.156250
8931,-35.156250
8932,-35.156250
8933,-35.156250
8934,-31.250000
8935,-31.250000
8936,-31.250000
8937,-31.250000
8938,-31.250000
8939,-31.250000
8940,-31.250000
8941,-31.250000
8942,-31.250000
8943,-27.343750
8944,-27.343750
8945,-31.250000
8946,-27.343750
8947,-27.343750
8948,-27.343750
8949,-27.343750
8950,-27.343750
8951,-27.343750
8952,-27.343750
8953,-23.437500
8954,-27.343750
8955,-27.343750
8956,-23.437500
8957,-23.437500
8958,-23.437500
8959,-23.437500
8960,-23.437500
8961,-23.437500
8962,-23.437500
8963,-19.531250
8964,-19.531250
8965,-19.531250
8966,-19.531250
8967,-19.531250
8968,-19.531250
8969,-19.531250
8970,-19.531250
8971,-19.531250
8972,-19.531250
8973,-19.531250
8974,-15.625000
8975,-15.625000
8976,-15.625000
8977,-15.625000
8978,-15.625000
8979,-15.625000
8980,-15.625000
8981,-15.625000
8982,-11.718750
8983,-11.718750
8984,-11.718750
8985,-11.718750
8986,-11.718750
8987,-11.718750
8988,-11.718750
8989,-11.718750
8990,-7.812500
8991,-7.812500
8992,-7.812500
8993,-7.812500
8994,-7.812500
8995,-7.812500
8996,-7.812500
8997,-7.812500
8998,-7.812500
8999,-3.906250
9000,-3.906250
9001,-3.906250
9002,-3.906250
9003,-3.906250
9004,-3.906250
9005,-3.906250
9006,-3.906250
9007,-3.906250
9008,0.000000
9009,0.000000
9010,0.000000
9011,0.000000
9012,0.000000
9013,0.000000
9014,0.000000
9015,0.000000
9016,3.906250
9017,0.000000
9018,3.906250
9019,3.906250
9020,3.906250
9021,3.906250
9022,3.906250
9023,3.906250
9024,3.906250
9025,3.906250
9026,3.906250
9027,7.812500
9028,7.812500
9029,7.812500
9030,7.812500
9031,7.812500
9032,7.812500
9033,7.812500
9034,7.812500
9035,7.812500
9036,7.812500
9037,11.718750
9038,11.718750
9039,11.718750
9040,11.718750
9041,11.718750
9042,11.718750
9043,11.718750
9044,11.718750
9045,11.718750
9046,11.718750
9047,11.718750
9048,15.625000
9049,15.625000
9050,15.625000
9051,15.625000
9052,15.625000
9053,15.625000
9054,15.625000
9055,15.625000
9056,15.625000
9057,19.531250
9058,19.531250
9059,19.531250
9060,19.531250
9061,19.531250
9062,19.531250
9063,19.531250
9064,19.531250
9065,19.531250
9066,19.531250
9067,19.531250
9068,19.531250
9069,19.531250
9070,23.437500
9071,23.437500
9072,23.437500
9073,23.437500
9074,23.437500
9075,23.437500
9076,23.437500
9077,23.437500
9078,23.437500
9079,23.437500
9080,23.437500
9081,23.437500
9082,27.343750
9083,27.343750
9084,27.343750
9085,27.343750
9086,27.343750
9087,27.343750
9088,27.343750
9089,27.343750
9090,27.343750
9091,27.343750
9092,31.250000
9093,27.343750
9094,31.250000
9095,31.250000
9096,31.250000
9097,31.250000
9098,31.250000
9099,31.250000
9100,31.250000
9101,31.250000
9102,31.250000
9103,31.250000
9104,35.156250
9105,31.250000
9106,31.250000
9107,35.156250
9108,35.156250
9109,35.156250
9110,35.156250
9111,35.156250
9112,35.156250
9113,35.156250
9114,35.156250
9115,35.156250
9116,35.156250
9117,35.156250
9118,35.156250
9119,35.156250
9120,39.062500
9121,39.062500
9122,35.156250
9123,39.062500
9124,39.062500
9125,39.062500
9126,39.062500
9127,39.062500
9128,39.062500
9129,39.062500
9130,39.062500
9131,39.062500
9132,39.062500
9133,39.062500
9134,39.062500
9135,42.968750
9136,42.968750
9137,42.968750
9138,42.968750
9139,42.968750
9140,42.968750
9141,42.968750
9142,42.968750
9143,42.968750
9144,42.968750
9145,42.968750
9146,42.968750
9147,42.968750
9148,42.968750
9149,42.968750
9150,42.968750
9151,42.968750
9152,42.968750
9153,46.875000
9154,46.875000
9155,42.968750
9156,46.875000
9157,42.968750
9158,46.875000
9159,46.875000
9160,46.875000
9161,46.875000
9162,46.875000
9163,46.875000
9164,46.875000
9165,46.875000
9166,46.875000
9167,46.875000
9168,46.875000
9169,46.875000
9170,46.875000
9171,46.875000
9172,46.875000
9173,46.875000
9174,46.875000
9175,46.875000
9176,50.781250
9177,46.875000
9178,46.875000
9179,46.875000
9180,46.875000
9181,46.875000
9182,50.781250
9183,50.781250
9184,50.781250
9185,50.781250
9186,50.781250
9187,50.781250
9188,50.781250
9189,50.781250
9190,50.781250
9191,50.781250
9192,50.781250
9193,50.781250
9194,50.781250
9195,50.781250
9196,50.781250
9197,50.781250
9198,50.781250
9199,50.781250
9200,50.781250
9201,50.781250
9202,50.781250
9203,50.781250
9204,50.781250
9205,50.781250
9206,50.781250
9207,50.781250
9208,50.781250
9209,50.781250
9210,50.781250
9211,50.781250
9212,50.781250
9213,50.781250
9214,50.781250
9215,50.781250
9216,50.781250
9217,50.781250
9218,50.781250
9219,50.781250
9220,50.781250
9221,50.781250
9222,50.781250
9223,50.781250
9224,50.781250
9225,50.781250
9226,50.781250
9227,50.781250
9228,50.781250
9229,50.781250
9230,50.781250
9231,50.781250
9232,50.781250
9233,50.781250
9234,50.781250
9235,50.781250
9236,50.781250
9237,50.781250
9238,50.781250
9239,50.781250
9240,50.781250
9241,50.781250
9242,50.781250
9243,50.781250
9244,50.781250
9245,50.781250
9246,50.781250
9247,50.781250
9248,50.781250
9249,50.781250
9250,50.781250
9251,50.781250
9252,50.781250
9253,50.781250
9254,50.781250
9255,50.781250
9256,50.781250
9257,50.781250
9258,50.781250
9259,50.781250
9260,50.781250
9261,50.781250
9262,50.781250
9263,50.781250
9264,50.781250
9265,46.875000
9266,50.781250
9267,50.781250
9268,50.781250
9269,46.875000
9270,50.781250
9271,50.781250
9272,50.781250
9273,46.875000
9274,46.875000
9275,46.875000
9276,46.875000
9277,46.875000
9278,46.875000
9279,46.875000
9280,46.875000
9281,46.875000
9282,46.875000
9283,46.875000
9284,46.875000
9285,46.875000
9286,46.875000
9287,46.875000
9288,46.875000
9289,46.875000
9290,46.875000
9291,46.875000
9292,46.875000
9293,46.875000
9294,46.875000
9295,46.875000
9296,46.875000
9297,46.875000
9298,46.875000
9299,42.968750
9300,46.875000
9301,46.875000
9302,42.968750
9303,42.968750
9304,46.875000
9305,42.968750
9306,42.968750
9307,42.968750
9308,42.968750
9309,46.875000
9310,42.968750
9311,42.968750
9312,42.968750
9313,42.968750
9314,42.968750
9315,42.968750
9316,42.968750
9317,42.968750
9318,42.968750
9319,39.062500
9320,42.968750
9321,42.968750
9322,42.968750
9323,39.062500
9324,39.062500
9325,39.062500
9326,39.062500
9327,39.062500
9328,39.062500
9329,39.062500
9330,39.062500
9331,39.062500
9332,39.062500
9333,39.062500
9334,39.062500
9335,39.062500
9336,39.062500
9337,35.156250
9338,35.156250
9339,35.156250
9340,39.062500
9341,35.156250
9342,35.156250
9343,35.156250
9344,35.156250
9345,35.156250
9346,35.156250
9347,35.156250
9348,35.156250
9349,35.156250
9350,35.156250
9351,35.156250
9352,31.250000
9353,31.250000
9354,31.250000
9355,31.250000
9356,31.250000
9357,31.250000
9358,31.250000
9359,31.250000
9360,31.250000
9361,31.250000
9362,31.250000
9363,31.250000
9364,27.343750
9365,27.343750
9366,27.343750
9367,27.343750
9368,27.343750
9369,27.343750
9370,27.343750
9371,27.343750
9372,27.343750
9373,27.343750
9374,27.343750
9375,27.343750
9376,27.343750
9377,23.437500
9378,23.437500
9379,23.437500
9380,23.437500
9381,23.437500
9382,23.437500
9383,23.437500
9384,23.437500
9385,23.437500
9386,23.437500
9387,23.437500
9388,23.437500
9389,19.531250
9390,23.437500
9391,19.531250
9392,19.531250
9393,19.531250
9394,19.531250
9395,19.531250
9396,19.531250
9397,19.531250
9398,19.531250
9399,19.531250
9400,15.625000
9401,15.625000
9402,15.625000
9403,15.625000
9404,15.625000
9405,15.625000
9406,15.625000
9407,15.625000
9408,15.625000
9409,15.625000
9410,15.625000
9411,15.625000
9412,11.718750
9413,11.718750
9414,11.718750
9415,11.718750
9416,11.718750
9417,11.718750
9418,11.718750
9419,11.718750
9420,11.718750
9421,11.718750
9422,11.718750
9423,7.812500
9424,7.812500
9425,7.812500
9426,7.812500
9427,7.812500
9428,7.812500
9429,7.812500
9430,7.812500
9431,7.812500
9432,7.812500
9433,7.812500
9434,3.906250
9435,3.906250
9436,3.906250
9437,3.906250
9438,3.906250
9439,3.906250
9440,3.906250
9441,3.906250
9442,3.906250
9443,3.906250
9444,0.000000
9445,0.000000
9446,0.000000
9447,0.000000
9448,0.000000
9449,0.000000
9450,0.000000
9451,0.000000
9452,-3.906250
9453,-3.906250
9454,-3.906250
9455,-3.906250
9456,-3.906250
9457,-3.906250
9458,-3.906250
9459,-3.906250
9460,-7.812500
9461,-7.812500
9462,-7.812500
9463,-7.812500
9464,-7.812500
9465,-7.812500
9466,-7.812500
9467,-7.812500
9468,-7.812500
9469,-7.812500
9470,-7.812500
9471,-11.718750
9472,-11.718750
9473,-11.718750
9474,-11.718750
9475,-11.718750
9476,-11.718750
9477,-11.718750
9478,-11.718750
9479,-11.718750
9480,-15.625000
9481,-15.625000
9482,-15.625000
9483,-15.625000
9484,-15.625000
9485,-15.625000
9486,-15.625000
9487,-15.625000
9488,-15.625000
9489,-15.625000
9490,-19.531250
9491,-19.531250
9492,-19.531250
9493,-19.531250
9494,-19.531250
9495,-19.531250
9496,-19.531250
9497,-19.531250
9498,-19.531250
9499,-23.437500
9500,-23.437500
9501,-23.437500
9502,-23.437500
9503,-23.437500
9504,-23.437500
9505,-23.437500
9506,-23.437500
9507,-23.437500
9508,-27.343750
9509,-27.343750
9510,-27.343750
9511,-27.343750
9512,-27.343750
9513,-27.343750
9514,-27.343750
9515,-27.343750
9516,-27.343750
9517,-27.343750
9518,-27.343750
9519,-31.250000
9520,-31.250000
9521,-31.250000
9522,-31.250000
9523,-31.250000
9524,-31.250000
9525,-31.250000
9526,-31.250000
9527,-31.250000
9528,-35.156250
9529,-35.156250
9530,-35.156250
9531,-35.156250
9532,-35.156250
9533,-35.156250
9534,-35.156250
9535,-35.156250
9536,-35.156250
9537,-39.062500
9538,-39.062500
9539,-39.062500
9540,-39.062500
9541,-39.062500
9542,-39.062500
9543,-39.062500
9544,-39.062500
9545,-39.062500
9546,-39.062500
9547,-39.062500
9548,-42.968750
9549,-42.968750
9550,-42.968750
9551,-42.968750
9552,-42.968750
9553,-42.968750
9554,-42.968750
9555,-42.968750
9556,-42.968750
9557,-46.875000
9558,-46.875000
9559,-46.875000
9560,-46.875000
9561,-46.875000
9562,-46.875000
9563,-46.875000
9564,-46.875000
9565,-46.875000
9566,-46.875000
9567,-46.875000
9568,-46.875000
9569,-50.781250
9570,-50.781250
9571,-50.781250
9572,-50.781250
9573,-50.781250
9574,-50.781250
9575,-50.781250
9576,-50.781250
9577,-54.687500
9578,-50.781250
9579,-54.687500
9580,-54.687500
9581,-54.687500
9582,-54.687500
9583,-54.687500
9584,-54.687500
9585,-54.687500
9586,-54.687500
9587,-58.593750
9588,-58.593750
9589,-58.593750
9590,-58.593750
9591,-58.593750
9592,-58.593750
9593,-58.593750
9594,-58.593750
9595,-58.593750
9596,-58.593750
9597,-58.593750
9598,-62.500000
9599,-58.593750
9600,-58.593750
9601,-62.500000
9602,-62.500000
9603,-62.500000
9604,-62.500000
9605,-62.500000
9606,-62.500000
9607,-62.500000
9608,-62.500000
9609,-62.500000
9610,-62.500000
9611,-62.500000
9612,-66.406250
9613,-66.406250
9614,-66.406250
9615,-66.406250
9616,-66.406250
9617,-66.406250
9618,-66.406250
9619,-66.406250
9620,-66.406250
9621,-66.406250
9622,-66.406250
9623,-66.406250
9624,-66.406250
9625,-66.406250
9626,-70.312500
9627,-70.312500
9628,-70.312500
9629,-70.312500
9630,-70.312500
9631,-70.312500
9632,-70.312500
9633,-70.312500
9634,-70.312500
9635,-70.312500
9636,-70.312500
9637,-74.218750
9638,-74.218750
9639,-74.218750
9640,-74.218750
9641,-74.218750
9642,-74.218750
9643,-74.218750
9644,-74.218750
9645,-74.218750
9646,-74.218750
9647,-74.218750
9648,-74.218750
9649,-74.218750
9650,-74.218750
9651,-74.218750
9652,-74.218750
9653,-74.218750
9654,-74.218750
9655,-74.218750
9656,-74.218750
9657,-74.218750
9658,-74.218750
9659,-78.125000
9660,-78.125000
9661,-78.125000
9662,-78.125000
9663,-78.125000
9664,-78.125000
9665,-78.125000
9666,-78.125000
9667,-78.125000
9668,-78.125000
9669,-78.125000
9670,-78.125000
9671,-78.125000
9672,-78.125000
9673,-78.125000
9674,-78.125000
9675,-78.125000
9676,-78.125000
9677,-78.125000
9678,-78.125000
9679,-78.125000
9680,-78.125000
9681,-78.125000
9682,-82.031250
9683,-82.031250
9684,-82.031250
9685,-82.031250
9686,-82.031250
9687,-82.031250
9688,-82.031250
9689,-82.031250
9690,-82.031250
9691,-82.031250
9692,-82.031250
9693,-82.031250
9694,-82.031250
9695,-82.031250
9696,-82.031250
9697,-82.031250
9698,-82.031250
9699,-82.031250
9700,-82.031250
9701,-82.031250
9702,-82.031250
9703,-82.031250
9704,-82.031250
9705,-82.031250
9706,-82.031250
9707,-82.031250
9708,-82.031250
9709,-82.031250
9710,-82.031250
9711,-82.031250
9712,-82.031250
9713,-82.031250
9714,-82.031250
9715,-82.031250
9716,-82.031250
9717,-82.031250
9718,-82.031250
9719,-82.031250
9720,-82.031250
9721,-82.031250
9722,-82.031250
9723,-82.031250
9724,-82.031250
9725,-82.031250
9726,-82.031250
9727,-82.031250
9728,-82.031250
9729,-85.937500
9730,-82.031250
9731,-82.031250
9732,-82.031250
9733,-82.031250
9734,-82.031250
9735,-82.031250
9736,-82.031250
9737,-82.031250
9738,-82.031250
9739,-82.031250
9740,-82.031250
9741,-85.937500
9742,-82.031250
9743,-82.031250
9744,-82.031250
9745,-82.031250
9746,-82.031250
9747,-82.031250
9748,-82.031250
9749,-82.031250
9750,-82.031250
9751,-82.031250
9752,-82.031250
9753,-82.031250
9754,-82.031250
9755,-82.031250
9756,-82.031250
9757,-82.031250
9758,-82.031250
9759,-82.031250
9760,-82.031250
9761,-82.031250
9762,-82.031250
9763,-82.031250
9764,-82.031250
9765,-82.031250
9766,-82.031250
9767,-82.031250
9768,-82.031250
9769,-82.031250
9770,-78.125000
9771,-82.031250
9772,-82.031250
9773,-82.031250
9774,-78.125000
9775,-78.125000
9776,-82.031250
9777,-82.031250
9778,-78.125000
9779,-74.218750
9780,-78.125000
9781,-78.125000
9782,-74.218750
9783,-78.125000
9784,-78.125000
9785,-82.031250
9786,-78.125000
9787,-78.125000
9788,-78.125000
9789,-78.125000
9790,-78.125000
9791,-78.125000
9792,-78.125000
9793,-78.125000
9794,-78.125000
9795,-78.125000
9796,-78.125000
9797,-74.218750
9798,-74.218750
9799,-74.218750
9800,-74.218750
9801,-74.218750
9802,-74.218750
9803,-74.218750
9804,-74.218750
9805,-74.218750
9806,-74.218750
9807,-74.218750
9808,-74.218750
9809,-74.218750
9810,-74.218750
9811,-74.218750
9812,-70.312500
9813,-74.218750
9814,-70.312500
9815,-70.312500
9816,-70.312500
9817,-70.312500
9818,-70.312500
9819,-70.312500
9820,-70.312500
9821,-70.312500
9822,-70.312500
9823,-70.312500
9824,-70.312500
9825,-70.312500
9826,-70.312500
9827,-70.312500
9828,-70.312500
9829,-70.312500
9830,-66.406250
9831,-66.406250
9832,-66.406250
9833,-66.406250
9834,-66.406250
9835,-66.406250
9836,-66.406250
9837,-66.406250
9838,-66.406250
9839,-66.406250
9840,-66.406250
9841,-66.406250
9842,-66.406250
9843,-62.500000
9844,-62.500000
9845,-62.500000
9846,-62.500000
9847,-62.500000
9848,-62.500000
9849,-62.500000
9850,-62.500000
9851,-62.500000
9852,-62.500000
9853,-58.593750
9854,-62.500000
9855,-58.593750
9856,-58.593750
9857,-58.593750
9858,-58.593750
9859,-58.593750
9860,-58.593750
9861,-58.593750
9862,-58.593750
9863,-58.593750
9864,-58.593750
9865,-58.593750
9866,-54.687500
9867,-54.687500
9868,-54.687500
9869,-54.687500
9870,-54.687500
9871,-54.687500
9872,-54.687500
9873,-54.687500
9874,-54.687500
9875,-54.687500
9876,-50.781250
9877,-54.687500
9878,-50.781250
9879,-50.781250
9880,-54.687500
9881,-50.781250
9882,-50.781250
9883,-50.781250
9884,-50.781250
9885,-50.781250
9886,-46.875000
9887,-50.781250
9888,-46.875000
9889,-46.875000
9890,-46.875000
9891,-46.875000
9892,-46.875000
9893,-46.875000
9894,-46.875000
9895,-46.875000
9896,-42.968750
9897,-42.968750
9898,-42.968750
9899,-42.968750
9900,-42.968750
9901,-42.968750
9902,-42.968750
9903,-42.968750
9904,-42.968750
9905,-42.968750
9906,-39.062500
9907,-39.062500
9908,-39.062500
9909,-39.062500
9910,-39.062500
9911,-39.062500
9912,-39.062500
9913,-39.062500
9914,-39.062500
9915,-39.062500
9916,-35.156250
9917,-35.156250
9918,-39.062500
9919,-35.156250
9920,-35.156250
9921,-35.156250
9922,-35.156250
9923,-35.156250
9924,-35.156250
9925,-31.250000
9926,-35.156250
9927,-31.250000
9928,-31.250000
9929,-31.250000
9930,-31.250000
9931,-31.250000
9932,-31.250000
9933,-27.343750
9934,-27.343750
9935,-27.343750
9936,-27.343750
9937,-27.343750
9938,-27.343750
9939,-27.343750
9940,-27.343750
9941,-27.343750
9942,-23.437500
9943,-23.437500
9944,-23.437500
9945,-23.437500
9946,-23.437500
9947,-23.437500
9948,-23.437500
9949,-23.437500
9950,-19.531250
9951,-23.437500
9952,-19.531250
9953,-19.531250
9954,-19.531250
9955,-19.531250
9956,-19.531250
9957,-19.531250
9958,-15.625000
9959,-15.625000
9960,-15.625000
9961,-15.625000
9962,-15.625000
9963,-15.625000
9964,-15.625000
9965,-15.625000
9966,-15.625000
9967,-15.625000
9968,-15.625000
9969,-11.718750
9970,-11.718750
9971,-11.718750
9972,-11.718750
9973,-11.718750
9974,-11.718750
9975,-11.718750
9976,-11.718750
9977,-11.718750
9978,-11.718750
9979,-11.718750
9980,-7.812500
9981,-7.812500
9982,-7.812500
9983,-7.812500
9984,-7.812500
9985,-7.812500
9986,-7.812500
9987,-7.812500
9988,-7.812500
9989,-3.906250
9990,-3.906250
9991,-3.906250
9992,-3.906250
9993,-3.906250
9994,-3.906250
9995,-3.906250
9996,-3.906250
9997,0.000000
9998,0.000000
9999,0.000000
10000,0.000000
