Channel              :,CH1
Frequency            :,1.010kHz
Period               :,0.990ms
PK-PK                :,66.41mV
Probe attenuation    :,1X
Voltage per ADC value:,0.244141mV
Time interval        :,1.00000us

index,CH1_Voltage(mV)
1,-31.250000
2,-31.250000
3,-31.250000
4,-31.250000
5,-31.250000
6,-31.250000
7,-31.250000
8,-31.250000
9,-31.250000
10,-31.250000
11,-31.250000
12,-31.250000
13,-31.250000
14,-31.250000
15,-31.250000
16,-27.343750
17,-31.250000
18,-31.250000
19,-31.250000
20,-27.343750
21,-27.343750
22,-27.343750
23,-27.343750
24,-27.343750
25,-27.343750
26,-27.343750
27,-27.343750
28,-27.343750
29,-27.343750
30,-27.343750
31,-27.343750
32,-27.343750
33,-27.343750
34,-27.343750
35,-27.343750
36,-27.343750
37,-27.343750
38,-27.343750
39,-27.343750
40,-27.343750
41,-27.343750
42,-23.437500
43,-23.437500
44,-23.437500
45,-23.437500
46,-23.437500
47,-23.437500
48,-23.437500
49,-23.437500
50,-23.437500
51,-23.437500
52,-23.437500
53,-23.437500
54,-23.437500
55,-23.437500
56,-23.437500
57,-23.437500
58,-23.437500
59,-23.437500
60,-23.437500
61,-19.531250
62,-19.531250
63,-19.531250
64,-19.531250
65,-19.531250
66,-19.531250
67,-19.531250
68,-19.531250
69,-19.531250
70,-19.531250
71,-19.531250
72,-19.531250
73,-19.531250
74,-19.531250
75,-19.531250
76,-19.531250
77,-19.531250
78,-15.625000
79,-15.625000
80,-15.625000
81,-19.531250
82,-15.625000
83,-15.625000
84,-15.625000
85,-15.625000
86,-15.625000
87,-15.625000
88,-15.625000
89,-15.625000
90,-15.625000
91,-15.625000
92,-15.625000
93,-15.625000
94,-15.625000
95,-15.625000
96,-15.625000
97,-15.625000
98,-15.625000
99,-15.625000
100,-11.718750
101,-11.718750
102,-11.718750
103,-11.718750
104,-11.718750
105,-11.718750
106,-11.718750
107,-11.718750
108,-11.718750
109,-11.718750
110,-11.718750
111,-11.718750
112,-11.718750
113,-7.812500
114,-11.718750
115,-11.718750
116,-11.718750
117,-7.812500
118,-7.812500
119,-7.812500
120,-7.812500
121,-7.812500
122,-7.812500
123,-7.812500
124,-7.812500
125,-7.812500
126,-7.812500
127,-7.812500
128,-7.812500
129,-7.812500
130,-7.812500
131,-7.812500
132,-7.812500
133,-7.812500
134,-7.812500
135,-7.812500
136,-7.812500
137,-7.812500
138,-7.812500
139,-3.906250
140,-3.906250
141,-3.906250
142,-3.906250
143,-3.906250
144,-3.906250
145,-3.906250
146,-3.906250
147,-3.906250
148,-3.906250
149,-3.906250
150,-3.906250
151,-3.906250
152,-3.906250
153,-3.906250
154,-3.906250
155,-3.906250
156,-3.906250
157,-3.906250
158,-3.906250
159,-3.906250
160,0.000000
161,0.000000
162,0.000000
163,0.000000
164,0.000000
165,0.000000
166,0.000000
167,0.000000
168,0.000000
169,0.000000
170,0.000000
171,0.000000
172,0.000000
173,0.000000
174,0.000000
175,0.000000
176,3.906250
177,0.000000
178,0.000000
179,3.906250
180,3.906250
181,3.906250
182,3.906250
183,3.906250
184,3.906250
185,3.906250
186,3.906250
187,3.906250
188,3.906250
189,3.906250
190,3.906250
191,3.906250
192,3.906250
193,3.906250
194,3.906250
195,3.906250
196,3.906250
197,3.906250
198,7.812500
199,7.812500
200,7.812500
201,7.812500
202,7.812500
203,7.812500
204,7.812500
205,7.812500
206,7.812500
207,7.812500
208,7.812500
209,7.812500
210,7.812500
211,7.812500
212,7.812500
213,7.812500
214,7.812500
215,7.812500
216,7.812500
217,7.812500
218,7.812500
219,7.812500
220,7.812500
221,11.718750
222,11.718750
223,11.718750
224,11.718750
225,11.718750
226,11.718750
227,11.718750
228,11.718750
229,11.718750
230,11.718750
231,11.718750
232,11.718750
233,11.718750
234,11.718750
235,11.718750
236,11.718750
237,11.718750
238,11.718750
239,11.718750
240,11.718750
241,11.718750
242,11.718750
243,11.718750
244,11.718750
245,11.718750
246,11.718750
247,11.718750
248,15.625000
249,15.625000
250,15.625000
251,15.625000
252,15.625000
253,15.625000
254,15.625000
255,11.718750
256,15.625000
257,15.625000
258,15.625000
259,15.625000
260,15.625000
261,15.625000
262,15.625000
263,15.625000
264,15.625000
265,15.625000
266,15.625000
267,15.625000
268,15.625000
269,15.625000
270,15.625000
271,15.625000
272,15.625000
273,15.625000
274,15.625000
275,15.625000
276,15.625000
277,15.625000
278,15.625000
279,15.625000
280,15.625000
281,15.625000
282,15.625000
283,15.625000
284,15.625000
285,15.625000
286,15.625000
287,15.625000
288,15.625000
289,15.625000
290,15.625000
291,15.625000
292,15.625000
293,15.625000
294,15.625000
295,15.625000
296,19.531250
297,15.625000
298,15.625000
299,15.625000
300,19.531250
301,15.625000
302,15.625000
303,15.625000
304,15.625000
305,15.625000
306,19.531250
307,15.625000
308,15.625000
309,15.625000
310,15.625000
311,15.625000
312,15.625000
313,19.531250
314,19.531250
315,19.531250
316,19.531250
317,19.531250
318,19.531250
319,19.531250
320,19.531250
321,19.531250
322,19.531250
323,19.531250
324,15.625000
325,19.531250
326,19.531250
327,19.531250
328,19.531250
329,19.531250
330,19.531250
331,19.531250
332,19.531250
333,19.531250
334,19.531250
335,19.531250
336,19.531250
337,19.531250
338,19.531250
339,19.531250
340,19.531250
341,19.531250
342,19.531250
343,19.531250
344,19.531250
345,19.531250
346,19.531250
347,19.531250
348,19.531250
349,19.531250
350,19.531250
351,19.531250
352,19.531250
353,19.531250
354,19.531250
355,19.531250
356,19.531250
357,19.531250
358,19.531250
359,19.531250
360,19.531250
361,19.531250
362,19.531250
363,15.625000
364,19.531250
365,19.531250
366,19.531250
367,19.531250
368,19.531250
369,19.531250
370,19.531250
371,19.531250
372,19.531250
373,19.531250
374,15.625000
375,15.625000
376,19.531250
377,19.531250
378,19.531250
379,19.531250
380,19.531250
381,15.625000
382,15.625000
383,15.625000
384,15.625000
385,15.625000
386,15.625000
387,15.625000
388,15.625000
389,15.625000
390,15.625000
391,15.625000
392,15.625000
393,15.625000
394,15.625000
395,15.625000
396,15.625000
397,15.625000
398,15.625000
399,15.625000
400,15.625000
401,15.625000
402,15.625000
403,15.625000
404,15.625000
405,15.625000
406,15.625000
407,15.625000
408,15.625000
409,15.625000
410,15.625000
411,15.625000
412,15.625000
413,15.625000
414,15.625000
415,15.625000
416,15.625000
417,15.625000
418,15.625000
419,11.718750
420,11.718750
421,11.718750
422,11.718750
423,11.718750
424,11.718750
425,11.718750
426,11.718750
427,11.718750
428,11.718750
429,11.718750
430,11.718750
431,11.718750
432,11.718750
433,11.718750
434,11.718750
435,11.718750
436,11.718750
437,11.718750
438,11.718750
439,11.718750
440,11.718750
441,11.718750
442,11.718750
443,11.718750
444,11.718750
445,11.718750
446,11.718750
447,11.718750
448,11.718750
449,11.718750
450,7.812500
451,7.812500
452,7.812500
453,7.812500
454,7.812500
455,7.812500
456,7.812500
457,7.812500
458,7.812500
459,7.812500
460,7.812500
461,7.812500
462,7.812500
463,7.812500
464,7.812500
465,7.812500
466,7.812500
467,7.812500
468,7.812500
469,7.812500
470,7.812500
471,7.812500
472,7.812500
473,7.812500
474,3.906250
475,3.906250
476,7.812500
477,3.906250
478,7.812500
479,3.906250
480,7.812500
481,3.906250
482,3.906250
483,3.906250
484,3.906250
485,3.906250
486,3.906250
487,3.906250
488,3.906250
489,3.906250
490,3.906250
491,3.906250
492,3.906250
493,3.906250
494,3.906250
495,3.906250
496,3.906250
497,3.906250
498,3.906250
499,3.906250
500,3.906250
501,3.906250
502,3.906250
503,0.000000
504,0.000000
505,0.000000
506,0.000000
507,0.000000
508,0.000000
509,0.000000
510,0.000000
511,0.000000
512,0.000000
513,0.000000
514,0.000000
515,0.000000
516,0.000000
517,0.000000
518,0.000000
519,0.000000
520,0.000000
521,0.000000
522,0.000000
523,-3.906250
524,0.000000
525,-3.906250
526,-3.906250
527,-3.906250
528,-3.906250
529,-3.906250
530,-3.906250
531,-3.906250
532,-3.906250
533,-3.906250
534,-3.906250
535,-3.906250
536,-3.906250
537,-3.906250
538,-3.906250
539,-3.906250
540,-3.906250
541,-3.906250
542,-3.906250
543,-3.906250
544,-3.906250
545,-7.812500
546,-7.812500
547,-7.812500
548,-7.812500
549,-3.906250
550,-7.812500
551,-7.812500
552,-7.812500
553,-7.812500
554,-7.812500
555,-7.812500
556,-7.812500
557,-7.812500
558,-7.812500
559,-7.812500
560,-7.812500
561,-7.812500
562,-7.812500
563,-7.812500
564,-7.812500
565,-11.718750
566,-7.812500
567,-11.718750
568,-11.718750
569,-11.718750
570,-11.718750
571,-11.718750
572,-11.718750
573,-11.718750
574,-11.718750
575,-11.718750
576,-11.718750
577,-11.718750
578,-11.718750
579,-11.718750
580,-11.718750
581,-11.718750
582,-11.718750
583,-11.718750
584,-11.718750
585,-11.718750
586,-11.718750
587,-11.718750
588,-15.625000
589,-15.625000
590,-11.718750
591,-15.625000
592,-15.625000
593,-15.625000
594,-15.625000
595,-15.625000
596,-15.625000
597,-15.625000
598,-15.625000
599,-15.625000
600,-15.625000
601,-15.625000
602,-15.625000
603,-15.625000
604,-15.625000
605,-15.625000
606,-15.625000
607,-15.625000
608,-15.625000
609,-15.625000
610,-15.625000
611,-19.531250
612,-19.531250
613,-19.531250
614,-19.531250
615,-19.531250
616,-19.531250
617,-19.531250
618,-19.531250
619,-19.531250
620,-19.531250
621,-19.531250
622,-19.531250
623,-19.531250
624,-19.531250
625,-19.531250
626,-19.531250
627,-19.531250
628,-19.531250
629,-19.531250
630,-19.531250
631,-19.531250
632,-19.531250
633,-23.437500
634,-23.437500
635,-23.437500
636,-23.437500
637,-23.437500
638,-23.437500
639,-23.437500
640,-23.437500
641,-23.437500
642,-23.437500
643,-23.437500
644,-23.437500
645,-23.437500
646,-23.437500
647,-23.437500
648,-23.437500
649,-23.437500
650,-23.437500
651,-27.343750
652,-23.437500
653,-27.343750
654,-27.343750
655,-27.343750
656,-27.343750
657,-27.343750
658,-27.343750
659,-27.343750
660,-27.343750
661,-27.343750
662,-27.343750
663,-27.343750
664,-27.343750
665,-27.343750
666,-27.343750
667,-27.343750
668,-27.343750
669,-27.343750
670,-27.343750
671,-27.343750
672,-27.343750
673,-27.343750
674,-27.343750
675,-31.250000
676,-31.250000
677,-31.250000
678,-31.250000
679,-31.250000
680,-27.343750
681,-31.250000
682,-31.250000
683,-31.250000
684,-31.250000
685,-31.250000
686,-31.250000
687,-31.250000
688,-31.250000
689,-31.250000
690,-31.250000
691,-31.250000
692,-31.250000
693,-31.250000
694,-31.250000
695,-31.250000
696,-31.250000
697,-31.250000
698,-31.250000
699,-31.250000
700,-31.250000
701,-31.250000
702,-31.250000
703,-35.156250
704,-35.156250
705,-35.156250
706,-35.156250
707,-35.156250
708,-35.156250
709,-35.156250
710,-35.156250
711,-35.156250
712,-35.156250
713,-35.156250
714,-35.156250
715,-35.156250
716,-35.156250
717,-35.156250
718,-35.156250
719,-35.156250
720,-35.156250
721,-35.156250
722,-35.156250
723,-35.156250
724,-35.156250
725,-39.062500
726,-35.156250
727,-35.156250
728,-35.156250
729,-39.062500
730,-39.062500
731,-35.156250
732,-35.156250
733,-39.062500
734,-39.062500
735,-39.062500
736,-39.062500
737,-39.062500
738,-39.062500
739,-39.062500
740,-39.062500
741,-39.062500
742,-39.062500
743,-39.062500
744,-39.062500
745,-39.062500
746,-39.062500
747,-39.062500
748,-39.062500
749,-39.062500
750,-39.062500
751,-39.062500
752,-39.062500
753,-39.062500
754,-39.062500
755,-39.062500
756,-39.062500
757,-39.062500
758,-39.062500
759,-39.062500
760,-39.062500
761,-39.062500
762,-39.062500
763,-39.062500
764,-39.062500
765,-39.062500
766,-39.062500
767,-39.062500
768,-39.062500
769,-42.968750
770,-42.968750
771,-42.968750
772,-39.062500
773,-39.062500
774,-42.968750
775,-42.968750
776,-42.968750
777,-42.968750
778,-42.968750
779,-42.968750
780,-42.968750
781,-42.968750
782,-42.968750
783,-42.968750
784,-42.968750
785,-42.968750
786,-42.968750
787,-42.968750
788,-42.968750
789,-42.968750
790,-42.968750
791,-42.968750
792,-42.968750
793,-42.968750
794,-42.968750
795,-42.968750
796,-42.968750
797,-42.968750
798,-42.968750
799,-42.968750
800,-42.968750
801,-42.968750
802,-42.968750
803,-42.968750
804,-42.968750
805,-42.968750
806,-42.968750
807,-42.968750
808,-42.968750
809,-42.968750
810,-42.968750
811,-42.968750
812,-42.968750
813,-42.968750
814,-42.968750
815,-42.968750
816,-42.968750
817,-42.968750
818,-42.968750
819,-42.968750
820,-42.968750
821,-42.968750
822,-42.968750
823,-42.968750
824,-42.968750
825,-42.968750
826,-42.968750
827,-42.968750
828,-42.968750
829,-46.875000
830,-46.875000
831,-42.968750
832,-42.968750
833,-42.968750
834,-42.968750
835,-42.968750
836,-42.968750
837,-42.968750
838,-42.968750
839,-42.968750
840,-42.968750
841,-46.875000
842,-42.968750
843,-42.968750
844,-42.968750
845,-42.968750
846,-42.968750
847,-42.968750
848,-42.968750
849,-42.968750
850,-42.968750
851,-42.968750
852,-42.968750
853,-42.968750
854,-42.968750
855,-42.968750
856,-42.968750
857,-42.968750
858,-42.968750
859,-42.968750
860,-42.968750
861,-42.968750
862,-42.968750
863,-42.968750
864,-42.968750
865,-42.968750
866,-42.968750
867,-42.968750
868,-42.968750
869,-42.968750
870,-42.968750
871,-42.968750
872,-42.968750
873,-42.968750
874,-42.968750
875,-42.968750
876,-42.968750
877,-42.968750
878,-42.968750
879,-42.968750
880,-42.968750
881,-42.968750
882,-42.968750
883,-42.968750
884,-42.968750
885,-42.968750
886,-42.968750
887,-42.968750
888,-42.968750
889,-42.968750
890,-42.968750
891,-42.968750
892,-42.968750
893,-42.968750
894,-42.968750
895,-42.968750
896,-42.968750
897,-42.968750
898,-42.968750
899,-42.968750
900,-42.968750
901,-42.968750
902,-42.968750
903,-42.968750
904,-42.968750
905,-42.968750
906,-42.968750
907,-42.968750
908,-42.968750
909,-42.968750
910,-42.968750
911,-42.968750
912,-42.968750
913,-42.968750
914,-42.968750
915,-42.968750
916,-42.968750
917,-42.968750
918,-42.968750
919,-42.968750
920,-42.968750
921,-42.968750
922,-42.968750
923,-42.968750
924,-39.062500
925,-42.968750
926,-39.062500
927,-39.062500
928,-39.062500
929,-42.968750
930,-39.062500
931,-39.062500
932,-39.062500
933,-39.062500
934,-39.062500
935,-39.062500
936,-39.062500
937,-39.062500
938,-39.062500
939,-39.062500
940,-39.062500
941,-39.062500
942,-39.062500
943,-39.062500
944,-39.062500
945,-39.062500
946,-39.062500
947,-39.062500
948,-39.062500
949,-39.062500
950,-39.062500
951,-39.062500
952,-39.062500
953,-39.062500
954,-39.062500
955,-39.062500
956,-39.062500
957,-39.062500
958,-35.156250
959,-39.062500
960,-35.156250
961,-39.062500
962,-35.156250
963,-35.156250
964,-35.156250
965,-35.156250
966,-35.156250
967,-35.156250
968,-35.156250
969,-35.156250
970,-35.156250
971,-35.156250
972,-35.156250
973,-35.156250
974,-35.156250
975,-35.156250
976,-35.156250
977,-35.156250
978,-35.156250
979,-35.156250
980,-35.156250
981,-35.156250
982,-35.156250
983,-35.156250
984,-31.250000
985,-35.156250
986,-31.250000
987,-31.250000
988,-31.250000
989,-31.250000
990,-31.250000
991,-31.250000
992,-31.250000
993,-31.250000
994,-31.250000
995,-31.250000
996,-31.250000
997,-31.250000
998,-31.250000
999,-31.250000
1000,-31.250000
1001,-31.250000
1002,-31.250000
1003,-31.250000
1004,-31.250000
1005,-31.250000
1006,-27.343750
1007,-27.343750
1008,-27.343750
1009,-27.343750
1010,-27.343750
1011,-27.343750
1012,-27.343750
1013,-27.343750
1014,-27.343750
1015,-27.343750
1016,-27.343750
1017,-27.343750
1018,-27.343750
1019,-27.343750
1020,-27.343750
1021,-27.343750
1022,-27.343750
1023,-27.343750
1024,-27.343750
1025,-27.343750
1026,-27.343750
1027,-27.343750
1028,-27.343750
1029,-23.437500
1030,-23.437500
1031,-27.343750
1032,-23.437500
1033,-27.343750
1034,-23.437500
1035,-23.437500
1036,-23.437500
1037,-23.437500
1038,-23.437500
1039,-23.437500
1040,-23.437500
1041,-23.437500
1042,-23.437500
1043,-23.437500
1044,-23.437500
1045,-23.437500
1046,-23.437500
1047,-23.437500
1048,-23.437500
1049,-19.531250
1050,-19.531250
1051,-19.531250
1052,-19.531250
1053,-19.531250
1054,-19.531250
1055,-19.531250
1056,-19.531250
1057,-19.531250
1058,-19.531250
1059,-19.531250
1060,-19.531250
1061,-19.531250
1062,-19.531250
1063,-19.531250
1064,-19.531250
1065,-19.531250
1066,-19.531250
1067,-19.531250
1068,-19.531250
1069,-19.531250
1070,-15.625000
1071,-19.531250
1072,-15.625000
1073,-15.625000
1074,-15.625000
1075,-15.625000
1076,-15.625000
1077,-15.625000
1078,-15.625000
1079,-15.625000
1080,-15.625000
1081,-15.625000
1082,-15.625000
1083,-15.625000
1084,-15.625000
1085,-15.625000
1086,-11.718750
1087,-15.625000
1088,-11.718750
1089,-11.718750
1090,-11.718750
1091,-11.718750
1092,-11.718750
1093,-11.718750
1094,-11.718750
1095,-11.718750
1096,-11.718750
1097,-11.718750
1098,-11.718750
1099,-11.718750
1100,-11.718750
1101,-11.718750
1102,-11.718750
1103,-11.718750
1104,-11.718750
1105,-11.718750
1106,-7.812500
1107,-7.812500
1108,-7.812500
1109,-7.812500
1110,-7.812500
1111,-7.812500
1112,-7.812500
1113,-7.812500
1114,-7.812500
1115,-7.812500
1116,-7.812500
1117,-7.812500
1118,-7.812500
1119,-7.812500
1120,-3.906250
1121,-7.812500
1122,-3.906250
1123,-3.906250
1124,-3.906250
1125,-3.906250
1126,-3.906250
1127,-3.906250
1128,-3.906250
1129,-3.906250
1130,-3.906250
1131,-3.906250
1132,-3.906250
1133,-3.906250
1134,-3.906250
1135,-3.906250
1136,-3.906250
1137,-3.906250
1138,-3.906250
1139,-3.906250
1140,0.000000
1141,0.000000
1142,0.000000
1143,0.000000
1144,0.000000
1145,0.000000
1146,0.000000
1147,0.000000
1148,0.000000
1149,0.000000
1150,0.000000
1151,0.000000
1152,0.000000
1153,0.000000
1154,0.000000
1155,0.000000
1156,0.000000
1157,0.000000
1158,0.000000
1159,0.000000
1160,0.000000
1161,3.906250
1162,3.906250
1163,0.000000
1164,3.906250
1165,3.906250
1166,3.906250
1167,0.000000
1168,3.906250
1169,3.906250
1170,3.906250
1171,3.906250
1172,3.906250
1173,3.906250
1174,3.906250
1175,3.906250
1176,3.906250
1177,3.906250
1178,3.906250
1179,3.906250
1180,3.906250
1181,3.906250
1182,3.906250
1183,3.906250
1184,3.906250
1185,3.906250
1186,3.906250
1187,3.906250
1188,7.812500
1189,7.812500
1190,7.812500
1191,7.812500
1192,7.812500
1193,7.812500
1194,7.812500
1195,7.812500
1196,7.812500
1197,7.812500
1198,7.812500
1199,7.812500
1200,7.812500
1201,7.812500
1202,7.812500
1203,7.812500
1204,7.812500
1205,7.812500
1206,7.812500
1207,7.812500
1208,7.812500
1209,7.812500
1210,7.812500
1211,7.812500
1212,11.718750
1213,11.718750
1214,7.812500
1215,11.718750
1216,11.718750
1217,11.718750
1218,11.718750
1219,11.718750
1220,11.718750
1221,11.718750
1222,11.718750
1223,11.718750
1224,11.718750
1225,11.718750
1226,11.718750
1227,11.718750
1228,11.718750
1229,11.718750
1230,11.718750
1231,11.718750
1232,11.718750
1233,11.718750
1234,11.718750
1235,11.718750
1236,11.718750
1237,11.718750
1238,11.718750
1239,11.718750
1240,11.718750
1241,11.718750
1242,15.625000
1243,11.718750
1244,15.625000
1245,11.718750
1246,15.625000
1247,11.718750
1248,15.625000
1249,15.625000
1250,15.625000
1251,15.625000
1252,15.625000
1253,15.625000
1254,15.625000
1255,15.625000
1256,15.625000
1257,15.625000
1258,15.625000
1259,15.625000
1260,15.625000
1261,15.625000
1262,15.625000
1263,15.625000
1264,15.625000
1265,15.625000
1266,15.625000
1267,15.625000
1268,15.625000
1269,15.625000
1270,15.625000
1271,15.625000
1272,15.625000
1273,15.625000
1274,15.625000
1275,15.625000
1276,15.625000
1277,15.625000
1278,15.625000
1279,19.531250
1280,19.531250
1281,19.531250
1282,19.531250
1283,15.625000
1284,15.625000
1285,15.625000
1286,19.531250
1287,19.531250
1288,15.625000
1289,19.531250
1290,19.531250
1291,19.531250
1292,19.531250
1293,19.531250
1294,19.531250
1295,15.625000
1296,15.625000
1297,19.531250
1298,19.531250
1299,19.531250
1300,19.531250
1301,19.531250
1302,19.531250
1303,19.531250
1304,19.531250
1305,19.531250
1306,19.531250
1307,19.531250
1308,19.531250
1309,19.531250
1310,19.531250
1311,19.531250
1312,19.531250
1313,19.531250
1314,19.531250
1315,19.531250
1316,19.531250
1317,19.531250
1318,19.531250
1319,19.531250
1320,19.531250
1321,19.531250
1322,19.531250
1323,19.531250
1324,19.531250
1325,19.531250
1326,19.531250
1327,19.531250
1328,19.531250
1329,19.531250
1330,19.531250
1331,19.531250
1332,19.531250
1333,19.531250
1334,19.531250
1335,19.531250
1336,19.531250
1337,19.531250
1338,19.531250
1339,19.531250
1340,19.531250
1341,19.531250
1342,19.531250
1343,19.531250
1344,19.531250
1345,19.531250
1346,19.531250
1347,19.531250
1348,19.531250
1349,19.531250
1350,19.531250
1351,19.531250
1352,19.531250
1353,19.531250
1354,19.531250
1355,19.531250
1356,19.531250
1357,19.531250
1358,15.625000
1359,15.625000
1360,19.531250
1361,15.625000
1362,19.531250
1363,15.625000
1364,19.531250
1365,19.531250
1366,19.531250
1367,19.531250
1368,19.531250
1369,15.625000
1370,15.625000
1371,15.625000
1372,15.625000
1373,15.625000
1374,15.625000
1375,15.625000
1376,15.625000
1377,15.625000
1378,15.625000
1379,15.625000
1380,15.625000
1381,15.625000
1382,15.625000
1383,15.625000
1384,15.625000
1385,15.625000
1386,15.625000
1387,15.625000
1388,15.625000
1389,15.625000
1390,15.625000
1391,15.625000
1392,15.625000
1393,15.625000
1394,15.625000
1395,15.625000
1396,15.625000
1397,15.625000
1398,15.625000
1399,15.625000
1400,15.625000
1401,15.625000
1402,15.625000
1403,15.625000
1404,15.625000
1405,15.625000
1406,15.625000
1407,15.625000
1408,15.625000
1409,15.625000
1410,15.625000
1411,15.625000
1412,11.718750
1413,11.718750
1414,15.625000
1415,15.625000
1416,15.625000
1417,11.718750
1418,15.625000
1419,15.625000
1420,11.718750
1421,11.718750
1422,11.718750
1423,11.718750
1424,11.718750
1425,11.718750
1426,11.718750
1427,11.718750
1428,11.718750
1429,11.718750
1430,11.718750
1431,11.718750
1432,11.718750
1433,11.718750
1434,11.718750
1435,11.718750
1436,11.718750
1437,11.718750
1438,11.718750
1439,11.718750
1440,11.718750
1441,11.718750
1442,7.812500
1443,11.718750
1444,11.718750
1445,11.718750
1446,7.812500
1447,7.812500
1448,7.812500
1449,7.812500
1450,7.812500
1451,7.812500
1452,7.812500
1453,7.812500
1454,7.812500
1455,7.812500
1456,7.812500
1457,7.812500
1458,7.812500
1459,7.812500
1460,7.812500
1461,7.812500
1462,7.812500
1463,7.812500
1464,7.812500
1465,7.812500
1466,7.812500
1467,7.812500
1468,7.812500
1469,3.906250
1470,3.906250
1471,3.906250
1472,3.906250
1473,3.906250
1474,3.906250
1475,3.906250
1476,3.906250
1477,3.906250
1478,3.906250
1479,3.906250
1480,3.906250
1481,3.906250
1482,3.906250
1483,3.906250
1484,3.906250
1485,3.906250
1486,3.906250
1487,3.906250
1488,3.906250
1489,0.000000
1490,0.000000
1491,3.906250
1492,3.906250
1493,3.906250
1494,3.906250
1495,0.000000
1496,0.000000
1497,0.000000
1498,0.000000
1499,0.000000
1500,0.000000
1501,0.000000
1502,0.000000
1503,0.000000
1504,0.000000
1505,0.000000
1506,0.000000
1507,0.000000
1508,0.000000
1509,0.000000
1510,0.000000
1511,0.000000
1512,0.000000
1513,0.000000
1514,0.000000
1515,0.000000
1516,0.000000
1517,-3.906250
1518,-3.906250
1519,-3.906250
1520,-3.906250
1521,-3.906250
1522,-3.906250
1523,-3.906250
1524,-3.906250
1525,-3.906250
1526,-3.906250
1527,-3.906250
1528,-3.906250
1529,-3.906250
1530,-3.906250
1531,-3.906250
1532,-3.906250
1533,-3.906250
1534,-3.906250
1535,-3.906250
1536,-3.906250
1537,-7.812500
1538,-7.812500
1539,-7.812500
1540,-7.812500
1541,-7.812500
1542,-7.812500
1543,-7.812500
1544,-7.812500
1545,-7.812500
1546,-7.812500
1547,-7.812500
1548,-7.812500
1549,-7.812500
1550,-7.812500
1551,-7.812500
1552,-7.812500
1553,-7.812500
1554,-7.812500
1555,-7.812500
1556,-11.718750
1557,-11.718750
1558,-7.812500
1559,-11.718750
1560,-11.718750
1561,-11.718750
1562,-11.718750
1563,-11.718750
1564,-11.718750
1565,-11.718750
1566,-11.718750
1567,-11.718750
1568,-11.718750
1569,-11.718750
1570,-11.718750
1571,-11.718750
1572,-11.718750
1573,-11.718750
1574,-11.718750
1575,-11.718750
1576,-15.625000
1577,-11.718750
1578,-11.718750
1579,-15.625000
1580,-15.625000
1581,-15.625000
1582,-15.625000
1583,-15.625000
1584,-15.625000
1585,-15.625000
1586,-15.625000
1587,-15.625000
1588,-15.625000
1589,-15.625000
1590,-15.625000
1591,-15.625000
1592,-15.625000
1593,-15.625000
1594,-15.625000
1595,-15.625000
1596,-15.625000
1597,-15.625000
1598,-19.531250
1599,-19.531250
1600,-19.531250
1601,-19.531250
1602,-19.531250
1603,-19.531250
1604,-19.531250
1605,-19.531250
1606,-19.531250
1607,-19.531250
1608,-19.531250
1609,-19.531250
1610,-19.531250
1611,-19.531250
1612,-19.531250
1613,-19.531250
1614,-19.531250
1615,-19.531250
1616,-19.531250
1617,-19.531250
1618,-19.531250
1619,-23.437500
1620,-23.437500
1621,-23.437500
1622,-23.437500
1623,-23.437500
1624,-23.437500
1625,-23.437500
1626,-23.437500
1627,-23.437500
1628,-23.437500
1629,-23.437500
1630,-23.437500
1631,-23.437500
1632,-23.437500
1633,-23.437500
1634,-23.437500
1635,-23.437500
1636,-23.437500
1637,-23.437500
1638,-23.437500
1639,-23.437500
1640,-23.437500
1641,-23.437500
1642,-27.343750
1643,-27.343750
1644,-27.343750
1645,-27.343750
1646,-27.343750
1647,-27.343750
1648,-27.343750
1649,-27.343750
1650,-27.343750
1651,-27.343750
1652,-27.343750
1653,-27.343750
1654,-27.343750
1655,-27.343750
1656,-27.343750
1657,-27.343750
1658,-27.343750
1659,-27.343750
1660,-27.343750
1661,-27.343750
1662,-27.343750
1663,-31.250000
1664,-27.343750
1665,-27.343750
1666,-27.343750
1667,-27.343750
1668,-31.250000
1669,-27.343750
1670,-31.250000
1671,-31.250000
1672,-31.250000
1673,-31.250000
1674,-31.250000
1675,-31.250000
1676,-31.250000
1677,-31.250000
1678,-31.250000
1679,-31.250000
1680,-31.250000
1681,-31.250000
1682,-31.250000
1683,-31.250000
1684,-31.250000
1685,-31.250000
1686,-31.250000
1687,-31.250000
1688,-31.250000
1689,-31.250000
1690,-31.250000
1691,-35.156250
1692,-31.250000
1693,-35.156250
1694,-35.156250
1695,-35.156250
1696,-35.156250
1697,-35.156250
1698,-35.156250
1699,-35.156250
1700,-35.156250
1701,-35.156250
1702,-35.156250
1703,-35.156250
1704,-35.156250
1705,-35.156250
1706,-35.156250
1707,-35.156250
1708,-35.156250
1709,-35.156250
1710,-35.156250
1711,-35.156250
1712,-35.156250
1713,-35.156250
1714,-35.156250
1715,-39.062500
1716,-35.156250
1717,-35.156250
1718,-39.062500
1719,-35.156250
1720,-35.156250
1721,-39.062500
1722,-39.062500
1723,-39.062500
1724,-39.062500
1725,-39.062500
1726,-39.062500
1727,-39.062500
1728,-39.062500
1729,-39.062500
1730,-39.062500
1731,-39.062500
1732,-39.062500
1733,-39.062500
1734,-39.062500
1735,-39.062500
1736,-39.062500
1737,-39.062500
1738,-39.062500
1739,-39.062500
1740,-39.062500
1741,-39.062500
1742,-39.062500
1743,-39.062500
1744,-39.062500
1745,-39.062500
1746,-39.062500
1747,-39.062500
1748,-39.062500
1749,-39.062500
1750,-39.062500
1751,-39.062500
1752,-39.062500
1753,-42.968750
1754,-39.062500
1755,-39.062500
1756,-39.062500
1757,-39.062500
1758,-39.062500
1759,-39.062500
1760,-42.968750
1761,-42.968750
1762,-39.062500
1763,-42.968750
1764,-42.968750
1765,-42.968750
1766,-42.968750
1767,-42.968750
1768,-42.968750
1769,-42.968750
1770,-42.968750
1771,-42.968750
1772,-42.968750
1773,-42.968750
1774,-42.968750
1775,-42.968750
1776,-42.968750
1777,-42.968750
1778,-42.968750
1779,-42.968750
1780,-42.968750
1781,-42.968750
1782,-42.968750
1783,-42.968750
1784,-42.968750
1785,-42.968750
1786,-42.968750
1787,-42.968750
1788,-42.968750
1789,-42.968750
1790,-42.968750
1791,-42.968750
1792,-42.968750
1793,-42.968750
1794,-42.968750
1795,-42.968750
1796,-42.968750
1797,-42.968750
1798,-42.968750
1799,-42.968750
1800,-42.968750
1801,-42.968750
1802,-42.968750
1803,-42.968750
1804,-42.968750
1805,-42.968750
1806,-42.968750
1807,-42.968750
1808,-42.968750
1809,-42.968750
1810,-42.968750
1811,-42.968750
1812,-42.968750
1813,-42.968750
1814,-42.968750
1815,-42.968750
1816,-42.968750
1817,-42.968750
1818,-42.968750
1819,-42.968750
1820,-42.968750
1821,-42.968750
1822,-42.968750
1823,-42.968750
1824,-42.968750
1825,-42.968750
1826,-42.968750
1827,-42.968750
1828,-42.968750
1829,-42.968750
1830,-42.968750
1831,-42.968750
1832,-42.968750
1833,-42.968750
1834,-42.968750
1835,-46.875000
1836,-42.968750
1837,-42.968750
1838,-42.968750
1839,-42.968750
1840,-42.968750
1841,-42.968750
1842,-42.968750
1843,-42.968750
1844,-42.968750
1845,-42.968750
1846,-42.968750
1847,-42.968750
1848,-42.968750
1849,-42.968750
1850,-42.968750
1851,-42.968750
1852,-42.968750
1853,-46.875000
1854,-42.968750
1855,-42.968750
1856,-42.968750
1857,-46.875000
1858,-42.968750
1859,-42.968750
1860,-42.968750
1861,-42.968750
1862,-46.875000
1863,-42.968750
1864,-42.968750
1865,-46.875000
1866,-42.968750
1867,-42.968750
1868,-42.968750
1869,-42.968750
1870,-42.968750
1871,-42.968750
1872,-42.968750
1873,-42.968750
1874,-42.968750
1875,-42.968750
1876,-42.968750
1877,-42.968750
1878,-42.968750
1879,-42.968750
1880,-46.875000
1881,-42.968750
1882,-42.968750
1883,-42.968750
1884,-42.968750
1885,-42.968750
1886,-42.968750
1887,-42.968750
1888,-42.968750
1889,-42.968750
1890,-42.968750
1891,-42.968750
1892,-42.968750
1893,-42.968750
1894,-42.968750
1895,-42.968750
1896,-42.968750
1897,-42.968750
1898,-42.968750
1899,-42.968750
1900,-42.968750
1901,-42.968750
1902,-42.968750
1903,-39.062500
1904,-42.968750
1905,-42.968750
1906,-42.968750
1907,-42.968750
1908,-42.968750
1909,-39.062500
1910,-39.062500
1911,-39.062500
1912,-39.062500
1913,-39.062500
1914,-39.062500
1915,-39.062500
1916,-39.062500
1917,-39.062500
1918,-39.062500
1919,-39.062500
1920,-39.062500
1921,-39.062500
1922,-39.062500
1923,-39.062500
1924,-39.062500
1925,-39.062500
1926,-39.062500
1927,-39.062500
1928,-39.062500
1929,-39.062500
1930,-39.062500
1931,-39.062500
1932,-39.062500
1933,-39.062500
1934,-39.062500
1935,-39.062500
1936,-39.062500
1937,-39.062500
1938,-35.156250
1939,-39.062500
1940,-39.062500
1941,-35.156250
1942,-39.062500
1943,-35.156250
1944,-35.156250
1945,-35.156250
1946,-35.156250
1947,-35.156250
1948,-35.156250
1949,-35.156250
1950,-35.156250
1951,-35.156250
1952,-35.156250
1953,-35.156250
1954,-35.156250
1955,-35.156250
1956,-35.156250
1957,-35.156250
1958,-35.156250
1959,-35.156250
1960,-35.156250
1961,-35.156250
1962,-35.156250
1963,-35.156250
1964,-35.156250
1965,-35.156250
1966,-35.156250
1967,-35.156250
1968,-31.250000
1969,-35.156250
1970,-31.250000
1971,-35.156250
1972,-31.250000
1973,-31.250000
1974,-31.250000
1975,-31.250000
1976,-31.250000
1977,-31.250000
1978,-31.250000
1979,-31.250000
1980,-31.250000
1981,-31.250000
1982,-31.250000
1983,-31.250000
1984,-31.250000
1985,-31.250000
1986,-31.250000
1987,-31.250000
1988,-31.250000
1989,-31.250000
1990,-31.250000
1991,-31.250000
1992,-31.250000
1993,-31.250000
1994,-31.250000
1995,-27.343750
1996,-27.343750
1997,-27.343750
1998,-27.343750
1999,-27.343750
2000,-27.343750
2001,-27.343750
2002,-27.343750
2003,-27.343750
2004,-27.343750
2005,-27.343750
2006,-27.343750
2007,-27.343750
2008,-27.343750
2009,-27.343750
2010,-27.343750
2011,-27.343750
2012,-27.343750
2013,-27.343750
2014,-27.343750
2015,-27.343750
2016,-27.343750
2017,-27.343750
2018,-23.437500
2019,-23.437500
2020,-23.437500
2021,-23.437500
2022,-23.437500
2023,-23.437500
2024,-23.437500
2025,-23.437500
2026,-23.437500
2027,-23.437500
2028,-23.437500
2029,-23.437500
2030,-23.437500
2031,-23.437500
2032,-23.437500
2033,-23.437500
2034,-23.437500
2035,-23.437500
2036,-23.437500
2037,-23.437500
2038,-19.531250
2039,-23.437500
2040,-19.531250
2041,-19.531250
2042,-19.531250
2043,-19.531250
2044,-19.531250
2045,-19.531250
2046,-19.531250
2047,-19.531250
2048,-19.531250
2049,-19.531250
2050,-19.531250
2051,-19.531250
2052,-19.531250
2053,-19.531250
2054,-19.531250
2055,-19.531250
2056,-19.531250
2057,-15.625000
2058,-19.531250
2059,-15.625000
2060,-15.625000
2061,-15.625000
2062,-15.625000
2063,-15.625000
2064,-15.625000
2065,-15.625000
2066,-15.625000
2067,-15.625000
2068,-15.625000
2069,-15.625000
2070,-15.625000
2071,-15.625000
2072,-15.625000
2073,-15.625000
2074,-15.625000
2075,-15.625000
2076,-15.625000
2077,-11.718750
2078,-11.718750
2079,-11.718750
2080,-11.718750
2081,-11.718750
2082,-11.718750
2083,-11.718750
2084,-11.718750
2085,-11.718750
2086,-11.718750
2087,-11.718750
2088,-11.718750
2089,-11.718750
2090,-11.718750
2091,-11.718750
2092,-11.718750
2093,-11.718750
2094,-11.718750
2095,-7.812500
2096,-7.812500
2097,-7.812500
2098,-7.812500
2099,-7.812500
2100,-7.812500
2101,-7.812500
2102,-7.812500
2103,-7.812500
2104,-7.812500
2105,-7.812500
2106,-7.812500
2107,-7.812500
2108,-7.812500
2109,-7.812500
2110,-7.812500
2111,-7.812500
2112,-7.812500
2113,-7.812500
2114,-7.812500
2115,-3.906250
2116,-7.812500
2117,-3.906250
2118,-3.906250
2119,-3.906250
2120,-3.906250
2121,-3.906250
2122,-3.906250
2123,-3.906250
2124,-3.906250
2125,-3.906250
2126,-3.906250
2127,-3.906250
2128,-3.906250
2129,-3.906250
2130,-3.906250
2131,-3.906250
2132,-3.906250
2133,-3.906250
2134,0.000000
2135,-3.906250
2136,0.000000
2137,0.000000
2138,0.000000
2139,0.000000
2140,0.000000
2141,0.000000
2142,0.000000
2143,0.000000
2144,0.000000
2145,0.000000
2146,0.000000
2147,0.000000
2148,0.000000
2149,0.000000
2150,0.000000
2151,0.000000
2152,0.000000
2153,0.000000
2154,0.000000
2155,3.906250
2156,3.906250
2157,3.906250
2158,3.906250
2159,3.906250
2160,3.906250
2161,3.906250
2162,3.906250
2163,3.906250
2164,3.906250
2165,3.906250
2166,3.906250
2167,3.906250
2168,3.906250
2169,3.906250
2170,3.906250
2171,3.906250
2172,3.906250
2173,7.812500
2174,7.812500
2175,3.906250
2176,3.906250
2177,7.812500
2178,7.812500
2179,7.812500
2180,7.812500
2181,7.812500
2182,7.812500
2183,7.812500
2184,7.812500
2185,7.812500
2186,7.812500
2187,7.812500
2188,7.812500
2189,7.812500
2190,7.812500
2191,7.812500
2192,7.812500
2193,7.812500
2194,7.812500
2195,7.812500
2196,7.812500
2197,7.812500
2198,7.812500
2199,11.718750
2200,7.812500
2201,11.718750
2202,7.812500
2203,11.718750
2204,11.718750
2205,11.718750
2206,11.718750
2207,11.718750
2208,11.718750
2209,11.718750
2210,11.718750
2211,11.718750
2212,11.718750
2213,11.718750
2214,11.718750
2215,11.718750
2216,11.718750
2217,11.718750
2218,11.718750
2219,11.718750
2220,11.718750
2221,11.718750
2222,11.718750
2223,11.718750
2224,11.718750
2225,11.718750
2226,11.718750
2227,15.625000
2228,11.718750
2229,11.718750
2230,11.718750
2231,11.718750
2232,15.625000
2233,15.625000
2234,15.625000
2235,15.625000
2236,15.625000
2237,15.625000
2238,15.625000
2239,15.625000
2240,15.625000
2241,15.625000
2242,15.625000
2243,15.625000
2244,15.625000
2245,15.625000
2246,15.625000
2247,15.625000
2248,15.625000
2249,15.625000
2250,15.625000
2251,15.625000
2252,15.625000
2253,15.625000
2254,15.625000
2255,15.625000
2256,15.625000
2257,15.625000
2258,15.625000
2259,15.625000
2260,15.625000
2261,15.625000
2262,15.625000
2263,15.625000
2264,15.625000
2265,15.625000
2266,15.625000
2267,15.625000
2268,15.625000
2269,15.625000
2270,15.625000
2271,15.625000
2272,15.625000
2273,15.625000
2274,15.625000
2275,15.625000
2276,19.531250
2277,19.531250
2278,19.531250
2279,15.625000
2280,19.531250
2281,15.625000
2282,19.531250
2283,19.531250
2284,19.531250
2285,19.531250
2286,15.625000
2287,19.531250
2288,15.625000
2289,19.531250
2290,19.531250
2291,19.531250
2292,19.531250
2293,19.531250
2294,19.531250
2295,19.531250
2296,19.531250
2297,19.531250
2298,19.531250
2299,19.531250
2300,19.531250
2301,19.531250
2302,19.531250
2303,19.531250
2304,19.531250
2305,19.531250
2306,19.531250
2307,19.531250
2308,19.531250
2309,19.531250
2310,19.531250
2311,19.531250
2312,19.531250
2313,19.531250
2314,19.531250
2315,19.531250
2316,19.531250
2317,19.531250
2318,19.531250
2319,19.531250
2320,19.531250
2321,19.531250
2322,19.531250
2323,19.531250
2324,19.531250
2325,19.531250
2326,19.531250
2327,19.531250
2328,19.531250
2329,19.531250
2330,19.531250
2331,19.531250
2332,19.531250
2333,19.531250
2334,19.531250
2335,19.531250
2336,19.531250
2337,19.531250
2338,19.531250
2339,19.531250
2340,19.531250
2341,15.625000
2342,19.531250
2343,15.625000
2344,19.531250
2345,19.531250
2346,19.531250
2347,15.625000
2348,15.625000
2349,15.625000
2350,15.625000
2351,15.625000
2352,15.625000
2353,15.625000
2354,15.625000
2355,15.625000
2356,15.625000
2357,15.625000
2358,19.531250
2359,15.625000
2360,15.625000
2361,15.625000
2362,15.625000
2363,15.625000
2364,15.625000
2365,15.625000
2366,15.625000
2367,15.625000
2368,15.625000
2369,15.625000
2370,15.625000
2371,15.625000
2372,15.625000
2373,15.625000
2374,15.625000
2375,15.625000
2376,15.625000
2377,15.625000
2378,15.625000
2379,15.625000
2380,15.625000
2381,15.625000
2382,15.625000
2383,15.625000
2384,15.625000
2385,15.625000
2386,15.625000
2387,15.625000
2388,15.625000
2389,15.625000
2390,15.625000
2391,15.625000
2392,15.625000
2393,11.718750
2394,15.625000
2395,15.625000
2396,15.625000
2397,15.625000
2398,15.625000
2399,11.718750
2400,11.718750
2401,11.718750
2402,11.718750
2403,11.718750
2404,15.625000
2405,15.625000
2406,11.718750
2407,11.718750
2408,15.625000
2409,11.718750
2410,11.718750
2411,11.718750
2412,11.718750
2413,11.718750
2414,11.718750
2415,11.718750
2416,11.718750
2417,11.718750
2418,11.718750
2419,11.718750
2420,11.718750
2421,11.718750
2422,11.718750
2423,11.718750
2424,11.718750
2425,11.718750
2426,11.718750
2427,11.718750
2428,11.718750
2429,11.718750
2430,11.718750
2431,11.718750
2432,11.718750
2433,7.812500
2434,11.718750
2435,11.718750
2436,11.718750
2437,11.718750
2438,11.718750
2439,7.812500
2440,7.812500
2441,7.812500
2442,7.812500
2443,7.812500
2444,7.812500
2445,7.812500
2446,7.812500
2447,7.812500
2448,7.812500
2449,7.812500
2450,7.812500
2451,7.812500
2452,7.812500
2453,7.812500
2454,7.812500
2455,7.812500
2456,7.812500
2457,7.812500
2458,7.812500
2459,3.906250
2460,7.812500
2461,3.906250
2462,3.906250
2463,3.906250
2464,3.906250
2465,3.906250
2466,3.906250
2467,3.906250
2468,3.906250
2469,3.906250
2470,3.906250
2471,3.906250
2472,3.906250
2473,3.906250
2474,3.906250
2475,3.906250
2476,3.906250
2477,3.906250
2478,3.906250
2479,3.906250
2480,3.906250
2481,0.000000
2482,0.000000
2483,0.000000
2484,0.000000
2485,0.000000
2486,0.000000
2487,0.000000
2488,0.000000
2489,0.000000
2490,0.000000
2491,0.000000
2492,0.000000
2493,0.000000
2494,0.000000
2495,0.000000
2496,0.000000
2497,0.000000
2498,0.000000
2499,0.000000
2500,0.000000
2501,0.000000
2502,0.000000
2503,-3.906250
2504,0.000000
2505,-3.906250
2506,-3.906250
2507,-3.906250
2508,-3.906250
2509,-3.906250
2510,-3.906250
2511,-3.906250
2512,-3.906250
2513,-3.906250
2514,-3.906250
2515,-3.906250
2516,-3.906250
2517,-3.906250
2518,-3.906250
2519,-3.906250
2520,-3.906250
2521,-3.906250
2522,-3.906250
2523,-3.906250
2524,-3.906250
2525,-7.812500
2526,-3.906250
2527,-3.906250
2528,-3.906250
2529,-7.812500
2530,-7.812500
2531,-7.812500
2532,-7.812500
2533,-7.812500
2534,-7.812500
2535,-7.812500
2536,-7.812500
2537,-7.812500
2538,-7.812500
2539,-7.812500
2540,-7.812500
2541,-7.812500
2542,-7.812500
2543,-7.812500
2544,-7.812500
2545,-7.812500
2546,-7.812500
2547,-11.718750
2548,-11.718750
2549,-11.718750
2550,-7.812500
2551,-7.812500
2552,-11.718750
2553,-11.718750
2554,-11.718750
2555,-11.718750
2556,-11.718750
2557,-11.718750
2558,-11.718750
2559,-11.718750
2560,-11.718750
2561,-11.718750
2562,-11.718750
2563,-11.718750
2564,-11.718750
2565,-11.718750
2566,-15.625000
2567,-15.625000
2568,-15.625000
2569,-15.625000
2570,-11.718750
2571,-15.625000
2572,-15.625000
2573,-15.625000
2574,-15.625000
2575,-15.625000
2576,-15.625000
2577,-15.625000
2578,-15.625000
2579,-15.625000
2580,-15.625000
2581,-15.625000
2582,-15.625000
2583,-15.625000
2584,-15.625000
2585,-15.625000
2586,-19.531250
2587,-19.531250
2588,-15.625000
2589,-19.531250
2590,-19.531250
2591,-19.531250
2592,-19.531250
2593,-19.531250
2594,-19.531250
2595,-19.531250
2596,-19.531250
2597,-19.531250
2598,-19.531250
2599,-19.531250
2600,-19.531250
2601,-19.531250
2602,-19.531250
2603,-19.531250
2604,-19.531250
2605,-19.531250
2606,-19.531250
2607,-19.531250
2608,-19.531250
2609,-19.531250
2610,-23.437500
2611,-23.437500
2612,-23.437500
2613,-23.437500
2614,-23.437500
2615,-23.437500
2616,-23.437500
2617,-23.437500
2618,-23.437500
2619,-23.437500
2620,-23.437500
2621,-23.437500
2622,-23.437500
2623,-23.437500
2624,-23.437500
2625,-23.437500
2626,-23.437500
2627,-23.437500
2628,-23.437500
2629,-27.343750
2630,-27.343750
2631,-27.343750
2632,-27.343750
2633,-27.343750
2634,-27.343750
2635,-27.343750
2636,-27.343750
2637,-27.343750
2638,-27.343750
2639,-27.343750
2640,-27.343750
2641,-27.343750
2642,-27.343750
2643,-27.343750
2644,-27.343750
2645,-27.343750
2646,-27.343750
2647,-27.343750
2648,-27.343750
2649,-27.343750
2650,-31.250000
2651,-31.250000
2652,-31.250000
2653,-31.250000
2654,-31.250000
2655,-31.250000
2656,-31.250000
2657,-31.250000
2658,-31.250000
2659,-31.250000
2660,-31.250000
2661,-31.250000
2662,-31.250000
2663,-31.250000
2664,-31.250000
2665,-31.250000
2666,-31.250000
2667,-31.250000
2668,-31.250000
2669,-31.250000
2670,-31.250000
2671,-31.250000
2672,-35.156250
2673,-31.250000
2674,-31.250000
2675,-31.250000
2676,-35.156250
2677,-31.250000
2678,-35.156250
2679,-35.156250
2680,-31.250000
2681,-35.156250
2682,-35.156250
2683,-35.156250
2684,-35.156250
2685,-35.156250
2686,-35.156250
2687,-35.156250
2688,-35.156250
2689,-35.156250
2690,-35.156250
2691,-35.156250
2692,-35.156250
2693,-35.156250
2694,-35.156250
2695,-35.156250
2696,-35.156250
2697,-35.156250
2698,-35.156250
2699,-35.156250
2700,-35.156250
2701,-35.156250
2702,-35.156250
2703,-35.156250
2704,-35.156250
2705,-35.156250
2706,-35.156250
2707,-35.156250
2708,-35.156250
2709,-39.062500
2710,-39.062500
2711,-39.062500
2712,-35.156250
2713,-35.156250
2714,-39.062500
2715,-39.062500
2716,-39.062500
2717,-39.062500
2718,-39.062500
2719,-39.062500
2720,-39.062500
2721,-39.062500
2722,-39.062500
2723,-39.062500
2724,-39.062500
2725,-39.062500
2726,-39.062500
2727,-39.062500
2728,-39.062500
2729,-39.062500
2730,-39.062500
2731,-39.062500
2732,-39.062500
2733,-39.062500
2734,-39.062500
2735,-39.062500
2736,-39.062500
2737,-39.062500
2738,-39.062500
2739,-39.062500
2740,-42.968750
2741,-39.062500
2742,-39.062500
2743,-42.968750
2744,-39.062500
2745,-39.062500
2746,-39.062500
2747,-42.968750
2748,-39.062500
2749,-42.968750
2750,-42.968750
2751,-42.968750
2752,-42.968750
2753,-42.968750
2754,-42.968750
2755,-42.968750
2756,-42.968750
2757,-42.968750
2758,-42.968750
2759,-42.968750
2760,-42.968750
2761,-42.968750
2762,-42.968750
2763,-42.968750
2764,-42.968750
2765,-42.968750
2766,-42.968750
2767,-42.968750
2768,-42.968750
2769,-42.968750
2770,-42.968750
2771,-42.968750
2772,-42.968750
2773,-42.968750
2774,-42.968750
2775,-42.968750
2776,-42.968750
2777,-42.968750
2778,-42.968750
2779,-42.968750
2780,-42.968750
2781,-42.968750
2782,-42.968750
2783,-42.968750
2784,-42.968750
2785,-42.968750
2786,-42.968750
2787,-42.968750
2788,-42.968750
2789,-42.968750
2790,-42.968750
2791,-42.968750
2792,-42.968750
2793,-42.968750
2794,-42.968750
2795,-42.968750
2796,-42.968750
2797,-42.968750
2798,-42.968750
2799,-42.968750
2800,-42.968750
2801,-42.968750
2802,-42.968750
2803,-42.968750
2804,-42.968750
2805,-42.968750
2806,-42.968750
2807,-46.875000
2808,-42.968750
2809,-42.968750
2810,-42.968750
2811,-42.968750
2812,-42.968750
2813,-42.968750
2814,-42.968750
2815,-42.968750
2816,-42.968750
2817,-42.968750
2818,-42.968750
2819,-42.968750
2820,-42.968750
2821,-42.968750
2822,-42.968750
2823,-42.968750
2824,-42.968750
2825,-42.968750
2826,-42.968750
2827,-42.968750
2828,-42.968750
2829,-42.968750
2830,-42.968750
2831,-42.968750
2832,-42.968750
2833,-42.968750
2834,-42.968750
2835,-42.968750
2836,-42.968750
2837,-42.968750
2838,-42.968750
2839,-42.968750
2840,-42.968750
2841,-42.968750
2842,-42.968750
2843,-42.968750
2844,-42.968750
2845,-42.968750
2846,-42.968750
2847,-42.968750
2848,-42.968750
2849,-42.968750
2850,-42.968750
2851,-42.968750
2852,-42.968750
2853,-42.968750
2854,-42.968750
2855,-42.968750
2856,-42.968750
2857,-42.968750
2858,-42.968750
2859,-42.968750
2860,-42.968750
2861,-42.968750
2862,-42.968750
2863,-42.968750
2864,-42.968750
2865,-42.968750
2866,-42.968750
2867,-42.968750
2868,-42.968750
2869,-42.968750
2870,-42.968750
2871,-42.968750
2872,-42.968750
2873,-42.968750
2874,-42.968750
2875,-42.968750
2876,-42.968750
2877,-42.968750
2878,-42.968750
2879,-42.968750
2880,-42.968750
2881,-42.968750
2882,-42.968750
2883,-42.968750
2884,-42.968750
2885,-42.968750
2886,-42.968750
2887,-42.968750
2888,-42.968750
2889,-42.968750
2890,-42.968750
2891,-42.968750
2892,-42.968750
2893,-42.968750
2894,-42.968750
2895,-42.968750
2896,-39.062500
2897,-39.062500
2898,-42.968750
2899,-42.968750
2900,-42.968750
2901,-42.968750
2902,-39.062500
2903,-39.062500
2904,-39.062500
2905,-39.062500
2906,-39.062500
2907,-39.062500
2908,-39.062500
2909,-39.062500
2910,-39.062500
2911,-39.062500
2912,-39.062500
2913,-39.062500
2914,-39.062500
2915,-39.062500
2916,-39.062500
2917,-39.062500
2918,-39.062500
2919,-39.062500
2920,-39.062500
2921,-39.062500
2922,-39.062500
2923,-39.062500
2924,-39.062500
2925,-39.062500
2926,-39.062500
2927,-39.062500
2928,-39.062500
2929,-39.062500
2930,-35.156250
2931,-39.062500
2932,-39.062500
2933,-39.062500
2934,-35.156250
2935,-35.156250
2936,-35.156250
2937,-35.156250
2938,-35.156250
2939,-35.156250
2940,-35.156250
2941,-35.156250
2942,-35.156250
2943,-35.156250
2944,-35.156250
2945,-35.156250
2946,-35.156250
2947,-35.156250
2948,-35.156250
2949,-35.156250
2950,-35.156250
2951,-35.156250
2952,-35.156250
2953,-35.156250
2954,-35.156250
2955,-35.156250
2956,-35.156250
2957,-35.156250
2958,-35.156250
2959,-35.156250
2960,-31.250000
2961,-35.156250
2962,-35.156250
2963,-31.250000
2964,-31.250000
2965,-31.250000
2966,-31.250000
2967,-31.250000
2968,-31.250000
2969,-31.250000
2970,-31.250000
2971,-31.250000
2972,-31.250000
2973,-31.250000
2974,-31.250000
2975,-31.250000
2976,-31.250000
2977,-31.250000
2978,-31.250000
2979,-31.250000
2980,-27.343750
2981,-31.250000
2982,-31.250000
2983,-31.250000
2984,-31.250000
2985,-27.343750
2986,-27.343750
2987,-27.343750
2988,-27.343750
2989,-27.343750
2990,-27.343750
2991,-27.343750
2992,-27.343750
2993,-27.343750
2994,-27.343750
2995,-27.343750
2996,-27.343750
2997,-27.343750
2998,-27.343750
2999,-27.343750
3000,-27.343750
3001,-27.343750
3002,-27.343750
3003,-27.343750
3004,-27.343750
3005,-27.343750
3006,-23.437500
3007,-23.437500
3008,-23.437500
3009,-23.437500
3010,-23.437500
3011,-23.437500
3012,-23.437500
3013,-23.437500
3014,-23.437500
3015,-23.437500
3016,-23.437500
3017,-23.437500
3018,-23.437500
3019,-23.437500
3020,-23.437500
3021,-23.437500
3022,-23.437500
3023,-23.437500
3024,-23.437500
3025,-19.531250
3026,-19.531250
3027,-19.531250
3028,-19.531250
3029,-19.531250
3030,-19.531250
3031,-19.531250
3032,-19.531250
3033,-19.531250
3034,-19.531250
3035,-19.531250
3036,-19.531250
3037,-19.531250
3038,-19.531250
3039,-19.531250
3040,-19.531250
3041,-19.531250
3042,-19.531250
3043,-19.531250
3044,-19.531250
3045,-19.531250
3046,-19.531250
3047,-15.625000
3048,-15.625000
3049,-15.625000
3050,-15.625000
3051,-15.625000
3052,-15.625000
3053,-15.625000
3054,-15.625000
3055,-15.625000
3056,-15.625000
3057,-15.625000
3058,-11.718750
3059,-15.625000
3060,-15.625000
3061,-15.625000
3062,-15.625000
3063,-15.625000
3064,-15.625000
3065,-11.718750
3066,-11.718750
3067,-11.718750
3068,-11.718750
3069,-11.718750
3070,-11.718750
3071,-11.718750
3072,-11.718750
3073,-11.718750
3074,-11.718750
3075,-11.718750
3076,-11.718750
3077,-11.718750
3078,-11.718750
3079,-11.718750
3080,-11.718750
3081,-11.718750
3082,-11.718750
3083,-11.718750
3084,-7.812500
3085,-7.812500
3086,-7.812500
3087,-7.812500
3088,-7.812500
3089,-7.812500
3090,-7.812500
3091,-7.812500
3092,-7.812500
3093,-7.812500
3094,-7.812500
3095,-7.812500
3096,-7.812500
3097,-7.812500
3098,-7.812500
3099,-7.812500
3100,-3.906250
3101,-7.812500
3102,-3.906250
3103,-7.812500
3104,-3.906250
3105,-3.906250
3106,-3.906250
3107,-3.906250
3108,-3.906250
3109,-3.906250
3110,-3.906250
3111,-3.906250
3112,-3.906250
3113,-3.906250
3114,-3.906250
3115,-3.906250
3116,-3.906250
3117,-3.906250
3118,-3.906250
3119,-3.906250
3120,-3.906250
3121,-3.906250
3122,-3.906250
3123,-3.906250
3124,-3.906250
3125,0.000000
3126,0.000000
3127,0.000000
3128,0.000000
3129,0.000000
3130,0.000000
3131,0.000000
3132,0.000000
3133,0.000000
3134,0.000000
3135,0.000000
3136,0.000000
3137,0.000000
3138,0.000000
3139,0.000000
3140,0.000000
3141,0.000000
3142,0.000000
3143,0.000000
3144,3.906250
3145,0.000000
3146,3.906250
3147,3.906250
3148,3.906250
3149,3.906250
3150,3.906250
3151,3.906250
3152,3.906250
3153,3.906250
3154,3.906250
3155,3.906250
3156,3.906250
3157,3.906250
3158,3.906250
3159,3.906250
3160,3.906250
3161,3.906250
3162,3.906250
3163,3.906250
3164,3.906250
3165,7.812500
3166,3.906250
3167,7.812500
3168,7.812500
3169,7.812500
3170,7.812500
3171,7.812500
3172,7.812500
3173,7.812500
3174,7.812500
3175,7.812500
3176,7.812500
3177,7.812500
3178,7.812500
3179,7.812500
3180,7.812500
3181,7.812500
3182,7.812500
3183,7.812500
3184,7.812500
3185,7.812500
3186,11.718750
3187,7.812500
3188,11.718750
3189,7.812500
3190,11.718750
3191,7.812500
3192,11.718750
3193,11.718750
3194,11.718750
3195,11.718750
3196,11.718750
3197,11.718750
3198,11.718750
3199,11.718750
3200,11.718750
3201,11.718750
3202,11.718750
3203,11.718750
3204,11.718750
3205,11.718750
3206,11.718750
3207,11.718750
3208,11.718750
3209,11.718750
3210,11.718750
3211,11.718750
3212,11.718750
3213,11.718750
3214,11.718750
3215,11.718750
3216,15.625000
3217,15.625000
3218,15.625000
3219,15.625000
3220,15.625000
3221,11.718750
3222,15.625000
3223,11.718750
3224,15.625000
3225,15.625000
3226,15.625000
3227,15.625000
3228,15.625000
3229,15.625000
3230,15.625000
3231,15.625000
3232,15.625000
3233,15.625000
3234,15.625000
3235,15.625000
3236,15.625000
3237,15.625000
3238,15.625000
3239,15.625000
3240,15.625000
3241,15.625000
3242,15.625000
3243,15.625000
3244,15.625000
3245,15.625000
3246,15.625000
3247,15.625000
3248,15.625000
3249,15.625000
3250,15.625000
3251,15.625000
3252,15.625000
3253,15.625000
3254,15.625000
3255,15.625000
3256,15.625000
3257,15.625000
3258,15.625000
3259,15.625000
3260,15.625000
3261,15.625000
3262,15.625000
3263,15.625000
3264,15.625000
3265,15.625000
3266,15.625000
3267,15.625000
3268,19.531250
3269,19.531250
3270,15.625000
3271,15.625000
3272,15.625000
3273,15.625000
3274,15.625000
3275,15.625000
3276,19.531250
3277,19.531250
3278,19.531250
3279,19.531250
3280,19.531250
3281,15.625000
3282,19.531250
3283,19.531250
3284,19.531250
3285,19.531250
3286,19.531250
3287,19.531250
3288,19.531250
3289,19.531250
3290,19.531250
3291,19.531250
3292,19.531250
3293,19.531250
3294,19.531250
3295,19.531250
3296,19.531250
3297,19.531250
3298,19.531250
3299,19.531250
3300,19.531250
3301,19.531250
3302,19.531250
3303,19.531250
3304,19.531250
3305,19.531250
3306,19.531250
3307,19.531250
3308,19.531250
3309,19.531250
3310,19.531250
3311,19.531250
3312,19.531250
3313,19.531250
3314,19.531250
3315,19.531250
3316,19.531250
3317,19.531250
3318,19.531250
3319,19.531250
3320,19.531250
3321,19.531250
3322,19.531250
3323,19.531250
3324,19.531250
3325,19.531250
3326,19.531250
3327,19.531250
3328,15.625000
3329,19.531250
3330,15.625000
3331,19.531250
3332,19.531250
3333,19.531250
3334,19.531250
3335,19.531250
3336,19.531250
3337,19.531250
3338,19.531250
3339,19.531250
3340,19.531250
3341,19.531250
3342,19.531250
3343,19.531250
3344,19.531250
3345,19.531250
3346,19.531250
3347,15.625000
3348,15.625000
3349,15.625000
3350,15.625000
3351,15.625000
3352,15.625000
3353,15.625000
3354,15.625000
3355,15.625000
3356,15.625000
3357,15.625000
3358,15.625000
3359,15.625000
3360,15.625000
3361,15.625000
3362,15.625000
3363,15.625000
3364,15.625000
3365,15.625000
3366,15.625000
3367,15.625000
3368,15.625000
3369,15.625000
3370,15.625000
3371,15.625000
3372,15.625000
3373,15.625000
3374,15.625000
3375,15.625000
3376,15.625000
3377,15.625000
3378,15.625000
3379,15.625000
3380,15.625000
3381,15.625000
3382,15.625000
3383,15.625000
3384,15.625000
3385,15.625000
3386,15.625000
3387,15.625000
3388,15.625000
3389,15.625000
3390,15.625000
3391,11.718750
3392,11.718750
3393,15.625000
3394,11.718750
3395,11.718750
3396,11.718750
3397,11.718750
3398,11.718750
3399,11.718750
3400,11.718750
3401,11.718750
3402,11.718750
3403,11.718750
3404,11.718750
3405,11.718750
3406,11.718750
3407,11.718750
3408,11.718750
3409,11.718750
3410,11.718750
3411,11.718750
3412,11.718750
3413,11.718750
3414,11.718750
3415,11.718750
3416,11.718750
3417,11.718750
3418,11.718750
3419,11.718750
3420,7.812500
3421,7.812500
3422,7.812500
3423,7.812500
3424,11.718750
3425,11.718750
3426,7.812500
3427,7.812500
3428,7.812500
3429,7.812500
3430,7.812500
3431,7.812500
3432,7.812500
3433,7.812500
3434,7.812500
3435,7.812500
3436,7.812500
3437,7.812500
3438,7.812500
3439,7.812500
3440,7.812500
3441,7.812500
3442,7.812500
3443,7.812500
3444,7.812500
3445,7.812500
3446,7.812500
3447,7.812500
3448,3.906250
3449,3.906250
3450,3.906250
3451,3.906250
3452,3.906250
3453,3.906250
3454,3.906250
3455,3.906250
3456,3.906250
3457,3.906250
3458,3.906250
3459,3.906250
3460,3.906250
3461,3.906250
3462,3.906250
3463,3.906250
3464,3.906250
3465,3.906250
3466,3.906250
3467,3.906250
3468,3.906250
3469,3.906250
3470,3.906250
3471,3.906250
3472,0.000000
3473,0.000000
3474,3.906250
3475,0.000000
3476,0.000000
3477,0.000000
3478,0.000000
3479,0.000000
3480,0.000000
3481,0.000000
3482,0.000000
3483,0.000000
3484,0.000000
3485,0.000000
3486,0.000000
3487,0.000000
3488,0.000000
3489,0.000000
3490,0.000000
3491,0.000000
3492,0.000000
3493,-3.906250
3494,0.000000
3495,0.000000
3496,0.000000
3497,0.000000
3498,-3.906250
3499,-3.906250
3500,-3.906250
3501,-3.906250
3502,-3.906250
3503,-3.906250
3504,-3.906250
3505,-3.906250
3506,-3.906250
3507,-3.906250
3508,-3.906250
3509,-3.906250
3510,-3.906250
3511,-3.906250
3512,-3.906250
3513,-3.906250
3514,-3.906250
3515,-3.906250
3516,-7.812500
3517,-3.906250
3518,-7.812500
3519,-7.812500
3520,-7.812500
3521,-7.812500
3522,-7.812500
3523,-7.812500
3524,-7.812500
3525,-7.812500
3526,-7.812500
3527,-7.812500
3528,-7.812500
3529,-7.812500
3530,-7.812500
3531,-7.812500
3532,-7.812500
3533,-11.718750
3534,-7.812500
3535,-11.718750
3536,-11.718750
3537,-11.718750
3538,-11.718750
3539,-11.718750
3540,-11.718750
3541,-11.718750
3542,-11.718750
3543,-11.718750
3544,-11.718750
3545,-11.718750
3546,-11.718750
3547,-11.718750
3548,-11.718750
3549,-11.718750
3550,-11.718750
3551,-11.718750
3552,-15.625000
3553,-11.718750
3554,-11.718750
3555,-15.625000
3556,-11.718750
3557,-11.718750
3558,-15.625000
3559,-15.625000
3560,-15.625000
3561,-15.625000
3562,-15.625000
3563,-15.625000
3564,-15.625000
3565,-15.625000
3566,-15.625000
3567,-15.625000
3568,-15.625000
3569,-15.625000
3570,-15.625000
3571,-15.625000
3572,-15.625000
3573,-15.625000
3574,-15.625000
3575,-19.531250
3576,-19.531250
3577,-19.531250
3578,-15.625000
3579,-15.625000
3580,-19.531250
3581,-19.531250
3582,-19.531250
3583,-19.531250
3584,-19.531250
3585,-19.531250
3586,-19.531250
3587,-19.531250
3588,-19.531250
3589,-19.531250
3590,-19.531250
3591,-19.531250
3592,-19.531250
3593,-19.531250
3594,-19.531250
3595,-23.437500
3596,-19.531250
3597,-19.531250
3598,-19.531250
3599,-23.437500
3600,-23.437500
3601,-23.437500
3602,-23.437500
3603,-23.437500
3604,-23.437500
3605,-23.437500
3606,-23.437500
3607,-23.437500
3608,-23.437500
3609,-23.437500
3610,-23.437500
3611,-23.437500
3612,-23.437500
3613,-23.437500
3614,-23.437500
3615,-23.437500
3616,-23.437500
3617,-23.437500
3618,-23.437500
3619,-23.437500
3620,-23.437500
3621,-27.343750
3622,-27.343750
3623,-27.343750
3624,-27.343750
3625,-27.343750
3626,-27.343750
3627,-27.343750
3628,-27.343750
3629,-27.343750
3630,-27.343750
3631,-27.343750
3632,-27.343750
3633,-27.343750
3634,-27.343750
3635,-27.343750
3636,-27.343750
3637,-27.343750
3638,-27.343750
3639,-27.343750
3640,-27.343750
3641,-27.343750
3642,-27.343750
3643,-31.250000
3644,-31.250000
3645,-31.250000
3646,-27.343750
3647,-31.250000
3648,-31.250000
3649,-31.250000
3650,-31.250000
3651,-31.250000
3652,-31.250000
3653,-31.250000
3654,-31.250000
3655,-31.250000
3656,-31.250000
3657,-31.250000
3658,-31.250000
3659,-31.250000
3660,-31.250000
3661,-31.250000
3662,-31.250000
3663,-31.250000
3664,-31.250000
3665,-31.250000
3666,-35.156250
3667,-31.250000
3668,-35.156250
3669,-35.156250
3670,-35.156250
3671,-35.156250
3672,-35.156250
3673,-35.156250
3674,-35.156250
3675,-35.156250
3676,-35.156250
3677,-35.156250
3678,-35.156250
3679,-35.156250
3680,-35.156250
3681,-35.156250
3682,-35.156250
3683,-35.156250
3684,-35.156250
3685,-35.156250
3686,-35.156250
3687,-35.156250
3688,-35.156250
3689,-35.156250
3690,-35.156250
3691,-35.156250
3692,-35.156250
3693,-35.156250
3694,-35.156250
3695,-35.156250
3696,-35.156250
3697,-39.062500
3698,-39.062500
3699,-39.062500
3700,-39.062500
3701,-35.156250
3702,-39.062500
3703,-39.062500
3704,-39.062500
3705,-39.062500
3706,-39.062500
3707,-39.062500
3708,-39.062500
3709,-39.062500
3710,-39.062500
3711,-39.062500
3712,-39.062500
3713,-39.062500
3714,-39.062500
3715,-39.062500
3716,-39.062500
3717,-39.062500
3718,-39.062500
3719,-39.062500
3720,-39.062500
3721,-39.062500
3722,-39.062500
3723,-39.062500
3724,-39.062500
3725,-39.062500
3726,-39.062500
3727,-39.062500
3728,-39.062500
3729,-39.062500
3730,-39.062500
3731,-39.062500
3732,-39.062500
3733,-39.062500
3734,-39.062500
3735,-42.968750
3736,-39.062500
3737,-42.968750
3738,-42.968750
3739,-42.968750
3740,-42.968750
3741,-42.968750
3742,-42.968750
3743,-39.062500
3744,-42.968750
3745,-42.968750
3746,-42.968750
3747,-42.968750
3748,-42.968750
3749,-42.968750
3750,-42.968750
3751,-42.968750
3752,-42.968750
3753,-42.968750
3754,-42.968750
3755,-42.968750
3756,-42.968750
3757,-42.968750
3758,-42.968750
3759,-42.968750
3760,-42.968750
3761,-42.968750
3762,-42.968750
3763,-42.968750
3764,-42.968750
3765,-42.968750
3766,-42.968750
3767,-42.968750
3768,-42.968750
3769,-42.968750
3770,-42.968750
3771,-42.968750
3772,-42.968750
3773,-42.968750
3774,-42.968750
3775,-42.968750
3776,-42.968750
3777,-42.968750
3778,-42.968750
3779,-42.968750
3780,-42.968750
3781,-42.968750
3782,-42.968750
3783,-42.968750
3784,-42.968750
3785,-42.968750
3786,-42.968750
3787,-42.968750
3788,-42.968750
3789,-42.968750
3790,-42.968750
3791,-42.968750
3792,-42.968750
3793,-42.968750
3794,-42.968750
3795,-42.968750
3796,-42.968750
3797,-42.968750
3798,-42.968750
3799,-42.968750
3800,-46.875000
3801,-42.968750
3802,-42.968750
3803,-42.968750
3804,-42.968750
3805,-42.968750
3806,-42.968750
3807,-42.968750
3808,-42.968750
3809,-42.968750
3810,-42.968750
3811,-42.968750
3812,-42.968750
3813,-42.968750
3814,-42.968750
3815,-46.875000
3816,-42.968750
3817,-42.968750
3818,-42.968750
3819,-42.968750
3820,-42.968750
3821,-42.968750
3822,-42.968750
3823,-46.875000
3824,-42.968750
3825,-42.968750
3826,-42.968750
3827,-42.968750
3828,-42.968750
3829,-42.968750
3830,-42.968750
3831,-42.968750
3832,-42.968750
3833,-42.968750
3834,-42.968750
3835,-42.968750
3836,-42.968750
3837,-42.968750
3838,-42.968750
3839,-42.968750
3840,-42.968750
3841,-42.968750
3842,-42.968750
3843,-42.968750
3844,-42.968750
3845,-42.968750
3846,-42.968750
3847,-42.968750
3848,-42.968750
3849,-42.968750
3850,-42.968750
3851,-42.968750
3852,-42.968750
3853,-42.968750
3854,-42.968750
3855,-42.968750
3856,-42.968750
3857,-42.968750
3858,-42.968750
3859,-42.968750
3860,-42.968750
3861,-42.968750
3862,-42.968750
3863,-42.968750
3864,-42.968750
3865,-42.968750
3866,-42.968750
3867,-42.968750
3868,-42.968750
3869,-42.968750
3870,-42.968750
3871,-42.968750
3872,-42.968750
3873,-42.968750
3874,-42.968750
3875,-42.968750
3876,-42.968750
3877,-42.968750
3878,-42.968750
3879,-42.968750
3880,-42.968750
3881,-42.968750
3882,-42.968750
3883,-42.968750
3884,-39.062500
3885,-39.062500
3886,-39.062500
3887,-39.062500
3888,-39.062500
3889,-39.062500
3890,-39.062500
3891,-42.968750
3892,-39.062500
3893,-39.062500
3894,-39.062500
3895,-39.062500
3896,-39.062500
3897,-39.062500
3898,-39.062500
3899,-39.062500
3900,-39.062500
3901,-39.062500
3902,-39.062500
3903,-39.062500
3904,-39.062500
3905,-39.062500
3906,-39.062500
3907,-39.062500
3908,-39.062500
3909,-39.062500
3910,-39.062500
3911,-39.062500
3912,-39.062500
3913,-39.062500
3914,-39.062500
3915,-39.062500
3916,-39.062500
3917,-39.062500
3918,-39.062500
3919,-39.062500
3920,-39.062500
3921,-39.062500
3922,-35.156250
3923,-35.156250
3924,-39.062500
3925,-39.062500
3926,-35.156250
3927,-39.062500
3928,-35.156250
3929,-35.156250
3930,-35.156250
3931,-35.156250
3932,-35.156250
3933,-35.156250
3934,-35.156250
3935,-35.156250
3936,-35.156250
3937,-35.156250
3938,-35.156250
3939,-35.156250
3940,-35.156250
3941,-35.156250
3942,-35.156250
3943,-35.156250
3944,-35.156250
3945,-35.156250
3946,-35.156250
3947,-35.156250
3948,-35.156250
3949,-35.156250
3950,-31.250000
3951,-31.250000
3952,-31.250000
3953,-31.250000
3954,-31.250000
3955,-31.250000
3956,-31.250000
3957,-31.250000
3958,-31.250000
3959,-31.250000
3960,-31.250000
3961,-31.250000
3962,-31.250000
3963,-31.250000
3964,-31.250000
3965,-31.250000
3966,-31.250000
3967,-31.250000
3968,-31.250000
3969,-31.250000
3970,-27.343750
3971,-27.343750
3972,-31.250000
3973,-31.250000
3974,-27.343750
3975,-27.343750
3976,-27.343750
3977,-27.343750
3978,-27.343750
3979,-27.343750
3980,-27.343750
3981,-27.343750
3982,-27.343750
3983,-27.343750
3984,-27.343750
3985,-27.343750
3986,-27.343750
3987,-27.343750
3988,-27.343750
3989,-27.343750
3990,-27.343750
3991,-27.343750
3992,-23.437500
3993,-27.343750
3994,-27.343750
3995,-27.343750
3996,-27.343750
3997,-23.437500
3998,-23.437500
3999,-23.437500
4000,-23.437500
4001,-23.437500
4002,-23.437500
4003,-23.437500
4004,-23.437500
4005,-23.437500
4006,-23.437500
4007,-23.437500
4008,-23.437500
4009,-23.437500
4010,-23.437500
4011,-23.437500
4012,-23.437500
4013,-23.437500
4014,-23.437500
4015,-23.437500
4016,-23.437500
4017,-23.437500
4018,-19.531250
4019,-19.531250
4020,-19.531250
4021,-19.531250
4022,-19.531250
4023,-19.531250
4024,-19.531250
4025,-19.531250
4026,-19.531250
4027,-19.531250
4028,-19.531250
4029,-19.531250
4030,-19.531250
4031,-19.531250
4032,-19.531250
4033,-19.531250
4034,-15.625000
4035,-15.625000
4036,-15.625000
4037,-15.625000
4038,-15.625000
4039,-15.625000
4040,-15.625000
4041,-15.625000
4042,-15.625000
4043,-15.625000
4044,-15.625000
4045,-15.625000
4046,-15.625000
4047,-15.625000
4048,-15.625000
4049,-15.625000
4050,-15.625000
4051,-15.625000
4052,-15.625000
4053,-15.625000
4054,-15.625000
4055,-11.718750
4056,-11.718750
4057,-11.718750
4058,-11.718750
4059,-11.718750
4060,-11.718750
4061,-11.718750
4062,-11.718750
4063,-11.718750
4064,-11.718750
4065,-11.718750
4066,-11.718750
4067,-11.718750
4068,-11.718750
4069,-11.718750
4070,-11.718750
4071,-11.718750
4072,-11.718750
4073,-11.718750
4074,-11.718750
4075,-7.812500
4076,-7.812500
4077,-7.812500
4078,-7.812500
4079,-7.812500
4080,-7.812500
4081,-7.812500
4082,-7.812500
4083,-7.812500
4084,-7.812500
4085,-7.812500
4086,-7.812500
4087,-7.812500
4088,-7.812500
4089,-7.812500
4090,-7.812500
4091,-3.906250
4092,-3.906250
4093,-3.906250
4094,-3.906250
4095,-3.906250
4096,-3.906250
4097,-3.906250
4098,-3.906250
4099,-3.906250
4100,-3.906250
4101,-3.906250
4102,-3.906250
4103,-3.906250
4104,-3.906250
4105,-3.906250
4106,-3.906250
4107,0.000000
4108,0.000000
4109,0.000000
4110,0.000000
4111,0.000000
4112,0.000000
4113,0.000000
4114,0.000000
4115,0.000000
4116,0.000000
4117,0.000000
4118,0.000000
4119,0.000000
4120,0.000000
4121,0.000000
4122,0.000000
4123,0.000000
4124,0.000000
4125,0.000000
4126,0.000000
4127,3.906250
4128,0.000000
4129,0.000000
4130,3.906250
4131,3.906250
4132,3.906250
4133,3.906250
4134,3.906250
4135,3.906250
4136,3.906250
4137,3.906250
4138,3.906250
4139,3.906250
4140,3.906250
4141,3.906250
4142,3.906250
4143,3.906250
4144,3.906250
4145,3.906250
4146,3.906250
4147,3.906250
4148,3.906250
4149,3.906250
4150,3.906250
4151,3.906250
4152,7.812500
4153,7.812500
4154,7.812500
4155,7.812500
4156,7.812500
4157,7.812500
4158,7.812500
4159,7.812500
4160,7.812500
4161,7.812500
4162,7.812500
4163,7.812500
4164,7.812500
4165,7.812500
4166,7.812500
4167,7.812500
4168,7.812500
4169,7.812500
4170,7.812500
4171,7.812500
4172,7.812500
4173,7.812500
4174,11.718750
4175,11.718750
4176,11.718750
4177,11.718750
4178,11.718750
4179,7.812500
4180,7.812500
4181,11.718750
4182,11.718750
4183,11.718750
4184,11.718750
4185,11.718750
4186,11.718750
4187,11.718750
4188,11.718750
4189,11.718750
4190,11.718750
4191,11.718750
4192,11.718750
4193,11.718750
4194,11.718750
4195,11.718750
4196,11.718750
4197,11.718750
4198,11.718750
4199,11.718750
4200,11.718750
4201,11.718750
4202,11.718750
4203,11.718750
4204,11.718750
4205,15.625000
4206,11.718750
4207,11.718750
4208,11.718750
4209,11.718750
4210,15.625000
4211,15.625000
4212,15.625000
4213,15.625000
4214,15.625000
4215,15.625000
4216,15.625000
4217,15.625000
4218,15.625000
4219,15.625000
4220,15.625000
4221,15.625000
4222,15.625000
4223,15.625000
4224,15.625000
4225,15.625000
4226,15.625000
4227,15.625000
4228,15.625000
4229,15.625000
4230,15.625000
4231,15.625000
4232,15.625000
4233,15.625000
4234,15.625000
4235,15.625000
4236,15.625000
4237,15.625000
4238,15.625000
4239,15.625000
4240,15.625000
4241,15.625000
4242,15.625000
4243,15.625000
4244,15.625000
4245,15.625000
4246,15.625000
4247,15.625000
4248,15.625000
4249,15.625000
4250,19.531250
4251,15.625000
4252,19.531250
4253,15.625000
4254,19.531250
4255,19.531250
4256,19.531250
4257,15.625000
4258,15.625000
4259,19.531250
4260,19.531250
4261,19.531250
4262,19.531250
4263,19.531250
4264,19.531250
4265,19.531250
4266,19.531250
4267,19.531250
4268,19.531250
4269,19.531250
4270,19.531250
4271,19.531250
4272,19.531250
4273,19.531250
4274,19.531250
4275,19.531250
4276,19.531250
4277,19.531250
4278,19.531250
4279,19.531250
4280,19.531250
4281,19.531250
4282,19.531250
4283,19.531250
4284,19.531250
4285,19.531250
4286,19.531250
4287,19.531250
4288,19.531250
4289,19.531250
4290,15.625000
4291,19.531250
4292,19.531250
4293,15.625000
4294,19.531250
4295,19.531250
4296,19.531250
4297,19.531250
4298,19.531250
4299,19.531250
4300,19.531250
4301,15.625000
4302,15.625000
4303,19.531250
4304,19.531250
4305,15.625000
4306,19.531250
4307,19.531250
4308,19.531250
4309,19.531250
4310,19.531250
4311,19.531250
4312,15.625000
4313,15.625000
4314,15.625000
4315,15.625000
4316,15.625000
4317,19.531250
4318,19.531250
4319,15.625000
4320,15.625000
4321,15.625000
4322,15.625000
4323,15.625000
4324,15.625000
4325,15.625000
4326,15.625000
4327,15.625000
4328,15.625000
4329,15.625000
4330,15.625000
4331,15.625000
4332,15.625000
4333,15.625000
4334,15.625000
4335,15.625000
4336,15.625000
4337,15.625000
4338,15.625000
4339,15.625000
4340,15.625000
4341,15.625000
4342,15.625000
4343,15.625000
4344,15.625000
4345,15.625000
4346,15.625000
4347,15.625000
4348,15.625000
4349,15.625000
4350,15.625000
4351,15.625000
4352,15.625000
4353,15.625000
4354,15.625000
4355,15.625000
4356,15.625000
4357,15.625000
4358,15.625000
4359,15.625000
4360,15.625000
4361,15.625000
4362,15.625000
4363,15.625000
4364,15.625000
4365,15.625000
4366,15.625000
4367,15.625000
4368,15.625000
4369,15.625000
4370,15.625000
4371,15.625000
4372,15.625000
4373,15.625000
4374,15.625000
4375,15.625000
4376,15.625000
4377,15.625000
4378,15.625000
4379,15.625000
4380,15.625000
4381,11.718750
4382,11.718750
4383,11.718750
4384,11.718750
4385,11.718750
4386,11.718750
4387,11.718750
4388,11.718750
4389,11.718750
4390,11.718750
4391,11.718750
4392,11.718750
4393,11.718750
4394,11.718750
4395,11.718750
4396,11.718750
4397,11.718750
4398,11.718750
4399,11.718750
4400,11.718750
4401,11.718750
4402,11.718750
4403,11.718750
4404,11.718750
4405,7.812500
4406,11.718750
4407,11.718750
4408,11.718750
4409,11.718750
4410,11.718750
4411,7.812500
4412,11.718750
4413,7.812500
4414,7.812500
4415,7.812500
4416,7.812500
4417,7.812500
4418,7.812500
4419,7.812500
4420,7.812500
4421,7.812500
4422,7.812500
4423,7.812500
4424,7.812500
4425,7.812500
4426,7.812500
4427,7.812500
4428,7.812500
4429,7.812500
4430,7.812500
4431,7.812500
4432,7.812500
4433,7.812500
4434,7.812500
4435,7.812500
4436,3.906250
4437,3.906250
4438,7.812500
4439,3.906250
4440,3.906250
4441,3.906250
4442,3.906250
4443,3.906250
4444,3.906250
4445,3.906250
4446,3.906250
4447,3.906250
4448,3.906250
4449,3.906250
4450,3.906250
4451,3.906250
4452,3.906250
4453,3.906250
4454,3.906250
4455,3.906250
4456,0.000000
4457,3.906250
4458,0.000000
4459,3.906250
4460,0.000000
4461,0.000000
4462,3.906250
4463,0.000000
4464,0.000000
4465,0.000000
4466,0.000000
4467,0.000000
4468,0.000000
4469,0.000000
4470,0.000000
4471,0.000000
4472,0.000000
4473,0.000000
4474,0.000000
4475,0.000000
4476,0.000000
4477,0.000000
4478,0.000000
4479,-3.906250
4480,0.000000
4481,-3.906250
4482,-3.906250
4483,0.000000
4484,0.000000
4485,-3.906250
4486,-3.906250
4487,-3.906250
4488,-3.906250
4489,-3.906250
4490,-3.906250
4491,-3.906250
4492,-3.906250
4493,-3.906250
4494,-3.906250
4495,-3.906250
4496,-3.906250
4497,-3.906250
4498,-3.906250
4499,-3.906250
4500,-3.906250
4501,-3.906250
4502,-3.906250
4503,-3.906250
4504,-3.906250
4505,-7.812500
4506,-3.906250
4507,-7.812500
4508,-7.812500
4509,-7.812500
4510,-7.812500
4511,-7.812500
4512,-7.812500
4513,-7.812500
4514,-7.812500
4515,-7.812500
4516,-7.812500
4517,-7.812500
4518,-7.812500
4519,-7.812500
4520,-7.812500
4521,-7.812500
4522,-7.812500
4523,-7.812500
4524,-11.718750
4525,-11.718750
4526,-11.718750
4527,-11.718750
4528,-11.718750
4529,-11.718750
4530,-11.718750
4531,-11.718750
4532,-11.718750
4533,-11.718750
4534,-11.718750
4535,-11.718750
4536,-11.718750
4537,-11.718750
4538,-11.718750
4539,-11.718750
4540,-11.718750
4541,-11.718750
4542,-11.718750
4543,-15.625000
4544,-15.625000
4545,-11.718750
4546,-15.625000
4547,-15.625000
4548,-15.625000
4549,-15.625000
4550,-15.625000
4551,-15.625000
4552,-15.625000
4553,-15.625000
4554,-15.625000
4555,-15.625000
4556,-15.625000
4557,-15.625000
4558,-15.625000
4559,-15.625000
4560,-15.625000
4561,-15.625000
4562,-15.625000
4563,-15.625000
4564,-15.625000
4565,-19.531250
4566,-19.531250
4567,-19.531250
4568,-15.625000
4569,-19.531250
4570,-19.531250
4571,-19.531250
4572,-19.531250
4573,-19.531250
4574,-19.531250
4575,-19.531250
4576,-19.531250
4577,-19.531250
4578,-19.531250
4579,-19.531250
4580,-23.437500
4581,-19.531250
4582,-19.531250
4583,-23.437500
4584,-19.531250
4585,-23.437500
4586,-23.437500
4587,-23.437500
4588,-23.437500
4589,-23.437500
4590,-23.437500
4591,-23.437500
4592,-23.437500
4593,-23.437500
4594,-23.437500
4595,-23.437500
4596,-23.437500
4597,-23.437500
4598,-23.437500
4599,-23.437500
4600,-23.437500
4601,-23.437500
4602,-23.437500
4603,-23.437500
4604,-23.437500
4605,-23.437500
4606,-23.437500
4607,-23.437500
4608,-23.437500
4609,-23.437500
4610,-23.437500
4611,-27.343750
4612,-27.343750
4613,-27.343750
4614,-27.343750
4615,-27.343750
4616,-27.343750
4617,-27.343750
4618,-27.343750
4619,-27.343750
4620,-27.343750
4621,-27.343750
4622,-27.343750
4623,-27.343750
4624,-27.343750
4625,-27.343750
4626,-27.343750
4627,-27.343750
4628,-27.343750
4629,-27.343750
4630,-27.343750
4631,-27.343750
4632,-27.343750
4633,-31.250000
4634,-31.250000
4635,-31.250000
4636,-31.250000
4637,-31.250000
4638,-31.250000
4639,-31.250000
4640,-31.250000
4641,-31.250000
4642,-31.250000
4643,-31.250000
4644,-31.250000
4645,-31.250000
4646,-31.250000
4647,-31.250000
4648,-31.250000
4649,-31.250000
4650,-31.250000
4651,-31.250000
4652,-31.250000
4653,-31.250000
4654,-31.250000
4655,-31.250000
4656,-35.156250
4657,-35.156250
4658,-31.250000
4659,-35.156250
4660,-35.156250
4661,-35.156250
4662,-35.156250
4663,-35.156250
4664,-35.156250
4665,-35.156250
4666,-35.156250
4667,-35.156250
4668,-35.156250
4669,-35.156250
4670,-35.156250
4671,-35.156250
4672,-35.156250
4673,-35.156250
4674,-35.156250
4675,-35.156250
4676,-35.156250
4677,-35.156250
4678,-35.156250
4679,-35.156250
4680,-35.156250
4681,-39.062500
4682,-35.156250
4683,-39.062500
4684,-35.156250
4685,-39.062500
4686,-39.062500
4687,-39.062500
4688,-39.062500
4689,-39.062500
4690,-39.062500
4691,-39.062500
4692,-39.062500
4693,-39.062500
4694,-39.062500
4695,-39.062500
4696,-39.062500
4697,-39.062500
4698,-39.062500
4699,-39.062500
4700,-39.062500
4701,-39.062500
4702,-39.062500
4703,-39.062500
4704,-39.062500
4705,-39.062500
4706,-39.062500
4707,-39.062500
4708,-39.062500
4709,-39.062500
4710,-39.062500
4711,-39.062500
4712,-39.062500
4713,-39.062500
4714,-39.062500
4715,-39.062500
4716,-39.062500
4717,-42.968750
4718,-39.062500
4719,-42.968750
4720,-39.062500
4721,-39.062500
4722,-39.062500
4723,-39.062500
4724,-42.968750
4725,-42.968750
4726,-39.062500
4727,-42.968750
4728,-42.968750
4729,-42.968750
4730,-39.062500
4731,-42.968750
4732,-39.062500
4733,-42.968750
4734,-42.968750
4735,-42.968750
4736,-39.062500
4737,-42.968750
4738,-42.968750
4739,-42.968750
4740,-42.968750
4741,-42.968750
4742,-42.968750
4743,-42.968750
4744,-42.968750
4745,-42.968750
4746,-42.968750
4747,-42.968750
4748,-42.968750
4749,-42.968750
4750,-42.968750
4751,-42.968750
4752,-42.968750
4753,-42.968750
4754,-42.968750
4755,-42.968750
4756,-42.968750
4757,-42.968750
4758,-42.968750
4759,-42.968750
4760,-42.968750
4761,-42.968750
4762,-42.968750
4763,-42.968750
4764,-42.968750
4765,-42.968750
4766,-42.968750
4767,-42.968750
4768,-42.968750
4769,-42.968750
4770,-42.968750
4771,-42.968750
4772,-42.968750
4773,-42.968750
4774,-42.968750
4775,-42.968750
4776,-42.968750
4777,-42.968750
4778,-42.968750
4779,-42.968750
4780,-42.968750
4781,-42.968750
4782,-42.968750
4783,-42.968750
4784,-42.968750
4785,-42.968750
4786,-42.968750
4787,-42.968750
4788,-42.968750
4789,-42.968750
4790,-42.968750
4791,-42.968750
4792,-42.968750
4793,-42.968750
4794,-42.968750
4795,-42.968750
4796,-42.968750
4797,-46.875000
4798,-42.968750
4799,-42.968750
4800,-46.875000
4801,-42.968750
4802,-42.968750
4803,-42.968750
4804,-42.968750
4805,-42.968750
4806,-46.875000
4807,-42.968750
4808,-42.968750
4809,-42.968750
4810,-46.875000
4811,-42.968750
4812,-42.968750
4813,-42.968750
4814,-42.968750
4815,-42.968750
4816,-42.968750
4817,-42.968750
4818,-42.968750
4819,-42.968750
4820,-42.968750
4821,-46.875000
4822,-42.968750
4823,-42.968750
4824,-42.968750
4825,-42.968750
4826,-42.968750
4827,-46.875000
4828,-42.968750
4829,-42.968750
4830,-42.968750
4831,-42.968750
4832,-42.968750
4833,-42.968750
4834,-42.968750
4835,-42.968750
4836,-42.968750
4837,-42.968750
4838,-42.968750
4839,-42.968750
4840,-42.968750
4841,-46.875000
4842,-42.968750
4843,-42.968750
4844,-42.968750
4845,-42.968750
4846,-42.968750
4847,-42.968750
4848,-42.968750
4849,-42.968750
4850,-42.968750
4851,-42.968750
4852,-42.968750
4853,-42.968750
4854,-42.968750
4855,-42.968750
4856,-42.968750
4857,-42.968750
4858,-42.968750
4859,-42.968750
4860,-42.968750
4861,-42.968750
4862,-42.968750
4863,-42.968750
4864,-42.968750
4865,-42.968750
4866,-42.968750
4867,-42.968750
4868,-42.968750
4869,-42.968750
4870,-42.968750
4871,-42.968750
4872,-42.968750
4873,-42.968750
4874,-39.062500
4875,-42.968750
4876,-39.062500
4877,-39.062500
4878,-39.062500
4879,-42.968750
4880,-39.062500
4881,-39.062500
4882,-39.062500
4883,-39.062500
4884,-39.062500
4885,-39.062500
4886,-39.062500
4887,-39.062500
4888,-39.062500
4889,-39.062500
4890,-39.062500
4891,-39.062500
4892,-39.062500
4893,-39.062500
4894,-39.062500
4895,-39.062500
4896,-39.062500
4897,-39.062500
4898,-39.062500
4899,-39.062500
4900,-39.062500
4901,-39.062500
4902,-39.062500
4903,-39.062500
4904,-39.062500
4905,-35.156250
4906,-35.156250
4907,-35.156250
4908,-39.062500
4909,-39.062500
4910,-35.156250
4911,-39.062500
4912,-39.062500
4913,-35.156250
4914,-39.062500
4915,-35.156250
4916,-35.156250
4917,-39.062500
4918,-35.156250
4919,-35.156250
4920,-39.062500
4921,-35.156250
4922,-35.156250
4923,-35.156250
4924,-35.156250
4925,-35.156250
4926,-35.156250
4927,-35.156250
4928,-35.156250
4929,-35.156250
4930,-35.156250
4931,-35.156250
4932,-35.156250
4933,-35.156250
4934,-35.156250
4935,-35.156250
4936,-35.156250
4937,-31.250000
4938,-35.156250
4939,-31.250000
4940,-31.250000
4941,-31.250000
4942,-35.156250
4943,-35.156250
4944,-31.250000
4945,-31.250000
4946,-31.250000
4947,-31.250000
4948,-31.250000
4949,-31.250000
4950,-31.250000
4951,-31.250000
4952,-31.250000
4953,-31.250000
4954,-31.250000
4955,-31.250000
4956,-31.250000
4957,-31.250000
4958,-31.250000
4959,-31.250000
4960,-31.250000
4961,-27.343750
4962,-31.250000
4963,-31.250000
4964,-31.250000
4965,-31.250000
4966,-27.343750
4967,-27.343750
4968,-27.343750
4969,-27.343750
4970,-27.343750
4971,-27.343750
4972,-27.343750
4973,-27.343750
4974,-27.343750
4975,-27.343750
4976,-27.343750
4977,-27.343750
4978,-27.343750
4979,-27.343750
4980,-27.343750
4981,-27.343750
4982,-27.343750
4983,-27.343750
4984,-27.343750
4985,-27.343750
4986,-23.437500
4987,-23.437500
4988,-23.437500
4989,-23.437500
4990,-23.437500
4991,-23.437500
4992,-23.437500
4993,-23.437500
4994,-23.437500
4995,-23.437500
4996,-23.437500
4997,-19.531250
4998,-23.437500
4999,-23.437500
5000,-23.437500
5001,-23.437500
5002,-23.437500
5003,-23.437500
5004,-19.531250
5005,-19.531250
5006,-19.531250
5007,-19.531250
5008,-19.531250
5009,-19.531250
5010,-19.531250
5011,-19.531250
5012,-19.531250
5013,-19.531250
5014,-19.531250
5015,-19.531250
5016,-19.531250
5017,-19.531250
5018,-15.625000
5019,-19.531250
5020,-19.531250
5021,-19.531250
5022,-19.531250
5023,-19.531250
5024,-15.625000
5025,-15.625000
5026,-15.625000
5027,-15.625000
5028,-15.625000
5029,-15.625000
5030,-15.625000
5031,-15.625000
5032,-15.625000
5033,-15.625000
5034,-15.625000
5035,-15.625000
5036,-15.625000
5037,-15.625000
5038,-15.625000
5039,-15.625000
5040,-15.625000
5041,-15.625000
5042,-15.625000
5043,-15.625000
5044,-11.718750
5045,-11.718750
5046,-11.718750
5047,-15.625000
5048,-11.718750
5049,-11.718750
5050,-11.718750
5051,-11.718750
5052,-11.718750
5053,-11.718750
5054,-11.718750
5055,-11.718750
5056,-11.718750
5057,-11.718750
5058,-7.812500
5059,-11.718750
5060,-11.718750
5061,-11.718750
5062,-7.812500
5063,-7.812500
5064,-7.812500
5065,-11.718750
5066,-7.812500
5067,-7.812500
5068,-7.812500
5069,-7.812500
5070,-7.812500
5071,-7.812500
5072,-7.812500
5073,-7.812500
5074,-7.812500
5075,-7.812500
5076,-7.812500
5077,-7.812500
5078,-7.812500
5079,-7.812500
5080,-7.812500
5081,-7.812500
5082,-7.812500
5083,-3.906250
5084,-3.906250
5085,-7.812500
5086,-3.906250
5087,-3.906250
5088,-3.906250
5089,-3.906250
5090,-3.906250
5091,-3.906250
5092,-3.906250
5093,-3.906250
5094,-3.906250
5095,-3.906250
5096,-3.906250
5097,-3.906250
5098,-3.906250
5099,-3.906250
5100,-3.906250
5101,-3.906250
5102,-3.906250
5103,0.000000
5104,0.000000
5105,0.000000
5106,0.000000
5107,0.000000
5108,0.000000
5109,0.000000
5110,0.000000
5111,0.000000
5112,0.000000
5113,0.000000
5114,0.000000
5115,0.000000
5116,0.000000
5117,0.000000
5118,0.000000
5119,0.000000
5120,0.000000
5121,0.000000
5122,0.000000
5123,3.906250
5124,3.906250
5125,3.906250
5126,3.906250
5127,3.906250
5128,3.906250
5129,3.906250
5130,3.906250
5131,3.906250
5132,3.906250
5133,3.906250
5134,3.906250
5135,3.906250
5136,3.906250
5137,3.906250
5138,3.906250
5139,3.906250
5140,3.906250
5141,3.906250
5142,7.812500
5143,7.812500
5144,7.812500
5145,7.812500
5146,7.812500
5147,7.812500
5148,7.812500
5149,7.812500
5150,7.812500
5151,7.812500
5152,7.812500
5153,7.812500
5154,7.812500
5155,7.812500
5156,7.812500
5157,7.812500
5158,7.812500
5159,7.812500
5160,7.812500
5161,7.812500
5162,11.718750
5163,11.718750
5164,7.812500
5165,11.718750
5166,11.718750
5167,11.718750
5168,11.718750
5169,11.718750
5170,11.718750
5171,11.718750
5172,11.718750
5173,11.718750
5174,11.718750
5175,11.718750
5176,11.718750
5177,11.718750
5178,11.718750
5179,11.718750
5180,11.718750
5181,11.718750
5182,11.718750
5183,11.718750
5184,11.718750
5185,11.718750
5186,11.718750
5187,11.718750
5188,11.718750
5189,11.718750
5190,11.718750
5191,11.718750
5192,11.718750
5193,15.625000
5194,15.625000
5195,15.625000
5196,15.625000
5197,11.718750
5198,15.625000
5199,11.718750
5200,15.625000
5201,15.625000
5202,15.625000
5203,15.625000
5204,15.625000
5205,15.625000
5206,15.625000
5207,15.625000
5208,15.625000
5209,15.625000
5210,15.625000
5211,15.625000
5212,15.625000
5213,15.625000
5214,15.625000
5215,15.625000
5216,15.625000
5217,15.625000
5218,15.625000
5219,15.625000
5220,15.625000
5221,15.625000
5222,15.625000
5223,15.625000
5224,15.625000
5225,15.625000
5226,15.625000
5227,15.625000
5228,15.625000
5229,15.625000
5230,15.625000
5231,15.625000
5232,15.625000
5233,15.625000
5234,15.625000
5235,15.625000
5236,15.625000
5237,15.625000
5238,15.625000
5239,15.625000
5240,19.531250
5241,19.531250
5242,15.625000
5243,19.531250
5244,19.531250
5245,19.531250
5246,19.531250
5247,19.531250
5248,15.625000
5249,19.531250
5250,19.531250
5251,19.531250
5252,19.531250
5253,19.531250
5254,15.625000
5255,19.531250
5256,19.531250
5257,19.531250
5258,19.531250
5259,19.531250
5260,19.531250
5261,19.531250
5262,19.531250
5263,19.531250
5264,19.531250
5265,19.531250
5266,19.531250
5267,19.531250
5268,19.531250
5269,19.531250
5270,19.531250
5271,19.531250
5272,19.531250
5273,19.531250
5274,19.531250
5275,19.531250
5276,19.531250
5277,19.531250
5278,19.531250
5279,19.531250
5280,19.531250
5281,19.531250
5282,19.531250
5283,19.531250
5284,19.531250
5285,19.531250
5286,19.531250
5287,19.531250
5288,19.531250
5289,19.531250
5290,15.625000
5291,19.531250
5292,19.531250
5293,19.531250
5294,19.531250
5295,19.531250
5296,19.531250
5297,19.531250
5298,19.531250
5299,19.531250
5300,19.531250
5301,19.531250
5302,19.531250
5303,19.531250
5304,19.531250
5305,19.531250
5306,19.531250
5307,19.531250
5308,19.531250
5309,15.625000
5310,19.531250
5311,15.625000
5312,19.531250
5313,19.531250
5314,19.531250
5315,15.625000
5316,19.531250
5317,15.625000
5318,19.531250
5319,19.531250
5320,15.625000
5321,15.625000
5322,19.531250
5323,15.625000
5324,19.531250
5325,19.531250
5326,19.531250
5327,15.625000
5328,15.625000
5329,15.625000
5330,15.625000
5331,19.531250
5332,15.625000
5333,15.625000
5334,15.625000
5335,15.625000
5336,15.625000
5337,15.625000
5338,15.625000
5339,15.625000
5340,15.625000
5341,15.625000
5342,15.625000
5343,15.625000
5344,15.625000
5345,15.625000
5346,15.625000
5347,15.625000
5348,15.625000
5349,15.625000
5350,15.625000
5351,15.625000
5352,15.625000
5353,15.625000
5354,15.625000
5355,15.625000
5356,15.625000
5357,15.625000
5358,15.625000
5359,15.625000
5360,15.625000
5361,15.625000
5362,15.625000
5363,11.718750
5364,15.625000
5365,15.625000
5366,15.625000
5367,15.625000
5368,11.718750
5369,11.718750
5370,11.718750
5371,11.718750
5372,11.718750
5373,11.718750
5374,11.718750
5375,11.718750
5376,11.718750
5377,11.718750
5378,11.718750
5379,11.718750
5380,11.718750
5381,11.718750
5382,11.718750
5383,11.718750
5384,11.718750
5385,11.718750
5386,11.718750
5387,11.718750
5388,11.718750
5389,11.718750
5390,11.718750
5391,11.718750
5392,11.718750
5393,11.718750
5394,11.718750
5395,11.718750
5396,7.812500
5397,7.812500
5398,11.718750
5399,7.812500
5400,7.812500
5401,11.718750
5402,7.812500
5403,7.812500
5404,7.812500
5405,7.812500
5406,7.812500
5407,7.812500
5408,7.812500
5409,7.812500
5410,7.812500
5411,7.812500
5412,7.812500
5413,7.812500
5414,7.812500
5415,7.812500
5416,7.812500
5417,7.812500
5418,7.812500
5419,7.812500
5420,7.812500
5421,7.812500
5422,7.812500
5423,7.812500
5424,7.812500
5425,3.906250
5426,3.906250
5427,7.812500
5428,7.812500
5429,3.906250
5430,3.906250
5431,3.906250
5432,3.906250
5433,3.906250
5434,3.906250
5435,3.906250
5436,3.906250
5437,3.906250
5438,3.906250
5439,3.906250
5440,3.906250
5441,3.906250
5442,3.906250
5443,3.906250
5444,3.906250
5445,3.906250
5446,3.906250
5447,3.906250
5448,0.000000
5449,3.906250
5450,0.000000
5451,0.000000
5452,0.000000
5453,0.000000
5454,0.000000
5455,0.000000
5456,0.000000
5457,0.000000
5458,0.000000
5459,0.000000
5460,0.000000
5461,0.000000
5462,0.000000
5463,0.000000
5464,0.000000
5465,0.000000
5466,0.000000
5467,0.000000
5468,0.000000
5469,-3.906250
5470,-3.906250
5471,-3.906250
5472,-3.906250
5473,-3.906250
5474,-3.906250
5475,-3.906250
5476,-3.906250
5477,-3.906250
5478,-3.906250
5479,-3.906250
5480,-3.906250
5481,-3.906250
5482,-3.906250
5483,-3.906250
5484,-3.906250
5485,-3.906250
5486,-3.906250
5487,-3.906250
5488,-3.906250
5489,-7.812500
5490,-7.812500
5491,-3.906250
5492,-7.812500
5493,-7.812500
5494,-7.812500
5495,-7.812500
5496,-7.812500
5497,-7.812500
5498,-7.812500
5499,-7.812500
5500,-7.812500
5501,-7.812500
5502,-7.812500
5503,-7.812500
5504,-7.812500
5505,-7.812500
5506,-7.812500
5507,-7.812500
5508,-7.812500
5509,-7.812500
5510,-7.812500
5511,-7.812500
5512,-7.812500
5513,-7.812500
5514,-11.718750
5515,-7.812500
5516,-11.718750
5517,-11.718750
5518,-11.718750
5519,-11.718750
5520,-11.718750
5521,-11.718750
5522,-11.718750
5523,-11.718750
5524,-11.718750
5525,-11.718750
5526,-11.718750
5527,-11.718750
5528,-11.718750
5529,-11.718750
5530,-11.718750
5531,-11.718750
5532,-11.718750
5533,-11.718750
5534,-11.718750
5535,-11.718750
5536,-11.718750
5537,-15.625000
5538,-15.625000
5539,-15.625000
5540,-15.625000
5541,-15.625000
5542,-15.625000
5543,-15.625000
5544,-15.625000
5545,-15.625000
5546,-15.625000
5547,-15.625000
5548,-15.625000
5549,-15.625000
5550,-15.625000
5551,-15.625000
5552,-15.625000
5553,-15.625000
5554,-15.625000
5555,-19.531250
5556,-15.625000
5557,-19.531250
5558,-19.531250
5559,-19.531250
5560,-19.531250
5561,-19.531250
5562,-19.531250
5563,-19.531250
5564,-19.531250
5565,-19.531250
5566,-19.531250
5567,-19.531250
5568,-19.531250
5569,-19.531250
5570,-19.531250
5571,-19.531250
5572,-19.531250
5573,-19.531250
5574,-19.531250
5575,-23.437500
5576,-19.531250
5577,-23.437500
5578,-23.437500
5579,-23.437500
5580,-23.437500
5581,-23.437500
5582,-23.437500
5583,-23.437500
5584,-23.437500
5585,-23.437500
5586,-23.437500
5587,-23.437500
5588,-23.437500
5589,-23.437500
5590,-23.437500
5591,-23.437500
5592,-23.437500
5593,-23.437500
5594,-23.437500
5595,-23.437500
5596,-27.343750
5597,-27.343750
5598,-23.437500
5599,-27.343750
5600,-23.437500
5601,-27.343750
5602,-27.343750
5603,-27.343750
5604,-27.343750
5605,-27.343750
5606,-27.343750
5607,-27.343750
5608,-27.343750
5609,-27.343750
5610,-27.343750
5611,-27.343750
5612,-27.343750
5613,-27.343750
5614,-27.343750
5615,-27.343750
5616,-27.343750
5617,-27.343750
5618,-27.343750
5619,-27.343750
5620,-27.343750
5621,-31.250000
5622,-27.343750
5623,-31.250000
5624,-27.343750
5625,-31.250000
5626,-31.250000
5627,-31.250000
5628,-31.250000
5629,-31.250000
5630,-31.250000
5631,-31.250000
5632,-31.250000
5633,-31.250000
5634,-31.250000
5635,-31.250000
5636,-31.250000
5637,-31.250000
5638,-31.250000
5639,-31.250000
5640,-31.250000
5641,-31.250000
5642,-31.250000
5643,-31.250000
5644,-35.156250
5645,-35.156250
5646,-35.156250
5647,-35.156250
5648,-35.156250
5649,-35.156250
5650,-35.156250
5651,-35.156250
5652,-35.156250
5653,-35.156250
5654,-35.156250
5655,-35.156250
5656,-35.156250
5657,-35.156250
5658,-35.156250
5659,-35.156250
5660,-35.156250
5661,-35.156250
5662,-35.156250
5663,-35.156250
5664,-35.156250
5665,-35.156250
5666,-35.156250
5667,-35.156250
5668,-35.156250
5669,-35.156250
5670,-35.156250
5671,-35.156250
5672,-35.156250
5673,-35.156250
5674,-35.156250
5675,-39.062500
5676,-39.062500
5677,-39.062500
5678,-39.062500
5679,-35.156250
5680,-35.156250
5681,-39.062500
5682,-35.156250
5683,-39.062500
5684,-39.062500
5685,-39.062500
5686,-39.062500
5687,-39.062500
5688,-39.062500
5689,-39.062500
5690,-39.062500
5691,-39.062500
5692,-39.062500
5693,-39.062500
5694,-39.062500
5695,-39.062500
5696,-39.062500
5697,-39.062500
5698,-39.062500
5699,-39.062500
5700,-39.062500
5701,-39.062500
5702,-39.062500
5703,-39.062500
5704,-39.062500
5705,-39.062500
5706,-39.062500
5707,-39.062500
5708,-39.062500
5709,-39.062500
5710,-39.062500
5711,-39.062500
5712,-42.968750
5713,-39.062500
5714,-42.968750
5715,-42.968750
5716,-42.968750
5717,-42.968750
5718,-42.968750
5719,-42.968750
5720,-42.968750
5721,-42.968750
5722,-42.968750
5723,-42.968750
5724,-42.968750
5725,-42.968750
5726,-42.968750
5727,-42.968750
5728,-42.968750
5729,-42.968750
5730,-42.968750
5731,-42.968750
5732,-42.968750
5733,-42.968750
5734,-42.968750
5735,-42.968750
5736,-42.968750
5737,-42.968750
5738,-42.968750
5739,-42.968750
5740,-42.968750
5741,-42.968750
5742,-42.968750
5743,-42.968750
5744,-42.968750
5745,-42.968750
5746,-42.968750
5747,-42.968750
5748,-42.968750
5749,-42.968750
5750,-42.968750
5751,-42.968750
5752,-42.968750
5753,-42.968750
5754,-42.968750
5755,-42.968750
5756,-42.968750
5757,-42.968750
5758,-42.968750
5759,-42.968750
5760,-42.968750
5761,-42.968750
5762,-42.968750
5763,-42.968750
5764,-42.968750
5765,-42.968750
5766,-42.968750
5767,-42.968750
5768,-42.968750
5769,-42.968750
5770,-42.968750
5771,-42.968750
5772,-42.968750
5773,-42.968750
5774,-42.968750
5775,-42.968750
5776,-42.968750
5777,-42.968750
5778,-42.968750
5779,-42.968750
5780,-46.875000
5781,-42.968750
5782,-42.968750
5783,-42.968750
5784,-42.968750
5785,-42.968750
5786,-42.968750
5787,-42.968750
5788,-42.968750
5789,-42.968750
5790,-42.968750
5791,-42.968750
5792,-42.968750
5793,-42.968750
5794,-42.968750
5795,-42.968750
5796,-42.968750
5797,-42.968750
5798,-42.968750
5799,-42.968750
5800,-42.968750
5801,-42.968750
5802,-42.968750
5803,-42.968750
5804,-42.968750
5805,-42.968750
5806,-42.968750
5807,-42.968750
5808,-42.968750
5809,-42.968750
5810,-42.968750
5811,-42.968750
5812,-42.968750
5813,-42.968750
5814,-42.968750
5815,-46.875000
5816,-42.968750
5817,-42.968750
5818,-42.968750
5819,-42.968750
5820,-42.968750
5821,-42.968750
5822,-42.968750
5823,-42.968750
5824,-42.968750
5825,-42.968750
5826,-42.968750
5827,-42.968750
5828,-42.968750
5829,-42.968750
5830,-42.968750
5831,-42.968750
5832,-42.968750
5833,-42.968750
5834,-42.968750
5835,-42.968750
5836,-42.968750
5837,-39.062500
5838,-42.968750
5839,-42.968750
5840,-42.968750
5841,-42.968750
5842,-42.968750
5843,-42.968750
5844,-42.968750
5845,-42.968750
5846,-42.968750
5847,-42.968750
5848,-42.968750
5849,-42.968750
5850,-42.968750
5851,-42.968750
5852,-42.968750
5853,-42.968750
5854,-42.968750
5855,-42.968750
5856,-42.968750
5857,-42.968750
5858,-42.968750
5859,-42.968750
5860,-42.968750
5861,-42.968750
5862,-42.968750
5863,-42.968750
5864,-42.968750
5865,-42.968750
5866,-42.968750
5867,-42.968750
5868,-42.968750
5869,-42.968750
5870,-42.968750
5871,-42.968750
5872,-39.062500
5873,-39.062500
5874,-39.062500
5875,-39.062500
5876,-39.062500
5877,-39.062500
5878,-39.062500
5879,-39.062500
5880,-39.062500
5881,-39.062500
5882,-39.062500
5883,-39.062500
5884,-39.062500
5885,-39.062500
5886,-39.062500
5887,-39.062500
5888,-39.062500
5889,-39.062500
5890,-39.062500
5891,-39.062500
5892,-39.062500
5893,-39.062500
5894,-39.062500
5895,-39.062500
5896,-39.062500
5897,-39.062500
5898,-39.062500
5899,-39.062500
5900,-39.062500
5901,-39.062500
5902,-35.156250
5903,-39.062500
5904,-35.156250
5905,-39.062500
5906,-35.156250
5907,-35.156250
5908,-35.156250
5909,-35.156250
5910,-35.156250
5911,-35.156250
5912,-35.156250
5913,-35.156250
5914,-35.156250
5915,-35.156250
5916,-35.156250
5917,-35.156250
5918,-35.156250
5919,-35.156250
5920,-35.156250
5921,-35.156250
5922,-35.156250
5923,-35.156250
5924,-35.156250
5925,-35.156250
5926,-35.156250
5927,-35.156250
5928,-35.156250
5929,-35.156250
5930,-35.156250
5931,-31.250000
5932,-31.250000
5933,-31.250000
5934,-31.250000
5935,-31.250000
5936,-31.250000
5937,-31.250000
5938,-31.250000
5939,-31.250000
5940,-31.250000
5941,-31.250000
5942,-31.250000
5943,-31.250000
5944,-31.250000
5945,-31.250000
5946,-31.250000
5947,-31.250000
5948,-31.250000
5949,-31.250000
5950,-31.250000
5951,-31.250000
5952,-27.343750
5953,-27.343750
5954,-27.343750
5955,-27.343750
5956,-27.343750
5957,-27.343750
5958,-27.343750
5959,-27.343750
5960,-27.343750
5961,-27.343750
5962,-27.343750
5963,-27.343750
5964,-27.343750
5965,-27.343750
5966,-27.343750
5967,-27.343750
5968,-27.343750
5969,-27.343750
5970,-27.343750
5971,-27.343750
5972,-23.437500
5973,-27.343750
5974,-27.343750
5975,-23.437500
5976,-23.437500
5977,-23.437500
5978,-23.437500
5979,-23.437500
5980,-23.437500
5981,-23.437500
5982,-23.437500
5983,-23.437500
5984,-23.437500
5985,-23.437500
5986,-23.437500
5987,-23.437500
5988,-23.437500
5989,-23.437500
5990,-23.437500
5991,-23.437500
5992,-23.437500
5993,-23.437500
5994,-23.437500
5995,-19.531250
5996,-19.531250
5997,-19.531250
5998,-19.531250
5999,-19.531250
6000,-19.531250
6001,-19.531250
6002,-19.531250
6003,-19.531250
6004,-19.531250
6005,-19.531250
6006,-19.531250
6007,-19.531250
6008,-19.531250
6009,-19.531250
6010,-19.531250
6011,-19.531250
6012,-19.531250
6013,-15.625000
6014,-15.625000
6015,-19.531250
6016,-15.625000
6017,-15.625000
6018,-15.625000
6019,-15.625000
6020,-15.625000
6021,-15.625000
6022,-15.625000
6023,-15.625000
6024,-15.625000
6025,-15.625000
6026,-15.625000
6027,-15.625000
6028,-15.625000
6029,-11.718750
6030,-11.718750
6031,-15.625000
6032,-11.718750
6033,-11.718750
6034,-11.718750
6035,-11.718750
6036,-11.718750
6037,-11.718750
6038,-11.718750
6039,-11.718750
6040,-11.718750
6041,-11.718750
6042,-11.718750
6043,-11.718750
6044,-11.718750
6045,-11.718750
6046,-11.718750
6047,-11.718750
6048,-11.718750
6049,-7.812500
6050,-7.812500
6051,-7.812500
6052,-7.812500
6053,-7.812500
6054,-7.812500
6055,-7.812500
6056,-7.812500
6057,-7.812500
6058,-7.812500
6059,-7.812500
6060,-7.812500
6061,-7.812500
6062,-7.812500
6063,-7.812500
6064,-7.812500
6065,-7.812500
6066,-3.906250
6067,-7.812500
6068,-7.812500
6069,-3.906250
6070,-3.906250
6071,-3.906250
6072,-3.906250
6073,-3.906250
6074,-3.906250
6075,-3.906250
6076,-3.906250
6077,-3.906250
6078,-3.906250
6079,-3.906250
6080,-3.906250
6081,-3.906250
6082,-3.906250
6083,-3.906250
6084,-3.906250
6085,-3.906250
6086,0.000000
6087,0.000000
6088,0.000000
6089,0.000000
6090,0.000000
6091,0.000000
6092,0.000000
6093,0.000000
6094,0.000000
6095,0.000000
6096,0.000000
6097,0.000000
6098,0.000000
6099,0.000000
6100,0.000000
6101,0.000000
6102,0.000000
6103,0.000000
6104,0.000000
6105,0.000000
6106,0.000000
6107,0.000000
6108,3.906250
6109,3.906250
6110,3.906250
6111,3.906250
6112,3.906250
6113,3.906250
6114,3.906250
6115,3.906250
6116,3.906250
6117,3.906250
6118,3.906250
6119,3.906250
6120,3.906250
6121,3.906250
6122,3.906250
6123,3.906250
6124,3.906250
6125,3.906250
6126,3.906250
6127,3.906250
6128,3.906250
6129,3.906250
6130,7.812500
6131,7.812500
6132,7.812500
6133,3.906250
6134,7.812500
6135,7.812500
6136,7.812500
6137,7.812500
6138,7.812500
6139,7.812500
6140,7.812500
6141,7.812500
6142,7.812500
6143,7.812500
6144,7.812500
6145,7.812500
6146,7.812500
6147,7.812500
6148,7.812500
6149,7.812500
6150,7.812500
6151,7.812500
6152,11.718750
6153,7.812500
6154,11.718750
6155,7.812500
6156,11.718750
6157,11.718750
6158,11.718750
6159,11.718750
6160,11.718750
6161,11.718750
6162,11.718750
6163,11.718750
6164,11.718750
6165,11.718750
6166,11.718750
6167,11.718750
6168,11.718750
6169,11.718750
6170,11.718750
6171,11.718750
6172,11.718750
6173,11.718750
6174,15.625000
6175,11.718750
6176,11.718750
6177,11.718750
6178,11.718750
6179,11.718750
6180,11.718750
6181,11.718750
6182,15.625000
6183,11.718750
6184,15.625000
6185,11.718750
6186,15.625000
6187,15.625000
6188,15.625000
6189,15.625000
6190,15.625000
6191,15.625000
6192,15.625000
6193,15.625000
6194,15.625000
6195,15.625000
6196,15.625000
6197,15.625000
6198,15.625000
6199,15.625000
6200,15.625000
6201,15.625000
6202,15.625000
6203,15.625000
6204,15.625000
6205,15.625000
6206,15.625000
6207,15.625000
6208,15.625000
6209,15.625000
6210,15.625000
6211,15.625000
6212,15.625000
6213,15.625000
6214,15.625000
6215,15.625000
6216,15.625000
6217,15.625000
6218,15.625000
6219,15.625000
6220,19.531250
6221,15.625000
6222,15.625000
6223,19.531250
6224,15.625000
6225,15.625000
6226,19.531250
6227,15.625000
6228,15.625000
6229,19.531250
6230,15.625000
6231,15.625000
6232,19.531250
6233,19.531250
6234,15.625000
6235,15.625000
6236,19.531250
6237,19.531250
6238,19.531250
6239,15.625000
6240,15.625000
6241,19.531250
6242,15.625000
6243,19.531250
6244,19.531250
6245,19.531250
6246,19.531250
6247,19.531250
6248,19.531250
6249,19.531250
6250,19.531250
6251,19.531250
6252,19.531250
6253,19.531250
6254,19.531250
6255,19.531250
6256,19.531250
6257,19.531250
6258,19.531250
6259,19.531250
6260,19.531250
6261,19.531250
6262,19.531250
6263,19.531250
6264,19.531250
6265,19.531250
6266,19.531250
6267,19.531250
6268,19.531250
6269,19.531250
6270,19.531250
6271,19.531250
6272,19.531250
6273,19.531250
6274,19.531250
6275,19.531250
6276,19.531250
6277,19.531250
6278,19.531250
6279,19.531250
6280,19.531250
6281,19.531250
6282,19.531250
6283,19.531250
6284,19.531250
6285,19.531250
6286,19.531250
6287,19.531250
6288,19.531250
6289,19.531250
6290,19.531250
6291,19.531250
6292,19.531250
6293,19.531250
6294,19.531250
6295,19.531250
6296,19.531250
6297,19.531250
6298,19.531250
6299,19.531250
6300,19.531250
6301,19.531250
6302,15.625000
6303,19.531250
6304,19.531250
6305,19.531250
6306,19.531250
6307,19.531250
6308,19.531250
6309,15.625000
6310,19.531250
6311,19.531250
6312,19.531250
6313,15.625000
6314,19.531250
6315,15.625000
6316,15.625000
6317,19.531250
6318,19.531250
6319,15.625000
6320,15.625000
6321,15.625000
6322,15.625000
6323,15.625000
6324,15.625000
6325,15.625000
6326,15.625000
6327,15.625000
6328,15.625000
6329,15.625000
6330,15.625000
6331,15.625000
6332,15.625000
6333,15.625000
6334,15.625000
6335,15.625000
6336,15.625000
6337,15.625000
6338,15.625000
6339,15.625000
6340,15.625000
6341,15.625000
6342,15.625000
6343,15.625000
6344,15.625000
6345,15.625000
6346,15.625000
6347,15.625000
6348,15.625000
6349,15.625000
6350,15.625000
6351,15.625000
6352,15.625000
6353,15.625000
6354,15.625000
6355,11.718750
6356,15.625000
6357,11.718750
6358,11.718750
6359,11.718750
6360,15.625000
6361,11.718750
6362,11.718750
6363,11.718750
6364,11.718750
6365,11.718750
6366,11.718750
6367,11.718750
6368,11.718750
6369,11.718750
6370,11.718750
6371,11.718750
6372,11.718750
6373,11.718750
6374,11.718750
6375,11.718750
6376,11.718750
6377,11.718750
6378,11.718750
6379,11.718750
6380,11.718750
6381,11.718750
6382,11.718750
6383,7.812500
6384,11.718750
6385,7.812500
6386,7.812500
6387,7.812500
6388,7.812500
6389,7.812500
6390,7.812500
6391,7.812500
6392,7.812500
6393,7.812500
6394,7.812500
6395,7.812500
6396,7.812500
6397,7.812500
6398,7.812500
6399,7.812500
6400,7.812500
6401,7.812500
6402,7.812500
6403,7.812500
6404,7.812500
6405,3.906250
6406,7.812500
6407,7.812500
6408,7.812500
6409,7.812500
6410,7.812500
6411,3.906250
6412,7.812500
6413,7.812500
6414,7.812500
6415,3.906250
6416,3.906250
6417,3.906250
6418,3.906250
6419,3.906250
6420,3.906250
6421,3.906250
6422,3.906250
6423,3.906250
6424,3.906250
6425,3.906250
6426,3.906250
6427,3.906250
6428,3.906250
6429,3.906250
6430,3.906250
6431,3.906250
6432,3.906250
6433,3.906250
6434,3.906250
6435,3.906250
6436,3.906250
6437,3.906250
6438,0.000000
6439,0.000000
6440,0.000000
6441,3.906250
6442,0.000000
6443,0.000000
6444,3.906250
6445,0.000000
6446,0.000000
6447,0.000000
6448,0.000000
6449,0.000000
6450,0.000000
6451,0.000000
6452,0.000000
6453,0.000000
6454,0.000000
6455,0.000000
6456,0.000000
6457,0.000000
6458,0.000000
6459,0.000000
6460,0.000000
6461,0.000000
6462,0.000000
6463,0.000000
6464,0.000000
6465,-3.906250
6466,-3.906250
6467,-3.906250
6468,-3.906250
6469,-3.906250
6470,-3.906250
6471,-3.906250
6472,-3.906250
6473,-3.906250
6474,-3.906250
6475,-3.906250
6476,-3.906250
6477,-3.906250
6478,-7.812500
6479,-7.812500
6480,-3.906250
6481,-3.906250
6482,-3.906250
6483,-3.906250
6484,-7.812500
6485,-7.812500
6486,-7.812500
6487,-7.812500
6488,-7.812500
6489,-7.812500
6490,-7.812500
6491,-7.812500
6492,-7.812500
6493,-7.812500
6494,-7.812500
6495,-7.812500
6496,-7.812500
6497,-7.812500
6498,-7.812500
6499,-7.812500
6500,-7.812500
6501,-7.812500
6502,-7.812500
6503,-7.812500
6504,-7.812500
6505,-11.718750
6506,-7.812500
6507,-11.718750
6508,-11.718750
6509,-11.718750
6510,-11.718750
6511,-11.718750
6512,-11.718750
6513,-11.718750
6514,-11.718750
6515,-11.718750
6516,-11.718750
6517,-11.718750
6518,-11.718750
6519,-11.718750
6520,-11.718750
6521,-11.718750
6522,-11.718750
6523,-15.625000
6524,-15.625000
6525,-15.625000
6526,-15.625000
6527,-15.625000
6528,-15.625000
6529,-15.625000
6530,-15.625000
6531,-15.625000
6532,-15.625000
6533,-15.625000
6534,-15.625000
6535,-15.625000
6536,-15.625000
6537,-15.625000
6538,-15.625000
6539,-15.625000
6540,-15.625000
6541,-15.625000
6542,-15.625000
6543,-19.531250
6544,-19.531250
6545,-19.531250
6546,-19.531250
6547,-19.531250
6548,-19.531250
6549,-19.531250
6550,-19.531250
6551,-19.531250
6552,-19.531250
6553,-19.531250
6554,-19.531250
6555,-19.531250
6556,-19.531250
6557,-19.531250
6558,-19.531250
6559,-19.531250
6560,-19.531250
6561,-19.531250
6562,-19.531250
6563,-19.531250
6564,-19.531250
6565,-23.437500
6566,-19.531250
6567,-23.437500
6568,-23.437500
6569,-23.437500
6570,-23.437500
6571,-23.437500
6572,-23.437500
6573,-23.437500
6574,-23.437500
6575,-23.437500
6576,-23.437500
6577,-23.437500
6578,-23.437500
6579,-23.437500
6580,-23.437500
6581,-23.437500
6582,-23.437500
6583,-23.437500
6584,-23.437500
6585,-23.437500
6586,-23.437500
6587,-23.437500
6588,-23.437500
6589,-27.343750
6590,-27.343750
6591,-27.343750
6592,-23.437500
6593,-27.343750
6594,-27.343750
6595,-27.343750
6596,-27.343750
6597,-27.343750
6598,-27.343750
6599,-27.343750
6600,-27.343750
6601,-27.343750
6602,-27.343750
6603,-27.343750
6604,-27.343750
6605,-27.343750
6606,-27.343750
6607,-27.343750
6608,-27.343750
6609,-27.343750
6610,-27.343750
6611,-31.250000
6612,-27.343750
6613,-31.250000
6614,-27.343750
6615,-31.250000
6616,-31.250000
6617,-31.250000
6618,-31.250000
6619,-31.250000
6620,-31.250000
6621,-31.250000
6622,-31.250000
6623,-31.250000
6624,-31.250000
6625,-31.250000
6626,-31.250000
6627,-31.250000
6628,-31.250000
6629,-31.250000
6630,-31.250000
6631,-31.250000
6632,-31.250000
6633,-35.156250
6634,-31.250000
6635,-31.250000
6636,-35.156250
6637,-35.156250
6638,-31.250000
6639,-31.250000
6640,-35.156250
6641,-35.156250
6642,-35.156250
6643,-35.156250
6644,-35.156250
6645,-35.156250
6646,-35.156250
6647,-35.156250
6648,-35.156250
6649,-35.156250
6650,-35.156250
6651,-35.156250
6652,-35.156250
6653,-35.156250
6654,-35.156250
6655,-35.156250
6656,-35.156250
6657,-35.156250
6658,-35.156250
6659,-39.062500
6660,-35.156250
6661,-35.156250
6662,-35.156250
6663,-35.156250
6664,-35.156250
6665,-35.156250
6666,-39.062500
6667,-39.062500
6668,-39.062500
6669,-39.062500
6670,-39.062500
6671,-39.062500
6672,-39.062500
6673,-39.062500
6674,-35.156250
6675,-39.062500
6676,-39.062500
6677,-39.062500
6678,-39.062500
6679,-39.062500
6680,-39.062500
6681,-39.062500
6682,-39.062500
6683,-39.062500
6684,-39.062500
6685,-39.062500
6686,-39.062500
6687,-39.062500
6688,-39.062500
6689,-39.062500
6690,-39.062500
6691,-39.062500
6692,-39.062500
6693,-39.062500
6694,-39.062500
6695,-39.062500
6696,-42.968750
6697,-39.062500
6698,-39.062500
6699,-39.062500
6700,-39.062500
6701,-39.062500
6702,-39.062500
6703,-39.062500
6704,-39.062500
6705,-39.062500
6706,-39.062500
6707,-39.062500
6708,-42.968750
6709,-42.968750
6710,-42.968750
6711,-42.968750
6712,-42.968750
6713,-39.062500
6714,-42.968750
6715,-42.968750
6716,-42.968750
6717,-42.968750
6718,-42.968750
6719,-42.968750
6720,-42.968750
6721,-42.968750
6722,-42.968750
6723,-42.968750
6724,-42.968750
6725,-42.968750
6726,-42.968750
6727,-42.968750
6728,-42.968750
6729,-42.968750
6730,-42.968750
6731,-42.968750
6732,-42.968750
6733,-42.968750
6734,-42.968750
6735,-42.968750
6736,-42.968750
6737,-42.968750
6738,-42.968750
6739,-42.968750
6740,-42.968750
6741,-42.968750
6742,-42.968750
6743,-42.968750
6744,-42.968750
6745,-42.968750
6746,-42.968750
6747,-42.968750
6748,-42.968750
6749,-42.968750
6750,-42.968750
6751,-42.968750
6752,-42.968750
6753,-42.968750
6754,-42.968750
6755,-42.968750
6756,-42.968750
6757,-42.968750
6758,-42.968750
6759,-42.968750
6760,-42.968750
6761,-42.968750
6762,-42.968750
6763,-42.968750
6764,-42.968750
6765,-42.968750
6766,-42.968750
6767,-42.968750
6768,-42.968750
6769,-42.968750
6770,-42.968750
6771,-42.968750
6772,-42.968750
6773,-42.968750
6774,-42.968750
6775,-46.875000
6776,-42.968750
6777,-46.875000
6778,-46.875000
6779,-46.875000
6780,-42.968750
6781,-42.968750
6782,-42.968750
6783,-46.875000
6784,-42.968750
6785,-46.875000
6786,-42.968750
6787,-46.875000
6788,-42.968750
6789,-42.968750
6790,-42.968750
6791,-46.875000
6792,-42.968750
6793,-42.968750
6794,-46.875000
6795,-42.968750
6796,-42.968750
6797,-42.968750
6798,-46.875000
6799,-46.875000
6800,-46.875000
6801,-42.968750
6802,-42.968750
6803,-42.968750
6804,-42.968750
6805,-42.968750
6806,-42.968750
6807,-42.968750
6808,-42.968750
6809,-42.968750
6810,-42.968750
6811,-42.968750
6812,-42.968750
6813,-42.968750
6814,-42.968750
6815,-42.968750
6816,-42.968750
6817,-42.968750
6818,-42.968750
6819,-42.968750
6820,-42.968750
6821,-42.968750
6822,-42.968750
6823,-42.968750
6824,-42.968750
6825,-42.968750
6826,-42.968750
6827,-42.968750
6828,-42.968750
6829,-42.968750
6830,-42.968750
6831,-42.968750
6832,-42.968750
6833,-42.968750
6834,-42.968750
6835,-42.968750
6836,-42.968750
6837,-42.968750
6838,-42.968750
6839,-42.968750
6840,-42.968750
6841,-42.968750
6842,-42.968750
6843,-42.968750
6844,-42.968750
6845,-42.968750
6846,-42.968750
6847,-42.968750
6848,-42.968750
6849,-42.968750
6850,-42.968750
6851,-42.968750
6852,-39.062500
6853,-39.062500
6854,-39.062500
6855,-39.062500
6856,-39.062500
6857,-42.968750
6858,-42.968750
6859,-39.062500
6860,-39.062500
6861,-39.062500
6862,-39.062500
6863,-39.062500
6864,-39.062500
6865,-39.062500
6866,-39.062500
6867,-39.062500
6868,-39.062500
6869,-39.062500
6870,-35.156250
6871,-39.062500
6872,-39.062500
6873,-39.062500
6874,-39.062500
6875,-39.062500
6876,-39.062500
6877,-39.062500
6878,-39.062500
6879,-39.062500
6880,-39.062500
6881,-39.062500
6882,-39.062500
6883,-39.062500
6884,-39.062500
6885,-39.062500
6886,-39.062500
6887,-39.062500
6888,-39.062500
6889,-39.062500
6890,-39.062500
6891,-39.062500
6892,-39.062500
6893,-35.156250
6894,-35.156250
6895,-39.062500
6896,-35.156250
6897,-35.156250
6898,-35.156250
6899,-35.156250
6900,-35.156250
6901,-35.156250
6902,-35.156250
6903,-35.156250
6904,-35.156250
6905,-35.156250
6906,-35.156250
6907,-35.156250
6908,-35.156250
6909,-35.156250
6910,-35.156250
6911,-35.156250
6912,-35.156250
6913,-35.156250
6914,-35.156250
6915,-35.156250
6916,-35.156250
6917,-31.250000
6918,-35.156250
6919,-31.250000
6920,-31.250000
6921,-31.250000
6922,-31.250000
6923,-31.250000
6924,-31.250000
6925,-31.250000
6926,-31.250000
6927,-27.343750
6928,-31.250000
6929,-31.250000
6930,-31.250000
6931,-31.250000
6932,-31.250000
6933,-31.250000
6934,-31.250000
6935,-31.250000
6936,-31.250000
6937,-31.250000
6938,-27.343750
6939,-27.343750
6940,-27.343750
6941,-31.250000
6942,-27.343750
6943,-27.343750
6944,-27.343750
6945,-27.343750
6946,-27.343750
6947,-27.343750
6948,-27.343750
6949,-27.343750
6950,-27.343750
6951,-27.343750
6952,-27.343750
6953,-27.343750
6954,-27.343750
6955,-27.343750
6956,-27.343750
6957,-27.343750
6958,-27.343750
6959,-27.343750
6960,-27.343750
6961,-27.343750
6962,-23.437500
6963,-23.437500
6964,-23.437500
6965,-23.437500
6966,-23.437500
6967,-23.437500
6968,-23.437500
6969,-23.437500
6970,-23.437500
6971,-23.437500
6972,-23.437500
6973,-23.437500
6974,-23.437500
6975,-23.437500
6976,-23.437500
6977,-23.437500
6978,-23.437500
6979,-23.437500
6980,-23.437500
6981,-23.437500
6982,-23.437500
6983,-23.437500
6984,-23.437500
6985,-23.437500
6986,-19.531250
6987,-19.531250
6988,-19.531250
6989,-19.531250
6990,-19.531250
6991,-19.531250
6992,-19.531250
6993,-19.531250
6994,-19.531250
6995,-19.531250
6996,-19.531250
6997,-19.531250
6998,-15.625000
6999,-19.531250
7000,-15.625000
7001,-19.531250
7002,-15.625000
7003,-15.625000
7004,-15.625000
7005,-19.531250
7006,-15.625000
7007,-15.625000
7008,-15.625000
7009,-15.625000
7010,-15.625000
7011,-15.625000
7012,-15.625000
7013,-15.625000
7014,-15.625000
7015,-15.625000
7016,-15.625000
7017,-15.625000
7018,-15.625000
7019,-15.625000
7020,-15.625000
7021,-15.625000
7022,-15.625000
7023,-11.718750
7024,-11.718750
7025,-11.718750
7026,-11.718750
7027,-11.718750
7028,-11.718750
7029,-11.718750
7030,-11.718750
7031,-11.718750
7032,-11.718750
7033,-11.718750
7034,-11.718750
7035,-11.718750
7036,-11.718750
7037,-11.718750
7038,-11.718750
7039,-7.812500
7040,-11.718750
7041,-11.718750
7042,-11.718750
7043,-11.718750
7044,-7.812500
7045,-7.812500
7046,-7.812500
7047,-7.812500
7048,-7.812500
7049,-7.812500
7050,-7.812500
7051,-7.812500
7052,-7.812500
7053,-7.812500
7054,-7.812500
7055,-7.812500
7056,-3.906250
7057,-7.812500
7058,-7.812500
7059,-3.906250
7060,-7.812500
7061,-3.906250
7062,-3.906250
7063,-7.812500
7064,-3.906250
7065,-3.906250
7066,-3.906250
7067,-3.906250
7068,-3.906250
7069,-3.906250
7070,-3.906250
7071,-3.906250
7072,-3.906250
7073,-3.906250
7074,-3.906250
7075,-3.906250
7076,-3.906250
7077,0.000000
7078,0.000000
7079,0.000000
7080,0.000000
7081,0.000000
7082,0.000000
7083,0.000000
7084,0.000000
7085,0.000000
7086,0.000000
7087,0.000000
7088,0.000000
7089,0.000000
7090,0.000000
7091,0.000000
7092,0.000000
7093,0.000000
7094,0.000000
7095,0.000000
7096,3.906250
7097,0.000000
7098,3.906250
7099,3.906250
7100,3.906250
7101,3.906250
7102,3.906250
7103,3.906250
7104,3.906250
7105,3.906250
7106,3.906250
7107,3.906250
7108,3.906250
7109,3.906250
7110,3.906250
7111,3.906250
7112,3.906250
7113,3.906250
7114,7.812500
7115,3.906250
7116,3.906250
7117,3.906250
7118,3.906250
7119,7.812500
7120,7.812500
7121,3.906250
7122,7.812500
7123,7.812500
7124,7.812500
7125,7.812500
7126,7.812500
7127,7.812500
7128,7.812500
7129,7.812500
7130,7.812500
7131,7.812500
7132,7.812500
7133,7.812500
7134,7.812500
7135,7.812500
7136,7.812500
7137,7.812500
7138,7.812500
7139,7.812500
7140,7.812500
7141,7.812500
7142,7.812500
7143,7.812500
7144,11.718750
7145,11.718750
7146,11.718750
7147,11.718750
7148,11.718750
7149,11.718750
7150,11.718750
7151,11.718750
7152,11.718750
7153,11.718750
7154,11.718750
7155,11.718750
7156,11.718750
7157,11.718750
7158,11.718750
7159,11.718750
7160,11.718750
7161,11.718750
7162,11.718750
7163,11.718750
7164,11.718750
7165,11.718750
7166,11.718750
7167,11.718750
7168,11.718750
7169,11.718750
7170,11.718750
7171,11.718750
7172,11.718750
7173,11.718750
7174,15.625000
7175,11.718750
7176,15.625000
7177,15.625000
7178,11.718750
7179,15.625000
7180,11.718750
7181,15.625000
7182,15.625000
7183,15.625000
7184,15.625000
7185,15.625000
7186,15.625000
7187,15.625000
7188,15.625000
7189,15.625000
7190,15.625000
7191,15.625000
7192,15.625000
7193,15.625000
7194,15.625000
7195,15.625000
7196,15.625000
7197,15.625000
7198,15.625000
7199,15.625000
7200,15.625000
7201,15.625000
7202,15.625000
7203,15.625000
7204,15.625000
7205,15.625000
7206,15.625000
7207,15.625000
7208,15.625000
7209,15.625000
7210,15.625000
7211,15.625000
7212,15.625000
7213,15.625000
7214,19.531250
7215,15.625000
7216,19.531250
7217,15.625000
7218,15.625000
7219,15.625000
7220,19.531250
7221,19.531250
7222,19.531250
7223,19.531250
7224,19.531250
7225,19.531250
7226,19.531250
7227,19.531250
7228,19.531250
7229,19.531250
7230,19.531250
7231,19.531250
7232,19.531250
7233,19.531250
7234,19.531250
7235,19.531250
7236,19.531250
7237,19.531250
7238,19.531250
7239,19.531250
7240,19.531250
7241,19.531250
7242,19.531250
7243,19.531250
7244,19.531250
7245,19.531250
7246,19.531250
7247,19.531250
7248,19.531250
7249,19.531250
7250,19.531250
7251,19.531250
7252,19.531250
7253,19.531250
7254,19.531250
7255,19.531250
7256,19.531250
7257,19.531250
7258,19.531250
7259,19.531250
7260,19.531250
7261,19.531250
7262,19.531250
7263,19.531250
7264,19.531250
7265,19.531250
7266,19.531250
7267,19.531250
7268,19.531250
7269,19.531250
7270,19.531250
7271,19.531250
7272,19.531250
7273,19.531250
7274,19.531250
7275,19.531250
7276,19.531250
7277,19.531250
7278,19.531250
7279,19.531250
7280,19.531250
7281,19.531250
7282,19.531250
7283,19.531250
7284,19.531250
7285,19.531250
7286,19.531250
7287,15.625000
7288,19.531250
7289,19.531250
7290,19.531250
7291,15.625000
7292,15.625000
7293,15.625000
7294,19.531250
7295,19.531250
7296,19.531250
7297,19.531250
7298,19.531250
7299,19.531250
7300,15.625000
7301,15.625000
7302,15.625000
7303,15.625000
7304,15.625000
7305,15.625000
7306,15.625000
7307,15.625000
7308,15.625000
7309,15.625000
7310,15.625000
7311,15.625000
7312,15.625000
7313,15.625000
7314,15.625000
7315,15.625000
7316,19.531250
7317,11.718750
7318,15.625000
7319,15.625000
7320,15.625000
7321,15.625000
7322,15.625000
7323,15.625000
7324,15.625000
7325,15.625000
7326,15.625000
7327,15.625000
7328,19.531250
7329,15.625000
7330,15.625000
7331,11.718750
7332,15.625000
7333,15.625000
7334,11.718750
7335,15.625000
7336,15.625000
7337,11.718750
7338,15.625000
7339,15.625000
7340,11.718750
7341,15.625000
7342,15.625000
7343,11.718750
7344,15.625000
7345,15.625000
7346,15.625000
7347,11.718750
7348,15.625000
7349,15.625000
7350,11.718750
7351,11.718750
7352,11.718750
7353,11.718750
7354,11.718750
7355,11.718750
7356,11.718750
7357,11.718750
7358,11.718750
7359,11.718750
7360,11.718750
7361,11.718750
7362,11.718750
7363,11.718750
7364,11.718750
7365,11.718750
7366,11.718750
7367,11.718750
7368,11.718750
7369,11.718750
7370,11.718750
7371,11.718750
7372,11.718750
7373,11.718750
7374,11.718750
7375,11.718750
7376,11.718750
7377,11.718750
7378,11.718750
7379,7.812500
7380,7.812500
7381,7.812500
7382,7.812500
7383,7.812500
7384,7.812500
7385,7.812500
7386,7.812500
7387,7.812500
7388,7.812500
7389,7.812500
7390,7.812500
7391,7.812500
7392,7.812500
7393,7.812500
7394,7.812500
7395,3.906250
7396,7.812500
7397,7.812500
7398,7.812500
7399,7.812500
7400,7.812500
7401,3.906250
7402,3.906250
7403,7.812500
7404,7.812500
7405,3.906250
7406,3.906250
7407,3.906250
7408,3.906250
7409,3.906250
7410,3.906250
7411,3.906250
7412,3.906250
7413,3.906250
7414,3.906250
7415,3.906250
7416,3.906250
7417,3.906250
7418,3.906250
7419,3.906250
7420,3.906250
7421,3.906250
7422,3.906250
7423,3.906250
7424,3.906250
7425,3.906250
7426,3.906250
7427,3.906250
7428,0.000000
7429,0.000000
7430,0.000000
7431,0.000000
7432,0.000000
7433,0.000000
7434,0.000000
7435,0.000000
7436,0.000000
7437,0.000000
7438,0.000000
7439,0.000000
7440,0.000000
7441,0.000000
7442,0.000000
7443,0.000000
7444,0.000000
7445,0.000000
7446,0.000000
7447,-3.906250
7448,-3.906250
7449,-3.906250
7450,-3.906250
7451,-3.906250
7452,-3.906250
7453,-3.906250
7454,-3.906250
7455,-3.906250
7456,-3.906250
7457,-3.906250
7458,-3.906250
7459,-3.906250
7460,-3.906250
7461,-3.906250
7462,-3.906250
7463,-3.906250
7464,-3.906250
7465,-3.906250
7466,-3.906250
7467,-7.812500
7468,-7.812500
7469,-7.812500
7470,-7.812500
7471,-7.812500
7472,-3.906250
7473,-7.812500
7474,-7.812500
7475,-7.812500
7476,-7.812500
7477,-7.812500
7478,-7.812500
7479,-7.812500
7480,-7.812500
7481,-7.812500
7482,-7.812500
7483,-7.812500
7484,-7.812500
7485,-7.812500
7486,-7.812500
7487,-7.812500
7488,-7.812500
7489,-11.718750
7490,-7.812500
7491,-11.718750
7492,-11.718750
7493,-11.718750
7494,-7.812500
7495,-11.718750
7496,-11.718750
7497,-11.718750
7498,-11.718750
7499,-11.718750
7500,-11.718750
7501,-11.718750
7502,-11.718750
7503,-11.718750
7504,-11.718750
7505,-11.718750
7506,-11.718750
7507,-11.718750
7508,-11.718750
7509,-11.718750
7510,-11.718750
7511,-15.625000
7512,-11.718750
7513,-11.718750
7514,-11.718750
7515,-15.625000
7516,-15.625000
7517,-15.625000
7518,-15.625000
7519,-15.625000
7520,-15.625000
7521,-15.625000
7522,-15.625000
7523,-15.625000
7524,-15.625000
7525,-15.625000
7526,-15.625000
7527,-15.625000
7528,-15.625000
7529,-19.531250
7530,-19.531250
7531,-19.531250
7532,-19.531250
7533,-19.531250
7534,-19.531250
7535,-19.531250
7536,-19.531250
7537,-19.531250
7538,-19.531250
7539,-19.531250
7540,-19.531250
7541,-19.531250
7542,-19.531250
7543,-19.531250
7544,-19.531250
7545,-19.531250
7546,-19.531250
7547,-19.531250
7548,-19.531250
7549,-23.437500
7550,-19.531250
7551,-23.437500
7552,-19.531250
7553,-23.437500
7554,-23.437500
7555,-23.437500
7556,-23.437500
7557,-23.437500
7558,-23.437500
7559,-23.437500
7560,-23.437500
7561,-23.437500
7562,-23.437500
7563,-23.437500
7564,-23.437500
7565,-23.437500
7566,-23.437500
7567,-23.437500
7568,-23.437500
7569,-23.437500
7570,-23.437500
7571,-23.437500
7572,-23.437500
7573,-23.437500
7574,-27.343750
7575,-27.343750
7576,-27.343750
7577,-27.343750
7578,-27.343750
7579,-27.343750
7580,-27.343750
7581,-27.343750
7582,-27.343750
7583,-27.343750
7584,-27.343750
7585,-27.343750
7586,-27.343750
7587,-27.343750
7588,-27.343750
7589,-27.343750
7590,-27.343750
7591,-27.343750
7592,-27.343750
7593,-27.343750
7594,-27.343750
7595,-27.343750
7596,-27.343750
7597,-27.343750
7598,-31.250000
7599,-27.343750
7600,-31.250000
7601,-31.250000
7602,-31.250000
7603,-31.250000
7604,-31.250000
7605,-31.250000
7606,-31.250000
7607,-31.250000
7608,-31.250000
7609,-31.250000
7610,-31.250000
7611,-31.250000
7612,-31.250000
7613,-31.250000
7614,-31.250000
7615,-31.250000
7616,-31.250000
7617,-31.250000
7618,-31.250000
7619,-31.250000
7620,-31.250000
7621,-31.250000
7622,-31.250000
7623,-31.250000
7624,-31.250000
7625,-35.156250
7626,-31.250000
7627,-35.156250
7628,-31.250000
7629,-35.156250
7630,-35.156250
7631,-35.156250
7632,-35.156250
7633,-35.156250
7634,-35.156250
7635,-35.156250
7636,-35.156250
7637,-35.156250
7638,-35.156250
7639,-35.156250
7640,-35.156250
7641,-35.156250
7642,-35.156250
7643,-35.156250
7644,-35.156250
7645,-35.156250
7646,-35.156250
7647,-35.156250
7648,-35.156250
7649,-35.156250
7650,-35.156250
7651,-35.156250
7652,-35.156250
7653,-35.156250
7654,-35.156250
7655,-35.156250
7656,-39.062500
7657,-39.062500
7658,-39.062500
7659,-39.062500
7660,-39.062500
7661,-39.062500
7662,-39.062500
7663,-39.062500
7664,-39.062500
7665,-39.062500
7666,-39.062500
7667,-39.062500
7668,-39.062500
7669,-39.062500
7670,-39.062500
7671,-39.062500
7672,-39.062500
7673,-39.062500
7674,-39.062500
7675,-39.062500
7676,-39.062500
7677,-39.062500
7678,-39.062500
7679,-39.062500
7680,-39.062500
7681,-39.062500
7682,-39.062500
7683,-39.062500
7684,-39.062500
7685,-39.062500
7686,-39.062500
7687,-39.062500
7688,-39.062500
7689,-39.062500
7690,-39.062500
7691,-39.062500
7692,-39.062500
7693,-42.968750
7694,-42.968750
7695,-42.968750
7696,-39.062500
7697,-42.968750
7698,-42.968750
7699,-42.968750
7700,-42.968750
7701,-42.968750
7702,-42.968750
7703,-42.968750
7704,-42.968750
7705,-42.968750
7706,-42.968750
7707,-42.968750
7708,-42.968750
7709,-42.968750
7710,-42.968750
7711,-42.968750
7712,-42.968750
7713,-42.968750
7714,-42.968750
7715,-42.968750
7716,-42.968750
7717,-42.968750
7718,-42.968750
7719,-42.968750
7720,-42.968750
7721,-42.968750
7722,-42.968750
7723,-42.968750
7724,-42.968750
7725,-42.968750
7726,-42.968750
7727,-42.968750
7728,-42.968750
7729,-42.968750
7730,-42.968750
7731,-42.968750
7732,-42.968750
7733,-42.968750
7734,-42.968750
7735,-42.968750
7736,-42.968750
7737,-42.968750
7738,-42.968750
7739,-42.968750
7740,-42.968750
7741,-42.968750
7742,-42.968750
7743,-42.968750
7744,-42.968750
7745,-42.968750
7746,-42.968750
7747,-42.968750
7748,-42.968750
7749,-42.968750
7750,-42.968750
7751,-42.968750
7752,-42.968750
7753,-42.968750
7754,-42.968750
7755,-42.968750
7756,-42.968750
7757,-42.968750
7758,-42.968750
7759,-42.968750
7760,-42.968750
7761,-42.968750
7762,-42.968750
7763,-42.968750
7764,-46.875000
7765,-42.968750
7766,-42.968750
7767,-42.968750
7768,-42.968750
7769,-42.968750
7770,-42.968750
7771,-42.968750
7772,-42.968750
7773,-42.968750
7774,-42.968750
7775,-42.968750
7776,-42.968750
7777,-42.968750
7778,-42.968750
7779,-42.968750
7780,-42.968750
7781,-42.968750
7782,-42.968750
7783,-42.968750
7784,-42.968750
7785,-42.968750
7786,-42.968750
7787,-42.968750
7788,-42.968750
7789,-42.968750
7790,-42.968750
7791,-42.968750
7792,-42.968750
7793,-46.875000
7794,-42.968750
7795,-42.968750
7796,-42.968750
7797,-42.968750
7798,-42.968750
7799,-42.968750
7800,-42.968750
7801,-46.875000
7802,-42.968750
7803,-42.968750
7804,-42.968750
7805,-42.968750
7806,-42.968750
7807,-42.968750
7808,-42.968750
7809,-42.968750
7810,-42.968750
7811,-42.968750
7812,-42.968750
7813,-42.968750
7814,-42.968750
7815,-42.968750
7816,-42.968750
7817,-42.968750
7818,-42.968750
7819,-42.968750
7820,-42.968750
7821,-42.968750
7822,-42.968750
7823,-42.968750
7824,-42.968750
7825,-42.968750
7826,-42.968750
7827,-42.968750
7828,-42.968750
7829,-42.968750
7830,-42.968750
7831,-42.968750
7832,-42.968750
7833,-42.968750
7834,-42.968750
7835,-42.968750
7836,-42.968750
7837,-42.968750
7838,-42.968750
7839,-42.968750
7840,-42.968750
7841,-42.968750
7842,-42.968750
7843,-39.062500
7844,-39.062500
7845,-42.968750
7846,-42.968750
7847,-42.968750
7848,-39.062500
7849,-42.968750
7850,-39.062500
7851,-39.062500
7852,-39.062500
7853,-39.062500
7854,-39.062500
7855,-39.062500
7856,-39.062500
7857,-39.062500
7858,-39.062500
7859,-39.062500
7860,-39.062500
7861,-39.062500
7862,-39.062500
7863,-39.062500
7864,-39.062500
7865,-39.062500
7866,-39.062500
7867,-39.062500
7868,-39.062500
7869,-39.062500
7870,-39.062500
7871,-39.062500
7872,-39.062500
7873,-39.062500
7874,-39.062500
7875,-39.062500
7876,-39.062500
7877,-39.062500
7878,-39.062500
7879,-35.156250
7880,-35.156250
7881,-39.062500
7882,-35.156250
7883,-35.156250
7884,-35.156250
7885,-35.156250
7886,-35.156250
7887,-35.156250
7888,-35.156250
7889,-35.156250
7890,-35.156250
7891,-35.156250
7892,-35.156250
7893,-35.156250
7894,-35.156250
7895,-35.156250
7896,-35.156250
7897,-35.156250
7898,-35.156250
7899,-35.156250
7900,-35.156250
7901,-35.156250
7902,-35.156250
7903,-35.156250
7904,-31.250000
7905,-35.156250
7906,-35.156250
7907,-31.250000
7908,-31.250000
7909,-31.250000
7910,-31.250000
7911,-31.250000
7912,-31.250000
7913,-31.250000
7914,-31.250000
7915,-31.250000
7916,-31.250000
7917,-31.250000
7918,-31.250000
7919,-31.250000
7920,-31.250000
7921,-31.250000
7922,-31.250000
7923,-31.250000
7924,-31.250000
7925,-31.250000
7926,-31.250000
7927,-31.250000
7928,-31.250000
7929,-31.250000
7930,-27.343750
7931,-31.250000
7932,-27.343750
7933,-27.343750
7934,-27.343750
7935,-27.343750
7936,-27.343750
7937,-27.343750
7938,-27.343750
7939,-27.343750
7940,-27.343750
7941,-27.343750
7942,-27.343750
7943,-27.343750
7944,-27.343750
7945,-27.343750
7946,-27.343750
7947,-27.343750
7948,-27.343750
7949,-27.343750
7950,-27.343750
7951,-27.343750
7952,-23.437500
7953,-23.437500
7954,-23.437500
7955,-23.437500
7956,-23.437500
7957,-23.437500
7958,-23.437500
7959,-23.437500
7960,-23.437500
7961,-23.437500
7962,-23.437500
7963,-23.437500
7964,-23.437500
7965,-23.437500
7966,-23.437500
7967,-23.437500
7968,-23.437500
7969,-23.437500
7970,-19.531250
7971,-23.437500
7972,-19.531250
7973,-19.531250
7974,-19.531250
7975,-19.531250
7976,-19.531250
7977,-19.531250
7978,-19.531250
7979,-19.531250
7980,-19.531250
7981,-19.531250
7982,-19.531250
7983,-19.531250
7984,-19.531250
7985,-19.531250
7986,-19.531250
7987,-19.531250
7988,-19.531250
7989,-19.531250
7990,-15.625000
7991,-15.625000
7992,-15.625000
7993,-15.625000
7994,-15.625000
7995,-15.625000
7996,-15.625000
7997,-15.625000
7998,-15.625000
7999,-15.625000
8000,-15.625000
8001,-15.625000
8002,-15.625000
8003,-15.625000
8004,-15.625000
8005,-15.625000
8006,-15.625000
8007,-15.625000
8008,-11.718750
8009,-11.718750
8010,-11.718750
8011,-11.718750
8012,-11.718750
8013,-11.718750
8014,-11.718750
8015,-11.718750
8016,-11.718750
8017,-11.718750
8018,-11.718750
8019,-11.718750
8020,-11.718750
8021,-11.718750
8022,-11.718750
8023,-11.718750
8024,-11.718750
8025,-11.718750
8026,-11.718750
8027,-7.812500
8028,-11.718750
8029,-7.812500
8030,-7.812500
8031,-7.812500
8032,-7.812500
8033,-7.812500
8034,-7.812500
8035,-7.812500
8036,-7.812500
8037,-7.812500
8038,-7.812500
8039,-7.812500
8040,-7.812500
8041,-7.812500
8042,-7.812500
8043,-7.812500
8044,-7.812500
8045,-7.812500
8046,-7.812500
8047,-7.812500
8048,-7.812500
8049,-3.906250
8050,-3.906250
8051,-3.906250
8052,-3.906250
8053,-3.906250
8054,-3.906250
8055,-3.906250
8056,-3.906250
8057,-3.906250
8058,-3.906250
8059,-3.906250
8060,-3.906250
8061,-3.906250
8062,-3.906250
8063,-3.906250
8064,-3.906250
8065,-3.906250
8066,-3.906250
8067,-3.906250
8068,0.000000
8069,0.000000
8070,0.000000
8071,0.000000
8072,0.000000
8073,0.000000
8074,0.000000
8075,0.000000
8076,0.000000
8077,0.000000
8078,0.000000
8079,0.000000
8080,0.000000
8081,0.000000
8082,0.000000
8083,0.000000
8084,0.000000
8085,0.000000
8086,0.000000
8087,3.906250
8088,0.000000
8089,3.906250
8090,3.906250
8091,3.906250
8092,3.906250
8093,3.906250
8094,3.906250
8095,3.906250
8096,3.906250
8097,3.906250
8098,3.906250
8099,3.906250
8100,3.906250
8101,3.906250
8102,3.906250
8103,3.906250
8104,3.906250
8105,3.906250
8106,3.906250
8107,3.906250
8108,7.812500
8109,7.812500
8110,7.812500
8111,3.906250
8112,7.812500
8113,7.812500
8114,7.812500
8115,7.812500
8116,7.812500
8117,7.812500
8118,7.812500
8119,7.812500
8120,7.812500
8121,7.812500
8122,7.812500
8123,7.812500
8124,7.812500
8125,7.812500
8126,7.812500
8127,7.812500
8128,7.812500
8129,7.812500
8130,7.812500
8131,7.812500
8132,11.718750
8133,7.812500
8134,11.718750
8135,11.718750
8136,11.718750
8137,11.718750
8138,11.718750
8139,11.718750
8140,11.718750
8141,11.718750
8142,11.718750
8143,11.718750
8144,11.718750
8145,11.718750
8146,11.718750
8147,11.718750
8148,11.718750
8149,11.718750
8150,11.718750
8151,11.718750
8152,11.718750
8153,11.718750
8154,11.718750
8155,11.718750
8156,11.718750
8157,11.718750
8158,11.718750
8159,15.625000
8160,11.718750
8161,11.718750
8162,11.718750
8163,11.718750
8164,15.625000
8165,15.625000
8166,15.625000
8167,15.625000
8168,15.625000
8169,15.625000
8170,15.625000
8171,15.625000
8172,15.625000
8173,15.625000
8174,15.625000
8175,15.625000
8176,15.625000
8177,15.625000
8178,15.625000
8179,15.625000
8180,15.625000
8181,15.625000
8182,15.625000
8183,15.625000
8184,15.625000
8185,15.625000
8186,15.625000
8187,15.625000
8188,15.625000
8189,15.625000
8190,15.625000
8191,15.625000
8192,15.625000
8193,15.625000
8194,15.625000
8195,15.625000
8196,15.625000
8197,15.625000
8198,15.625000
8199,15.625000
8200,15.625000
8201,15.625000
8202,15.625000
8203,15.625000
8204,15.625000
8205,15.625000
8206,15.625000
8207,15.625000
8208,15.625000
8209,15.625000
8210,15.625000
8211,15.625000
8212,15.625000
8213,15.625000
8214,15.625000
8215,15.625000
8216,15.625000
8217,15.625000
8218,15.625000
8219,19.531250
8220,15.625000
8221,15.625000
8222,15.625000
8223,19.531250
8224,19.531250
8225,19.531250
8226,15.625000
8227,19.531250
8228,19.531250
8229,19.531250
8230,19.531250
8231,15.625000
8232,19.531250
8233,19.531250
8234,19.531250
8235,19.531250
8236,19.531250
8237,19.531250
8238,19.531250
8239,19.531250
8240,19.531250
8241,19.531250
8242,19.531250
8243,19.531250
8244,19.531250
8245,19.531250
8246,19.531250
8247,19.531250
8248,19.531250
8249,19.531250
8250,19.531250
8251,15.625000
8252,19.531250
8253,19.531250
8254,19.531250
8255,19.531250
8256,19.531250
8257,19.531250
8258,19.531250
8259,19.531250
8260,19.531250
8261,19.531250
8262,19.531250
8263,19.531250
8264,19.531250
8265,19.531250
8266,19.531250
8267,19.531250
8268,19.531250
8269,19.531250
8270,19.531250
8271,15.625000
8272,15.625000
8273,19.531250
8274,19.531250
8275,19.531250
8276,15.625000
8277,15.625000
8278,19.531250
8279,19.531250
8280,15.625000
8281,15.625000
8282,19.531250
8283,15.625000
8284,19.531250
8285,15.625000
8286,15.625000
8287,15.625000
8288,15.625000
8289,19.531250
8290,15.625000
8291,15.625000
8292,15.625000
8293,15.625000
8294,15.625000
8295,15.625000
8296,15.625000
8297,15.625000
8298,15.625000
8299,15.625000
8300,15.625000
8301,15.625000
8302,15.625000
8303,15.625000
8304,15.625000
8305,15.625000
8306,15.625000
8307,15.625000
8308,15.625000
8309,15.625000
8310,15.625000
8311,15.625000
8312,15.625000
8313,15.625000
8314,15.625000
8315,15.625000
8316,15.625000
8317,15.625000
8318,15.625000
8319,15.625000
8320,15.625000
8321,15.625000
8322,15.625000
8323,15.625000
8324,15.625000
8325,15.625000
8326,15.625000
8327,15.625000
8328,15.625000
8329,15.625000
8330,11.718750
8331,11.718750
8332,15.625000
8333,11.718750
8334,11.718750
8335,11.718750
8336,11.718750
8337,11.718750
8338,11.718750
8339,11.718750
8340,11.718750
8341,11.718750
8342,11.718750
8343,11.718750
8344,11.718750
8345,11.718750
8346,11.718750
8347,11.718750
8348,11.718750
8349,11.718750
8350,11.718750
8351,11.718750
8352,11.718750
8353,11.718750
8354,11.718750
8355,11.718750
8356,11.718750
8357,11.718750
8358,11.718750
8359,11.718750
8360,11.718750
8361,11.718750
8362,11.718750
8363,11.718750
8364,11.718750
8365,11.718750
8366,11.718750
8367,11.718750
8368,7.812500
8369,7.812500
8370,7.812500
8371,7.812500
8372,7.812500
8373,7.812500
8374,7.812500
8375,7.812500
8376,7.812500
8377,7.812500
8378,7.812500
8379,7.812500
8380,7.812500
8381,7.812500
8382,7.812500
8383,7.812500
8384,7.812500
8385,7.812500
8386,7.812500
8387,7.812500
8388,7.812500
8389,7.812500
8390,7.812500
8391,7.812500
8392,7.812500
8393,7.812500
8394,3.906250
8395,7.812500
8396,3.906250
8397,3.906250
8398,3.906250
8399,3.906250
8400,3.906250
8401,3.906250
8402,3.906250
8403,3.906250
8404,3.906250
8405,3.906250
8406,3.906250
8407,3.906250
8408,3.906250
8409,3.906250
8410,3.906250
8411,3.906250
8412,3.906250
8413,3.906250
8414,3.906250
8415,0.000000
8416,0.000000
8417,3.906250
8418,0.000000
8419,3.906250
8420,0.000000
8421,0.000000
8422,0.000000
8423,0.000000
8424,0.000000
8425,0.000000
8426,0.000000
8427,0.000000
8428,0.000000
8429,0.000000
8430,0.000000
8431,0.000000
8432,0.000000
8433,0.000000
8434,0.000000
8435,0.000000
8436,-3.906250
8437,0.000000
8438,0.000000
8439,-3.906250
8440,-3.906250
8441,-3.906250
8442,-3.906250
8443,-3.906250
8444,-3.906250
8445,-3.906250
8446,-3.906250
8447,-3.906250
8448,-3.906250
8449,-3.906250
8450,-3.906250
8451,-3.906250
8452,-3.906250
8453,-3.906250
8454,-3.906250
8455,-3.906250
8456,-3.906250
8457,-7.812500
8458,-7.812500
8459,-7.812500
8460,-3.906250
8461,-7.812500
8462,-7.812500
8463,-7.812500
8464,-7.812500
8465,-7.812500
8466,-7.812500
8467,-7.812500
8468,-7.812500
8469,-7.812500
8470,-7.812500
8471,-7.812500
8472,-7.812500
8473,-7.812500
8474,-7.812500
8475,-7.812500
8476,-11.718750
8477,-7.812500
8478,-7.812500
8479,-7.812500
8480,-11.718750
8481,-11.718750
8482,-11.718750
8483,-7.812500
8484,-11.718750
8485,-11.718750
8486,-11.718750
8487,-11.718750
8488,-11.718750
8489,-11.718750
8490,-11.718750
8491,-11.718750
8492,-11.718750
8493,-11.718750
8494,-11.718750
8495,-11.718750
8496,-11.718750
8497,-11.718750
8498,-11.718750
8499,-11.718750
8500,-11.718750
8501,-15.625000
8502,-15.625000
8503,-15.625000
8504,-15.625000
8505,-15.625000
8506,-15.625000
8507,-15.625000
8508,-15.625000
8509,-15.625000
8510,-15.625000
8511,-15.625000
8512,-15.625000
8513,-15.625000
8514,-15.625000
8515,-15.625000
8516,-15.625000
8517,-19.531250
8518,-15.625000
8519,-19.531250
8520,-15.625000
8521,-15.625000
8522,-19.531250
8523,-19.531250
8524,-19.531250
8525,-19.531250
8526,-19.531250
8527,-19.531250
8528,-19.531250
8529,-19.531250
8530,-19.531250
8531,-19.531250
8532,-19.531250
8533,-19.531250
8534,-19.531250
8535,-19.531250
8536,-19.531250
8537,-19.531250
8538,-19.531250
8539,-19.531250
8540,-19.531250
8541,-19.531250
8542,-19.531250
8543,-23.437500
8544,-23.437500
8545,-23.437500
8546,-23.437500
8547,-23.437500
8548,-23.437500
8549,-23.437500
8550,-23.437500
8551,-23.437500
8552,-27.343750
8553,-23.437500
8554,-23.437500
8555,-23.437500
8556,-23.437500
8557,-23.437500
8558,-23.437500
8559,-23.437500
8560,-23.437500
8561,-23.437500
8562,-23.437500
8563,-27.343750
8564,-27.343750
8565,-27.343750
8566,-27.343750
8567,-27.343750
8568,-27.343750
8569,-27.343750
8570,-27.343750
8571,-27.343750
8572,-27.343750
8573,-27.343750
8574,-27.343750
8575,-27.343750
8576,-27.343750
8577,-27.343750
8578,-27.343750
8579,-27.343750
8580,-27.343750
8581,-27.343750
8582,-27.343750
8583,-27.343750
8584,-27.343750
8585,-27.343750
8586,-27.343750
8587,-31.250000
8588,-27.343750
8589,-31.250000
8590,-31.250000
8591,-31.250000
8592,-31.250000
8593,-31.250000
8594,-31.250000
8595,-31.250000
8596,-31.250000
8597,-31.250000
8598,-31.250000
8599,-31.250000
8600,-31.250000
8601,-31.250000
8602,-31.250000
8603,-31.250000
8604,-31.250000
8605,-31.250000
8606,-31.250000
8607,-31.250000
8608,-31.250000
8609,-31.250000
8610,-31.250000
8611,-35.156250
8612,-35.156250
8613,-35.156250
8614,-31.250000
8615,-35.156250
8616,-35.156250
8617,-35.156250
8618,-35.156250
8619,-35.156250
8620,-35.156250
8621,-35.156250
8622,-35.156250
8623,-35.156250
8624,-35.156250
8625,-35.156250
8626,-35.156250
8627,-35.156250
8628,-35.156250
8629,-35.156250
8630,-35.156250
8631,-35.156250
8632,-35.156250
8633,-35.156250
8634,-35.156250
8635,-35.156250
8636,-35.156250
8637,-35.156250
8638,-35.156250
8639,-35.156250
8640,-35.156250
8641,-35.156250
8642,-35.156250
8643,-39.062500
8644,-39.062500
8645,-35.156250
8646,-39.062500
8647,-35.156250
8648,-35.156250
8649,-39.062500
8650,-39.062500
8651,-39.062500
8652,-39.062500
8653,-39.062500
8654,-39.062500
8655,-39.062500
8656,-39.062500
8657,-39.062500
8658,-39.062500
8659,-39.062500
8660,-39.062500
8661,-39.062500
8662,-39.062500
8663,-39.062500
8664,-39.062500
8665,-39.062500
8666,-39.062500
8667,-39.062500
8668,-39.062500
8669,-39.062500
8670,-39.062500
8671,-39.062500
8672,-39.062500
8673,-39.062500
8674,-39.062500
8675,-39.062500
8676,-39.062500
8677,-39.062500
8678,-39.062500
8679,-39.062500
8680,-42.968750
8681,-42.968750
8682,-39.062500
8683,-39.062500
8684,-39.062500
8685,-39.062500
8686,-42.968750
8687,-42.968750
8688,-42.968750
8689,-42.968750
8690,-42.968750
8691,-42.968750
8692,-42.968750
8693,-42.968750
8694,-42.968750
8695,-42.968750
8696,-42.968750
8697,-42.968750
8698,-42.968750
8699,-42.968750
8700,-42.968750
8701,-42.968750
8702,-42.968750
8703,-42.968750
8704,-42.968750
8705,-42.968750
8706,-42.968750
8707,-42.968750
8708,-42.968750
8709,-42.968750
8710,-42.968750
8711,-42.968750
8712,-42.968750
8713,-42.968750
8714,-42.968750
8715,-42.968750
8716,-42.968750
8717,-42.968750
8718,-42.968750
8719,-42.968750
8720,-42.968750
8721,-42.968750
8722,-42.968750
8723,-42.968750
8724,-42.968750
8725,-42.968750
8726,-42.968750
8727,-42.968750
8728,-42.968750
8729,-42.968750
8730,-42.968750
8731,-42.968750
8732,-42.968750
8733,-42.968750
8734,-42.968750
8735,-42.968750
8736,-42.968750
8737,-42.968750
8738,-42.968750
8739,-42.968750
8740,-42.968750
8741,-42.968750
8742,-42.968750
8743,-42.968750
8744,-42.968750
8745,-42.968750
8746,-42.968750
8747,-42.968750
8748,-42.968750
8749,-42.968750
8750,-42.968750
8751,-42.968750
8752,-42.968750
8753,-42.968750
8754,-42.968750
8755,-42.968750
8756,-42.968750
8757,-42.968750
8758,-42.968750
8759,-42.968750
8760,-42.968750
8761,-42.968750
8762,-42.968750
8763,-42.968750
8764,-42.968750
8765,-42.968750
8766,-42.968750
8767,-42.968750
8768,-42.968750
8769,-42.968750
8770,-42.968750
8771,-42.968750
8772,-42.968750
8773,-42.968750
8774,-42.968750
8775,-42.968750
8776,-42.968750
8777,-42.968750
8778,-42.968750
8779,-42.968750
8780,-42.968750
8781,-42.968750
8782,-42.968750
8783,-42.968750
8784,-42.968750
8785,-42.968750
8786,-42.968750
8787,-42.968750
8788,-42.968750
8789,-42.968750
8790,-42.968750
8791,-42.968750
8792,-42.968750
8793,-42.968750
8794,-42.968750
8795,-42.968750
8796,-42.968750
8797,-42.968750
8798,-42.968750
8799,-42.968750
8800,-42.968750
8801,-42.968750
8802,-42.968750
8803,-42.968750
8804,-42.968750
8805,-42.968750
8806,-42.968750
8807,-42.968750
8808,-42.968750
8809,-42.968750
8810,-42.968750
8811,-42.968750
8812,-42.968750
8813,-42.968750
8814,-42.968750
8815,-42.968750
8816,-42.968750
8817,-42.968750
8818,-42.968750
8819,-42.968750
8820,-42.968750
8821,-42.968750
8822,-42.968750
8823,-42.968750
8824,-42.968750
8825,-39.062500
8826,-39.062500
8827,-42.968750
8828,-39.062500
8829,-42.968750
8830,-42.968750
8831,-42.968750
8832,-39.062500
8833,-42.968750
8834,-39.062500
8835,-39.062500
8836,-39.062500
8837,-39.062500
8838,-39.062500
8839,-39.062500
8840,-39.062500
8841,-39.062500
8842,-39.062500
8843,-39.062500
8844,-39.062500
8845,-39.062500
8846,-39.062500
8847,-39.062500
8848,-39.062500
8849,-39.062500
8850,-39.062500
8851,-39.062500
8852,-39.062500
8853,-39.062500
8854,-39.062500
8855,-39.062500
8856,-39.062500
8857,-39.062500
8858,-39.062500
8859,-39.062500
8860,-39.062500
8861,-39.062500
8862,-39.062500
8863,-39.062500
8864,-39.062500
8865,-39.062500
8866,-35.156250
8867,-35.156250
8868,-35.156250
8869,-35.156250
8870,-35.156250
8871,-35.156250
8872,-35.156250
8873,-35.156250
8874,-35.156250
8875,-35.156250
8876,-35.156250
8877,-35.156250
8878,-35.156250
8879,-35.156250
8880,-35.156250
8881,-35.156250
8882,-35.156250
8883,-35.156250
8884,-35.156250
8885,-35.156250
8886,-35.156250
8887,-35.156250
8888,-35.156250
8889,-35.156250
8890,-35.156250
8891,-35.156250
8892,-35.156250
8893,-35.156250
8894,-35.156250
8895,-31.250000
8896,-31.250000
8897,-31.250000
8898,-31.250000
8899,-31.250000
8900,-31.250000
8901,-31.250000
8902,-31.250000
8903,-31.250000
8904,-31.250000
8905,-31.250000
8906,-31.250000
8907,-31.250000
8908,-31.250000
8909,-31.250000
8910,-31.250000
8911,-31.250000
8912,-31.250000
8913,-31.250000
8914,-31.250000
8915,-27.343750
8916,-31.250000
8917,-31.250000
8918,-27.343750
8919,-27.343750
8920,-27.343750
8921,-27.343750
8922,-27.343750
8923,-27.343750
8924,-27.343750
8925,-27.343750
8926,-27.343750
8927,-27.343750
8928,-27.343750
8929,-27.343750
8930,-27.343750
8931,-27.343750
8932,-27.343750
8933,-27.343750
8934,-27.343750
8935,-27.343750
8936,-27.343750
8937,-27.343750
8938,-27.343750
8939,-27.343750
8940,-27.343750
8941,-23.437500
8942,-23.437500
8943,-23.437500
8944,-23.437500
8945,-23.437500
8946,-23.437500
8947,-23.437500
8948,-23.437500
8949,-23.437500
8950,-23.437500
8951,-23.437500
8952,-23.437500
8953,-23.437500
8954,-23.437500
8955,-23.437500
8956,-23.437500
8957,-23.437500
8958,-23.437500
8959,-23.437500
8960,-23.437500
8961,-23.437500
8962,-23.437500
8963,-23.437500
8964,-19.531250
8965,-19.531250
8966,-19.531250
8967,-19.531250
8968,-19.531250
8969,-19.531250
8970,-19.531250
8971,-19.531250
8972,-19.531250
8973,-19.531250
8974,-19.531250
8975,-19.531250
8976,-19.531250
8977,-19.531250
8978,-19.531250
8979,-19.531250
8980,-19.531250
8981,-19.531250
8982,-15.625000
8983,-15.625000
8984,-15.625000
8985,-15.625000
8986,-15.625000
8987,-15.625000
8988,-15.625000
8989,-15.625000
8990,-15.625000
8991,-15.625000
8992,-15.625000
8993,-15.625000
8994,-15.625000
8995,-15.625000
8996,-15.625000
8997,-15.625000
8998,-15.625000
8999,-15.625000
9000,-15.625000
9001,-15.625000
9002,-11.718750
9003,-11.718750
9004,-11.718750
9005,-11.718750
9006,-11.718750
9007,-11.718750
9008,-11.718750
9009,-11.718750
9010,-11.718750
9011,-11.718750
9012,-11.718750
9013,-11.718750
9014,-11.718750
9015,-11.718750
9016,-11.718750
9017,-11.718750
9018,-11.718750
9019,-11.718750
9020,-7.812500
9021,-7.812500
9022,-7.812500
9023,-7.812500
9024,-7.812500
9025,-7.812500
9026,-7.812500
9027,-7.812500
9028,-7.812500
9029,-7.812500
9030,-7.812500
9031,-7.812500
9032,-7.812500
9033,-7.812500
9034,-7.812500
9035,-7.812500
9036,-7.812500
9037,-7.812500
9038,-3.906250
9039,-7.812500
9040,-3.906250
9041,-3.906250
9042,-3.906250
9043,-3.906250
9044,-3.906250
9045,-3.906250
9046,-3.906250
9047,-3.906250
9048,-3.906250
9049,-3.906250
9050,-3.906250
9051,-3.906250
9052,-3.906250
9053,-3.906250
9054,-3.906250
9055,-3.906250
9056,-3.906250
9057,0.000000
9058,0.000000
9059,0.000000
9060,0.000000
9061,0.000000
9062,0.000000
9063,0.000000
9064,0.000000
9065,0.000000
9066,0.000000
9067,0.000000
9068,0.000000
9069,0.000000
9070,0.000000
9071,0.000000
9072,0.000000
9073,0.000000
9074,0.000000
9075,0.000000
9076,0.000000
9077,0.000000
9078,0.000000
9079,3.906250
9080,3.906250
9081,3.906250
9082,3.906250
9083,3.906250
9084,3.906250
9085,3.906250
9086,3.906250
9087,3.906250
9088,3.906250
9089,3.906250
9090,3.906250
9091,3.906250
9092,3.906250
9093,3.906250
9094,3.906250
9095,3.906250
9096,3.906250
9097,3.906250
9098,3.906250
9099,3.906250
9100,3.906250
9101,3.906250
9102,7.812500
9103,7.812500
9104,7.812500
9105,7.812500
9106,7.812500
9107,7.812500
9108,7.812500
9109,7.812500
9110,7.812500
9111,7.812500
9112,7.812500
9113,7.812500
9114,7.812500
9115,7.812500
9116,7.812500
9117,7.812500
9118,7.812500
9119,7.812500
9120,7.812500
9121,7.812500
9122,7.812500
9123,7.812500
9124,11.718750
9125,7.812500
9126,11.718750
9127,11.718750
9128,7.812500
9129,11.718750
9130,11.718750
9131,11.718750
9132,11.718750
9133,11.718750
9134,11.718750
9135,11.718750
9136,11.718750
9137,11.718750
9138,11.718750
9139,11.718750
9140,11.718750
9141,11.718750
9142,11.718750
9143,11.718750
9144,11.718750
9145,11.718750
9146,11.718750
9147,11.718750
9148,11.718750
9149,11.718750
9150,11.718750
9151,11.718750
9152,11.718750
9153,11.718750
9154,11.718750
9155,11.718750
9156,11.718750
9157,15.625000
9158,15.625000
9159,15.625000
9160,15.625000
9161,15.625000
9162,15.625000
9163,11.718750
9164,15.625000
9165,15.625000
9166,15.625000
9167,15.625000
9168,15.625000
9169,15.625000
9170,15.625000
9171,15.625000
9172,15.625000
9173,15.625000
9174,15.625000
9175,15.625000
9176,15.625000
9177,15.625000
9178,15.625000
9179,15.625000
9180,15.625000
9181,15.625000
9182,15.625000
9183,15.625000
9184,15.625000
9185,15.625000
9186,15.625000
9187,15.625000
9188,15.625000
9189,15.625000
9190,15.625000
9191,15.625000
9192,15.625000
9193,15.625000
9194,15.625000
9195,15.625000
9196,15.625000
9197,15.625000
9198,19.531250
9199,15.625000
9200,15.625000
9201,19.531250
9202,15.625000
9203,15.625000
9204,15.625000
9205,19.531250
9206,19.531250
9207,19.531250
9208,19.531250
9209,19.531250
9210,19.531250
9211,19.531250
9212,19.531250
9213,19.531250
9214,19.531250
9215,19.531250
9216,19.531250
9217,19.531250
9218,19.531250
9219,19.531250
9220,19.531250
9221,19.531250
9222,19.531250
9223,19.531250
9224,19.531250
9225,15.625000
9226,19.531250
9227,19.531250
9228,19.531250
9229,19.531250
9230,19.531250
9231,19.531250
9232,19.531250
9233,19.531250
9234,19.531250
9235,19.531250
9236,19.531250
9237,19.531250
9238,19.531250
9239,19.531250
9240,19.531250
9241,19.531250
9242,19.531250
9243,19.531250
9244,19.531250
9245,19.531250
9246,19.531250
9247,19.531250
9248,19.531250
9249,15.625000
9250,19.531250
9251,15.625000
9252,19.531250
9253,19.531250
9254,19.531250
9255,15.625000
9256,19.531250
9257,19.531250
9258,15.625000
9259,19.531250
9260,19.531250
9261,19.531250
9262,15.625000
9263,15.625000
9264,15.625000
9265,15.625000
9266,19.531250
9267,19.531250
9268,15.625000
9269,19.531250
9270,19.531250
9271,15.625000
9272,19.531250
9273,15.625000
9274,15.625000
9275,15.625000
9276,19.531250
9277,15.625000
9278,19.531250
9279,15.625000
9280,15.625000
9281,15.625000
9282,15.625000
9283,15.625000
9284,15.625000
9285,15.625000
9286,15.625000
9287,15.625000
9288,15.625000
9289,15.625000
9290,15.625000
9291,15.625000
9292,15.625000
9293,15.625000
9294,15.625000
9295,15.625000
9296,15.625000
9297,15.625000
9298,15.625000
9299,15.625000
9300,15.625000
9301,15.625000
9302,15.625000
9303,15.625000
9304,15.625000
9305,15.625000
9306,15.625000
9307,15.625000
9308,15.625000
9309,15.625000
9310,15.625000
9311,15.625000
9312,15.625000
9313,15.625000
9314,15.625000
9315,15.625000
9316,15.625000
9317,15.625000
9318,15.625000
9319,11.718750
9320,15.625000
9321,15.625000
9322,15.625000
9323,11.718750
9324,15.625000
9325,11.718750
9326,11.718750
9327,11.718750
9328,11.718750
9329,11.718750
9330,11.718750
9331,11.718750
9332,11.718750
9333,11.718750
9334,11.718750
9335,11.718750
9336,11.718750
9337,11.718750
9338,11.718750
9339,11.718750
9340,11.718750
9341,11.718750
9342,11.718750
9343,11.718750
9344,11.718750
9345,11.718750
9346,11.718750
9347,11.718750
9348,11.718750
9349,11.718750
9350,11.718750
9351,11.718750
9352,11.718750
9353,7.812500
9354,7.812500
9355,7.812500
9356,7.812500
9357,7.812500
9358,7.812500
9359,7.812500
9360,7.812500
9361,7.812500
9362,7.812500
9363,7.812500
9364,7.812500
9365,7.812500
9366,7.812500
9367,7.812500
9368,7.812500
9369,7.812500
9370,7.812500
9371,7.812500
9372,7.812500
9373,7.812500
9374,7.812500
9375,7.812500
9376,7.812500
9377,7.812500
9378,7.812500
9379,3.906250
9380,3.906250
9381,3.906250
9382,3.906250
9383,3.906250
9384,3.906250
9385,3.906250
9386,3.906250
9387,3.906250
9388,3.906250
9389,3.906250
9390,3.906250
9391,3.906250
9392,3.906250
9393,3.906250
9394,3.906250
9395,3.906250
9396,3.906250
9397,3.906250
9398,3.906250
9399,3.906250
9400,3.906250
9401,3.906250
9402,3.906250
9403,0.000000
9404,0.000000
9405,0.000000
9406,3.906250
9407,0.000000
9408,0.000000
9409,0.000000
9410,0.000000
9411,0.000000
9412,0.000000
9413,0.000000
9414,0.000000
9415,0.000000
9416,0.000000
9417,0.000000
9418,0.000000
9419,0.000000
9420,0.000000
9421,0.000000
9422,0.000000
9423,0.000000
9424,0.000000
9425,-3.906250
9426,0.000000
9427,0.000000
9428,0.000000
9429,0.000000
9430,-3.906250
9431,-3.906250
9432,-3.906250
9433,-3.906250
9434,-3.906250
9435,-3.906250
9436,-3.906250
9437,-3.906250
9438,-3.906250
9439,-3.906250
9440,-3.906250
9441,-3.906250
9442,-3.906250
9443,-3.906250
9444,-3.906250
9445,-3.906250
9446,-3.906250
9447,-3.906250
9448,-7.812500
9449,-3.906250
9450,-7.812500
9451,-7.812500
9452,-7.812500
9453,-7.812500
9454,-7.812500
9455,-7.812500
9456,-7.812500
9457,-7.812500
9458,-7.812500
9459,-7.812500
9460,-7.812500
9461,-7.812500
9462,-7.812500
9463,-7.812500
9464,-7.812500
9465,-7.812500
9466,-7.812500
9467,-11.718750
9468,-11.718750
9469,-7.812500
9470,-11.718750
9471,-11.718750
9472,-11.718750
9473,-11.718750
9474,-11.718750
9475,-11.718750
9476,-11.718750
9477,-11.718750
9478,-11.718750
9479,-11.718750
9480,-11.718750
9481,-11.718750
9482,-11.718750
9483,-11.718750
9484,-11.718750
9485,-11.718750
9486,-11.718750
9487,-11.718750
9488,-11.718750
9489,-15.625000
9490,-15.625000
9491,-15.625000
9492,-15.625000
9493,-15.625000
9494,-15.625000
9495,-15.625000
9496,-15.625000
9497,-15.625000
9498,-15.625000
9499,-15.625000
9500,-15.625000
9501,-15.625000
9502,-15.625000
9503,-15.625000
9504,-15.625000
9505,-15.625000
9506,-15.625000
9507,-19.531250
9508,-15.625000
9509,-19.531250
9510,-15.625000
9511,-19.531250
9512,-19.531250
9513,-19.531250
9514,-19.531250
9515,-19.531250
9516,-19.531250
9517,-19.531250
9518,-19.531250
9519,-19.531250
9520,-19.531250
9521,-19.531250
9522,-19.531250
9523,-19.531250
9524,-19.531250
9525,-19.531250
9526,-19.531250
9527,-23.437500
9528,-23.437500
9529,-23.437500
9530,-19.531250
9531,-23.437500
9532,-23.437500
9533,-23.437500
9534,-23.437500
9535,-23.437500
9536,-23.437500
9537,-23.437500
9538,-23.437500
9539,-23.437500
9540,-23.437500
9541,-23.437500
9542,-23.437500
9543,-23.437500
9544,-23.437500
9545,-23.437500
9546,-23.437500
9547,-23.437500
9548,-23.437500
9549,-23.437500
9550,-23.437500
9551,-23.437500
9552,-23.437500
9553,-27.343750
9554,-23.437500
9555,-27.343750
9556,-27.343750
9557,-27.343750
9558,-27.343750
9559,-27.343750
9560,-27.343750
9561,-27.343750
9562,-27.343750
9563,-27.343750
9564,-27.343750
9565,-27.343750
9566,-27.343750
9567,-27.343750
9568,-27.343750
9569,-27.343750
9570,-27.343750
9571,-27.343750
9572,-27.343750
9573,-27.343750
9574,-27.343750
9575,-31.250000
9576,-27.343750
9577,-31.250000
9578,-27.343750
9579,-31.250000
9580,-31.250000
9581,-31.250000
9582,-31.250000
9583,-31.250000
9584,-31.250000
9585,-31.250000
9586,-31.250000
9587,-31.250000
9588,-31.250000
9589,-31.250000
9590,-31.250000
9591,-31.250000
9592,-31.250000
9593,-31.250000
9594,-31.250000
9595,-31.250000
9596,-31.250000
9597,-31.250000
9598,-31.250000
9599,-31.250000
9600,-31.250000
9601,-31.250000
9602,-35.156250
9603,-35.156250
9604,-31.250000
9605,-35.156250
9606,-35.156250
9607,-35.156250
9608,-35.156250
9609,-35.156250
9610,-35.156250
9611,-35.156250
9612,-35.156250
9613,-35.156250
9614,-35.156250
9615,-35.156250
9616,-35.156250
9617,-35.156250
9618,-35.156250
9619,-35.156250
9620,-35.156250
9621,-35.156250
9622,-35.156250
9623,-35.156250
9624,-35.156250
9625,-35.156250
9626,-35.156250
9627,-39.062500
9628,-39.062500
9629,-35.156250
9630,-35.156250
9631,-39.062500
9632,-39.062500
9633,-39.062500
9634,-39.062500
9635,-39.062500
9636,-39.062500
9637,-39.062500
9638,-39.062500
9639,-39.062500
9640,-39.062500
9641,-39.062500
9642,-39.062500
9643,-39.062500
9644,-39.062500
9645,-39.062500
9646,-39.062500
9647,-39.062500
9648,-39.062500
9649,-39.062500
9650,-39.062500
9651,-39.062500
9652,-39.062500
9653,-39.062500
9654,-39.062500
9655,-39.062500
9656,-39.062500
9657,-39.062500
9658,-39.062500
9659,-39.062500
9660,-39.062500
9661,-39.062500
9662,-39.062500
9663,-39.062500
9664,-39.062500
9665,-39.062500
9666,-39.062500
9667,-39.062500
9668,-39.062500
9669,-39.062500
9670,-39.062500
9671,-39.062500
9672,-42.968750
9673,-42.968750
9674,-42.968750
9675,-42.968750
9676,-42.968750
9677,-42.968750
9678,-42.968750
9679,-42.968750
9680,-42.968750
9681,-42.968750
9682,-42.968750
9683,-42.968750
9684,-42.968750
9685,-42.968750
9686,-42.968750
9687,-42.968750
9688,-42.968750
9689,-42.968750
9690,-42.968750
9691,-42.968750
9692,-42.968750
9693,-42.968750
9694,-42.968750
9695,-42.968750
9696,-42.968750
9697,-42.968750
9698,-42.968750
9699,-42.968750
9700,-42.968750
9701,-42.968750
9702,-42.968750
9703,-42.968750
9704,-42.968750
9705,-42.968750
9706,-42.968750
9707,-42.968750
9708,-42.968750
9709,-42.968750
9710,-42.968750
9711,-42.968750
9712,-42.968750
9713,-42.968750
9714,-42.968750
9715,-42.968750
9716,-42.968750
9717,-42.968750
9718,-42.968750
9719,-42.968750
9720,-42.968750
9721,-42.968750
9722,-42.968750
9723,-42.968750
9724,-42.968750
9725,-46.875000
9726,-42.968750
9727,-42.968750
9728,-42.968750
9729,-42.968750
9730,-42.968750
9731,-42.968750
9732,-42.968750
9733,-42.968750
9734,-42.968750
9735,-42.968750
9736,-42.968750
9737,-42.968750
9738,-42.968750
9739,-42.968750
9740,-42.968750
9741,-42.968750
9742,-42.968750
9743,-42.968750
9744,-42.968750
9745,-42.968750
9746,-42.968750
9747,-42.968750
9748,-42.968750
9749,-42.968750
9750,-42.968750
9751,-42.968750
9752,-42.968750
9753,-42.968750
9754,-42.968750
9755,-42.968750
9756,-42.968750
9757,-42.968750
9758,-42.968750
9759,-42.968750
9760,-42.968750
9761,-42.968750
9762,-42.968750
9763,-42.968750
9764,-42.968750
9765,-42.968750
9766,-42.968750
9767,-42.968750
9768,-42.968750
9769,-42.968750
9770,-42.968750
9771,-42.968750
9772,-42.968750
9773,-42.968750
9774,-42.968750
9775,-42.968750
9776,-42.968750
9777,-42.968750
9778,-42.968750
9779,-42.968750
9780,-42.968750
9781,-42.968750
9782,-42.968750
9783,-42.968750
9784,-42.968750
9785,-42.968750
9786,-42.968750
9787,-42.968750
9788,-42.968750
9789,-42.968750
9790,-42.968750
9791,-42.968750
9792,-42.968750
9793,-42.968750
9794,-42.968750
9795,-42.968750
9796,-42.968750
9797,-42.968750
9798,-42.968750
9799,-42.968750
9800,-42.968750
9801,-42.968750
9802,-42.968750
9803,-42.968750
9804,-42.968750
9805,-42.968750
9806,-42.968750
9807,-42.968750
9808,-42.968750
9809,-42.968750
9810,-42.968750
9811,-42.968750
9812,-39.062500
9813,-39.062500
9814,-42.968750
9815,-39.062500
9816,-39.062500
9817,-42.968750
9818,-39.062500
9819,-42.968750
9820,-39.062500
9821,-39.062500
9822,-39.062500
9823,-39.062500
9824,-39.062500
9825,-39.062500
9826,-39.062500
9827,-39.062500
9828,-39.062500
9829,-39.062500
9830,-39.062500
9831,-39.062500
9832,-39.062500
9833,-39.062500
9834,-39.062500
9835,-39.062500
9836,-39.062500
9837,-39.062500
9838,-39.062500
9839,-39.062500
9840,-39.062500
9841,-39.062500
9842,-39.062500
9843,-39.062500
9844,-39.062500
9845,-39.062500
9846,-39.062500
9847,-39.062500
9848,-39.062500
9849,-39.062500
9850,-39.062500
9851,-35.156250
9852,-39.062500
9853,-35.156250
9854,-35.156250
9855,-35.156250
9856,-35.156250
9857,-35.156250
9858,-35.156250
9859,-35.156250
9860,-35.156250
9861,-35.156250
9862,-35.156250
9863,-35.156250
9864,-35.156250
9865,-35.156250
9866,-35.156250
9867,-35.156250
9868,-35.156250
9869,-35.156250
9870,-35.156250
9871,-35.156250
9872,-35.156250
9873,-35.156250
9874,-35.156250
9875,-35.156250
9876,-35.156250
9877,-35.156250
9878,-35.156250
9879,-31.250000
9880,-31.250000
9881,-35.156250
9882,-31.250000
9883,-31.250000
9884,-31.250000
9885,-35.156250
9886,-31.250000
9887,-31.250000
9888,-31.250000
9889,-31.250000
9890,-31.250000
9891,-31.250000
9892,-31.250000
9893,-31.250000
9894,-31.250000
9895,-31.250000
9896,-31.250000
9897,-31.250000
9898,-31.250000
9899,-31.250000
9900,-31.250000
9901,-31.250000
9902,-31.250000
9903,-31.250000
9904,-31.250000
9905,-31.250000
9906,-31.250000
9907,-27.343750
9908,-31.250000
9909,-27.343750
9910,-27.343750
9911,-27.343750
9912,-27.343750
9913,-27.343750
9914,-27.343750
9915,-27.343750
9916,-27.343750
9917,-27.343750
9918,-27.343750
9919,-27.343750
9920,-27.343750
9921,-27.343750
9922,-27.343750
9923,-27.343750
9924,-27.343750
9925,-27.343750
9926,-23.437500
9927,-23.437500
9928,-23.437500
9929,-27.343750
9930,-23.437500
9931,-23.437500
9932,-23.437500
9933,-23.437500
9934,-23.437500
9935,-23.437500
9936,-23.437500
9937,-23.437500
9938,-23.437500
9939,-23.437500
9940,-23.437500
9941,-23.437500
9942,-23.437500
9943,-23.437500
9944,-23.437500
9945,-23.437500
9946,-23.437500
9947,-19.531250
9948,-19.531250
9949,-19.531250
9950,-19.531250
9951,-19.531250
9952,-19.531250
9953,-19.531250
9954,-19.531250
9955,-19.531250
9956,-23.437500
9957,-19.531250
9958,-19.531250
9959,-15.625000
9960,-19.531250
9961,-19.531250
9962,-15.625000
9963,-19.531250
9964,-19.531250
9965,-15.625000
9966,-19.531250
9967,-15.625000
9968,-15.625000
9969,-15.625000
9970,-15.625000
9971,-15.625000
9972,-15.625000
9973,-15.625000
9974,-15.625000
9975,-15.625000
9976,-15.625000
9977,-15.625000
9978,-15.625000
9979,-15.625000
9980,-15.625000
9981,-15.625000
9982,-15.625000
9983,-15.625000
9984,-15.625000
9985,-15.625000
9986,-11.718750
9987,-15.625000
9988,-11.718750
9989,-15.625000
9990,-11.718750
9991,-15.625000
9992,-11.718750
9993,-11.718750
9994,-11.718750
9995,-11.718750
9996,-11.718750
9997,-11.718750
9998,-11.718750
9999,-11.718750
10000,-11.718750
