Channel              :,CH1
Frequency            :,1.771kHz
Period               :,0.565ms
PK-PK                :,175.8mV
Probe attenuation    :,1X
Voltage per ADC value:,0.122070mV
Time interval        :,2.00000us

index,CH1_Voltage(mV)
1,76.171875
2,76.171875
3,76.171875
4,76.171875
5,76.171875
6,74.218750
7,74.218750
8,74.218750
9,74.218750
10,72.265625
11,72.265625
12,72.265625
13,72.265625
14,72.265625
15,72.265625
16,70.312500
17,70.312500
18,68.359375
19,68.359375
20,66.406250
21,64.453125
22,64.453125
23,64.453125
24,64.453125
25,62.500000
26,62.500000
27,60.546875
28,60.546875
29,58.593750
30,56.640625
31,56.640625
32,54.687500
33,54.687500
34,52.734375
35,50.781250
36,48.828125
37,48.828125
38,46.875000
39,44.921875
40,44.921875
41,42.968750
42,41.015625
43,39.062500
44,37.109375
45,37.109375
46,35.156250
47,33.203125
48,31.250000
49,29.296875
50,29.296875
51,27.343750
52,25.390625
53,23.437500
54,21.484375
55,19.531250
56,17.578125
57,15.625000
58,13.671875
59,11.718750
60,9.765625
61,7.812500
62,7.812500
63,5.859375
64,3.906250
65,1.953125
66,0.000000
67,-1.953125
68,-5.859375
69,-7.812500
70,-7.812500
71,-9.765625
72,-11.718750
73,-13.671875
74,-15.625000
75,-19.531250
76,-21.484375
77,-21.484375
78,-23.437500
79,-25.390625
80,-27.343750
81,-29.296875
82,-33.203125
83,-35.156250
84,-37.109375
85,-39.062500
86,-39.062500
87,-41.015625
88,-42.968750
89,-44.921875
90,-46.875000
91,-50.781250
92,-50.781250
93,-52.734375
94,-54.687500
95,-56.640625
96,-56.640625
97,-60.546875
98,-60.546875
99,-62.500000
100,-64.453125
101,-66.406250
102,-68.359375
103,-68.359375
104,-70.312500
105,-72.265625
106,-74.218750
107,-74.218750
108,-76.171875
109,-78.125000
110,-78.125000
111,-80.078125
112,-82.031250
113,-82.031250
114,-82.031250
115,-83.984375
116,-85.937500
117,-85.937500
118,-87.890625
119,-87.890625
120,-87.890625
121,-89.843750
122,-91.796875
123,-91.796875
124,-91.796875
125,-93.750000
126,-93.750000
127,-93.750000
128,-93.750000
129,-95.703125
130,-95.703125
131,-95.703125
132,-95.703125
133,-97.656250
134,-97.656250
135,-97.656250
136,-97.656250
137,-97.656250
138,-97.656250
139,-97.656250
140,-97.656250
141,-97.656250
142,-97.656250
143,-97.656250
144,-97.656250
145,-97.656250
146,-95.703125
147,-95.703125
148,-95.703125
149,-95.703125
150,-95.703125
151,-93.750000
152,-93.750000
153,-93.750000
154,-91.796875
155,-91.796875
156,-91.796875
157,-89.843750
158,-89.843750
159,-87.890625
160,-87.890625
161,-85.937500
162,-85.937500
163,-83.984375
164,-83.984375
165,-82.031250
166,-82.031250
167,-80.078125
168,-78.125000
169,-76.171875
170,-76.171875
171,-74.218750
172,-72.265625
173,-72.265625
174,-70.312500
175,-68.359375
176,-66.406250
177,-66.406250
178,-64.453125
179,-62.500000
180,-60.546875
181,-58.593750
182,-56.640625
183,-54.687500
184,-54.687500
185,-52.734375
186,-50.781250
187,-48.828125
188,-46.875000
189,-44.921875
190,-42.968750
191,-41.015625
192,-39.062500
193,-37.109375
194,-35.156250
195,-33.203125
196,-31.250000
197,-29.296875
198,-27.343750
199,-27.343750
200,-25.390625
201,-23.437500
202,-21.484375
203,-19.531250
204,-15.625000
205,-15.625000
206,-11.718750
207,-11.718750
208,-7.812500
209,-5.859375
210,-3.906250
211,-1.953125
212,-1.953125
213,0.000000
214,1.953125
215,3.906250
216,5.859375
217,7.812500
218,9.765625
219,11.718750
220,13.671875
221,15.625000
222,17.578125
223,19.531250
224,21.484375
225,23.437500
226,25.390625
227,25.390625
228,29.296875
229,29.296875
230,31.250000
231,33.203125
232,35.156250
233,35.156250
234,37.109375
235,39.062500
236,41.015625
237,42.968750
238,42.968750
239,44.921875
240,46.875000
241,48.828125
242,48.828125
243,50.781250
244,52.734375
245,54.687500
246,54.687500
247,56.640625
248,58.593750
249,58.593750
250,58.593750
251,60.546875
252,60.546875
253,62.500000
254,64.453125
255,64.453125
256,66.406250
257,66.406250
258,66.406250
259,68.359375
260,68.359375
261,70.312500
262,70.312500
263,70.312500
264,70.312500
265,72.265625
266,72.265625
267,72.265625
268,72.265625
269,74.218750
270,74.218750
271,74.218750
272,76.171875
273,76.171875
274,76.171875
275,76.171875
276,76.171875
277,76.171875
278,76.171875
279,76.171875
280,76.171875
281,76.171875
282,76.171875
283,76.171875
284,76.171875
285,76.171875
286,76.171875
287,74.218750
288,74.218750
289,74.218750
290,74.218750
291,74.218750
292,74.218750
293,74.218750
294,72.265625
295,72.265625
296,72.265625
297,70.312500
298,70.312500
299,70.312500
300,68.359375
301,68.359375
302,68.359375
303,66.406250
304,66.406250
305,64.453125
306,64.453125
307,62.500000
308,62.500000
309,60.546875
310,60.546875
311,58.593750
312,58.593750
313,56.640625
314,54.687500
315,54.687500
316,52.734375
317,52.734375
318,50.781250
319,48.828125
320,46.875000
321,46.875000
322,44.921875
323,42.968750
324,42.968750
325,41.015625
326,39.062500
327,37.109375
328,35.156250
329,33.203125
330,33.203125
331,31.250000
332,29.296875
333,27.343750
334,25.390625
335,23.437500
336,21.484375
337,19.531250
338,17.578125
339,17.578125
340,13.671875
341,11.718750
342,9.765625
343,9.765625
344,7.812500
345,5.859375
346,3.906250
347,1.953125
348,0.000000
349,-1.953125
350,-3.906250
351,-7.812500
352,-7.812500
353,-9.765625
354,-11.718750
355,-13.671875
356,-15.625000
357,-17.578125
358,-19.531250
359,-21.484375
360,-23.437500
361,-25.390625
362,-27.343750
363,-29.296875
364,-31.250000
365,-33.203125
366,-35.156250
367,-37.109375
368,-39.062500
369,-41.015625
370,-42.968750
371,-42.968750
372,-46.875000
373,-46.875000
374,-50.781250
375,-52.734375
376,-52.734375
377,-54.687500
378,-56.640625
379,-58.593750
380,-60.546875
381,-62.500000
382,-62.500000
383,-64.453125
384,-66.406250
385,-68.359375
386,-70.312500
387,-70.312500
388,-72.265625
389,-74.218750
390,-76.171875
391,-76.171875
392,-78.125000
393,-80.078125
394,-80.078125
395,-82.031250
396,-83.984375
397,-83.984375
398,-85.937500
399,-87.890625
400,-87.890625
401,-87.890625
402,-89.843750
403,-89.843750
404,-89.843750
405,-91.796875
406,-91.796875
407,-91.796875
408,-93.750000
409,-93.750000
410,-95.703125
411,-95.703125
412,-95.703125
413,-95.703125
414,-95.703125
415,-97.656250
416,-97.656250
417,-97.656250
418,-97.656250
419,-97.656250
420,-97.656250
421,-97.656250
422,-97.656250
423,-97.656250
424,-97.656250
425,-97.656250
426,-97.656250
427,-95.703125
428,-95.703125
429,-95.703125
430,-95.703125
431,-95.703125
432,-95.703125
433,-93.750000
434,-93.750000
435,-93.750000
436,-93.750000
437,-91.796875
438,-91.796875
439,-89.843750
440,-89.843750
441,-89.843750
442,-87.890625
443,-85.937500
444,-85.937500
445,-83.984375
446,-83.984375
447,-82.031250
448,-82.031250
449,-80.078125
450,-78.125000
451,-78.125000
452,-76.171875
453,-74.218750
454,-74.218750
455,-72.265625
456,-72.265625
457,-68.359375
458,-68.359375
459,-66.406250
460,-64.453125
461,-62.500000
462,-62.500000
463,-60.546875
464,-58.593750
465,-56.640625
466,-54.687500
467,-52.734375
468,-50.781250
469,-48.828125
470,-48.828125
471,-44.921875
472,-44.921875
473,-42.968750
474,-41.015625
475,-39.062500
476,-37.109375
477,-35.156250
478,-33.203125
479,-31.250000
480,-29.296875
481,-27.343750
482,-25.390625
483,-23.437500
484,-21.484375
485,-19.531250
486,-17.578125
487,-15.625000
488,-13.671875
489,-11.718750
490,-9.765625
491,-7.812500
492,-5.859375
493,-3.906250
494,-1.953125
495,0.000000
496,1.953125
497,3.906250
498,5.859375
499,7.812500
500,9.765625
501,11.718750
502,13.671875
503,15.625000
504,17.578125
505,19.531250
506,21.484375
507,21.484375
508,23.437500
509,25.390625
510,27.343750
511,29.296875
512,31.250000
513,33.203125
514,35.156250
515,37.109375
516,37.109375
517,39.062500
518,41.015625
519,42.968750
520,42.968750
521,44.921875
522,46.875000
523,46.875000
524,48.828125
525,50.781250
526,50.781250
527,52.734375
528,54.687500
529,56.640625
530,56.640625
531,58.593750
532,58.593750
533,60.546875
534,60.546875
535,62.500000
536,62.500000
537,64.453125
538,64.453125
539,64.453125
540,66.406250
541,68.359375
542,68.359375
543,68.359375
544,70.312500
545,70.312500
546,70.312500
547,72.265625
548,72.265625
549,72.265625
550,72.265625
551,74.218750
552,74.218750
553,74.218750
554,74.218750
555,74.218750
556,76.171875
557,76.171875
558,76.171875
559,76.171875
560,76.171875
561,76.171875
562,76.171875
563,76.171875
564,76.171875
565,76.171875
566,76.171875
567,76.171875
568,76.171875
569,76.171875
570,76.171875
571,78.125000
572,74.218750
573,74.218750
574,74.218750
575,74.218750
576,72.265625
577,72.265625
578,72.265625
579,70.312500
580,70.312500
581,70.312500
582,68.359375
583,70.312500
584,68.359375
585,66.406250
586,66.406250
587,64.453125
588,64.453125
589,62.500000
590,62.500000
591,62.500000
592,60.546875
593,58.593750
594,58.593750
595,56.640625
596,54.687500
597,54.687500
598,52.734375
599,52.734375
600,50.781250
601,48.828125
602,46.875000
603,46.875000
604,44.921875
605,42.968750
606,42.968750
607,42.968750
608,39.062500
609,37.109375
610,35.156250
611,35.156250
612,33.203125
613,31.250000
614,29.296875
615,27.343750
616,25.390625
617,25.390625
618,23.437500
619,21.484375
620,19.531250
621,17.578125
622,15.625000
623,13.671875
624,11.718750
625,9.765625
626,7.812500
627,5.859375
628,3.906250
629,1.953125
630,0.000000
631,-1.953125
632,-3.906250
633,-5.859375
634,-7.812500
635,-9.765625
636,-11.718750
637,-13.671875
638,-15.625000
639,-17.578125
640,-19.531250
641,-21.484375
642,-23.437500
643,-25.390625
644,-27.343750
645,-29.296875
646,-31.250000
647,-33.203125
648,-35.156250
649,-37.109375
650,-39.062500
651,-41.015625
652,-41.015625
653,-44.921875
654,-44.921875
655,-48.828125
656,-50.781250
657,-50.781250
658,-52.734375
659,-54.687500
660,-56.640625
661,-58.593750
662,-60.546875
663,-60.546875
664,-62.500000
665,-64.453125
666,-66.406250
667,-68.359375
668,-70.312500
669,-70.312500
670,-72.265625
671,-74.218750
672,-74.218750
673,-76.171875
674,-78.125000
675,-80.078125
676,-80.078125
677,-82.031250
678,-82.031250
679,-83.984375
680,-85.937500
681,-85.937500
682,-85.937500
683,-87.890625
684,-87.890625
685,-89.843750
686,-89.843750
687,-91.796875
688,-91.796875
689,-91.796875
690,-93.750000
691,-93.750000
692,-93.750000
693,-95.703125
694,-95.703125
695,-95.703125
696,-95.703125
697,-95.703125
698,-97.656250
699,-97.656250
700,-97.656250
701,-97.656250
702,-97.656250
703,-97.656250
704,-97.656250
705,-97.656250
706,-97.656250
707,-97.656250
708,-97.656250
709,-97.656250
710,-95.703125
711,-95.703125
712,-95.703125
713,-95.703125
714,-93.750000
715,-93.750000
716,-93.750000
717,-93.750000
718,-93.750000
719,-91.796875
720,-89.843750
721,-89.843750
722,-89.843750
723,-89.843750
724,-87.890625
725,-85.937500
726,-85.937500
727,-85.937500
728,-83.984375
729,-82.031250
730,-82.031250
731,-80.078125
732,-80.078125
733,-78.125000
734,-76.171875
735,-74.218750
736,-74.218750
737,-72.265625
738,-70.312500
739,-70.312500
740,-68.359375
741,-66.406250
742,-64.453125
743,-64.453125
744,-62.500000
745,-60.546875
746,-58.593750
747,-58.593750
748,-54.687500
749,-54.687500
750,-54.687500
751,-50.781250
752,-48.828125
753,-46.875000
754,-44.921875
755,-42.968750
756,-41.015625
757,-39.062500
758,-37.109375
759,-35.156250
760,-33.203125
761,-31.250000
762,-29.296875
763,-27.343750
764,-25.390625
765,-23.437500
766,-21.484375
767,-19.531250
768,-17.578125
769,-15.625000
770,-13.671875
771,-11.718750
772,-9.765625
773,-7.812500
774,-5.859375
775,-3.906250
776,-1.953125
777,0.000000
778,1.953125
779,3.906250
780,5.859375
781,7.812500
782,9.765625
783,11.718750
784,11.718750
785,13.671875
786,15.625000
787,17.578125
788,19.531250
789,21.484375
790,23.437500
791,25.390625
792,27.343750
793,29.296875
794,31.250000
795,31.250000
796,33.203125
797,35.156250
798,37.109375
799,39.062500
800,39.062500
801,41.015625
802,42.968750
803,44.921875
804,46.875000
805,46.875000
806,48.828125
807,50.781250
808,50.781250
809,52.734375
810,52.734375
811,54.687500
812,56.640625
813,56.640625
814,58.593750
815,58.593750
816,60.546875
817,62.500000
818,62.500000
819,64.453125
820,64.453125
821,64.453125
822,66.406250
823,66.406250
824,68.359375
825,68.359375
826,70.312500
827,70.312500
828,70.312500
829,72.265625
830,72.265625
831,72.265625
832,74.218750
833,74.218750
834,74.218750
835,74.218750
836,74.218750
837,76.171875
838,76.171875
839,76.171875
840,76.171875
841,76.171875
842,76.171875
843,76.171875
844,76.171875
845,76.171875
846,76.171875
847,76.171875
848,76.171875
849,76.171875
850,76.171875
851,76.171875
852,76.171875
853,74.218750
854,74.218750
855,74.218750
856,74.218750
857,72.265625
858,74.218750
859,72.265625
860,72.265625
861,70.312500
862,70.312500
863,70.312500
864,68.359375
865,68.359375
866,68.359375
867,66.406250
868,66.406250
869,66.406250
870,64.453125
871,62.500000
872,62.500000
873,62.500000
874,60.546875
875,58.593750
876,58.593750
877,56.640625
878,56.640625
879,54.687500
880,54.687500
881,52.734375
882,50.781250
883,48.828125
884,48.828125
885,46.875000
886,44.921875
887,44.921875
888,42.968750
889,41.015625
890,39.062500
891,39.062500
892,37.109375
893,35.156250
894,33.203125
895,31.250000
896,31.250000
897,29.296875
898,27.343750
899,25.390625
900,23.437500
901,21.484375
902,19.531250
903,17.578125
904,15.625000
905,13.671875
906,13.671875
907,11.718750
908,7.812500
909,7.812500
910,5.859375
911,3.906250
912,0.000000
913,0.000000
914,-1.953125
915,-3.906250
916,-5.859375
917,-9.765625
918,-9.765625
919,-11.718750
920,-13.671875
921,-17.578125
922,-19.531250
923,-19.531250
924,-21.484375
925,-23.437500
926,-27.343750
927,-29.296875
928,-29.296875
929,-31.250000
930,-33.203125
931,-35.156250
932,-39.062500
933,-39.062500
934,-41.015625
935,-42.968750
936,-44.921875
937,-46.875000
938,-48.828125
939,-50.781250
940,-52.734375
941,-54.687500
942,-56.640625
943,-56.640625
944,-60.546875
945,-60.546875
946,-62.500000
947,-64.453125
948,-66.406250
949,-66.406250
950,-68.359375
951,-70.312500
952,-72.265625
953,-74.218750
954,-74.218750
955,-76.171875
956,-78.125000
957,-78.125000
958,-80.078125
959,-82.031250
960,-82.031250
961,-83.984375
962,-83.984375
963,-85.937500
964,-85.937500
965,-87.890625
966,-87.890625
967,-87.890625
968,-89.843750
969,-91.796875
970,-91.796875
971,-91.796875
972,-93.750000
973,-93.750000
974,-93.750000
975,-95.703125
976,-95.703125
977,-95.703125
978,-95.703125
979,-95.703125
980,-97.656250
981,-97.656250
982,-97.656250
983,-97.656250
984,-97.656250
985,-97.656250
986,-97.656250
987,-97.656250
988,-97.656250
989,-97.656250
990,-97.656250
991,-97.656250
992,-97.656250
993,-95.703125
994,-95.703125
995,-95.703125
996,-93.750000
997,-93.750000
998,-93.750000
999,-93.750000
1000,-93.750000
1001,-91.796875
1002,-91.796875
1003,-91.796875
1004,-89.843750
1005,-89.843750
1006,-87.890625
1007,-87.890625
1008,-85.937500
1009,-85.937500
1010,-83.984375
1011,-83.984375
1012,-82.031250
1013,-82.031250
1014,-80.078125
1015,-78.125000
1016,-78.125000
1017,-76.171875
1018,-74.218750
1019,-72.265625
1020,-72.265625
1021,-70.312500
1022,-68.359375
1023,-66.406250
1024,-66.406250
1025,-64.453125
1026,-62.500000
1027,-60.546875
1028,-58.593750
1029,-58.593750
1030,-56.640625
1031,-54.687500
1032,-52.734375
1033,-50.781250
1034,-48.828125
1035,-46.875000
1036,-44.921875
1037,-42.968750
1038,-41.015625
1039,-39.062500
1040,-37.109375
1041,-35.156250
1042,-35.156250
1043,-31.250000
1044,-29.296875
1045,-27.343750
1046,-25.390625
1047,-23.437500
1048,-21.484375
1049,-21.484375
1050,-19.531250
1051,-15.625000
1052,-13.671875
1053,-13.671875
1054,-11.718750
1055,-9.765625
1056,-5.859375
1057,-5.859375
1058,-3.906250
1059,0.000000
1060,0.000000
1061,1.953125
1062,3.906250
1063,5.859375
1064,9.765625
1065,9.765625
1066,11.718750
1067,13.671875
1068,15.625000
1069,17.578125
1070,19.531250
1071,21.484375
1072,23.437500
1073,25.390625
1074,25.390625
1075,29.296875
1076,29.296875
1077,31.250000
1078,33.203125
1079,35.156250
1080,37.109375
1081,37.109375
1082,39.062500
1083,41.015625
1084,42.968750
1085,44.921875
1086,44.921875
1087,46.875000
1088,48.828125
1089,50.781250
1090,50.781250
1091,52.734375
1092,52.734375
1093,54.687500
1094,56.640625
1095,56.640625
1096,58.593750
1097,60.546875
1098,60.546875
1099,60.546875
1100,62.500000
1101,64.453125
1102,64.453125
1103,64.453125
1104,66.406250
1105,66.406250
1106,68.359375
1107,68.359375
1108,68.359375
1109,70.312500
1110,70.312500
1111,72.265625
1112,72.265625
1113,72.265625
1114,72.265625
1115,74.218750
1116,74.218750
1117,74.218750
1118,74.218750
1119,74.218750
1120,74.218750
1121,74.218750
1122,76.171875
1123,76.171875
1124,76.171875
1125,76.171875
1126,76.171875
1127,76.171875
1128,76.171875
1129,76.171875
1130,76.171875
1131,76.171875
1132,76.171875
1133,74.218750
1134,76.171875
1135,76.171875
1136,74.218750
1137,72.265625
1138,74.218750
1139,74.218750
1140,74.218750
1141,72.265625
1142,72.265625
1143,72.265625
1144,70.312500
1145,70.312500
1146,66.406250
1147,68.359375
1148,68.359375
1149,68.359375
1150,68.359375
1151,66.406250
1152,64.453125
1153,64.453125
1154,62.500000
1155,62.500000
1156,62.500000
1157,60.546875
1158,58.593750
1159,56.640625
1160,56.640625
1161,54.687500
1162,54.687500
1163,52.734375
1164,52.734375
1165,50.781250
1166,48.828125
1167,48.828125
1168,46.875000
1169,44.921875
1170,42.968750
1171,41.015625
1172,41.015625
1173,39.062500
1174,37.109375
1175,35.156250
1176,33.203125
1177,33.203125
1178,31.250000
1179,29.296875
1180,27.343750
1181,25.390625
1182,23.437500
1183,21.484375
1184,19.531250
1185,17.578125
1186,15.625000
1187,13.671875
1188,13.671875
1189,11.718750
1190,9.765625
1191,7.812500
1192,5.859375
1193,3.906250
1194,1.953125
1195,0.000000
1196,-1.953125
1197,-3.906250
1198,-5.859375
1199,-7.812500
1200,-9.765625
1201,-11.718750
1202,-13.671875
1203,-15.625000
1204,-17.578125
1205,-19.531250
1206,-21.484375
1207,-23.437500
1208,-25.390625
1209,-27.343750
1210,-29.296875
1211,-31.250000
1212,-33.203125
1213,-35.156250
1214,-37.109375
1215,-39.062500
1216,-41.015625
1217,-42.968750
1218,-44.921875
1219,-46.875000
1220,-46.875000
1221,-50.781250
1222,-52.734375
1223,-52.734375
1224,-54.687500
1225,-56.640625
1226,-58.593750
1227,-60.546875
1228,-62.500000
1229,-62.500000
1230,-64.453125
1231,-66.406250
1232,-68.359375
1233,-70.312500
1234,-70.312500
1235,-72.265625
1236,-74.218750
1237,-76.171875
1238,-76.171875
1239,-78.125000
1240,-80.078125
1241,-80.078125
1242,-82.031250
1243,-82.031250
1244,-83.984375
1245,-85.937500
1246,-85.937500
1247,-85.937500
1248,-87.890625
1249,-89.843750
1250,-89.843750
1251,-89.843750
1252,-91.796875
1253,-93.750000
1254,-91.796875
1255,-93.750000
1256,-95.703125
1257,-95.703125
1258,-95.703125
1259,-95.703125
1260,-95.703125
1261,-97.656250
1262,-97.656250
1263,-97.656250
1264,-97.656250
1265,-97.656250
1266,-97.656250
1267,-97.656250
1268,-97.656250
1269,-97.656250
1270,-97.656250
1271,-97.656250
1272,-97.656250
1273,-97.656250
1274,-97.656250
1275,-95.703125
1276,-97.656250
1277,-95.703125
1278,-95.703125
1279,-95.703125
1280,-95.703125
1281,-93.750000
1282,-91.796875
1283,-91.796875
1284,-91.796875
1285,-91.796875
1286,-89.843750
1287,-89.843750
1288,-89.843750
1289,-87.890625
1290,-85.937500
1291,-85.937500
1292,-83.984375
1293,-83.984375
1294,-82.031250
1295,-82.031250
1296,-80.078125
1297,-78.125000
1298,-80.078125
1299,-76.171875
1300,-74.218750
1301,-74.218750
1302,-72.265625
1303,-70.312500
1304,-68.359375
1305,-68.359375
1306,-66.406250
1307,-64.453125
1308,-62.500000
1309,-62.500000
1310,-60.546875
1311,-58.593750
1312,-56.640625
1313,-54.687500
1314,-52.734375
1315,-50.781250
1316,-48.828125
1317,-46.875000
1318,-44.921875
1319,-44.921875
1320,-42.968750
1321,-39.062500
1322,-39.062500
1323,-37.109375
1324,-35.156250
1325,-33.203125
1326,-31.250000
1327,-29.296875
1328,-27.343750
1329,-25.390625
1330,-23.437500
1331,-21.484375
1332,-17.578125
1333,-19.531250
1334,-15.625000
1335,-13.671875
1336,-11.718750
1337,-9.765625
1338,-7.812500
1339,-5.859375
1340,-3.906250
1341,-1.953125
1342,0.000000
1343,1.953125
1344,3.906250
1345,5.859375
1346,7.812500
1347,9.765625
1348,11.718750
1349,13.671875
1350,15.625000
1351,17.578125
1352,17.578125
1353,19.531250
1354,23.437500
1355,25.390625
1356,25.390625
1357,27.343750
1358,29.296875
1359,31.250000
1360,33.203125
1361,33.203125
1362,35.156250
1363,37.109375
1364,39.062500
1365,41.015625
1366,41.015625
1367,42.968750
1368,44.921875
1369,46.875000
1370,46.875000
1371,48.828125
1372,50.781250
1373,50.781250
1374,52.734375
1375,54.687500
1376,54.687500
1377,56.640625
1378,58.593750
1379,58.593750
1380,60.546875
1381,60.546875
1382,58.593750
1383,60.546875
1384,64.453125
1385,64.453125
1386,64.453125
1387,66.406250
1388,68.359375
1389,68.359375
1390,68.359375
1391,70.312500
1392,70.312500
1393,70.312500
1394,72.265625
1395,72.265625
1396,72.265625
1397,72.265625
1398,74.218750
1399,74.218750
1400,74.218750
1401,74.218750
1402,76.171875
1403,76.171875
1404,76.171875
1405,76.171875
1406,76.171875
1407,76.171875
1408,76.171875
1409,76.171875
1410,76.171875
1411,76.171875
1412,76.171875
1413,76.171875
1414,76.171875
1415,76.171875
1416,76.171875
1417,74.218750
1418,76.171875
1419,74.218750
1420,74.218750
1421,74.218750
1422,74.218750
1423,72.265625
1424,72.265625
1425,72.265625
1426,72.265625
1427,70.312500
1428,70.312500
1429,70.312500
1430,68.359375
1431,68.359375
1432,66.406250
1433,66.406250
1434,64.453125
1435,64.453125
1436,62.500000
1437,62.500000
1438,60.546875
1439,60.546875
1440,60.546875
1441,58.593750
1442,56.640625
1443,56.640625
1444,54.687500
1445,52.734375
1446,52.734375
1447,50.781250
1448,48.828125
1449,48.828125
1450,46.875000
1451,46.875000
1452,44.921875
1453,41.015625
1454,41.015625
1455,39.062500
1456,37.109375
1457,35.156250
1458,35.156250
1459,33.203125
1460,31.250000
1461,29.296875
1462,27.343750
1463,25.390625
1464,25.390625
1465,23.437500
1466,21.484375
1467,19.531250
1468,17.578125
1469,15.625000
1470,13.671875
1471,11.718750
1472,9.765625
1473,7.812500
1474,5.859375
1475,3.906250
1476,1.953125
1477,0.000000
1478,-1.953125
1479,-3.906250
1480,-5.859375
1481,-5.859375
1482,-9.765625
1483,-11.718750
1484,-13.671875
1485,-15.625000
1486,-17.578125
1487,-19.531250
1488,-19.531250
1489,-23.437500
1490,-23.437500
1491,-27.343750
1492,-29.296875
1493,-29.296875
1494,-33.203125
1495,-35.156250
1496,-35.156250
1497,-39.062500
1498,-41.015625
1499,-42.968750
1500,-44.921875
1501,-46.875000
1502,-46.875000
1503,-48.828125
1504,-50.781250
1505,-52.734375
1506,-54.687500
1507,-56.640625
1508,-58.593750
1509,-58.593750
1510,-62.500000
1511,-62.500000
1512,-64.453125
1513,-66.406250
1514,-68.359375
1515,-68.359375
1516,-70.312500
1517,-72.265625
1518,-74.218750
1519,-74.218750
1520,-76.171875
1521,-78.125000
1522,-78.125000
1523,-80.078125
1524,-82.031250
1525,-82.031250
1526,-80.078125
1527,-83.984375
1528,-85.937500
1529,-87.890625
1530,-87.890625
1531,-87.890625
1532,-89.843750
1533,-89.843750
1534,-91.796875
1535,-91.796875
1536,-91.796875
1537,-93.750000
1538,-93.750000
1539,-93.750000
1540,-95.703125
1541,-95.703125
1542,-95.703125
1543,-91.796875
1544,-95.703125
1545,-97.656250
1546,-97.656250
1547,-97.656250
1548,-97.656250
1549,-97.656250
1550,-97.656250
1551,-99.609375
1552,-97.656250
1553,-97.656250
1554,-97.656250
1555,-97.656250
1556,-97.656250
1557,-97.656250
1558,-95.703125
1559,-95.703125
1560,-95.703125
1561,-95.703125
1562,-95.703125
1563,-93.750000
1564,-93.750000
1565,-91.796875
1566,-91.796875
1567,-91.796875
1568,-89.843750
1569,-89.843750
1570,-89.843750
1571,-87.890625
1572,-87.890625
1573,-85.937500
1574,-85.937500
1575,-83.984375
1576,-82.031250
1577,-82.031250
1578,-80.078125
1579,-80.078125
1580,-78.125000
1581,-76.171875
1582,-74.218750
1583,-74.218750
1584,-74.218750
1585,-70.312500
1586,-70.312500
1587,-68.359375
1588,-66.406250
1589,-64.453125
1590,-64.453125
1591,-62.500000
1592,-60.546875
1593,-58.593750
1594,-56.640625
1595,-54.687500
1596,-52.734375
1597,-52.734375
1598,-50.781250
1599,-46.875000
1600,-46.875000
1601,-44.921875
1602,-42.968750
1603,-41.015625
1604,-39.062500
1605,-37.109375
1606,-35.156250
1607,-33.203125
1608,-31.250000
1609,-29.296875
1610,-29.296875
1611,-25.390625
1612,-23.437500
1613,-21.484375
1614,-19.531250
1615,-17.578125
1616,-15.625000
1617,-13.671875
1618,-11.718750
1619,-9.765625
1620,-7.812500
1621,-5.859375
1622,-3.906250
1623,-1.953125
1624,0.000000
1625,1.953125
1626,3.906250
1627,5.859375
1628,7.812500
1629,9.765625
1630,11.718750
1631,11.718750
1632,13.671875
1633,15.625000
1634,17.578125
1635,19.531250
1636,21.484375
1637,23.437500
1638,25.390625
1639,27.343750
1640,29.296875
1641,31.250000
1642,31.250000
1643,33.203125
1644,35.156250
1645,37.109375
1646,37.109375
1647,39.062500
1648,41.015625
1649,42.968750
1650,44.921875
1651,44.921875
1652,46.875000
1653,48.828125
1654,50.781250
1655,50.781250
1656,52.734375
1657,54.687500
1658,54.687500
1659,56.640625
1660,58.593750
1661,58.593750
1662,58.593750
1663,60.546875
1664,62.500000
1665,62.500000
1666,62.500000
1667,64.453125
1668,66.406250
1669,66.406250
1670,66.406250
1671,68.359375
1672,68.359375
1673,70.312500
1674,70.312500
1675,72.265625
1676,72.265625
1677,72.265625
1678,74.218750
1679,72.265625
1680,74.218750
1681,74.218750
1682,74.218750
1683,74.218750
1684,74.218750
1685,74.218750
1686,76.171875
1687,76.171875
1688,76.171875
1689,76.171875
1690,76.171875
1691,76.171875
1692,76.171875
1693,76.171875
1694,76.171875
1695,76.171875
1696,76.171875
1697,76.171875
1698,76.171875
1699,76.171875
1700,76.171875
1701,74.218750
1702,74.218750
1703,74.218750
1704,74.218750
1705,72.265625
1706,72.265625
1707,72.265625
1708,72.265625
1709,70.312500
1710,70.312500
1711,70.312500
1712,68.359375
1713,68.359375
1714,66.406250
1715,66.406250
1716,66.406250
1717,64.453125
1718,62.500000
1719,62.500000
1720,60.546875
1721,60.546875
1722,60.546875
1723,58.593750
1724,56.640625
1725,56.640625
1726,54.687500
1727,52.734375
1728,52.734375
1729,50.781250
1730,50.781250
1731,48.828125
1732,48.828125
1733,46.875000
1734,44.921875
1735,44.921875
1736,41.015625
1737,41.015625
1738,39.062500
1739,37.109375
1740,35.156250
1741,33.203125
1742,33.203125
1743,31.250000
1744,29.296875
1745,27.343750
1746,25.390625
1747,23.437500
1748,21.484375
1749,19.531250
1750,17.578125
1751,15.625000
1752,15.625000
1753,13.671875
1754,9.765625
1755,7.812500
1756,7.812500
1757,5.859375
1758,1.953125
1759,0.000000
1760,0.000000
1761,-3.906250
1762,-3.906250
1763,-5.859375
1764,-7.812500
1765,-9.765625
1766,-11.718750
1767,-15.625000
1768,-15.625000
1769,-19.531250
1770,-19.531250
1771,-21.484375
1772,-25.390625
1773,-27.343750
1774,-27.343750
1775,-29.296875
1776,-31.250000
1777,-33.203125
1778,-35.156250
1779,-37.109375
1780,-39.062500
1781,-41.015625
1782,-42.968750
1783,-44.921875
1784,-46.875000
1785,-48.828125
1786,-50.781250
1787,-52.734375
1788,-52.734375
1789,-56.640625
1790,-58.593750
1791,-58.593750
1792,-60.546875
1793,-62.500000
1794,-64.453125
1795,-66.406250
1796,-66.406250
1797,-68.359375
1798,-70.312500
1799,-70.312500
1800,-72.265625
1801,-74.218750
1802,-76.171875
1803,-78.125000
1804,-78.125000
1805,-80.078125
1806,-80.078125
1807,-82.031250
1808,-82.031250
1809,-83.984375
1810,-85.937500
1811,-85.937500
1812,-87.890625
1813,-87.890625
1814,-89.843750
1815,-89.843750
1816,-89.843750
1817,-91.796875
1818,-91.796875
1819,-93.750000
1820,-93.750000
1821,-93.750000
1822,-95.703125
1823,-95.703125
1824,-95.703125
1825,-95.703125
1826,-95.703125
1827,-95.703125
1828,-97.656250
1829,-97.656250
1830,-97.656250
1831,-97.656250
1832,-97.656250
1833,-97.656250
1834,-97.656250
1835,-97.656250
1836,-97.656250
1837,-97.656250
1838,-97.656250
1839,-97.656250
1840,-95.703125
1841,-95.703125
1842,-95.703125
1843,-95.703125
1844,-95.703125
1845,-93.750000
1846,-93.750000
1847,-91.796875
1848,-91.796875
1849,-91.796875
1850,-89.843750
1851,-89.843750
1852,-89.843750
1853,-87.890625
1854,-85.937500
1855,-85.937500
1856,-85.937500
1857,-83.984375
1858,-82.031250
1859,-82.031250
1860,-80.078125
1861,-80.078125
1862,-78.125000
1863,-78.125000
1864,-76.171875
1865,-74.218750
1866,-72.265625
1867,-72.265625
1868,-70.312500
1869,-68.359375
1870,-66.406250
1871,-66.406250
1872,-64.453125
1873,-62.500000
1874,-60.546875
1875,-58.593750
1876,-56.640625
1877,-54.687500
1878,-54.687500
1879,-52.734375
1880,-50.781250
1881,-48.828125
1882,-46.875000
1883,-44.921875
1884,-42.968750
1885,-41.015625
1886,-41.015625
1887,-37.109375
1888,-35.156250
1889,-33.203125
1890,-31.250000
1891,-31.250000
1892,-29.296875
1893,-25.390625
1894,-25.390625
1895,-23.437500
1896,-21.484375
1897,-19.531250
1898,-17.578125
1899,-15.625000
1900,-13.671875
1901,-11.718750
1902,-9.765625
1903,-5.859375
1904,-5.859375
1905,-1.953125
1906,-1.953125
1907,0.000000
1908,1.953125
1909,3.906250
1910,5.859375
1911,7.812500
1912,9.765625
1913,11.718750
1914,13.671875
1915,15.625000
1916,17.578125
1917,19.531250
1918,21.484375
1919,23.437500
1920,25.390625
1921,27.343750
1922,29.296875
1923,29.296875
1924,31.250000
1925,33.203125
1926,35.156250
1927,37.109375
1928,39.062500
1929,39.062500
1930,41.015625
1931,42.968750
1932,42.968750
1933,44.921875
1934,46.875000
1935,48.828125
1936,50.781250
1937,50.781250
1938,52.734375
1939,54.687500
1940,54.687500
1941,56.640625
1942,56.640625
1943,58.593750
1944,60.546875
1945,60.546875
1946,62.500000
1947,62.500000
1948,62.500000
1949,64.453125
1950,66.406250
1951,66.406250
1952,66.406250
1953,68.359375
1954,72.265625
1955,68.359375
1956,70.312500
1957,70.312500
1958,72.265625
1959,72.265625
1960,72.265625
1961,70.312500
1962,74.218750
1963,74.218750
1964,74.218750
1965,74.218750
1966,74.218750
1967,74.218750
1968,76.171875
1969,76.171875
1970,76.171875
1971,76.171875
1972,76.171875
1973,76.171875
1974,76.171875
1975,76.171875
1976,76.171875
1977,76.171875
1978,76.171875
1979,76.171875
1980,76.171875
1981,76.171875
1982,74.218750
1983,74.218750
1984,76.171875
1985,74.218750
1986,74.218750
1987,74.218750
1988,72.265625
1989,72.265625
1990,72.265625
1991,70.312500
1992,72.265625
1993,70.312500
1994,68.359375
1995,68.359375
1996,68.359375
1997,66.406250
1998,66.406250
1999,66.406250
2000,64.453125
2001,62.500000
2002,62.500000
2003,60.546875
2004,60.546875
2005,58.593750
2006,58.593750
2007,56.640625
2008,56.640625
2009,54.687500
2010,52.734375
2011,50.781250
2012,50.781250
2013,48.828125
2014,46.875000
2015,46.875000
2016,44.921875
2017,42.968750
2018,41.015625
2019,41.015625
2020,39.062500
2021,37.109375
2022,35.156250
2023,35.156250
2024,33.203125
2025,31.250000
2026,29.296875
2027,27.343750
2028,25.390625
2029,23.437500
2030,21.484375
2031,19.531250
2032,17.578125
2033,17.578125
2034,13.671875
2035,13.671875
2036,11.718750
2037,7.812500
2038,7.812500
2039,5.859375
2040,3.906250
2041,1.953125
2042,0.000000
2043,-1.953125
2044,-3.906250
2045,-5.859375
2046,-7.812500
2047,-9.765625
2048,-11.718750
2049,-13.671875
2050,-15.625000
2051,-17.578125
2052,-19.531250
2053,-21.484375
2054,-23.437500
2055,-25.390625
2056,-27.343750
2057,-29.296875
2058,-31.250000
2059,-33.203125
2060,-35.156250
2061,-37.109375
2062,-39.062500
2063,-41.015625
2064,-42.968750
2065,-42.968750
2066,-46.875000
2067,-48.828125
2068,-48.828125
2069,-50.781250
2070,-54.687500
2071,-54.687500
2072,-56.640625
2073,-56.640625
2074,-60.546875
2075,-62.500000
2076,-62.500000
2077,-64.453125
2078,-66.406250
2079,-68.359375
2080,-70.312500
2081,-70.312500
2082,-72.265625
2083,-74.218750
2084,-76.171875
2085,-76.171875
2086,-78.125000
2087,-80.078125
2088,-80.078125
2089,-82.031250
2090,-82.031250
2091,-83.984375
2092,-85.937500
2093,-85.937500
2094,-85.937500
2095,-87.890625
2096,-89.843750
2097,-89.843750
2098,-89.843750
2099,-91.796875
2100,-93.750000
2101,-93.750000
2102,-93.750000
2103,-95.703125
2104,-95.703125
2105,-93.750000
2106,-95.703125
2107,-95.703125
2108,-95.703125
2109,-95.703125
2110,-97.656250
2111,-97.656250
2112,-95.703125
2113,-97.656250
2114,-97.656250
2115,-97.656250
2116,-97.656250
2117,-97.656250
2118,-97.656250
2119,-97.656250
2120,-97.656250
2121,-95.703125
2122,-95.703125
2123,-95.703125
2124,-95.703125
2125,-95.703125
2126,-95.703125
2127,-93.750000
2128,-93.750000
2129,-91.796875
2130,-91.796875
2131,-91.796875
2132,-91.796875
2133,-89.843750
2134,-89.843750
2135,-87.890625
2136,-87.890625
2137,-87.890625
2138,-87.890625
2139,-83.984375
2140,-83.984375
2141,-82.031250
2142,-82.031250
2143,-80.078125
2144,-78.125000
2145,-78.125000
2146,-76.171875
2147,-76.171875
2148,-74.218750
2149,-72.265625
2150,-72.265625
2151,-70.312500
2152,-68.359375
2153,-66.406250
2154,-64.453125
2155,-66.406250
2156,-60.546875
2157,-60.546875
2158,-58.593750
2159,-56.640625
2160,-56.640625
2161,-52.734375
2162,-52.734375
2163,-48.828125
2164,-46.875000
2165,-46.875000
2166,-44.921875
2167,-42.968750
2168,-41.015625
2169,-39.062500
2170,-37.109375
2171,-35.156250
2172,-33.203125
2173,-31.250000
2174,-29.296875
2175,-27.343750
2176,-25.390625
2177,-23.437500
2178,-21.484375
2179,-19.531250
2180,-17.578125
2181,-15.625000
2182,-13.671875
2183,-11.718750
2184,-9.765625
2185,-7.812500
2186,-5.859375
2187,-3.906250
2188,-1.953125
2189,0.000000
2190,1.953125
2191,3.906250
2192,5.859375
2193,7.812500
2194,9.765625
2195,11.718750
2196,13.671875
2197,15.625000
2198,17.578125
2199,19.531250
2200,21.484375
2201,21.484375
2202,23.437500
2203,25.390625
2204,27.343750
2205,29.296875
2206,29.296875
2207,33.203125
2208,35.156250
2209,35.156250
2210,37.109375
2211,39.062500
2212,39.062500
2213,42.968750
2214,42.968750
2215,44.921875
2216,46.875000
2217,46.875000
2218,48.828125
2219,50.781250
2220,50.781250
2221,52.734375
2222,54.687500
2223,54.687500
2224,56.640625
2225,58.593750
2226,58.593750
2227,60.546875
2228,60.546875
2229,62.500000
2230,62.500000
2231,64.453125
2232,66.406250
2233,66.406250
2234,66.406250
2235,66.406250
2236,68.359375
2237,68.359375
2238,70.312500
2239,70.312500
2240,70.312500
2241,72.265625
2242,72.265625
2243,72.265625
2244,74.218750
2245,74.218750
2246,74.218750
2247,74.218750
2248,74.218750
2249,76.171875
2250,76.171875
2251,76.171875
2252,76.171875
2253,76.171875
2254,78.125000
2255,78.125000
2256,76.171875
2257,76.171875
2258,76.171875
2259,76.171875
2260,76.171875
2261,76.171875
2262,76.171875
2263,78.125000
2264,74.218750
2265,76.171875
2266,74.218750
2267,72.265625
2268,74.218750
2269,74.218750
2270,72.265625
2271,72.265625
2272,72.265625
2273,72.265625
2274,70.312500
2275,70.312500
2276,68.359375
2277,68.359375
2278,68.359375
2279,68.359375
2280,66.406250
2281,64.453125
2282,64.453125
2283,64.453125
2284,62.500000
2285,62.500000
2286,60.546875
2287,60.546875
2288,58.593750
2289,56.640625
2290,56.640625
2291,54.687500
2292,54.687500
2293,52.734375
2294,50.781250
2295,48.828125
2296,48.828125
2297,46.875000
2298,44.921875
2299,44.921875
2300,41.015625
2301,41.015625
2302,39.062500
2303,37.109375
2304,37.109375
2305,35.156250
2306,33.203125
2307,31.250000
2308,29.296875
2309,27.343750
2310,27.343750
2311,25.390625
2312,23.437500
2313,21.484375
2314,19.531250
2315,17.578125
2316,15.625000
2317,13.671875
2318,11.718750
2319,9.765625
2320,7.812500
2321,5.859375
2322,3.906250
2323,1.953125
2324,1.953125
2325,-1.953125
2326,-3.906250
2327,-5.859375
2328,-7.812500
2329,-7.812500
2330,-11.718750
2331,-13.671875
2332,-15.625000
2333,-17.578125
2334,-19.531250
2335,-19.531250
2336,-23.437500
2337,-25.390625
2338,-27.343750
2339,-29.296875
2340,-31.250000
2341,-33.203125
2342,-35.156250
2343,-37.109375
2344,-39.062500
2345,-39.062500
2346,-42.968750
2347,-42.968750
2348,-44.921875
2349,-48.828125
2350,-48.828125
2351,-50.781250
2352,-52.734375
2353,-54.687500
2354,-56.640625
2355,-58.593750
2356,-58.593750
2357,-60.546875
2358,-62.500000
2359,-64.453125
2360,-66.406250
2361,-68.359375
2362,-70.312500
2363,-70.312500
2364,-72.265625
2365,-74.218750
2366,-74.218750
2367,-76.171875
2368,-78.125000
2369,-78.125000
2370,-80.078125
2371,-82.031250
2372,-82.031250
2373,-83.984375
2374,-83.984375
2375,-85.937500
2376,-85.937500
2377,-87.890625
2378,-87.890625
2379,-89.843750
2380,-89.843750
2381,-89.843750
2382,-91.796875
2383,-91.796875
2384,-93.750000
2385,-93.750000
2386,-93.750000
2387,-93.750000
2388,-95.703125
2389,-95.703125
2390,-97.656250
2391,-95.703125
2392,-97.656250
2393,-97.656250
2394,-97.656250
2395,-97.656250
2396,-97.656250
2397,-97.656250
2398,-97.656250
2399,-97.656250
2400,-97.656250
2401,-97.656250
2402,-97.656250
2403,-95.703125
2404,-95.703125
2405,-95.703125
2406,-95.703125
2407,-95.703125
2408,-95.703125
2409,-95.703125
2410,-93.750000
2411,-93.750000
2412,-91.796875
2413,-91.796875
2414,-91.796875
2415,-91.796875
2416,-89.843750
2417,-89.843750
2418,-87.890625
2419,-87.890625
2420,-85.937500
2421,-85.937500
2422,-83.984375
2423,-82.031250
2424,-82.031250
2425,-80.078125
2426,-80.078125
2427,-78.125000
2428,-76.171875
2429,-76.171875
2430,-74.218750
2431,-72.265625
2432,-70.312500
2433,-70.312500
2434,-68.359375
2435,-66.406250
2436,-64.453125
2437,-64.453125
2438,-62.500000
2439,-60.546875
2440,-58.593750
2441,-56.640625
2442,-54.687500
2443,-52.734375
2444,-52.734375
2445,-50.781250
2446,-48.828125
2447,-46.875000
2448,-44.921875
2449,-42.968750
2450,-41.015625
2451,-39.062500
2452,-37.109375
2453,-35.156250
2454,-33.203125
2455,-31.250000
2456,-29.296875
2457,-27.343750
2458,-25.390625
2459,-23.437500
2460,-21.484375
2461,-19.531250
2462,-17.578125
2463,-15.625000
2464,-13.671875
2465,-11.718750
2466,-9.765625
2467,-7.812500
2468,-5.859375
2469,-3.906250
2470,-3.906250
2471,0.000000
2472,1.953125
2473,3.906250
2474,5.859375
2475,7.812500
2476,9.765625
2477,9.765625
2478,11.718750
2479,13.671875
2480,15.625000
2481,17.578125
2482,19.531250
2483,21.484375
2484,23.437500
2485,25.390625
2486,25.390625
2487,27.343750
2488,31.250000
2489,31.250000
2490,33.203125
2491,35.156250
2492,35.156250
2493,39.062500
2494,39.062500
2495,42.968750
2496,42.968750
2497,44.921875
2498,44.921875
2499,46.875000
2500,48.828125
2501,48.828125
2502,50.781250
2503,52.734375
2504,54.687500
2505,56.640625
2506,56.640625
2507,56.640625
2508,58.593750
2509,58.593750
2510,60.546875
2511,62.500000
2512,62.500000
2513,64.453125
2514,64.453125
2515,66.406250
2516,66.406250
2517,66.406250
2518,68.359375
2519,68.359375
2520,70.312500
2521,70.312500
2522,70.312500
2523,72.265625
2524,72.265625
2525,72.265625
2526,74.218750
2527,74.218750
2528,74.218750
2529,74.218750
2530,74.218750
2531,76.171875
2532,74.218750
2533,76.171875
2534,76.171875
2535,76.171875
2536,76.171875
2537,76.171875
2538,76.171875
2539,76.171875
2540,76.171875
2541,76.171875
2542,76.171875
2543,74.218750
2544,74.218750
2545,76.171875
2546,76.171875
2547,74.218750
2548,74.218750
2549,72.265625
2550,74.218750
2551,74.218750
2552,72.265625
2553,72.265625
2554,72.265625
2555,72.265625
2556,70.312500
2557,70.312500
2558,70.312500
2559,68.359375
2560,68.359375
2561,66.406250
2562,66.406250
2563,66.406250
2564,64.453125
2565,64.453125
2566,62.500000
2567,62.500000
2568,60.546875
2569,60.546875
2570,58.593750
2571,58.593750
2572,56.640625
2573,54.687500
2574,54.687500
2575,52.734375
2576,52.734375
2577,50.781250
2578,48.828125
2579,46.875000
2580,46.875000
2581,44.921875
2582,42.968750
2583,41.015625
2584,41.015625
2585,39.062500
2586,37.109375
2587,35.156250
2588,33.203125
2589,31.250000
2590,31.250000
2591,29.296875
2592,27.343750
2593,25.390625
2594,23.437500
2595,21.484375
2596,19.531250
2597,17.578125
2598,15.625000
2599,15.625000
2600,13.671875
2601,11.718750
2602,9.765625
2603,7.812500
2604,5.859375
2605,3.906250
2606,1.953125
2607,-1.953125
2608,-1.953125
2609,-3.906250
2610,-5.859375
2611,-7.812500
2612,-9.765625
2613,-13.671875
2614,-13.671875
2615,-15.625000
2616,-19.531250
2617,-19.531250
2618,-21.484375
2619,-25.390625
2620,-25.390625
2621,-27.343750
2622,-31.250000
2623,-31.250000
2624,-35.156250
2625,-35.156250
2626,-37.109375
2627,-39.062500
2628,-41.015625
2629,-42.968750
2630,-44.921875
2631,-46.875000
2632,-48.828125
2633,-50.781250
2634,-52.734375
2635,-54.687500
2636,-56.640625
2637,-56.640625
2638,-58.593750
2639,-60.546875
2640,-62.500000
2641,-64.453125
2642,-66.406250
2643,-66.406250
2644,-68.359375
2645,-70.312500
2646,-72.265625
2647,-72.265625
2648,-74.218750
2649,-76.171875
2650,-76.171875
2651,-78.125000
2652,-80.078125
2653,-80.078125
2654,-82.031250
2655,-82.031250
2656,-83.984375
2657,-83.984375
2658,-85.937500
2659,-85.937500
2660,-89.843750
2661,-87.890625
2662,-89.843750
2663,-89.843750
2664,-89.843750
2665,-91.796875
2666,-93.750000
2667,-93.750000
2668,-93.750000
2669,-93.750000
2670,-93.750000
2671,-95.703125
2672,-95.703125
2673,-95.703125
2674,-97.656250
2675,-97.656250
2676,-97.656250
2677,-97.656250
2678,-97.656250
2679,-97.656250
2680,-97.656250
2681,-97.656250
2682,-97.656250
2683,-97.656250
2684,-97.656250
2685,-97.656250
2686,-97.656250
2687,-95.703125
2688,-95.703125
2689,-95.703125
2690,-95.703125
2691,-95.703125
2692,-93.750000
2693,-97.656250
2694,-93.750000
2695,-93.750000
2696,-91.796875
2697,-91.796875
2698,-89.843750
2699,-87.890625
2700,-87.890625
2701,-87.890625
2702,-87.890625
2703,-85.937500
2704,-83.984375
2705,-82.031250
2706,-82.031250
2707,-80.078125
2708,-80.078125
2709,-78.125000
2710,-74.218750
2711,-76.171875
2712,-76.171875
2713,-72.265625
2714,-72.265625
2715,-70.312500
2716,-68.359375
2717,-66.406250
2718,-66.406250
2719,-64.453125
2720,-62.500000
2721,-60.546875
2722,-58.593750
2723,-58.593750
2724,-56.640625
2725,-54.687500
2726,-52.734375
2727,-50.781250
2728,-48.828125
2729,-46.875000
2730,-44.921875
2731,-44.921875
2732,-42.968750
2733,-39.062500
2734,-37.109375
2735,-37.109375
2736,-33.203125
2737,-33.203125
2738,-31.250000
2739,-27.343750
2740,-27.343750
2741,-25.390625
2742,-23.437500
2743,-21.484375
2744,-19.531250
2745,-15.625000
2746,-15.625000
2747,-13.671875
2748,-9.765625
2749,-9.765625
2750,-7.812500
2751,-5.859375
2752,-3.906250
2753,-1.953125
2754,0.000000
2755,1.953125
2756,3.906250
2757,5.859375
2758,7.812500
2759,9.765625
2760,11.718750
2761,13.671875
2762,15.625000
2763,17.578125
2764,19.531250
2765,21.484375
2766,23.437500
2767,25.390625
2768,27.343750
2769,27.343750
2770,29.296875
2771,31.250000
2772,33.203125
2773,35.156250
2774,37.109375
2775,39.062500
2776,39.062500
2777,41.015625
2778,42.968750
2779,44.921875
2780,44.921875
2781,46.875000
2782,48.828125
2783,50.781250
2784,50.781250
2785,52.734375
2786,52.734375
2787,54.687500
2788,54.687500
2789,56.640625
2790,58.593750
2791,60.546875
2792,60.546875
2793,60.546875
2794,62.500000
2795,62.500000
2796,64.453125
2797,64.453125
2798,66.406250
2799,66.406250
2800,68.359375
2801,68.359375
2802,70.312500
2803,70.312500
2804,70.312500
2805,70.312500
2806,72.265625
2807,72.265625
2808,72.265625
2809,74.218750
2810,74.218750
2811,74.218750
2812,74.218750
2813,74.218750
2814,74.218750
2815,76.171875
2816,76.171875
2817,76.171875
2818,76.171875
2819,76.171875
2820,76.171875
2821,76.171875
2822,76.171875
2823,76.171875
2824,76.171875
2825,76.171875
2826,76.171875
2827,76.171875
2828,76.171875
2829,76.171875
2830,74.218750
2831,74.218750
2832,74.218750
2833,74.218750
2834,74.218750
2835,72.265625
2836,72.265625
2837,72.265625
2838,72.265625
2839,70.312500
2840,70.312500
2841,70.312500
2842,68.359375
2843,68.359375
2844,66.406250
2845,66.406250
2846,66.406250
2847,64.453125
2848,62.500000
2849,62.500000
2850,60.546875
2851,60.546875
2852,58.593750
2853,58.593750
2854,56.640625
2855,54.687500
2856,52.734375
2857,52.734375
2858,52.734375
2859,50.781250
2860,48.828125
2861,46.875000
2862,46.875000
2863,44.921875
2864,42.968750
2865,42.968750
2866,41.015625
2867,39.062500
2868,37.109375
2869,35.156250
2870,33.203125
2871,33.203125
2872,31.250000
2873,29.296875
2874,27.343750
2875,25.390625
2876,23.437500
2877,23.437500
2878,19.531250
2879,17.578125
2880,17.578125
2881,15.625000
2882,13.671875
2883,11.718750
2884,9.765625
2885,7.812500
2886,5.859375
2887,3.906250
2888,1.953125
2889,0.000000
2890,-1.953125
2891,-3.906250
2892,-5.859375
2893,-7.812500
2894,-9.765625
2895,-11.718750
2896,-13.671875
2897,-15.625000
2898,-17.578125
2899,-19.531250
2900,-21.484375
2901,-23.437500
2902,-25.390625
2903,-27.343750
2904,-29.296875
2905,-31.250000
2906,-33.203125
2907,-35.156250
2908,-37.109375
2909,-39.062500
2910,-41.015625
2911,-42.968750
2912,-44.921875
2913,-46.875000
2914,-48.828125
2915,-48.828125
2916,-50.781250
2917,-52.734375
2918,-56.640625
2919,-56.640625
2920,-56.640625
2921,-60.546875
2922,-62.500000
2923,-62.500000
2924,-66.406250
2925,-66.406250
2926,-66.406250
2927,-70.312500
2928,-72.265625
2929,-70.312500
2930,-74.218750
2931,-76.171875
2932,-76.171875
2933,-78.125000
2934,-80.078125
2935,-80.078125
2936,-82.031250
2937,-83.984375
2938,-83.984375
2939,-85.937500
2940,-85.937500
2941,-87.890625
2942,-87.890625
2943,-89.843750
2944,-89.843750
2945,-91.796875
2946,-91.796875
2947,-93.750000
2948,-93.750000
2949,-93.750000
2950,-93.750000
2951,-93.750000
2952,-93.750000
2953,-95.703125
2954,-95.703125
2955,-95.703125
2956,-97.656250
2957,-95.703125
2958,-95.703125
2959,-97.656250
2960,-97.656250
2961,-97.656250
2962,-97.656250
2963,-97.656250
2964,-97.656250
2965,-97.656250
2966,-97.656250
2967,-97.656250
2968,-95.703125
2969,-97.656250
2970,-95.703125
2971,-95.703125
2972,-95.703125
2973,-95.703125
2974,-93.750000
2975,-93.750000
2976,-93.750000
2977,-91.796875
2978,-91.796875
2979,-89.843750
2980,-89.843750
2981,-89.843750
2982,-87.890625
2983,-87.890625
2984,-85.937500
2985,-85.937500
2986,-85.937500
2987,-83.984375
2988,-82.031250
2989,-82.031250
2990,-80.078125
2991,-78.125000
2992,-78.125000
2993,-76.171875
2994,-74.218750
2995,-74.218750
2996,-72.265625
2997,-70.312500
2998,-70.312500
2999,-68.359375
3000,-66.406250
3001,-64.453125
3002,-62.500000
3003,-60.546875
3004,-60.546875
3005,-58.593750
3006,-56.640625
3007,-54.687500
3008,-52.734375
3009,-50.781250
3010,-50.781250
3011,-48.828125
3012,-46.875000
3013,-44.921875
3014,-42.968750
3015,-39.062500
3016,-39.062500
3017,-37.109375
3018,-35.156250
3019,-33.203125
3020,-31.250000
3021,-29.296875
3022,-27.343750
3023,-25.390625
3024,-23.437500
3025,-21.484375
3026,-19.531250
3027,-17.578125
3028,-15.625000
3029,-13.671875
3030,-11.718750
3031,-7.812500
3032,-7.812500
3033,-5.859375
3034,-3.906250
3035,-1.953125
3036,0.000000
3037,1.953125
3038,3.906250
3039,5.859375
3040,7.812500
3041,9.765625
3042,11.718750
3043,13.671875
3044,15.625000
3045,17.578125
3046,19.531250
3047,21.484375
3048,23.437500
3049,25.390625
3050,25.390625
3051,27.343750
3052,29.296875
3053,31.250000
3054,33.203125
3055,33.203125
3056,37.109375
3057,37.109375
3058,39.062500
3059,41.015625
3060,41.015625
3061,42.968750
3062,44.921875
3063,46.875000
3064,46.875000
3065,50.781250
3066,50.781250
3067,50.781250
3068,52.734375
3069,54.687500
3070,54.687500
3071,56.640625
3072,56.640625
3073,58.593750
3074,58.593750
3075,60.546875
3076,62.500000
3077,62.500000
3078,64.453125
3079,64.453125
3080,66.406250
3081,62.500000
3082,66.406250
3083,68.359375
3084,68.359375
3085,70.312500
3086,70.312500
3087,72.265625
3088,72.265625
3089,72.265625
3090,72.265625
3091,74.218750
3092,74.218750
3093,74.218750
3094,74.218750
3095,74.218750
3096,76.171875
3097,76.171875
3098,76.171875
3099,76.171875
3100,76.171875
3101,76.171875
3102,76.171875
3103,76.171875
3104,76.171875
3105,76.171875
3106,76.171875
3107,76.171875
3108,76.171875
3109,76.171875
3110,76.171875
3111,74.218750
3112,74.218750
3113,72.265625
3114,74.218750
3115,72.265625
3116,72.265625
3117,72.265625
3118,72.265625
3119,72.265625
3120,72.265625
3121,70.312500
3122,70.312500
3123,70.312500
3124,68.359375
3125,68.359375
3126,68.359375
3127,66.406250
3128,66.406250
3129,64.453125
3130,62.500000
3131,64.453125
3132,60.546875
3133,60.546875
3134,58.593750
3135,58.593750
3136,56.640625
3137,54.687500
3138,54.687500
3139,52.734375
3140,50.781250
3141,50.781250
3142,50.781250
3143,48.828125
3144,46.875000
3145,44.921875
3146,42.968750
3147,42.968750
3148,41.015625
3149,39.062500
3150,37.109375
3151,37.109375
3152,35.156250
3153,33.203125
3154,31.250000
3155,29.296875
3156,27.343750
3157,27.343750
3158,23.437500
3159,23.437500
3160,21.484375
3161,19.531250
3162,17.578125
3163,15.625000
3164,13.671875
3165,11.718750
3166,9.765625
3167,7.812500
3168,5.859375
3169,5.859375
3170,1.953125
3171,0.000000
3172,0.000000
3173,-1.953125
3174,-5.859375
3175,-7.812500
3176,-7.812500
3177,-11.718750
3178,-13.671875
3179,-15.625000
3180,-17.578125
3181,-17.578125
3182,-21.484375
3183,-23.437500
3184,-25.390625
3185,-25.390625
3186,-29.296875
3187,-31.250000
3188,-33.203125
3189,-35.156250
3190,-37.109375
3191,-37.109375
3192,-41.015625
3193,-41.015625
3194,-44.921875
3195,-46.875000
3196,-48.828125
3197,-48.828125
3198,-50.781250
3199,-52.734375
3200,-54.687500
3201,-56.640625
3202,-58.593750
3203,-60.546875
3204,-62.500000
3205,-62.500000
3206,-64.453125
3207,-66.406250
3208,-68.359375
3209,-70.312500
3210,-70.312500
3211,-72.265625
3212,-74.218750
3213,-74.218750
3214,-76.171875
3215,-76.171875
3216,-78.125000
3217,-80.078125
3218,-82.031250
3219,-82.031250
3220,-83.984375
3221,-83.984375
3222,-83.984375
3223,-87.890625
3224,-87.890625
3225,-87.890625
3226,-87.890625
3227,-89.843750
3228,-91.796875
3229,-93.750000
3230,-91.796875
3231,-93.750000
3232,-95.703125
3233,-93.750000
3234,-93.750000
3235,-95.703125
3236,-95.703125
3237,-95.703125
3238,-95.703125
3239,-95.703125
3240,-97.656250
3241,-97.656250
3242,-97.656250
3243,-97.656250
3244,-97.656250
3245,-97.656250
3246,-97.656250
3247,-97.656250
3248,-97.656250
3249,-97.656250
3250,-97.656250
3251,-95.703125
3252,-97.656250
3253,-95.703125
3254,-95.703125
3255,-95.703125
3256,-93.750000
3257,-93.750000
3258,-93.750000
3259,-93.750000
3260,-91.796875
3261,-91.796875
3262,-89.843750
3263,-89.843750
3264,-89.843750
3265,-87.890625
3266,-87.890625
3267,-85.937500
3268,-83.984375
3269,-83.984375
3270,-83.984375
3271,-82.031250
3272,-80.078125
3273,-78.125000
3274,-78.125000
3275,-76.171875
3276,-76.171875
3277,-74.218750
3278,-72.265625
3279,-72.265625
3280,-70.312500
3281,-68.359375
3282,-66.406250
3283,-64.453125
3284,-64.453125
3285,-62.500000
3286,-60.546875
3287,-58.593750
3288,-56.640625
3289,-56.640625
3290,-52.734375
3291,-52.734375
3292,-50.781250
3293,-48.828125
3294,-46.875000
3295,-44.921875
3296,-42.968750
3297,-41.015625
3298,-39.062500
3299,-37.109375
3300,-37.109375
3301,-33.203125
3302,-31.250000
3303,-29.296875
3304,-27.343750
3305,-25.390625
3306,-23.437500
3307,-21.484375
3308,-19.531250
3309,-17.578125
3310,-15.625000
3311,-13.671875
3312,-11.718750
3313,-9.765625
3314,-7.812500
3315,-5.859375
3316,-3.906250
3317,-1.953125
3318,0.000000
3319,1.953125
3320,1.953125
3321,3.906250
3322,7.812500
3323,7.812500
3324,9.765625
3325,13.671875
3326,13.671875
3327,15.625000
3328,17.578125
3329,19.531250
3330,21.484375
3331,23.437500
3332,25.390625
3333,27.343750
3334,29.296875
3335,29.296875
3336,31.250000
3337,33.203125
3338,35.156250
3339,37.109375
3340,37.109375
3341,39.062500
3342,41.015625
3343,42.968750
3344,44.921875
3345,44.921875
3346,46.875000
3347,48.828125
3348,48.828125
3349,50.781250
3350,52.734375
3351,54.687500
3352,54.687500
3353,56.640625
3354,56.640625
3355,58.593750
3356,60.546875
3357,60.546875
3358,62.500000
3359,62.500000
3360,64.453125
3361,64.453125
3362,64.453125
3363,66.406250
3364,66.406250
3365,68.359375
3366,68.359375
3367,70.312500
3368,70.312500
3369,70.312500
3370,70.312500
3371,72.265625
3372,72.265625
3373,72.265625
3374,74.218750
3375,74.218750
3376,74.218750
3377,74.218750
3378,76.171875
3379,76.171875
3380,76.171875
3381,76.171875
3382,76.171875
3383,76.171875
3384,76.171875
3385,76.171875
3386,76.171875
3387,76.171875
3388,76.171875
3389,76.171875
3390,76.171875
3391,76.171875
3392,76.171875
3393,76.171875
3394,76.171875
3395,74.218750
3396,74.218750
3397,74.218750
3398,74.218750
3399,72.265625
3400,72.265625
3401,72.265625
3402,72.265625
3403,70.312500
3404,70.312500
3405,70.312500
3406,68.359375
3407,68.359375
3408,66.406250
3409,66.406250
3410,66.406250
3411,64.453125
3412,64.453125
3413,62.500000
3414,60.546875
3415,60.546875
3416,60.546875
3417,58.593750
3418,58.593750
3419,56.640625
3420,54.687500
3421,54.687500
3422,52.734375
3423,50.781250
3424,50.781250
3425,48.828125
3426,46.875000
3427,46.875000
3428,44.921875
3429,42.968750
3430,42.968750
3431,41.015625
3432,39.062500
3433,37.109375
3434,35.156250
3435,33.203125
3436,33.203125
3437,31.250000
3438,29.296875
3439,27.343750
3440,25.390625
3441,23.437500
3442,21.484375
3443,19.531250
3444,17.578125
3445,15.625000
3446,13.671875
3447,11.718750
3448,11.718750
3449,7.812500
3450,5.859375
3451,3.906250
3452,3.906250
3453,1.953125
3454,-1.953125
3455,-1.953125
3456,-5.859375
3457,-5.859375
3458,-7.812500
3459,-9.765625
3460,-13.671875
3461,-15.625000
3462,-15.625000
3463,-19.531250
3464,-19.531250
3465,-21.484375
3466,-23.437500
3467,-27.343750
3468,-27.343750
3469,-29.296875
3470,-31.250000
3471,-35.156250
3472,-35.156250
3473,-37.109375
3474,-37.109375
3475,-42.968750
3476,-42.968750
3477,-44.921875
3478,-46.875000
3479,-48.828125
3480,-50.781250
3481,-52.734375
3482,-54.687500
3483,-54.687500
3484,-56.640625
3485,-58.593750
3486,-60.546875
3487,-62.500000
3488,-64.453125
3489,-64.453125
3490,-66.406250
3491,-70.312500
3492,-70.312500
3493,-72.265625
3494,-74.218750
3495,-74.218750
3496,-76.171875
3497,-76.171875
3498,-78.125000
3499,-80.078125
3500,-80.078125
3501,-83.984375
3502,-83.984375
3503,-83.984375
3504,-85.937500
3505,-85.937500
3506,-87.890625
3507,-89.843750
3508,-89.843750
3509,-89.843750
3510,-91.796875
3511,-91.796875
3512,-91.796875
3513,-93.750000
3514,-93.750000
3515,-93.750000
3516,-95.703125
3517,-95.703125
3518,-95.703125
3519,-95.703125
3520,-97.656250
3521,-97.656250
3522,-97.656250
3523,-97.656250
3524,-99.609375
3525,-97.656250
3526,-99.609375
3527,-97.656250
3528,-97.656250
3529,-97.656250
3530,-97.656250
3531,-97.656250
3532,-97.656250
3533,-97.656250
3534,-95.703125
3535,-95.703125
3536,-95.703125
3537,-95.703125
3538,-95.703125
3539,-93.750000
3540,-93.750000
3541,-93.750000
3542,-91.796875
3543,-91.796875
3544,-89.843750
3545,-89.843750
3546,-89.843750
3547,-87.890625
3548,-87.890625
3549,-85.937500
3550,-85.937500
3551,-83.984375
3552,-83.984375
3553,-82.031250
3554,-80.078125
3555,-80.078125
3556,-78.125000
3557,-76.171875
3558,-76.171875
3559,-74.218750
3560,-72.265625
3561,-72.265625
3562,-70.312500
3563,-68.359375
3564,-68.359375
3565,-66.406250
3566,-64.453125
3567,-62.500000
3568,-62.500000
3569,-58.593750
3570,-58.593750
3571,-56.640625
3572,-54.687500
3573,-52.734375
3574,-50.781250
3575,-48.828125
3576,-46.875000
3577,-44.921875
3578,-44.921875
3579,-42.968750
3580,-39.062500
3581,-39.062500
3582,-37.109375
3583,-35.156250
3584,-33.203125
3585,-31.250000
3586,-29.296875
3587,-27.343750
3588,-25.390625
3589,-23.437500
3590,-19.531250
3591,-19.531250
3592,-17.578125
3593,-15.625000
3594,-11.718750
3595,-11.718750
3596,-9.765625
3597,-7.812500
3598,-3.906250
3599,-3.906250
3600,-1.953125
3601,0.000000
3602,3.906250
3603,3.906250
3604,7.812500
3605,7.812500
3606,11.718750
3607,11.718750
3608,13.671875
3609,15.625000
3610,17.578125
3611,19.531250
3612,21.484375
3613,23.437500
3614,25.390625
3615,27.343750
3616,29.296875
3617,29.296875
3618,31.250000
3619,33.203125
3620,35.156250
3621,37.109375
3622,39.062500
3623,39.062500
3624,41.015625
3625,42.968750
3626,44.921875
3627,44.921875
3628,46.875000
3629,48.828125
3630,50.781250
3631,50.781250
3632,52.734375
3633,52.734375
3634,54.687500
3635,54.687500
3636,56.640625
3637,58.593750
3638,58.593750
3639,60.546875
3640,60.546875
3641,62.500000
3642,62.500000
3643,64.453125
3644,64.453125
3645,66.406250
3646,66.406250
3647,66.406250
3648,68.359375
3649,68.359375
3650,68.359375
3651,70.312500
3652,72.265625
3653,72.265625
3654,72.265625
3655,72.265625
3656,74.218750
3657,74.218750
3658,74.218750
3659,76.171875
3660,74.218750
3661,74.218750
3662,76.171875
3663,76.171875
3664,76.171875
3665,76.171875
3666,76.171875
3667,76.171875
3668,76.171875
3669,76.171875
3670,76.171875
3671,76.171875
3672,76.171875
3673,76.171875
3674,76.171875
3675,76.171875
3676,76.171875
3677,74.218750
3678,74.218750
3679,74.218750
3680,74.218750
3681,74.218750
3682,74.218750
3683,72.265625
3684,72.265625
3685,72.265625
3686,70.312500
3687,70.312500
3688,68.359375
3689,68.359375
3690,68.359375
3691,66.406250
3692,64.453125
3693,64.453125
3694,64.453125
3695,62.500000
3696,62.500000
3697,60.546875
3698,60.546875
3699,58.593750
3700,58.593750
3701,56.640625
3702,54.687500
3703,52.734375
3704,52.734375
3705,52.734375
3706,50.781250
3707,48.828125
3708,46.875000
3709,46.875000
3710,44.921875
3711,42.968750
3712,42.968750
3713,41.015625
3714,39.062500
3715,37.109375
3716,35.156250
3717,35.156250
3718,31.250000
3719,31.250000
3720,29.296875
3721,27.343750
3722,27.343750
3723,23.437500
3724,21.484375
3725,21.484375
3726,17.578125
3727,15.625000
3728,15.625000
3729,13.671875
3730,11.718750
3731,9.765625
3732,7.812500
3733,5.859375
3734,3.906250
3735,1.953125
3736,0.000000
3737,-1.953125
3738,-3.906250
3739,-5.859375
3740,-7.812500
3741,-9.765625
3742,-11.718750
3743,-11.718750
3744,-15.625000
3745,-17.578125
3746,-19.531250
3747,-21.484375
3748,-23.437500
3749,-25.390625
3750,-27.343750
3751,-29.296875
3752,-31.250000
3753,-33.203125
3754,-35.156250
3755,-37.109375
3756,-39.062500
3757,-41.015625
3758,-42.968750
3759,-44.921875
3760,-46.875000
3761,-48.828125
3762,-48.828125
3763,-50.781250
3764,-54.687500
3765,-54.687500
3766,-56.640625
3767,-58.593750
3768,-60.546875
3769,-62.500000
3770,-62.500000
3771,-64.453125
3772,-66.406250
3773,-68.359375
3774,-70.312500
3775,-72.265625
3776,-72.265625
3777,-74.218750
3778,-76.171875
3779,-76.171875
3780,-78.125000
3781,-80.078125
3782,-80.078125
3783,-82.031250
3784,-83.984375
3785,-83.984375
3786,-85.937500
3787,-85.937500
3788,-87.890625
3789,-87.890625
3790,-89.843750
3791,-89.843750
3792,-89.843750
3793,-93.750000
3794,-91.796875
3795,-91.796875
3796,-93.750000
3797,-93.750000
3798,-93.750000
3799,-93.750000
3800,-95.703125
3801,-95.703125
3802,-95.703125
3803,-95.703125
3804,-95.703125
3805,-97.656250
3806,-97.656250
3807,-97.656250
3808,-97.656250
3809,-97.656250
3810,-97.656250
3811,-97.656250
3812,-97.656250
3813,-97.656250
3814,-97.656250
3815,-95.703125
3816,-95.703125
3817,-97.656250
3818,-95.703125
3819,-95.703125
3820,-95.703125
3821,-93.750000
3822,-93.750000
3823,-93.750000
3824,-91.796875
3825,-91.796875
3826,-91.796875
3827,-89.843750
3828,-89.843750
3829,-87.890625
3830,-87.890625
3831,-87.890625
3832,-85.937500
3833,-85.937500
3834,-83.984375
3835,-83.984375
3836,-82.031250
3837,-80.078125
3838,-78.125000
3839,-78.125000
3840,-76.171875
3841,-76.171875
3842,-74.218750
3843,-72.265625
3844,-70.312500
3845,-70.312500
3846,-68.359375
3847,-66.406250
3848,-64.453125
3849,-64.453125
3850,-62.500000
3851,-60.546875
3852,-58.593750
3853,-56.640625
3854,-58.593750
3855,-52.734375
3856,-50.781250
3857,-48.828125
3858,-46.875000
3859,-46.875000
3860,-44.921875
3861,-41.015625
3862,-41.015625
3863,-39.062500
3864,-37.109375
3865,-35.156250
3866,-33.203125
3867,-31.250000
3868,-29.296875
3869,-27.343750
3870,-25.390625
3871,-23.437500
3872,-21.484375
3873,-19.531250
3874,-17.578125
3875,-15.625000
3876,-13.671875
3877,-9.765625
3878,-9.765625
3879,-5.859375
3880,-5.859375
3881,-3.906250
3882,-1.953125
3883,0.000000
3884,1.953125
3885,3.906250
3886,5.859375
3887,7.812500
3888,7.812500
3889,11.718750
3890,13.671875
3891,15.625000
3892,17.578125
3893,19.531250
3894,21.484375
3895,21.484375
3896,23.437500
3897,25.390625
3898,27.343750
3899,29.296875
3900,31.250000
3901,31.250000
3902,35.156250
3903,35.156250
3904,37.109375
3905,39.062500
3906,41.015625
3907,41.015625
3908,42.968750
3909,44.921875
3910,46.875000
3911,44.921875
3912,48.828125
3913,50.781250
3914,50.781250
3915,52.734375
3916,54.687500
3917,54.687500
3918,56.640625
3919,56.640625
3920,58.593750
3921,60.546875
3922,60.546875
3923,62.500000
3924,62.500000
3925,64.453125
3926,64.453125
3927,64.453125
3928,66.406250
3929,68.359375
3930,68.359375
3931,68.359375
3932,70.312500
3933,70.312500
3934,70.312500
3935,72.265625
3936,72.265625
3937,74.218750
3938,74.218750
3939,74.218750
3940,74.218750
3941,74.218750
3942,74.218750
3943,76.171875
3944,76.171875
3945,76.171875
3946,76.171875
3947,74.218750
3948,76.171875
3949,76.171875
3950,76.171875
3951,76.171875
3952,76.171875
3953,76.171875
3954,76.171875
3955,76.171875
3956,76.171875
3957,76.171875
3958,74.218750
3959,74.218750
3960,74.218750
3961,74.218750
3962,74.218750
3963,74.218750
3964,72.265625
3965,72.265625
3966,72.265625
3967,72.265625
3968,70.312500
3969,70.312500
3970,70.312500
3971,68.359375
3972,66.406250
3973,66.406250
3974,66.406250
3975,64.453125
3976,64.453125
3977,62.500000
3978,62.500000
3979,60.546875
3980,60.546875
3981,58.593750
3982,58.593750
3983,56.640625
3984,56.640625
3985,54.687500
3986,54.687500
3987,52.734375
3988,50.781250
3989,48.828125
3990,48.828125
3991,46.875000
3992,44.921875
3993,44.921875
3994,42.968750
3995,41.015625
3996,39.062500
3997,37.109375
3998,37.109375
3999,35.156250
4000,33.203125
4001,31.250000
4002,29.296875
4003,27.343750
4004,27.343750
4005,25.390625
4006,23.437500
4007,21.484375
4008,19.531250
4009,17.578125
4010,15.625000
4011,13.671875
4012,11.718750
4013,9.765625
4014,7.812500
4015,5.859375
4016,3.906250
4017,1.953125
4018,0.000000
4019,-1.953125
4020,-3.906250
4021,-3.906250
4022,-7.812500
4023,-9.765625
4024,-11.718750
4025,-13.671875
4026,-15.625000
4027,-17.578125
4028,-19.531250
4029,-21.484375
4030,-23.437500
4031,-25.390625
4032,-27.343750
4033,-29.296875
4034,-31.250000
4035,-33.203125
4036,-35.156250
4037,-37.109375
4038,-39.062500
4039,-39.062500
4040,-42.968750
4041,-42.968750
4042,-44.921875
4043,-46.875000
4044,-48.828125
4045,-50.781250
4046,-52.734375
4047,-54.687500
4048,-56.640625
4049,-58.593750
4050,-60.546875
4051,-62.500000
4052,-62.500000
4053,-64.453125
4054,-66.406250
4055,-68.359375
4056,-70.312500
4057,-70.312500
4058,-72.265625
4059,-74.218750
4060,-74.218750
4061,-76.171875
4062,-78.125000
4063,-78.125000
4064,-80.078125
4065,-80.078125
4066,-82.031250
4067,-85.937500
4068,-83.984375
4069,-85.937500
4070,-85.937500
4071,-85.937500
4072,-87.890625
4073,-89.843750
4074,-89.843750
4075,-91.796875
4076,-91.796875
4077,-91.796875
4078,-93.750000
4079,-93.750000
4080,-93.750000
4081,-93.750000
4082,-95.703125
4083,-95.703125
4084,-95.703125
4085,-97.656250
4086,-97.656250
4087,-97.656250
4088,-97.656250
4089,-97.656250
4090,-97.656250
4091,-97.656250
4092,-97.656250
4093,-97.656250
4094,-97.656250
4095,-97.656250
4096,-97.656250
4097,-97.656250
4098,-97.656250
4099,-97.656250
4100,-95.703125
4101,-95.703125
4102,-95.703125
4103,-93.750000
4104,-93.750000
4105,-93.750000
4106,-91.796875
4107,-91.796875
4108,-91.796875
4109,-89.843750
4110,-89.843750
4111,-89.843750
4112,-87.890625
4113,-87.890625
4114,-85.937500
4115,-85.937500
4116,-83.984375
4117,-83.984375
4118,-82.031250
4119,-80.078125
4120,-80.078125
4121,-78.125000
4122,-78.125000
4123,-76.171875
4124,-74.218750
4125,-72.265625
4126,-72.265625
4127,-70.312500
4128,-68.359375
4129,-66.406250
4130,-64.453125
4131,-64.453125
4132,-62.500000
4133,-60.546875
4134,-58.593750
4135,-56.640625
4136,-56.640625
4137,-54.687500
4138,-52.734375
4139,-50.781250
4140,-48.828125
4141,-46.875000
4142,-44.921875
4143,-42.968750
4144,-41.015625
4145,-39.062500
4146,-37.109375
4147,-35.156250
4148,-33.203125
4149,-31.250000
4150,-29.296875
4151,-27.343750
4152,-25.390625
4153,-23.437500
4154,-21.484375
4155,-19.531250
4156,-17.578125
4157,-17.578125
4158,-13.671875
4159,-11.718750
4160,-11.718750
4161,-7.812500
4162,-5.859375
4163,-3.906250
4164,-3.906250
4165,0.000000
4166,1.953125
4167,3.906250
4168,5.859375
4169,7.812500
4170,7.812500
4171,11.718750
4172,11.718750
4173,13.671875
4174,15.625000
4175,17.578125
4176,19.531250
4177,21.484375
4178,23.437500
4179,25.390625
4180,27.343750
4181,29.296875
4182,31.250000
4183,31.250000
4184,35.156250
4185,35.156250
4186,37.109375
4187,39.062500
4188,41.015625
4189,41.015625
4190,42.968750
4191,44.921875
4192,46.875000
4193,46.875000
4194,48.828125
4195,50.781250
4196,50.781250
4197,52.734375
4198,54.687500
4199,54.687500
4200,56.640625
4201,58.593750
4202,58.593750
4203,58.593750
4204,60.546875
4205,62.500000
4206,62.500000
4207,64.453125
4208,64.453125
4209,64.453125
4210,66.406250
4211,66.406250
4212,68.359375
4213,68.359375
4214,70.312500
4215,70.312500
4216,70.312500
4217,72.265625
4218,72.265625
4219,72.265625
4220,72.265625
4221,74.218750
4222,74.218750
4223,74.218750
4224,74.218750
4225,76.171875
4226,76.171875
4227,76.171875
4228,76.171875
4229,76.171875
4230,76.171875
4231,76.171875
4232,76.171875
4233,76.171875
4234,76.171875
4235,76.171875
4236,76.171875
4237,76.171875
4238,76.171875
4239,76.171875
4240,76.171875
4241,74.218750
4242,74.218750
4243,74.218750
4244,74.218750
4245,74.218750
4246,72.265625
4247,72.265625
4248,72.265625
4249,72.265625
4250,70.312500
4251,70.312500
4252,70.312500
4253,70.312500
4254,68.359375
4255,68.359375
4256,66.406250
4257,66.406250
4258,64.453125
4259,64.453125
4260,62.500000
4261,62.500000
4262,60.546875
4263,60.546875
4264,60.546875
4265,56.640625
4266,56.640625
4267,54.687500
4268,54.687500
4269,52.734375
4270,52.734375
4271,48.828125
4272,48.828125
4273,46.875000
4274,46.875000
4275,44.921875
4276,42.968750
4277,41.015625
4278,39.062500
4279,39.062500
4280,37.109375
4281,35.156250
4282,33.203125
4283,31.250000
4284,29.296875
4285,29.296875
4286,27.343750
4287,23.437500
4288,23.437500
4289,21.484375
4290,19.531250
4291,17.578125
4292,15.625000
4293,13.671875
4294,11.718750
4295,9.765625
4296,7.812500
4297,5.859375
4298,5.859375
4299,1.953125
4300,0.000000
4301,-1.953125
4302,-3.906250
4303,-5.859375
4304,-5.859375
4305,-7.812500
4306,-9.765625
4307,-11.718750
4308,-13.671875
4309,-17.578125
4310,-17.578125
4311,-19.531250
4312,-23.437500
4313,-23.437500
4314,-25.390625
4315,-29.296875
4316,-29.296875
4317,-31.250000
4318,-33.203125
4319,-35.156250
4320,-37.109375
4321,-39.062500
4322,-41.015625
4323,-42.968750
4324,-44.921875
4325,-46.875000
4326,-48.828125
4327,-50.781250
4328,-52.734375
4329,-54.687500
4330,-54.687500
4331,-58.593750
4332,-58.593750
4333,-60.546875
4334,-62.500000
4335,-64.453125
4336,-66.406250
4337,-66.406250
4338,-68.359375
4339,-70.312500
4340,-72.265625
4341,-72.265625
4342,-74.218750
4343,-76.171875
4344,-78.125000
4345,-78.125000
4346,-80.078125
4347,-82.031250
4348,-82.031250
4349,-82.031250
4350,-83.984375
4351,-85.937500
4352,-85.937500
4353,-87.890625
4354,-87.890625
4355,-89.843750
4356,-89.843750
4357,-89.843750
4358,-91.796875
4359,-91.796875
4360,-93.750000
4361,-93.750000
4362,-93.750000
4363,-95.703125
4364,-95.703125
4365,-95.703125
4366,-95.703125
4367,-95.703125
4368,-97.656250
4369,-97.656250
4370,-97.656250
4371,-97.656250
4372,-97.656250
4373,-97.656250
4374,-97.656250
4375,-97.656250
4376,-97.656250
4377,-97.656250
4378,-97.656250
4379,-97.656250
4380,-95.703125
4381,-95.703125
4382,-95.703125
4383,-95.703125
4384,-95.703125
4385,-95.703125
4386,-93.750000
4387,-93.750000
4388,-93.750000
4389,-91.796875
4390,-91.796875
4391,-91.796875
4392,-89.843750
4393,-89.843750
4394,-87.890625
4395,-87.890625
4396,-85.937500
4397,-85.937500
4398,-83.984375
4399,-83.984375
4400,-82.031250
4401,-80.078125
4402,-80.078125
4403,-78.125000
4404,-78.125000
4405,-76.171875
4406,-74.218750
4407,-74.218750
4408,-72.265625
4409,-70.312500
4410,-70.312500
4411,-66.406250
4412,-66.406250
4413,-64.453125
4414,-62.500000
4415,-60.546875
4416,-60.546875
4417,-56.640625
4418,-56.640625
4419,-54.687500
4420,-52.734375
4421,-50.781250
4422,-48.828125
4423,-46.875000
4424,-44.921875
4425,-42.968750
4426,-42.968750
4427,-41.015625
4428,-39.062500
4429,-35.156250
4430,-35.156250
4431,-33.203125
4432,-31.250000
4433,-29.296875
4434,-25.390625
4435,-25.390625
4436,-25.390625
4437,-21.484375
4438,-19.531250
4439,-17.578125
4440,-13.671875
4441,-13.671875
4442,-11.718750
4443,-7.812500
4444,-5.859375
4445,-5.859375
4446,-1.953125
4447,-1.953125
4448,0.000000
4449,1.953125
4450,3.906250
4451,5.859375
4452,7.812500
4453,9.765625
4454,11.718750
4455,13.671875
4456,15.625000
4457,17.578125
4458,19.531250
4459,21.484375
4460,23.437500
4461,25.390625
4462,27.343750
4463,29.296875
4464,29.296875
4465,31.250000
4466,33.203125
4467,35.156250
4468,37.109375
4469,39.062500
4470,39.062500
4471,41.015625
4472,42.968750
4473,42.968750
4474,44.921875
4475,46.875000
4476,48.828125
4477,48.828125
4478,50.781250
4479,52.734375
4480,52.734375
4481,54.687500
4482,56.640625
4483,56.640625
4484,58.593750
4485,58.593750
4486,60.546875
4487,60.546875
4488,62.500000
4489,62.500000
4490,64.453125
4491,66.406250
4492,66.406250
4493,66.406250
4494,66.406250
4495,68.359375
4496,68.359375
4497,70.312500
4498,70.312500
4499,72.265625
4500,72.265625
4501,72.265625
4502,72.265625
4503,74.218750
4504,74.218750
4505,74.218750
4506,74.218750
4507,74.218750
4508,74.218750
4509,76.171875
4510,76.171875
4511,76.171875
4512,76.171875
4513,76.171875
4514,76.171875
4515,76.171875
4516,76.171875
4517,76.171875
4518,76.171875
4519,76.171875
4520,76.171875
4521,76.171875
4522,76.171875
4523,74.218750
4524,74.218750
4525,74.218750
4526,74.218750
4527,74.218750
4528,74.218750
4529,74.218750
4530,72.265625
4531,72.265625
4532,70.312500
4533,70.312500
4534,70.312500
4535,68.359375
4536,68.359375
4537,68.359375
4538,66.406250
4539,66.406250
4540,64.453125
4541,64.453125
4542,62.500000
4543,62.500000
4544,60.546875
4545,60.546875
4546,58.593750
4547,58.593750
4548,56.640625
4549,54.687500
4550,54.687500
4551,52.734375
4552,50.781250
4553,50.781250
4554,48.828125
4555,46.875000
4556,46.875000
4557,44.921875
4558,42.968750
4559,41.015625
4560,41.015625
4561,39.062500
4562,37.109375
4563,35.156250
4564,33.203125
4565,33.203125
4566,31.250000
4567,29.296875
4568,27.343750
4569,25.390625
4570,23.437500
4571,21.484375
4572,19.531250
4573,17.578125
4574,17.578125
4575,15.625000
4576,11.718750
4577,11.718750
4578,9.765625
4579,7.812500
4580,5.859375
4581,3.906250
4582,1.953125
4583,0.000000
4584,-1.953125
4585,-3.906250
4586,-5.859375
4587,-7.812500
4588,-9.765625
4589,-11.718750
4590,-13.671875
4591,-15.625000
4592,-17.578125
4593,-19.531250
4594,-21.484375
4595,-23.437500
4596,-25.390625
4597,-27.343750
4598,-29.296875
4599,-31.250000
4600,-33.203125
4601,-35.156250
4602,-37.109375
4603,-39.062500
4604,-41.015625
4605,-42.968750
4606,-44.921875
4607,-46.875000
4608,-46.875000
4609,-50.781250
4610,-52.734375
4611,-54.687500
4612,-54.687500
4613,-56.640625
4614,-58.593750
4615,-60.546875
4616,-62.500000
4617,-64.453125
4618,-64.453125
4619,-66.406250
4620,-68.359375
4621,-70.312500
4622,-70.312500
4623,-72.265625
4624,-74.218750
4625,-76.171875
4626,-76.171875
4627,-78.125000
4628,-80.078125
4629,-80.078125
4630,-82.031250
4631,-82.031250
4632,-83.984375
4633,-83.984375
4634,-85.937500
4635,-87.890625
4636,-87.890625
4637,-89.843750
4638,-89.843750
4639,-91.796875
4640,-91.796875
4641,-91.796875
4642,-93.750000
4643,-93.750000
4644,-91.796875
4645,-93.750000
4646,-95.703125
4647,-95.703125
4648,-95.703125
4649,-97.656250
4650,-97.656250
4651,-97.656250
4652,-95.703125
4653,-97.656250
4654,-97.656250
4655,-97.656250
4656,-97.656250
4657,-97.656250
4658,-97.656250
4659,-97.656250
4660,-97.656250
4661,-97.656250
4662,-97.656250
4663,-95.703125
4664,-95.703125
4665,-95.703125
4666,-95.703125
4667,-93.750000
4668,-93.750000
4669,-93.750000
4670,-93.750000
4671,-91.796875
4672,-91.796875
4673,-91.796875
4674,-91.796875
4675,-89.843750
4676,-89.843750
4677,-87.890625
4678,-87.890625
4679,-85.937500
4680,-85.937500
4681,-83.984375
4682,-82.031250
4683,-82.031250
4684,-80.078125
4685,-80.078125
4686,-78.125000
4687,-76.171875
4688,-76.171875
4689,-74.218750
4690,-72.265625
4691,-70.312500
4692,-70.312500
4693,-68.359375
4694,-66.406250
4695,-64.453125
4696,-62.500000
4697,-62.500000
4698,-58.593750
4699,-58.593750
4700,-56.640625
4701,-54.687500
4702,-52.734375
4703,-50.781250
4704,-48.828125
4705,-48.828125
4706,-44.921875
4707,-42.968750
4708,-42.968750
4709,-41.015625
4710,-39.062500
4711,-37.109375
4712,-35.156250
4713,-33.203125
4714,-31.250000
4715,-29.296875
4716,-27.343750
4717,-25.390625
4718,-23.437500
4719,-21.484375
4720,-19.531250
4721,-17.578125
4722,-15.625000
4723,-13.671875
4724,-11.718750
4725,-9.765625
4726,-7.812500
4727,-5.859375
4728,-3.906250
4729,-1.953125
4730,0.000000
4731,1.953125
4732,3.906250
4733,5.859375
4734,7.812500
4735,9.765625
4736,11.718750
4737,13.671875
4738,15.625000
4739,15.625000
4740,17.578125
4741,21.484375
4742,21.484375
4743,23.437500
4744,25.390625
4745,27.343750
4746,29.296875
4747,31.250000
4748,33.203125
4749,33.203125
4750,35.156250
4751,37.109375
4752,39.062500
4753,41.015625
4754,41.015625
4755,42.968750
4756,44.921875
4757,46.875000
4758,46.875000
4759,48.828125
4760,50.781250
4761,50.781250
4762,52.734375
4763,54.687500
4764,54.687500
4765,56.640625
4766,58.593750
4767,58.593750
4768,60.546875
4769,62.500000
4770,62.500000
4771,64.453125
4772,64.453125
4773,64.453125
4774,66.406250
4775,66.406250
4776,66.406250
4777,68.359375
4778,68.359375
4779,70.312500
4780,70.312500
4781,70.312500
4782,72.265625
4783,72.265625
4784,74.218750
4785,74.218750
4786,74.218750
4787,74.218750
4788,72.265625
4789,76.171875
4790,76.171875
4791,76.171875
4792,76.171875
4793,76.171875
4794,76.171875
4795,76.171875
4796,76.171875
4797,76.171875
4798,76.171875
4799,76.171875
4800,76.171875
4801,76.171875
4802,76.171875
4803,76.171875
4804,76.171875
4805,76.171875
4806,74.218750
4807,74.218750
4808,74.218750
4809,74.218750
4810,72.265625
4811,72.265625
4812,72.265625
4813,72.265625
4814,72.265625
4815,70.312500
4816,70.312500
4817,68.359375
4818,68.359375
4819,68.359375
4820,68.359375
4821,66.406250
4822,64.453125
4823,64.453125
4824,64.453125
4825,62.500000
4826,62.500000
4827,60.546875
4828,58.593750
4829,58.593750
4830,56.640625
4831,56.640625
4832,54.687500
4833,52.734375
4834,52.734375
4835,50.781250
4836,48.828125
4837,46.875000
4838,46.875000
4839,46.875000
4840,44.921875
4841,42.968750
4842,41.015625
4843,39.062500
4844,39.062500
4845,37.109375
4846,35.156250
4847,33.203125
4848,31.250000
4849,29.296875
4850,29.296875
4851,27.343750
4852,25.390625
4853,23.437500
4854,21.484375
4855,19.531250
4856,15.625000
4857,15.625000
4858,13.671875
4859,11.718750
4860,9.765625
4861,7.812500
4862,5.859375
4863,3.906250
4864,1.953125
4865,0.000000
4866,-1.953125
4867,-3.906250
4868,-5.859375
4869,-7.812500
4870,-9.765625
4871,-11.718750
4872,-13.671875
4873,-15.625000
4874,-17.578125
4875,-19.531250
4876,-21.484375
4877,-23.437500
4878,-25.390625
4879,-27.343750
4880,-29.296875
4881,-31.250000
4882,-33.203125
4883,-33.203125
4884,-37.109375
4885,-39.062500
4886,-41.015625
4887,-41.015625
4888,-44.921875
4889,-44.921875
4890,-46.875000
4891,-48.828125
4892,-52.734375
4893,-52.734375
4894,-54.687500
4895,-56.640625
4896,-58.593750
4897,-58.593750
4898,-62.500000
4899,-62.500000
4900,-64.453125
4901,-66.406250
4902,-68.359375
4903,-68.359375
4904,-70.312500
4905,-72.265625
4906,-74.218750
4907,-74.218750
4908,-76.171875
4909,-78.125000
4910,-80.078125
4911,-80.078125
4912,-82.031250
4913,-82.031250
4914,-83.984375
4915,-83.984375
4916,-85.937500
4917,-85.937500
4918,-87.890625
4919,-87.890625
4920,-89.843750
4921,-89.843750
4922,-91.796875
4923,-91.796875
4924,-91.796875
4925,-93.750000
4926,-93.750000
4927,-95.703125
4928,-95.703125
4929,-95.703125
4930,-95.703125
4931,-95.703125
4932,-95.703125
4933,-97.656250
4934,-97.656250
4935,-97.656250
4936,-97.656250
4937,-97.656250
4938,-97.656250
4939,-97.656250
4940,-97.656250
4941,-97.656250
4942,-97.656250
4943,-97.656250
4944,-97.656250
4945,-97.656250
4946,-97.656250
4947,-95.703125
4948,-95.703125
4949,-95.703125
4950,-95.703125
4951,-93.750000
4952,-93.750000
4953,-91.796875
4954,-91.796875
4955,-91.796875
4956,-89.843750
4957,-89.843750
4958,-89.843750
4959,-87.890625
4960,-85.937500
4961,-85.937500
4962,-83.984375
4963,-83.984375
4964,-82.031250
4965,-82.031250
4966,-80.078125
4967,-80.078125
4968,-78.125000
4969,-76.171875
4970,-76.171875
4971,-74.218750
4972,-72.265625
4973,-70.312500
4974,-70.312500
4975,-68.359375
4976,-66.406250
4977,-64.453125
4978,-62.500000
4979,-62.500000
4980,-60.546875
4981,-60.546875
4982,-56.640625
4983,-54.687500
4984,-52.734375
4985,-52.734375
4986,-50.781250
4987,-50.781250
4988,-46.875000
4989,-44.921875
4990,-42.968750
4991,-41.015625
4992,-39.062500
4993,-37.109375
4994,-35.156250
4995,-33.203125
4996,-31.250000
4997,-29.296875
4998,-27.343750
4999,-25.390625
5000,-23.437500
5001,-21.484375
5002,-19.531250
5003,-19.531250
5004,-17.578125
5005,-13.671875
5006,-11.718750
5007,-9.765625
5008,-7.812500
5009,-5.859375
5010,-3.906250
5011,-1.953125
5012,0.000000
5013,1.953125
5014,3.906250
5015,3.906250
5016,7.812500
5017,9.765625
5018,9.765625
5019,13.671875
5020,17.578125
5021,15.625000
5022,17.578125
5023,21.484375
5024,21.484375
5025,23.437500
5026,27.343750
5027,27.343750
5028,29.296875
5029,31.250000
5030,31.250000
5031,33.203125
5032,35.156250
5033,37.109375
5034,39.062500
5035,41.015625
5036,41.015625
5037,42.968750
5038,42.968750
5039,44.921875
5040,46.875000
5041,48.828125
5042,50.781250
5043,50.781250
5044,52.734375
5045,54.687500
5046,54.687500
5047,56.640625
5048,56.640625
5049,58.593750
5050,60.546875
5051,60.546875
5052,62.500000
5053,62.500000
5054,64.453125
5055,64.453125
5056,66.406250
5057,66.406250
5058,68.359375
5059,68.359375
5060,68.359375
5061,70.312500
5062,70.312500
5063,72.265625
5064,72.265625
5065,72.265625
5066,72.265625
5067,72.265625
5068,74.218750
5069,74.218750
5070,74.218750
5071,74.218750
5072,74.218750
5073,76.171875
5074,76.171875
5075,76.171875
5076,76.171875
5077,76.171875
5078,76.171875
5079,76.171875
5080,76.171875
5081,76.171875
5082,76.171875
5083,76.171875
5084,76.171875
5085,76.171875
5086,76.171875
5087,74.218750
5088,74.218750
5089,74.218750
5090,74.218750
5091,74.218750
5092,74.218750
5093,74.218750
5094,72.265625
5095,72.265625
5096,72.265625
5097,70.312500
5098,70.312500
5099,70.312500
5100,68.359375
5101,68.359375
5102,66.406250
5103,66.406250
5104,66.406250
5105,64.453125
5106,64.453125
5107,62.500000
5108,62.500000
5109,60.546875
5110,58.593750
5111,58.593750
5112,56.640625
5113,56.640625
5114,54.687500
5115,54.687500
5116,52.734375
5117,50.781250
5118,50.781250
5119,48.828125
5120,46.875000
5121,46.875000
5122,44.921875
5123,42.968750
5124,42.968750
5125,39.062500
5126,37.109375
5127,37.109375
5128,35.156250
5129,33.203125
5130,31.250000
5131,31.250000
5132,29.296875
5133,27.343750
5134,25.390625
5135,23.437500
5136,21.484375
5137,19.531250
5138,17.578125
5139,15.625000
5140,13.671875
5141,11.718750
5142,9.765625
5143,9.765625
5144,5.859375
5145,3.906250
5146,3.906250
5147,1.953125
5148,0.000000
5149,-1.953125
5150,-3.906250
5151,-5.859375
5152,-9.765625
5153,-11.718750
5154,-11.718750
5155,-13.671875
5156,-15.625000
5157,-17.578125
5158,-19.531250
5159,-21.484375
5160,-23.437500
5161,-25.390625
5162,-27.343750
5163,-29.296875
5164,-31.250000
5165,-33.203125
5166,-35.156250
5167,-39.062500
5168,-39.062500
5169,-41.015625
5170,-42.968750
5171,-44.921875
5172,-46.875000
5173,-48.828125
5174,-50.781250
5175,-52.734375
5176,-52.734375
5177,-54.687500
5178,-56.640625
5179,-58.593750
5180,-60.546875
5181,-62.500000
5182,-64.453125
5183,-66.406250
5184,-66.406250
5185,-68.359375
5186,-70.312500
5187,-72.265625
5188,-72.265625
5189,-74.218750
5190,-76.171875
5191,-76.171875
5192,-78.125000
5193,-80.078125
5194,-80.078125
5195,-82.031250
5196,-83.984375
5197,-83.984375
5198,-85.937500
5199,-85.937500
5200,-87.890625
5201,-87.890625
5202,-89.843750
5203,-89.843750
5204,-89.843750
5205,-91.796875
5206,-91.796875
5207,-93.750000
5208,-93.750000
5209,-95.703125
5210,-95.703125
5211,-95.703125
5212,-95.703125
5213,-95.703125
5214,-95.703125
5215,-95.703125
5216,-97.656250
5217,-97.656250
5218,-97.656250
5219,-97.656250
5220,-97.656250
5221,-97.656250
5222,-97.656250
5223,-97.656250
5224,-97.656250
5225,-97.656250
5226,-97.656250
5227,-95.703125
5228,-97.656250
5229,-95.703125
5230,-95.703125
5231,-95.703125
5232,-95.703125
5233,-93.750000
5234,-93.750000
5235,-93.750000
5236,-91.796875
5237,-91.796875
5238,-91.796875
5239,-89.843750
5240,-87.890625
5241,-87.890625
5242,-87.890625
5243,-85.937500
5244,-85.937500
5245,-83.984375
5246,-82.031250
5247,-82.031250
5248,-80.078125
5249,-80.078125
5250,-76.171875
5251,-78.125000
5252,-76.171875
5253,-74.218750
5254,-74.218750
5255,-72.265625
5256,-70.312500
5257,-70.312500
5258,-68.359375
5259,-64.453125
5260,-64.453125
5261,-62.500000
5262,-60.546875
5263,-60.546875
5264,-58.593750
5265,-56.640625
5266,-54.687500
5267,-52.734375
5268,-50.781250
5269,-48.828125
5270,-46.875000
5271,-44.921875
5272,-42.968750
5273,-42.968750
5274,-39.062500
5275,-39.062500
5276,-35.156250
5277,-35.156250
5278,-33.203125
5279,-31.250000
5280,-27.343750
5281,-27.343750
5282,-25.390625
5283,-23.437500
5284,-21.484375
5285,-19.531250
5286,-17.578125
5287,-15.625000
5288,-11.718750
5289,-11.718750
5290,-7.812500
5291,-7.812500
5292,-5.859375
5293,-3.906250
5294,-1.953125
5295,0.000000
5296,1.953125
5297,3.906250
5298,7.812500
5299,9.765625
5300,9.765625
5301,11.718750
5302,13.671875
5303,15.625000
5304,17.578125
5305,19.531250
5306,21.484375
5307,23.437500
5308,25.390625
5309,25.390625
5310,27.343750
5311,29.296875
5312,31.250000
5313,33.203125
5314,35.156250
5315,37.109375
5316,37.109375
5317,39.062500
5318,41.015625
5319,42.968750
5320,44.921875
5321,44.921875
5322,46.875000
5323,46.875000
5324,48.828125
5325,50.781250
5326,50.781250
5327,52.734375
5328,54.687500
5329,56.640625
5330,56.640625
5331,58.593750
5332,58.593750
5333,60.546875
5334,60.546875
5335,62.500000
5336,62.500000
5337,64.453125
5338,64.453125
5339,64.453125
5340,66.406250
5341,68.359375
5342,68.359375
5343,68.359375
5344,70.312500
5345,70.312500
5346,72.265625
5347,72.265625
5348,72.265625
5349,72.265625
5350,74.218750
5351,74.218750
5352,74.218750
5353,74.218750
5354,74.218750
5355,74.218750
5356,76.171875
5357,76.171875
5358,76.171875
5359,76.171875
5360,76.171875
5361,76.171875
5362,76.171875
5363,76.171875
5364,76.171875
5365,76.171875
5366,76.171875
5367,76.171875
5368,76.171875
5369,74.218750
5370,74.218750
5371,76.171875
5372,74.218750
5373,74.218750
5374,74.218750
5375,74.218750
5376,72.265625
5377,72.265625
5378,72.265625
5379,70.312500
5380,70.312500
5381,70.312500
5382,68.359375
5383,68.359375
5384,68.359375
5385,66.406250
5386,66.406250
5387,64.453125
5388,64.453125
5389,62.500000
5390,62.500000
5391,60.546875
5392,60.546875
5393,58.593750
5394,56.640625
5395,56.640625
5396,56.640625
5397,54.687500
5398,52.734375
5399,52.734375
5400,50.781250
5401,48.828125
5402,48.828125
5403,46.875000
5404,44.921875
5405,42.968750
5406,42.968750
5407,41.015625
5408,39.062500
5409,37.109375
5410,35.156250
5411,33.203125
5412,33.203125
5413,31.250000
5414,29.296875
5415,27.343750
5416,25.390625
5417,23.437500
5418,23.437500
5419,21.484375
5420,19.531250
5421,17.578125
5422,13.671875
5423,13.671875
5424,11.718750
5425,9.765625
5426,7.812500
5427,5.859375
5428,3.906250
5429,1.953125
5430,0.000000
5431,-1.953125
5432,-3.906250
5433,-5.859375
5434,-7.812500
5435,-9.765625
5436,-11.718750
5437,-13.671875
5438,-15.625000
5439,-17.578125
5440,-19.531250
5441,-21.484375
5442,-23.437500
5443,-25.390625
5444,-27.343750
5445,-29.296875
5446,-31.250000
5447,-33.203125
5448,-35.156250
5449,-37.109375
5450,-39.062500
5451,-41.015625
5452,-42.968750
5453,-44.921875
5454,-46.875000
5455,-48.828125
5456,-50.781250
5457,-52.734375
5458,-54.687500
5459,-54.687500
5460,-56.640625
5461,-58.593750
5462,-60.546875
5463,-62.500000
5464,-64.453125
5465,-64.453125
5466,-66.406250
5467,-68.359375
5468,-70.312500
5469,-72.265625
5470,-72.265625
5471,-74.218750
5472,-76.171875
5473,-76.171875
5474,-78.125000
5475,-80.078125
5476,-82.031250
5477,-82.031250
5478,-82.031250
5479,-83.984375
5480,-83.984375
5481,-85.937500
5482,-87.890625
5483,-87.890625
5484,-89.843750
5485,-89.843750
5486,-89.843750
5487,-91.796875
5488,-91.796875
5489,-93.750000
5490,-93.750000
5491,-93.750000
5492,-93.750000
5493,-93.750000
5494,-95.703125
5495,-95.703125
5496,-95.703125
5497,-97.656250
5498,-97.656250
5499,-97.656250
5500,-97.656250
5501,-97.656250
5502,-97.656250
5503,-97.656250
5504,-97.656250
5505,-97.656250
5506,-97.656250
5507,-97.656250
5508,-97.656250
5509,-97.656250
5510,-95.703125
5511,-97.656250
5512,-95.703125
5513,-95.703125
5514,-95.703125
5515,-93.750000
5516,-93.750000
5517,-93.750000
5518,-93.750000
5519,-91.796875
5520,-91.796875
5521,-91.796875
5522,-89.843750
5523,-89.843750
5524,-87.890625
5525,-87.890625
5526,-85.937500
5527,-85.937500
5528,-83.984375
5529,-82.031250
5530,-82.031250
5531,-80.078125
5532,-78.125000
5533,-78.125000
5534,-76.171875
5535,-74.218750
5536,-74.218750
5537,-72.265625
5538,-70.312500
5539,-70.312500
5540,-66.406250
5541,-66.406250
5542,-64.453125
5543,-62.500000
5544,-62.500000
5545,-60.546875
5546,-58.593750
5547,-56.640625
5548,-54.687500
5549,-52.734375
5550,-50.781250
5551,-48.828125
5552,-46.875000
5553,-46.875000
5554,-42.968750
5555,-42.968750
5556,-39.062500
5557,-39.062500
5558,-35.156250
5559,-35.156250
5560,-31.250000
5561,-29.296875
5562,-29.296875
5563,-27.343750
5564,-25.390625
5565,-23.437500
5566,-21.484375
5567,-19.531250
5568,-17.578125
5569,-15.625000
5570,-13.671875
5571,-11.718750
5572,-9.765625
5573,-7.812500
5574,-5.859375
5575,-3.906250
5576,-1.953125
5577,0.000000
5578,1.953125
5579,3.906250
5580,5.859375
5581,7.812500
5582,9.765625
5583,11.718750
5584,11.718750
5585,15.625000
5586,15.625000
5587,17.578125
5588,19.531250
5589,21.484375
5590,23.437500
5591,25.390625
5592,27.343750
5593,29.296875
5594,31.250000
5595,33.203125
5596,33.203125
5597,35.156250
5598,37.109375
5599,39.062500
5600,39.062500
5601,41.015625
5602,42.968750
5603,44.921875
5604,44.921875
5605,46.875000
5606,48.828125
5607,50.781250
5608,52.734375
5609,52.734375
5610,54.687500
5611,54.687500
5612,56.640625
5613,58.593750
5614,58.593750
5615,60.546875
5616,60.546875
5617,62.500000
5618,62.500000
5619,64.453125
5620,64.453125
5621,66.406250
5622,66.406250
5623,68.359375
5624,68.359375
5625,68.359375
5626,70.312500
5627,70.312500
5628,70.312500
5629,72.265625
5630,72.265625
5631,74.218750
5632,72.265625
5633,74.218750
5634,74.218750
5635,74.218750
5636,74.218750
5637,76.171875
5638,74.218750
5639,76.171875
5640,76.171875
5641,76.171875
5642,76.171875
5643,76.171875
5644,76.171875
5645,76.171875
5646,76.171875
5647,76.171875
5648,76.171875
5649,76.171875
5650,76.171875
5651,76.171875
5652,74.218750
5653,74.218750
5654,74.218750
5655,74.218750
5656,74.218750
5657,72.265625
5658,72.265625
5659,72.265625
5660,72.265625
5661,72.265625
5662,70.312500
5663,70.312500
5664,68.359375
5665,68.359375
5666,68.359375
5667,66.406250
5668,66.406250
5669,64.453125
5670,64.453125
5671,64.453125
5672,62.500000
5673,60.546875
5674,60.546875
5675,58.593750
5676,58.593750
5677,56.640625
5678,56.640625
5679,54.687500
5680,52.734375
5681,52.734375
5682,50.781250
5683,48.828125
5684,46.875000
5685,46.875000
5686,44.921875
5687,44.921875
5688,42.968750
5689,41.015625
5690,39.062500
5691,37.109375
5692,37.109375
5693,35.156250
5694,33.203125
5695,31.250000
5696,29.296875
5697,27.343750
5698,25.390625
5699,25.390625
5700,23.437500
5701,21.484375
5702,19.531250
5703,17.578125
5704,15.625000
5705,13.671875
5706,11.718750
5707,9.765625
5708,7.812500
5709,5.859375
5710,3.906250
5711,1.953125
5712,0.000000
5713,-1.953125
5714,-3.906250
5715,-5.859375
5716,-7.812500
5717,-9.765625
5718,-11.718750
5719,-13.671875
5720,-15.625000
5721,-17.578125
5722,-19.531250
5723,-21.484375
5724,-23.437500
5725,-25.390625
5726,-27.343750
5727,-29.296875
5728,-31.250000
5729,-33.203125
5730,-35.156250
5731,-37.109375
5732,-37.109375
5733,-41.015625
5734,-42.968750
5735,-42.968750
5736,-46.875000
5737,-46.875000
5738,-48.828125
5739,-50.781250
5740,-52.734375
5741,-54.687500
5742,-56.640625
5743,-58.593750
5744,-60.546875
5745,-62.500000
5746,-62.500000
5747,-64.453125
5748,-66.406250
5749,-68.359375
5750,-68.359375
5751,-70.312500
5752,-72.265625
5753,-72.265625
5754,-76.171875
5755,-76.171875
5756,-78.125000
5757,-78.125000
5758,-80.078125
5759,-82.031250
5760,-82.031250
5761,-82.031250
5762,-83.984375
5763,-85.937500
5764,-87.890625
5765,-87.890625
5766,-87.890625
5767,-89.843750
5768,-91.796875
5769,-91.796875
5770,-91.796875
5771,-91.796875
5772,-93.750000
5773,-93.750000
5774,-93.750000
5775,-95.703125
5776,-95.703125
5777,-97.656250
5778,-95.703125
5779,-95.703125
5780,-97.656250
5781,-97.656250
5782,-97.656250
5783,-97.656250
5784,-97.656250
5785,-97.656250
5786,-97.656250
5787,-97.656250
5788,-97.656250
5789,-97.656250
5790,-97.656250
5791,-97.656250
5792,-97.656250
5793,-97.656250
5794,-95.703125
5795,-95.703125
5796,-95.703125
5797,-95.703125
5798,-93.750000
5799,-93.750000
5800,-93.750000
5801,-91.796875
5802,-91.796875
5803,-89.843750
5804,-89.843750
5805,-89.843750
5806,-87.890625
5807,-85.937500
5808,-85.937500
5809,-85.937500
5810,-83.984375
5811,-82.031250
5812,-82.031250
5813,-82.031250
5814,-80.078125
5815,-78.125000
5816,-76.171875
5817,-76.171875
5818,-74.218750
5819,-72.265625
5820,-72.265625
5821,-70.312500
5822,-68.359375
5823,-68.359375
5824,-66.406250
5825,-64.453125
5826,-62.500000
5827,-60.546875
5828,-58.593750
5829,-56.640625
5830,-56.640625
5831,-54.687500
5832,-52.734375
5833,-50.781250
5834,-48.828125
5835,-46.875000
5836,-44.921875
5837,-42.968750
5838,-41.015625
5839,-39.062500
5840,-37.109375
5841,-37.109375
5842,-33.203125
5843,-31.250000
5844,-29.296875
5845,-27.343750
5846,-27.343750
5847,-23.437500
5848,-21.484375
5849,-19.531250
5850,-19.531250
5851,-15.625000
5852,-13.671875
5853,-11.718750
5854,-11.718750
5855,-7.812500
5856,-5.859375
5857,-3.906250
5858,-1.953125
5859,0.000000
5860,1.953125
5861,1.953125
5862,3.906250
5863,7.812500
5864,7.812500
5865,9.765625
5866,11.718750
5867,15.625000
5868,15.625000
5869,17.578125
5870,19.531250
5871,21.484375
5872,23.437500
5873,25.390625
5874,27.343750
5875,27.343750
5876,29.296875
5877,31.250000
5878,33.203125
5879,35.156250
5880,37.109375
5881,39.062500
5882,39.062500
5883,41.015625
5884,42.968750
5885,44.921875
5886,46.875000
5887,46.875000
5888,48.828125
5889,48.828125
5890,52.734375
5891,52.734375
5892,52.734375
5893,54.687500
5894,56.640625
5895,56.640625
5896,58.593750
5897,60.546875
5898,60.546875
5899,62.500000
5900,62.500000
5901,64.453125
5902,64.453125
5903,64.453125
5904,66.406250
5905,66.406250
5906,68.359375
5907,68.359375
5908,70.312500
5909,70.312500
5910,70.312500
5911,70.312500
5912,72.265625
5913,72.265625
5914,72.265625
5915,72.265625
5916,72.265625
5917,74.218750
5918,74.218750
5919,74.218750
5920,74.218750
5921,74.218750
5922,76.171875
5923,76.171875
5924,76.171875
5925,76.171875
5926,76.171875
5927,76.171875
5928,76.171875
5929,76.171875
5930,76.171875
5931,76.171875
5932,74.218750
5933,76.171875
5934,76.171875
5935,74.218750
5936,74.218750
5937,74.218750
5938,74.218750
5939,74.218750
5940,74.218750
5941,72.265625
5942,72.265625
5943,70.312500
5944,70.312500
5945,68.359375
5946,70.312500
5947,70.312500
5948,68.359375
5949,66.406250
5950,66.406250
5951,66.406250
5952,64.453125
5953,64.453125
5954,62.500000
5955,62.500000
5956,60.546875
5957,60.546875
5958,58.593750
5959,56.640625
5960,56.640625
5961,54.687500
5962,52.734375
5963,52.734375
5964,50.781250
5965,50.781250
5966,48.828125
5967,46.875000
5968,46.875000
5969,44.921875
5970,42.968750
5971,41.015625
5972,39.062500
5973,39.062500
5974,37.109375
5975,35.156250
5976,33.203125
5977,31.250000
5978,29.296875
5979,29.296875
5980,27.343750
5981,29.296875
5982,23.437500
5983,25.390625
5984,19.531250
5985,17.578125
5986,15.625000
5987,13.671875
5988,11.718750
5989,11.718750
5990,7.812500
5991,7.812500
5992,5.859375
5993,1.953125
5994,1.953125
5995,0.000000
5996,-1.953125
5997,-3.906250
5998,-5.859375
5999,-3.906250
6000,-9.765625
6001,-13.671875
6002,-13.671875
6003,-17.578125
6004,-17.578125
6005,-19.531250
6006,-23.437500
6007,-23.437500
6008,-27.343750
6009,-27.343750
6010,-31.250000
6011,-31.250000
6012,-35.156250
6013,-37.109375
6014,-37.109375
6015,-39.062500
6016,-41.015625
6017,-42.968750
6018,-44.921875
6019,-46.875000
6020,-48.828125
6021,-50.781250
6022,-52.734375
6023,-54.687500
6024,-56.640625
6025,-56.640625
6026,-58.593750
6027,-60.546875
6028,-62.500000
6029,-64.453125
6030,-66.406250
6031,-66.406250
6032,-70.312500
6033,-66.406250
6034,-72.265625
6035,-72.265625
6036,-74.218750
6037,-76.171875
6038,-78.125000
6039,-78.125000
6040,-80.078125
6041,-82.031250
6042,-82.031250
6043,-83.984375
6044,-83.984375
6045,-85.937500
6046,-89.843750
6047,-87.890625
6048,-87.890625
6049,-89.843750
6050,-89.843750
6051,-91.796875
6052,-91.796875
6053,-93.750000
6054,-93.750000
6055,-93.750000
6056,-93.750000
6057,-95.703125
6058,-95.703125
6059,-95.703125
6060,-95.703125
6061,-97.656250
6062,-97.656250
6063,-97.656250
6064,-97.656250
6065,-97.656250
6066,-97.656250
6067,-97.656250
6068,-97.656250
6069,-97.656250
6070,-97.656250
6071,-97.656250
6072,-97.656250
6073,-97.656250
6074,-95.703125
6075,-95.703125
6076,-95.703125
6077,-95.703125
6078,-95.703125
6079,-95.703125
6080,-93.750000
6081,-93.750000
6082,-93.750000
6083,-91.796875
6084,-91.796875
6085,-91.796875
6086,-89.843750
6087,-89.843750
6088,-87.890625
6089,-87.890625
6090,-87.890625
6091,-85.937500
6092,-83.984375
6093,-83.984375
6094,-82.031250
6095,-82.031250
6096,-80.078125
6097,-78.125000
6098,-78.125000
6099,-76.171875
6100,-74.218750
6101,-72.265625
6102,-72.265625
6103,-72.265625
6104,-68.359375
6105,-68.359375
6106,-66.406250
6107,-64.453125
6108,-62.500000
6109,-60.546875
6110,-58.593750
6111,-58.593750
6112,-56.640625
6113,-54.687500
6114,-52.734375
6115,-50.781250
6116,-48.828125
6117,-46.875000
6118,-44.921875
6119,-42.968750
6120,-41.015625
6121,-39.062500
6122,-37.109375
6123,-37.109375
6124,-33.203125
6125,-33.203125
6126,-31.250000
6127,-29.296875
6128,-27.343750
6129,-25.390625
6130,-23.437500
6131,-21.484375
6132,-19.531250
6133,-15.625000
6134,-15.625000
6135,-13.671875
6136,-11.718750
6137,-7.812500
6138,-7.812500
6139,-5.859375
6140,-3.906250
6141,-1.953125
6142,0.000000
6143,1.953125
6144,3.906250
6145,5.859375
6146,7.812500
6147,9.765625
6148,11.718750
6149,13.671875
6150,15.625000
6151,17.578125
6152,19.531250
6153,21.484375
6154,23.437500
6155,23.437500
6156,25.390625
6157,27.343750
6158,31.250000
6159,31.250000
6160,33.203125
6161,35.156250
6162,37.109375
6163,37.109375
6164,39.062500
6165,41.015625
6166,42.968750
6167,42.968750
6168,44.921875
6169,46.875000
6170,48.828125
6171,48.828125
6172,50.781250
6173,52.734375
6174,52.734375
6175,54.687500
6176,54.687500
6177,56.640625
6178,58.593750
6179,58.593750
6180,58.593750
6181,60.546875
6182,62.500000
6183,62.500000
6184,64.453125
6185,66.406250
6186,66.406250
6187,66.406250
6188,68.359375
6189,68.359375
6190,68.359375
6191,70.312500
6192,70.312500
6193,72.265625
6194,72.265625
6195,72.265625
6196,72.265625
6197,74.218750
6198,74.218750
6199,74.218750
6200,74.218750
6201,76.171875
6202,76.171875
6203,76.171875
6204,76.171875
6205,76.171875
6206,76.171875
6207,76.171875
6208,76.171875
6209,76.171875
6210,76.171875
6211,76.171875
6212,76.171875
6213,76.171875
6214,76.171875
6215,76.171875
6216,76.171875
6217,74.218750
6218,74.218750
6219,74.218750
6220,74.218750
6221,72.265625
6222,74.218750
6223,72.265625
6224,72.265625
6225,72.265625
6226,70.312500
6227,70.312500
6228,70.312500
6229,68.359375
6230,68.359375
6231,68.359375
6232,64.453125
6233,64.453125
6234,64.453125
6235,64.453125
6236,62.500000
6237,62.500000
6238,60.546875
6239,60.546875
6240,58.593750
6241,56.640625
6242,56.640625
6243,54.687500
6244,54.687500
6245,52.734375
6246,50.781250
6247,48.828125
6248,48.828125
6249,46.875000
6250,46.875000
6251,44.921875
6252,42.968750
6253,42.968750
6254,41.015625
6255,39.062500
6256,37.109375
6257,35.156250
6258,33.203125
6259,33.203125
6260,31.250000
6261,29.296875
6262,27.343750
6263,25.390625
6264,23.437500
6265,23.437500
6266,21.484375
6267,17.578125
6268,17.578125
6269,15.625000
6270,13.671875
6271,11.718750
6272,9.765625
6273,7.812500
6274,5.859375
6275,3.906250
6276,1.953125
6277,0.000000
6278,-1.953125
6279,-3.906250
6280,-5.859375
6281,-7.812500
6282,-9.765625
6283,-11.718750
6284,-13.671875
6285,-15.625000
6286,-17.578125
6287,-19.531250
6288,-21.484375
6289,-23.437500
6290,-25.390625
6291,-27.343750
6292,-29.296875
6293,-31.250000
6294,-33.203125
6295,-35.156250
6296,-37.109375
6297,-39.062500
6298,-41.015625
6299,-42.968750
6300,-44.921875
6301,-46.875000
6302,-48.828125
6303,-50.781250
6304,-50.781250
6305,-52.734375
6306,-54.687500
6307,-56.640625
6308,-58.593750
6309,-60.546875
6310,-62.500000
6311,-62.500000
6312,-66.406250
6313,-68.359375
6314,-68.359375
6315,-70.312500
6316,-70.312500
6317,-72.265625
6318,-74.218750
6319,-76.171875
6320,-76.171875
6321,-78.125000
6322,-80.078125
6323,-80.078125
6324,-82.031250
6325,-82.031250
6326,-83.984375
6327,-85.937500
6328,-85.937500
6329,-87.890625
6330,-87.890625
6331,-89.843750
6332,-89.843750
6333,-91.796875
6334,-91.796875
6335,-91.796875
6336,-91.796875
6337,-93.750000
6338,-93.750000
6339,-93.750000
6340,-95.703125
6341,-95.703125
6342,-95.703125
6343,-95.703125
6344,-97.656250
6345,-97.656250
6346,-97.656250
6347,-97.656250
6348,-97.656250
6349,-97.656250
6350,-97.656250
6351,-97.656250
6352,-97.656250
6353,-97.656250
6354,-97.656250
6355,-97.656250
6356,-97.656250
6357,-97.656250
6358,-95.703125
6359,-97.656250
6360,-95.703125
6361,-95.703125
6362,-95.703125
6363,-93.750000
6364,-93.750000
6365,-93.750000
6366,-91.796875
6367,-91.796875
6368,-91.796875
6369,-89.843750
6370,-89.843750
6371,-87.890625
6372,-87.890625
6373,-85.937500
6374,-85.937500
6375,-83.984375
6376,-82.031250
6377,-82.031250
6378,-80.078125
6379,-80.078125
6380,-78.125000
6381,-76.171875
6382,-76.171875
6383,-74.218750
6384,-72.265625
6385,-70.312500
6386,-70.312500
6387,-68.359375
6388,-66.406250
6389,-64.453125
6390,-64.453125
6391,-60.546875
6392,-60.546875
6393,-58.593750
6394,-56.640625
6395,-54.687500
6396,-52.734375
6397,-50.781250
6398,-50.781250
6399,-46.875000
6400,-44.921875
6401,-44.921875
6402,-42.968750
6403,-41.015625
6404,-39.062500
6405,-37.109375
6406,-35.156250
6407,-33.203125
6408,-31.250000
6409,-29.296875
6410,-27.343750
6411,-25.390625
6412,-23.437500
6413,-21.484375
6414,-19.531250
6415,-17.578125
6416,-15.625000
6417,-13.671875
6418,-11.718750
6419,-9.765625
6420,-7.812500
6421,-5.859375
6422,-3.906250
6423,-1.953125
6424,0.000000
6425,1.953125
6426,3.906250
6427,5.859375
6428,7.812500
6429,9.765625
6430,11.718750
6431,11.718750
6432,13.671875
6433,17.578125
6434,17.578125
6435,19.531250
6436,21.484375
6437,23.437500
6438,25.390625
6439,27.343750
6440,29.296875
6441,31.250000
6442,33.203125
6443,33.203125
6444,35.156250
6445,37.109375
6446,39.062500
6447,39.062500
6448,41.015625
6449,42.968750
6450,44.921875
6451,46.875000
6452,46.875000
6453,48.828125
6454,50.781250
6455,50.781250
6456,52.734375
6457,54.687500
6458,54.687500
6459,56.640625
6460,56.640625
6461,58.593750
6462,60.546875
6463,60.546875
6464,62.500000
6465,64.453125
6466,64.453125
6467,64.453125
6468,66.406250
6469,66.406250
6470,68.359375
6471,68.359375
6472,68.359375
6473,70.312500
6474,70.312500
6475,70.312500
6476,72.265625
6477,72.265625
6478,72.265625
6479,74.218750
6480,74.218750
6481,74.218750
6482,74.218750
6483,74.218750
6484,74.218750
6485,74.218750
6486,76.171875
6487,76.171875
6488,76.171875
6489,76.171875
6490,76.171875
6491,76.171875
6492,76.171875
6493,76.171875
6494,76.171875
6495,76.171875
6496,76.171875
6497,76.171875
6498,76.171875
6499,76.171875
6500,74.218750
6501,74.218750
6502,74.218750
6503,74.218750
6504,74.218750
6505,72.265625
6506,72.265625
6507,72.265625
6508,70.312500
6509,70.312500
6510,70.312500
6511,70.312500
6512,68.359375
6513,68.359375
6514,66.406250
6515,66.406250
6516,64.453125
6517,64.453125
6518,64.453125
6519,62.500000
6520,62.500000
6521,60.546875
6522,60.546875
6523,58.593750
6524,56.640625
6525,56.640625
6526,54.687500
6527,52.734375
6528,50.781250
6529,50.781250
6530,48.828125
6531,48.828125
6532,46.875000
6533,44.921875
6534,42.968750
6535,42.968750
6536,41.015625
6537,39.062500
6538,39.062500
6539,35.156250
6540,35.156250
6541,33.203125
6542,31.250000
6543,29.296875
6544,27.343750
6545,25.390625
6546,25.390625
6547,23.437500
6548,21.484375
6549,19.531250
6550,15.625000
6551,15.625000
6552,13.671875
6553,11.718750
6554,9.765625
6555,7.812500
6556,5.859375
6557,3.906250
6558,1.953125
6559,0.000000
6560,-1.953125
6561,-3.906250
6562,-5.859375
6563,-7.812500
6564,-9.765625
6565,-11.718750
6566,-13.671875
6567,-15.625000
6568,-17.578125
6569,-19.531250
6570,-21.484375
6571,-23.437500
6572,-25.390625
6573,-27.343750
6574,-29.296875
6575,-31.250000
6576,-33.203125
6577,-35.156250
6578,-37.109375
6579,-39.062500
6580,-41.015625
6581,-42.968750
6582,-42.968750
6583,-44.921875
6584,-50.781250
6585,-50.781250
6586,-50.781250
6587,-52.734375
6588,-54.687500
6589,-56.640625
6590,-56.640625
6591,-60.546875
6592,-62.500000
6593,-62.500000
6594,-64.453125
6595,-66.406250
6596,-68.359375
6597,-68.359375
6598,-72.265625
6599,-72.265625
6600,-74.218750
6601,-76.171875
6602,-76.171875
6603,-78.125000
6604,-78.125000
6605,-80.078125
6606,-82.031250
6607,-82.031250
6608,-83.984375
6609,-85.937500
6610,-85.937500
6611,-85.937500
6612,-87.890625
6613,-89.843750
6614,-89.843750
6615,-91.796875
6616,-91.796875
6617,-91.796875
6618,-93.750000
6619,-91.796875
6620,-93.750000
6621,-93.750000
6622,-95.703125
6623,-95.703125
6624,-95.703125
6625,-97.656250
6626,-97.656250
6627,-97.656250
6628,-97.656250
6629,-97.656250
6630,-97.656250
6631,-97.656250
6632,-97.656250
6633,-97.656250
6634,-97.656250
6635,-97.656250
6636,-97.656250
6637,-97.656250
6638,-97.656250
6639,-95.703125
6640,-95.703125
6641,-95.703125
6642,-95.703125
6643,-95.703125
6644,-95.703125
6645,-93.750000
6646,-93.750000
6647,-93.750000
6648,-91.796875
6649,-91.796875
6650,-89.843750
6651,-89.843750
6652,-87.890625
6653,-87.890625
6654,-87.890625
6655,-85.937500
6656,-85.937500
6657,-83.984375
6658,-83.984375
6659,-82.031250
6660,-80.078125
6661,-80.078125
6662,-78.125000
6663,-78.125000
6664,-76.171875
6665,-74.218750
6666,-72.265625
6667,-70.312500
6668,-70.312500
6669,-68.359375
6670,-66.406250
6671,-66.406250
6672,-64.453125
6673,-62.500000
6674,-60.546875
6675,-58.593750
6676,-58.593750
6677,-56.640625
6678,-52.734375
6679,-52.734375
6680,-50.781250
6681,-48.828125
6682,-46.875000
6683,-44.921875
6684,-42.968750
6685,-41.015625
6686,-39.062500
6687,-37.109375
6688,-37.109375
6689,-33.203125
6690,-31.250000
6691,-29.296875
6692,-27.343750
6693,-25.390625
6694,-23.437500
6695,-21.484375
6696,-19.531250
6697,-17.578125
6698,-15.625000
6699,-13.671875
6700,-11.718750
6701,-9.765625
6702,-7.812500
6703,-5.859375
6704,-3.906250
6705,-1.953125
6706,0.000000
6707,1.953125
6708,3.906250
6709,5.859375
6710,7.812500
6711,9.765625
6712,11.718750
6713,11.718750
6714,13.671875
6715,15.625000
6716,17.578125
6717,19.531250
6718,21.484375
6719,23.437500
6720,25.390625
6721,27.343750
6722,29.296875
6723,31.250000
6724,31.250000
6725,33.203125
6726,35.156250
6727,37.109375
6728,37.109375
6729,41.015625
6730,41.015625
6731,42.968750
6732,44.921875
6733,46.875000
6734,46.875000
6735,48.828125
6736,50.781250
6737,50.781250
6738,52.734375
6739,54.687500
6740,54.687500
6741,56.640625
6742,56.640625
6743,58.593750
6744,58.593750
6745,60.546875
6746,62.500000
6747,62.500000
6748,62.500000
6749,64.453125
6750,66.406250
6751,66.406250
6752,66.406250
6753,68.359375
6754,68.359375
6755,68.359375
6756,70.312500
6757,70.312500
6758,70.312500
6759,72.265625
6760,72.265625
6761,72.265625
6762,74.218750
6763,74.218750
6764,74.218750
6765,74.218750
6766,76.171875
6767,76.171875
6768,76.171875
6769,76.171875
6770,76.171875
6771,76.171875
6772,76.171875
6773,76.171875
6774,76.171875
6775,76.171875
6776,76.171875
6777,76.171875
6778,76.171875
6779,76.171875
6780,76.171875
6781,74.218750
6782,76.171875
6783,74.218750
6784,74.218750
6785,74.218750
6786,74.218750
6787,72.265625
6788,72.265625
6789,72.265625
6790,72.265625
6791,70.312500
6792,70.312500
6793,70.312500
6794,68.359375
6795,68.359375
6796,68.359375
6797,66.406250
6798,66.406250
6799,64.453125
6800,62.500000
6801,62.500000
6802,62.500000
6803,60.546875
6804,58.593750
6805,58.593750
6806,58.593750
6807,56.640625
6808,54.687500
6809,54.687500
6810,52.734375
6811,50.781250
6812,50.781250
6813,48.828125
6814,46.875000
6815,44.921875
6816,44.921875
6817,42.968750
6818,41.015625
6819,41.015625
6820,37.109375
6821,37.109375
6822,35.156250
6823,33.203125
6824,31.250000
6825,31.250000
6826,27.343750
6827,27.343750
6828,25.390625
6829,23.437500
6830,21.484375
6831,19.531250
6832,17.578125
6833,15.625000
6834,15.625000
6835,11.718750
6836,9.765625
6837,9.765625
6838,7.812500
6839,3.906250
6840,3.906250
6841,1.953125
6842,0.000000
6843,-3.906250
6844,-5.859375
6845,-5.859375
6846,-7.812500
6847,-9.765625
6848,-11.718750
6849,-13.671875
6850,-15.625000
6851,-17.578125
6852,-19.531250
6853,-23.437500
6854,-23.437500
6855,-25.390625
6856,-29.296875
6857,-29.296875
6858,-31.250000
6859,-33.203125
6860,-35.156250
6861,-37.109375
6862,-39.062500
6863,-42.968750
6864,-42.968750
6865,-44.921875
6866,-46.875000
6867,-48.828125
6868,-50.781250
6869,-52.734375
6870,-54.687500
6871,-56.640625
6872,-56.640625
6873,-60.546875
6874,-60.546875
6875,-62.500000
6876,-64.453125
6877,-66.406250
6878,-68.359375
6879,-68.359375
6880,-70.312500
6881,-72.265625
6882,-72.265625
6883,-74.218750
6884,-76.171875
6885,-78.125000
6886,-78.125000
6887,-80.078125
6888,-80.078125
6889,-82.031250
6890,-83.984375
6891,-85.937500
6892,-85.937500
6893,-85.937500
6894,-87.890625
6895,-89.843750
6896,-89.843750
6897,-89.843750
6898,-91.796875
6899,-91.796875
6900,-91.796875
6901,-93.750000
6902,-93.750000
6903,-93.750000
6904,-95.703125
6905,-95.703125
6906,-95.703125
6907,-95.703125
6908,-95.703125
6909,-97.656250
6910,-97.656250
6911,-97.656250
6912,-97.656250
6913,-97.656250
6914,-97.656250
6915,-97.656250
6916,-97.656250
6917,-97.656250
6918,-97.656250
6919,-97.656250
6920,-97.656250
6921,-97.656250
6922,-95.703125
6923,-97.656250
6924,-95.703125
6925,-95.703125
6926,-95.703125
6927,-93.750000
6928,-93.750000
6929,-93.750000
6930,-91.796875
6931,-91.796875
6932,-91.796875
6933,-89.843750
6934,-89.843750
6935,-87.890625
6936,-87.890625
6937,-85.937500
6938,-85.937500
6939,-83.984375
6940,-83.984375
6941,-82.031250
6942,-82.031250
6943,-80.078125
6944,-78.125000
6945,-78.125000
6946,-76.171875
6947,-74.218750
6948,-74.218750
6949,-72.265625
6950,-70.312500
6951,-68.359375
6952,-68.359375
6953,-66.406250
6954,-64.453125
6955,-62.500000
6956,-62.500000
6957,-58.593750
6958,-58.593750
6959,-56.640625
6960,-54.687500
6961,-52.734375
6962,-50.781250
6963,-48.828125
6964,-46.875000
6965,-46.875000
6966,-44.921875
6967,-41.015625
6968,-39.062500
6969,-39.062500
6970,-35.156250
6971,-35.156250
6972,-33.203125
6973,-29.296875
6974,-27.343750
6975,-27.343750
6976,-25.390625
6977,-23.437500
6978,-21.484375
6979,-19.531250
6980,-15.625000
6981,-15.625000
6982,-13.671875
6983,-9.765625
6984,-7.812500
6985,-7.812500
6986,-3.906250
6987,-3.906250
6988,-1.953125
6989,0.000000
6990,1.953125
6991,3.906250
6992,5.859375
6993,7.812500
6994,9.765625
6995,11.718750
6996,13.671875
6997,15.625000
6998,17.578125
6999,19.531250
7000,19.531250
7001,23.437500
7002,23.437500
7003,25.390625
7004,27.343750
7005,29.296875
7006,31.250000
7007,33.203125
7008,35.156250
7009,35.156250
7010,37.109375
7011,39.062500
7012,41.015625
7013,42.968750
7014,42.968750
7015,44.921875
7016,46.875000
7017,48.828125
7018,48.828125
7019,48.828125
7020,52.734375
7021,52.734375
7022,54.687500
7023,56.640625
7024,56.640625
7025,56.640625
7026,58.593750
7027,60.546875
7028,60.546875
7029,62.500000
7030,62.500000
7031,64.453125
7032,64.453125
7033,66.406250
7034,66.406250
7035,68.359375
7036,68.359375
7037,68.359375
7038,70.312500
7039,70.312500
7040,70.312500
7041,72.265625
7042,72.265625
7043,74.218750
7044,72.265625
7045,74.218750
7046,74.218750
7047,74.218750
7048,74.218750
7049,76.171875
7050,76.171875
7051,74.218750
7052,76.171875
7053,76.171875
7054,76.171875
7055,76.171875
7056,76.171875
7057,76.171875
7058,76.171875
7059,76.171875
7060,76.171875
7061,76.171875
7062,76.171875
7063,76.171875
7064,76.171875
7065,74.218750
7066,74.218750
7067,74.218750
7068,72.265625
7069,74.218750
7070,72.265625
7071,72.265625
7072,72.265625
7073,70.312500
7074,70.312500
7075,70.312500
7076,68.359375
7077,68.359375
7078,66.406250
7079,66.406250
7080,66.406250
7081,64.453125
7082,64.453125
7083,62.500000
7084,62.500000
7085,60.546875
7086,60.546875
7087,58.593750
7088,58.593750
7089,56.640625
7090,54.687500
7091,54.687500
7092,52.734375
7093,52.734375
7094,50.781250
7095,48.828125
7096,48.828125
7097,46.875000
7098,44.921875
7099,42.968750
7100,42.968750
7101,41.015625
7102,39.062500
7103,37.109375
7104,35.156250
7105,33.203125
7106,33.203125
7107,31.250000
7108,29.296875
7109,27.343750
7110,25.390625
7111,23.437500
7112,21.484375
7113,19.531250
7114,17.578125
7115,17.578125
7116,15.625000
7117,13.671875
7118,11.718750
7119,9.765625
7120,7.812500
7121,5.859375
7122,3.906250
7123,1.953125
7124,0.000000
7125,-1.953125
7126,-3.906250
7127,-5.859375
7128,-7.812500
7129,-9.765625
7130,-11.718750
7131,-13.671875
7132,-15.625000
7133,-17.578125
7134,-19.531250
7135,-21.484375
7136,-23.437500
7137,-25.390625
7138,-27.343750
7139,-29.296875
7140,-31.250000
7141,-33.203125
7142,-35.156250
7143,-37.109375
7144,-39.062500
7145,-41.015625
7146,-42.968750
7147,-44.921875
7148,-46.875000
7149,-48.828125
7150,-50.781250
7151,-52.734375
7152,-52.734375
7153,-54.687500
7154,-56.640625
7155,-58.593750
7156,-60.546875
7157,-60.546875
7158,-64.453125
7159,-66.406250
7160,-66.406250
7161,-68.359375
7162,-70.312500
7163,-72.265625
7164,-72.265625
7165,-74.218750
7166,-76.171875
7167,-78.125000
7168,-78.125000
7169,-78.125000
7170,-80.078125
7171,-82.031250
7172,-82.031250
7173,-83.984375
7174,-85.937500
7175,-85.937500
7176,-85.937500
7177,-87.890625
7178,-89.843750
7179,-89.843750
7180,-89.843750
7181,-91.796875
7182,-91.796875
7183,-91.796875
7184,-93.750000
7185,-93.750000
7186,-93.750000
7187,-95.703125
7188,-95.703125
7189,-95.703125
7190,-97.656250
7191,-95.703125
7192,-97.656250
7193,-97.656250
7194,-97.656250
7195,-97.656250
7196,-97.656250
7197,-97.656250
7198,-97.656250
7199,-97.656250
7200,-97.656250
7201,-97.656250
7202,-97.656250
7203,-97.656250
7204,-97.656250
7205,-97.656250
7206,-95.703125
7207,-95.703125
7208,-95.703125
7209,-93.750000
7210,-93.750000
7211,-93.750000
7212,-93.750000
7213,-91.796875
7214,-91.796875
7215,-89.843750
7216,-89.843750
7217,-89.843750
7218,-87.890625
7219,-85.937500
7220,-85.937500
7221,-83.984375
7222,-83.984375
7223,-82.031250
7224,-82.031250
7225,-80.078125
7226,-80.078125
7227,-78.125000
7228,-76.171875
7229,-76.171875
7230,-74.218750
7231,-72.265625
7232,-70.312500
7233,-70.312500
7234,-68.359375
7235,-66.406250
7236,-64.453125
7237,-62.500000
7238,-62.500000
7239,-60.546875
7240,-58.593750
7241,-56.640625
7242,-54.687500
7243,-52.734375
7244,-50.781250
7245,-48.828125
7246,-46.875000
7247,-46.875000
7248,-44.921875
7249,-42.968750
7250,-41.015625
7251,-39.062500
7252,-37.109375
7253,-35.156250
7254,-33.203125
7255,-31.250000
7256,-29.296875
7257,-27.343750
7258,-25.390625
7259,-23.437500
7260,-21.484375
7261,-19.531250
7262,-17.578125
7263,-15.625000
7264,-13.671875
7265,-11.718750
7266,-9.765625
7267,-7.812500
7268,-5.859375
7269,-3.906250
7270,-1.953125
7271,0.000000
7272,1.953125
7273,3.906250
7274,5.859375
7275,7.812500
7276,9.765625
7277,11.718750
7278,13.671875
7279,15.625000
7280,17.578125
7281,17.578125
7282,19.531250
7283,21.484375
7284,23.437500
7285,25.390625
7286,27.343750
7287,29.296875
7288,31.250000
7289,33.203125
7290,35.156250
7291,35.156250
7292,37.109375
7293,39.062500
7294,41.015625
7295,41.015625
7296,42.968750
7297,44.921875
7298,46.875000
7299,48.828125
7300,48.828125
7301,50.781250
7302,50.781250
7303,52.734375
7304,54.687500
7305,56.640625
7306,56.640625
7307,56.640625
7308,58.593750
7309,60.546875
7310,60.546875
7311,62.500000
7312,62.500000
7313,64.453125
7314,64.453125
7315,66.406250
7316,66.406250
7317,66.406250
7318,68.359375
7319,68.359375
7320,70.312500
7321,70.312500
7322,70.312500
7323,72.265625
7324,72.265625
7325,72.265625
7326,74.218750
7327,72.265625
7328,74.218750
7329,74.218750
7330,74.218750
7331,74.218750
7332,74.218750
7333,76.171875
7334,76.171875
7335,76.171875
7336,76.171875
7337,76.171875
7338,76.171875
7339,76.171875
7340,76.171875
7341,76.171875
7342,76.171875
7343,76.171875
7344,76.171875
7345,74.218750
7346,76.171875
7347,74.218750
7348,74.218750
7349,74.218750
7350,74.218750
7351,74.218750
7352,72.265625
7353,72.265625
7354,72.265625
7355,70.312500
7356,70.312500
7357,70.312500
7358,68.359375
7359,68.359375
7360,68.359375
7361,68.359375
7362,66.406250
7363,66.406250
7364,64.453125
7365,62.500000
7366,62.500000
7367,62.500000
7368,60.546875
7369,58.593750
7370,58.593750
7371,56.640625
7372,56.640625
7373,54.687500
7374,52.734375
7375,52.734375
7376,50.781250
7377,48.828125
7378,48.828125
7379,46.875000
7380,44.921875
7381,42.968750
7382,42.968750
7383,41.015625
7384,39.062500
7385,37.109375
7386,37.109375
7387,33.203125
7388,33.203125
7389,31.250000
7390,29.296875
7391,27.343750
7392,25.390625
7393,23.437500
7394,21.484375
7395,21.484375
7396,19.531250
7397,17.578125
7398,15.625000
7399,13.671875
7400,11.718750
7401,9.765625
7402,7.812500
7403,5.859375
7404,3.906250
7405,1.953125
7406,0.000000
7407,-1.953125
7408,-3.906250
7409,-5.859375
7410,-7.812500
7411,-9.765625
7412,-11.718750
7413,-13.671875
7414,-15.625000
7415,-17.578125
7416,-19.531250
7417,-21.484375
7418,-23.437500
7419,-25.390625
7420,-27.343750
7421,-29.296875
7422,-31.250000
7423,-33.203125
7424,-35.156250
7425,-37.109375
7426,-39.062500
7427,-39.062500
7428,-41.015625
7429,-42.968750
7430,-46.875000
7431,-46.875000
7432,-48.828125
7433,-50.781250
7434,-52.734375
7435,-54.687500
7436,-56.640625
7437,-58.593750
7438,-60.546875
7439,-60.546875
7440,-62.500000
7441,-64.453125
7442,-66.406250
7443,-68.359375
7444,-70.312500
7445,-70.312500
7446,-72.265625
7447,-74.218750
7448,-74.218750
7449,-76.171875
7450,-78.125000
7451,-80.078125
7452,-80.078125
7453,-82.031250
7454,-82.031250
7455,-83.984375
7456,-83.984375
7457,-85.937500
7458,-87.890625
7459,-87.890625
7460,-89.843750
7461,-89.843750
7462,-89.843750
7463,-91.796875
7464,-91.796875
7465,-93.750000
7466,-93.750000
7467,-93.750000
7468,-93.750000
7469,-95.703125
7470,-95.703125
7471,-97.656250
7472,-95.703125
7473,-97.656250
7474,-97.656250
7475,-97.656250
7476,-97.656250
7477,-97.656250
7478,-97.656250
7479,-97.656250
7480,-97.656250
7481,-97.656250
7482,-97.656250
7483,-97.656250
7484,-97.656250
7485,-97.656250
7486,-97.656250
7487,-97.656250
7488,-95.703125
7489,-95.703125
7490,-95.703125
7491,-93.750000
7492,-93.750000
7493,-93.750000
7494,-93.750000
7495,-91.796875
7496,-91.796875
7497,-89.843750
7498,-89.843750
7499,-87.890625
7500,-87.890625
7501,-87.890625
7502,-85.937500
7503,-85.937500
7504,-83.984375
7505,-82.031250
7506,-82.031250
7507,-80.078125
7508,-80.078125
7509,-78.125000
7510,-76.171875
7511,-76.171875
7512,-74.218750
7513,-72.265625
7514,-70.312500
7515,-70.312500
7516,-68.359375
7517,-68.359375
7518,-66.406250
7519,-64.453125
7520,-62.500000
7521,-60.546875
7522,-58.593750
7523,-56.640625
7524,-56.640625
7525,-54.687500
7526,-52.734375
7527,-50.781250
7528,-48.828125
7529,-46.875000
7530,-44.921875
7531,-42.968750
7532,-41.015625
7533,-39.062500
7534,-37.109375
7535,-37.109375
7536,-33.203125
7537,-31.250000
7538,-29.296875
7539,-27.343750
7540,-25.390625
7541,-25.390625
7542,-21.484375
7543,-19.531250
7544,-17.578125
7545,-15.625000
7546,-13.671875
7547,-11.718750
7548,-9.765625
7549,-7.812500
7550,-5.859375
7551,-3.906250
7552,-1.953125
7553,0.000000
7554,1.953125
7555,3.906250
7556,5.859375
7557,7.812500
7558,7.812500
7559,11.718750
7560,11.718750
7561,13.671875
7562,15.625000
7563,17.578125
7564,19.531250
7565,21.484375
7566,23.437500
7567,25.390625
7568,27.343750
7569,29.296875
7570,31.250000
7571,31.250000
7572,33.203125
7573,35.156250
7574,35.156250
7575,37.109375
7576,39.062500
7577,41.015625
7578,42.968750
7579,44.921875
7580,44.921875
7581,46.875000
7582,48.828125
7583,50.781250
7584,50.781250
7585,52.734375
7586,52.734375
7587,54.687500
7588,56.640625
7589,56.640625
7590,58.593750
7591,60.546875
7592,60.546875
7593,60.546875
7594,62.500000
7595,62.500000
7596,64.453125
7597,66.406250
7598,66.406250
7599,66.406250
7600,68.359375
7601,68.359375
7602,68.359375
7603,70.312500
7604,70.312500
7605,70.312500
7606,72.265625
7607,72.265625
7608,72.265625
7609,74.218750
7610,74.218750
7611,74.218750
7612,74.218750
7613,74.218750
7614,74.218750
7615,76.171875
7616,76.171875
7617,76.171875
7618,76.171875
7619,76.171875
7620,76.171875
7621,76.171875
7622,76.171875
7623,76.171875
7624,76.171875
7625,76.171875
7626,76.171875
7627,76.171875
7628,76.171875
7629,74.218750
7630,74.218750
7631,74.218750
7632,74.218750
7633,74.218750
7634,72.265625
7635,72.265625
7636,72.265625
7637,72.265625
7638,70.312500
7639,70.312500
7640,70.312500
7641,68.359375
7642,68.359375
7643,66.406250
7644,66.406250
7645,64.453125
7646,64.453125
7647,64.453125
7648,62.500000
7649,62.500000
7650,60.546875
7651,60.546875
7652,58.593750
7653,56.640625
7654,56.640625
7655,54.687500
7656,54.687500
7657,52.734375
7658,50.781250
7659,48.828125
7660,48.828125
7661,46.875000
7662,44.921875
7663,44.921875
7664,42.968750
7665,41.015625
7666,39.062500
7667,39.062500
7668,37.109375
7669,35.156250
7670,33.203125
7671,33.203125
7672,29.296875
7673,29.296875
7674,25.390625
7675,25.390625
7676,23.437500
7677,21.484375
7678,19.531250
7679,17.578125
7680,15.625000
7681,13.671875
7682,13.671875
7683,11.718750
7684,7.812500
7685,7.812500
7686,5.859375
7687,3.906250
7688,1.953125
7689,0.000000
7690,-3.906250
7691,-3.906250
7692,-5.859375
7693,-9.765625
7694,-9.765625
7695,-15.625000
7696,-13.671875
7697,-15.625000
7698,-17.578125
7699,-21.484375
7700,-21.484375
7701,-23.437500
7702,-27.343750
7703,-27.343750
7704,-29.296875
7705,-31.250000
7706,-33.203125
7707,-35.156250
7708,-37.109375
7709,-39.062500
7710,-41.015625
7711,-42.968750
7712,-46.875000
7713,-46.875000
7714,-48.828125
7715,-50.781250
7716,-52.734375
7717,-54.687500
7718,-56.640625
7719,-58.593750
7720,-58.593750
7721,-60.546875
7722,-62.500000
7723,-64.453125
7724,-66.406250
7725,-68.359375
7726,-68.359375
7727,-70.312500
7728,-70.312500
7729,-72.265625
7730,-74.218750
7731,-76.171875
7732,-78.125000
7733,-78.125000
7734,-80.078125
7735,-82.031250
7736,-82.031250
7737,-83.984375
7738,-83.984375
7739,-85.937500
7740,-85.937500
7741,-87.890625
7742,-87.890625
7743,-89.843750
7744,-91.796875
7745,-91.796875
7746,-91.796875
7747,-93.750000
7748,-93.750000
7749,-93.750000
7750,-93.750000
7751,-95.703125
7752,-95.703125
7753,-95.703125
7754,-95.703125
7755,-97.656250
7756,-97.656250
7757,-97.656250
7758,-97.656250
7759,-97.656250
7760,-97.656250
7761,-97.656250
7762,-97.656250
7763,-97.656250
7764,-97.656250
7765,-97.656250
7766,-97.656250
7767,-97.656250
7768,-97.656250
7769,-95.703125
7770,-95.703125
7771,-95.703125
7772,-95.703125
7773,-95.703125
7774,-93.750000
7775,-93.750000
7776,-93.750000
7777,-93.750000
7778,-91.796875
7779,-91.796875
7780,-91.796875
7781,-89.843750
7782,-89.843750
7783,-87.890625
7784,-87.890625
7785,-85.937500
7786,-85.937500
7787,-83.984375
7788,-82.031250
7789,-82.031250
7790,-80.078125
7791,-78.125000
7792,-78.125000
7793,-76.171875
7794,-76.171875
7795,-74.218750
7796,-72.265625
7797,-70.312500
7798,-70.312500
7799,-68.359375
7800,-66.406250
7801,-64.453125
7802,-62.500000
7803,-60.546875
7804,-60.546875
7805,-58.593750
7806,-56.640625
7807,-54.687500
7808,-52.734375
7809,-50.781250
7810,-48.828125
7811,-46.875000
7812,-44.921875
7813,-42.968750
7814,-41.015625
7815,-41.015625
7816,-39.062500
7817,-37.109375
7818,-35.156250
7819,-33.203125
7820,-29.296875
7821,-29.296875
7822,-27.343750
7823,-25.390625
7824,-23.437500
7825,-19.531250
7826,-19.531250
7827,-17.578125
7828,-15.625000
7829,-13.671875
7830,-11.718750
7831,-9.765625
7832,-7.812500
7833,-5.859375
7834,-3.906250
7835,-1.953125
7836,0.000000
7837,1.953125
7838,3.906250
7839,5.859375
7840,7.812500
7841,9.765625
7842,11.718750
7843,13.671875
7844,15.625000
7845,17.578125
7846,19.531250
7847,21.484375
7848,21.484375
7849,23.437500
7850,25.390625
7851,27.343750
7852,29.296875
7853,31.250000
7854,33.203125
7855,35.156250
7856,35.156250
7857,37.109375
7858,39.062500
7859,41.015625
7860,41.015625
7861,42.968750
7862,44.921875
7863,46.875000
7864,48.828125
7865,48.828125
7866,50.781250
7867,52.734375
7868,52.734375
7869,54.687500
7870,54.687500
7871,56.640625
7872,58.593750
7873,58.593750
7874,60.546875
7875,60.546875
7876,62.500000
7877,62.500000
7878,64.453125
7879,64.453125
7880,66.406250
7881,66.406250
7882,68.359375
7883,68.359375
7884,70.312500
7885,70.312500
7886,70.312500
7887,72.265625
7888,72.265625
7889,72.265625
7890,74.218750
7891,74.218750
7892,74.218750
7893,74.218750
7894,74.218750
7895,74.218750
7896,76.171875
7897,76.171875
7898,76.171875
7899,76.171875
7900,76.171875
7901,76.171875
7902,76.171875
7903,76.171875
7904,76.171875
7905,76.171875
7906,76.171875
7907,76.171875
7908,76.171875
7909,76.171875
7910,76.171875
7911,76.171875
7912,74.218750
7913,74.218750
7914,74.218750
7915,74.218750
7916,72.265625
7917,72.265625
7918,72.265625
7919,72.265625
7920,70.312500
7921,70.312500
7922,70.312500
7923,68.359375
7924,68.359375
7925,68.359375
7926,66.406250
7927,66.406250
7928,64.453125
7929,62.500000
7930,62.500000
7931,62.500000
7932,60.546875
7933,60.546875
7934,56.640625
7935,58.593750
7936,56.640625
7937,54.687500
7938,54.687500
7939,50.781250
7940,52.734375
7941,50.781250
7942,48.828125
7943,46.875000
7944,46.875000
7945,44.921875
7946,42.968750
7947,42.968750
7948,41.015625
7949,39.062500
7950,37.109375
7951,37.109375
7952,35.156250
7953,33.203125
7954,31.250000
7955,29.296875
7956,27.343750
7957,25.390625
7958,23.437500
7959,21.484375
7960,21.484375
7961,19.531250
7962,17.578125
7963,15.625000
7964,13.671875
7965,11.718750
7966,9.765625
7967,7.812500
7968,1.953125
7969,3.906250
7970,1.953125
7971,0.000000
7972,-1.953125
7973,-3.906250
7974,-5.859375
7975,-7.812500
7976,-9.765625
7977,-11.718750
7978,-13.671875
7979,-15.625000
7980,-17.578125
7981,-19.531250
7982,-21.484375
7983,-23.437500
7984,-25.390625
7985,-27.343750
7986,-29.296875
7987,-31.250000
7988,-33.203125
7989,-35.156250
7990,-37.109375
7991,-39.062500
7992,-41.015625
7993,-42.968750
7994,-44.921875
7995,-46.875000
7996,-48.828125
7997,-50.781250
7998,-52.734375
7999,-52.734375
8000,-56.640625
8001,-56.640625
8002,-58.593750
8003,-60.546875
8004,-62.500000
8005,-64.453125
8006,-66.406250
8007,-66.406250
8008,-68.359375
8009,-70.312500
8010,-72.265625
8011,-72.265625
8012,-74.218750
8013,-76.171875
8014,-78.125000
8015,-78.125000
8016,-80.078125
8017,-80.078125
8018,-82.031250
8019,-82.031250
8020,-83.984375
8021,-85.937500
8022,-85.937500
8023,-87.890625
8024,-87.890625
8025,-89.843750
8026,-89.843750
8027,-91.796875
8028,-91.796875
8029,-91.796875
8030,-93.750000
8031,-93.750000
8032,-93.750000
8033,-95.703125
8034,-95.703125
8035,-95.703125
8036,-95.703125
8037,-97.656250
8038,-97.656250
8039,-97.656250
8040,-97.656250
8041,-97.656250
8042,-97.656250
8043,-97.656250
8044,-97.656250
8045,-97.656250
8046,-97.656250
8047,-97.656250
8048,-97.656250
8049,-97.656250
8050,-97.656250
8051,-97.656250
8052,-97.656250
8053,-95.703125
8054,-95.703125
8055,-95.703125
8056,-95.703125
8057,-93.750000
8058,-93.750000
8059,-93.750000
8060,-91.796875
8061,-91.796875
8062,-91.796875
8063,-89.843750
8064,-89.843750
8065,-87.890625
8066,-85.937500
8067,-85.937500
8068,-85.937500
8069,-83.984375
8070,-83.984375
8071,-82.031250
8072,-80.078125
8073,-78.125000
8074,-76.171875
8075,-76.171875
8076,-76.171875
8077,-74.218750
8078,-72.265625
8079,-72.265625
8080,-70.312500
8081,-68.359375
8082,-66.406250
8083,-64.453125
8084,-62.500000
8085,-62.500000
8086,-60.546875
8087,-58.593750
8088,-56.640625
8089,-54.687500
8090,-52.734375
8091,-50.781250
8092,-50.781250
8093,-48.828125
8094,-46.875000
8095,-44.921875
8096,-42.968750
8097,-41.015625
8098,-39.062500
8099,-37.109375
8100,-35.156250
8101,-33.203125
8102,-31.250000
8103,-29.296875
8104,-27.343750
8105,-25.390625
8106,-23.437500
8107,-21.484375
8108,-19.531250
8109,-17.578125
8110,-15.625000
8111,-13.671875
8112,-11.718750
8113,-9.765625
8114,-7.812500
8115,-5.859375
8116,-3.906250
8117,-1.953125
8118,0.000000
8119,1.953125
8120,5.859375
8121,5.859375
8122,7.812500
8123,9.765625
8124,9.765625
8125,11.718750
8126,15.625000
8127,15.625000
8128,17.578125
8129,21.484375
8130,21.484375
8131,23.437500
8132,25.390625
8133,27.343750
8134,29.296875
8135,31.250000
8136,33.203125
8137,35.156250
8138,35.156250
8139,37.109375
8140,39.062500
8141,41.015625
8142,41.015625
8143,42.968750
8144,44.921875
8145,46.875000
8146,46.875000
8147,48.828125
8148,50.781250
8149,50.781250
8150,52.734375
8151,52.734375
8152,54.687500
8153,56.640625
8154,56.640625
8155,58.593750
8156,60.546875
8157,60.546875
8158,62.500000
8159,62.500000
8160,64.453125
8161,64.453125
8162,66.406250
8163,66.406250
8164,66.406250
8165,68.359375
8166,68.359375
8167,68.359375
8168,70.312500
8169,70.312500
8170,72.265625
8171,72.265625
8172,70.312500
8173,72.265625
8174,72.265625
8175,74.218750
8176,74.218750
8177,74.218750
8178,74.218750
8179,74.218750
8180,74.218750
8181,76.171875
8182,76.171875
8183,76.171875
8184,76.171875
8185,76.171875
8186,76.171875
8187,76.171875
8188,76.171875
8189,76.171875
8190,76.171875
8191,76.171875
8192,74.218750
8193,74.218750
8194,76.171875
8195,74.218750
8196,74.218750
8197,74.218750
8198,74.218750
8199,72.265625
8200,72.265625
8201,72.265625
8202,70.312500
8203,70.312500
8204,70.312500
8205,68.359375
8206,68.359375
8207,68.359375
8208,68.359375
8209,66.406250
8210,64.453125
8211,64.453125
8212,62.500000
8213,62.500000
8214,62.500000
8215,60.546875
8216,58.593750
8217,58.593750
8218,56.640625
8219,56.640625
8220,54.687500
8221,52.734375
8222,52.734375
8223,50.781250
8224,48.828125
8225,48.828125
8226,46.875000
8227,44.921875
8228,42.968750
8229,42.968750
8230,41.015625
8231,39.062500
8232,37.109375
8233,35.156250
8234,35.156250
8235,33.203125
8236,31.250000
8237,29.296875
8238,27.343750
8239,25.390625
8240,23.437500
8241,23.437500
8242,21.484375
8243,19.531250
8244,17.578125
8245,15.625000
8246,13.671875
8247,11.718750
8248,9.765625
8249,7.812500
8250,5.859375
8251,3.906250
8252,1.953125
8253,0.000000
8254,-1.953125
8255,-3.906250
8256,-5.859375
8257,-7.812500
8258,-9.765625
8259,-11.718750
8260,-13.671875
8261,-13.671875
8262,-17.578125
8263,-19.531250
8264,-21.484375
8265,-23.437500
8266,-25.390625
8267,-27.343750
8268,-29.296875
8269,-31.250000
8270,-33.203125
8271,-35.156250
8272,-37.109375
8273,-37.109375
8274,-41.015625
8275,-42.968750
8276,-42.968750
8277,-44.921875
8278,-46.875000
8279,-48.828125
8280,-50.781250
8281,-52.734375
8282,-54.687500
8283,-56.640625
8284,-58.593750
8285,-58.593750
8286,-62.500000
8287,-62.500000
8288,-64.453125
8289,-66.406250
8290,-68.359375
8291,-68.359375
8292,-70.312500
8293,-72.265625
8294,-74.218750
8295,-76.171875
8296,-76.171875
8297,-78.125000
8298,-78.125000
8299,-80.078125
8300,-82.031250
8301,-83.984375
8302,-83.984375
8303,-85.937500
8304,-85.937500
8305,-87.890625
8306,-87.890625
8307,-89.843750
8308,-89.843750
8309,-89.843750
8310,-91.796875
8311,-91.796875
8312,-93.750000
8313,-93.750000
8314,-93.750000
8315,-93.750000
8316,-95.703125
8317,-95.703125
8318,-95.703125
8319,-95.703125
8320,-97.656250
8321,-97.656250
8322,-97.656250
8323,-97.656250
8324,-97.656250
8325,-97.656250
8326,-97.656250
8327,-97.656250
8328,-97.656250
8329,-97.656250
8330,-97.656250
8331,-97.656250
8332,-97.656250
8333,-97.656250
8334,-95.703125
8335,-95.703125
8336,-95.703125
8337,-95.703125
8338,-95.703125
8339,-95.703125
8340,-93.750000
8341,-91.796875
8342,-91.796875
8343,-91.796875
8344,-91.796875
8345,-89.843750
8346,-89.843750
8347,-87.890625
8348,-87.890625
8349,-85.937500
8350,-85.937500
8351,-83.984375
8352,-82.031250
8353,-82.031250
8354,-80.078125
8355,-80.078125
8356,-78.125000
8357,-76.171875
8358,-76.171875
8359,-74.218750
8360,-74.218750
8361,-72.265625
8362,-70.312500
8363,-68.359375
8364,-68.359375
8365,-66.406250
8366,-64.453125
8367,-62.500000
8368,-60.546875
8369,-58.593750
8370,-58.593750
8371,-56.640625
8372,-54.687500
8373,-52.734375
8374,-50.781250
8375,-48.828125
8376,-46.875000
8377,-44.921875
8378,-42.968750
8379,-41.015625
8380,-41.015625
8381,-37.109375
8382,-35.156250
8383,-33.203125
8384,-33.203125
8385,-29.296875
8386,-27.343750
8387,-27.343750
8388,-23.437500
8389,-23.437500
8390,-21.484375
8391,-17.578125
8392,-15.625000
8393,-13.671875
8394,-11.718750
8395,-9.765625
8396,-9.765625
8397,-5.859375
8398,-3.906250
8399,-1.953125
8400,-1.953125
8401,1.953125
8402,3.906250
8403,5.859375
8404,5.859375
8405,9.765625
8406,9.765625
8407,11.718750
8408,13.671875
8409,15.625000
8410,17.578125
8411,19.531250
8412,21.484375
8413,23.437500
8414,25.390625
8415,27.343750
8416,29.296875
8417,29.296875
8418,31.250000
8419,33.203125
8420,35.156250
8421,37.109375
8422,37.109375
8423,39.062500
8424,41.015625
8425,42.968750
8426,44.921875
8427,44.921875
8428,46.875000
8429,48.828125
8430,48.828125
8431,50.781250
8432,52.734375
8433,54.687500
8434,54.687500
8435,56.640625
8436,56.640625
8437,58.593750
8438,60.546875
8439,60.546875
8440,60.546875
8441,62.500000
8442,62.500000
8443,64.453125
8444,64.453125
8445,66.406250
8446,66.406250
8447,66.406250
8448,68.359375
8449,70.312500
8450,70.312500
8451,70.312500
8452,70.312500
8453,72.265625
8454,72.265625
8455,72.265625
8456,74.218750
8457,74.218750
8458,74.218750
8459,74.218750
8460,74.218750
8461,74.218750
8462,76.171875
8463,76.171875
8464,76.171875
8465,76.171875
8466,76.171875
8467,76.171875
8468,76.171875
8469,76.171875
8470,76.171875
8471,76.171875
8472,76.171875
8473,76.171875
8474,76.171875
8475,76.171875
8476,74.218750
8477,74.218750
8478,74.218750
8479,74.218750
8480,74.218750
8481,72.265625
8482,72.265625
8483,72.265625
8484,72.265625
8485,70.312500
8486,70.312500
8487,68.359375
8488,68.359375
8489,68.359375
8490,66.406250
8491,66.406250
8492,64.453125
8493,64.453125
8494,64.453125
8495,62.500000
8496,62.500000
8497,60.546875
8498,60.546875
8499,58.593750
8500,56.640625
8501,56.640625
8502,54.687500
8503,54.687500
8504,52.734375
8505,50.781250
8506,48.828125
8507,48.828125
8508,46.875000
8509,46.875000
8510,44.921875
8511,42.968750
8512,41.015625
8513,41.015625
8514,39.062500
8515,37.109375
8516,35.156250
8517,33.203125
8518,33.203125
8519,31.250000
8520,29.296875
8521,27.343750
8522,25.390625
8523,23.437500
8524,21.484375
8525,19.531250
8526,17.578125
8527,15.625000
8528,13.671875
8529,13.671875
8530,11.718750
8531,9.765625
8532,5.859375
8533,3.906250
8534,1.953125
8535,1.953125
8536,0.000000
8537,-1.953125
8538,-3.906250
8539,-7.812500
8540,-7.812500
8541,-9.765625
8542,-13.671875
8543,-15.625000
8544,-15.625000
8545,-19.531250
8546,-21.484375
8547,-21.484375
8548,-23.437500
8549,-25.390625
8550,-29.296875
8551,-31.250000
8552,-33.203125
8553,-33.203125
8554,-37.109375
8555,-37.109375
8556,-39.062500
8557,-41.015625
8558,-42.968750
8559,-44.921875
8560,-46.875000
8561,-50.781250
8562,-50.781250
8563,-52.734375
8564,-54.687500
8565,-56.640625
8566,-58.593750
8567,-58.593750
8568,-60.546875
8569,-62.500000
8570,-64.453125
8571,-66.406250
8572,-66.406250
8573,-70.312500
8574,-70.312500
8575,-72.265625
8576,-74.218750
8577,-74.218750
8578,-76.171875
8579,-78.125000
8580,-78.125000
8581,-80.078125
8582,-80.078125
8583,-82.031250
8584,-83.984375
8585,-83.984375
8586,-85.937500
8587,-85.937500
8588,-87.890625
8589,-87.890625
8590,-89.843750
8591,-89.843750
8592,-91.796875
8593,-91.796875
8594,-91.796875
8595,-93.750000
8596,-93.750000
8597,-93.750000
8598,-93.750000
8599,-95.703125
8600,-95.703125
8601,-95.703125
8602,-97.656250
8603,-97.656250
8604,-97.656250
8605,-97.656250
8606,-97.656250
8607,-97.656250
8608,-97.656250
8609,-97.656250
8610,-97.656250
8611,-97.656250
8612,-97.656250
8613,-97.656250
8614,-97.656250
8615,-97.656250
8616,-97.656250
8617,-95.703125
8618,-95.703125
8619,-95.703125
8620,-95.703125
8621,-95.703125
8622,-93.750000
8623,-93.750000
8624,-91.796875
8625,-91.796875
8626,-91.796875
8627,-89.843750
8628,-89.843750
8629,-87.890625
8630,-87.890625
8631,-85.937500
8632,-85.937500
8633,-83.984375
8634,-83.984375
8635,-83.984375
8636,-82.031250
8637,-80.078125
8638,-78.125000
8639,-78.125000
8640,-76.171875
8641,-74.218750
8642,-74.218750
8643,-72.265625
8644,-70.312500
8645,-68.359375
8646,-68.359375
8647,-66.406250
8648,-64.453125
8649,-62.500000
8650,-60.546875
8651,-58.593750
8652,-58.593750
8653,-56.640625
8654,-54.687500
8655,-52.734375
8656,-50.781250
8657,-48.828125
8658,-46.875000
8659,-44.921875
8660,-42.968750
8661,-41.015625
8662,-41.015625
8663,-39.062500
8664,-35.156250
8665,-35.156250
8666,-33.203125
8667,-31.250000
8668,-29.296875
8669,-27.343750
8670,-25.390625
8671,-23.437500
8672,-21.484375
8673,-19.531250
8674,-17.578125
8675,-15.625000
8676,-13.671875
8677,-11.718750
8678,-9.765625
8679,-7.812500
8680,-5.859375
8681,-3.906250
8682,-1.953125
8683,0.000000
8684,1.953125
8685,3.906250
8686,5.859375
8687,7.812500
8688,9.765625
8689,11.718750
8690,13.671875
8691,15.625000
8692,17.578125
8693,19.531250
8694,21.484375
8695,23.437500
8696,23.437500
8697,25.390625
8698,27.343750
8699,29.296875
8700,31.250000
8701,33.203125
8702,33.203125
8703,37.109375
8704,37.109375
8705,39.062500
8706,41.015625
8707,41.015625
8708,42.968750
8709,44.921875
8710,46.875000
8711,46.875000
8712,48.828125
8713,50.781250
8714,50.781250
8715,52.734375
8716,54.687500
8717,54.687500
8718,56.640625
8719,58.593750
8720,60.546875
8721,60.546875
8722,60.546875
8723,62.500000
8724,62.500000
8725,64.453125
8726,64.453125
8727,66.406250
8728,68.359375
8729,68.359375
8730,68.359375
8731,68.359375
8732,70.312500
8733,70.312500
8734,70.312500
8735,72.265625
8736,72.265625
8737,74.218750
8738,72.265625
8739,74.218750
8740,74.218750
8741,74.218750
8742,74.218750
8743,74.218750
8744,76.171875
8745,76.171875
8746,76.171875
8747,76.171875
8748,76.171875
8749,76.171875
8750,76.171875
8751,76.171875
8752,76.171875
8753,76.171875
8754,76.171875
8755,74.218750
8756,76.171875
8757,76.171875
8758,74.218750
8759,74.218750
8760,74.218750
8761,74.218750
8762,72.265625
8763,72.265625
8764,72.265625
8765,72.265625
8766,72.265625
8767,70.312500
8768,70.312500
8769,70.312500
8770,68.359375
8771,68.359375
8772,66.406250
8773,66.406250
8774,66.406250
8775,64.453125
8776,64.453125
8777,62.500000
8778,60.546875
8779,60.546875
8780,60.546875
8781,58.593750
8782,58.593750
8783,56.640625
8784,54.687500
8785,54.687500
8786,52.734375
8787,50.781250
8788,50.781250
8789,48.828125
8790,48.828125
8791,46.875000
8792,44.921875
8793,42.968750
8794,41.015625
8795,41.015625
8796,39.062500
8797,37.109375
8798,35.156250
8799,33.203125
8800,33.203125
8801,29.296875
8802,29.296875
8803,27.343750
8804,25.390625
8805,23.437500
8806,21.484375
8807,21.484375
8808,17.578125
8809,15.625000
8810,15.625000
8811,13.671875
8812,11.718750
8813,9.765625
8814,7.812500
8815,5.859375
8816,3.906250
8817,1.953125
8818,0.000000
8819,-1.953125
8820,-3.906250
8821,-5.859375
8822,-7.812500
8823,-9.765625
8824,-11.718750
8825,-13.671875
8826,-15.625000
8827,-17.578125
8828,-19.531250
8829,-21.484375
8830,-25.390625
8831,-25.390625
8832,-27.343750
8833,-29.296875
8834,-31.250000
8835,-33.203125
8836,-35.156250
8837,-37.109375
8838,-39.062500
8839,-41.015625
8840,-42.968750
8841,-44.921875
8842,-46.875000
8843,-48.828125
8844,-50.781250
8845,-50.781250
8846,-52.734375
8847,-54.687500
8848,-56.640625
8849,-58.593750
8850,-60.546875
8851,-62.500000
8852,-64.453125
8853,-66.406250
8854,-66.406250
8855,-68.359375
8856,-70.312500
8857,-72.265625
8858,-72.265625
8859,-74.218750
8860,-76.171875
8861,-78.125000
8862,-78.125000
8863,-80.078125
8864,-80.078125
8865,-82.031250
8866,-82.031250
8867,-83.984375
8868,-85.937500
8869,-85.937500
8870,-85.937500
8871,-87.890625
8872,-89.843750
8873,-89.843750
8874,-89.843750
8875,-91.796875
8876,-91.796875
8877,-93.750000
8878,-93.750000
8879,-93.750000
8880,-95.703125
8881,-95.703125
8882,-95.703125
8883,-95.703125
8884,-95.703125
8885,-97.656250
8886,-97.656250
8887,-97.656250
8888,-97.656250
8889,-97.656250
8890,-97.656250
8891,-99.609375
8892,-97.656250
8893,-97.656250
8894,-97.656250
8895,-97.656250
8896,-97.656250
8897,-97.656250
8898,-95.703125
8899,-97.656250
8900,-95.703125
8901,-95.703125
8902,-95.703125
8903,-93.750000
8904,-93.750000
8905,-93.750000
8906,-91.796875
8907,-89.843750
8908,-91.796875
8909,-89.843750
8910,-89.843750
8911,-89.843750
8912,-87.890625
8913,-85.937500
8914,-85.937500
8915,-85.937500
8916,-83.984375
8917,-82.031250
8918,-82.031250
8919,-80.078125
8920,-80.078125
8921,-78.125000
8922,-76.171875
8923,-76.171875
8924,-74.218750
8925,-72.265625
8926,-70.312500
8927,-70.312500
8928,-68.359375
8929,-66.406250
8930,-66.406250
8931,-62.500000
8932,-62.500000
8933,-60.546875
8934,-58.593750
8935,-56.640625
8936,-54.687500
8937,-54.687500
8938,-52.734375
8939,-50.781250
8940,-48.828125
8941,-46.875000
8942,-44.921875
8943,-42.968750
8944,-41.015625
8945,-39.062500
8946,-37.109375
8947,-35.156250
8948,-33.203125
8949,-31.250000
8950,-29.296875
8951,-27.343750
8952,-25.390625
8953,-23.437500
8954,-21.484375
8955,-19.531250
8956,-17.578125
8957,-15.625000
8958,-13.671875
8959,-13.671875
8960,-9.765625
8961,-7.812500
8962,-5.859375
8963,-3.906250
8964,-1.953125
8965,0.000000
8966,1.953125
8967,3.906250
8968,5.859375
8969,7.812500
8970,9.765625
8971,11.718750
8972,11.718750
8973,15.625000
8974,17.578125
8975,19.531250
8976,19.531250
8977,21.484375
8978,23.437500
8979,25.390625
8980,27.343750
8981,29.296875
8982,31.250000
8983,33.203125
8984,33.203125
8985,35.156250
8986,37.109375
8987,39.062500
8988,41.015625
8989,41.015625
8990,42.968750
8991,44.921875
8992,46.875000
8993,46.875000
8994,48.828125
8995,50.781250
8996,50.781250
8997,52.734375
8998,54.687500
8999,54.687500
9000,56.640625
9001,58.593750
9002,58.593750
9003,58.593750
9004,60.546875
9005,62.500000
9006,62.500000
9007,64.453125
9008,64.453125
9009,66.406250
9010,66.406250
9011,66.406250
9012,68.359375
9013,68.359375
9014,68.359375
9015,70.312500
9016,70.312500
9017,72.265625
9018,72.265625
9019,72.265625
9020,72.265625
9021,74.218750
9022,74.218750
9023,74.218750
9024,74.218750
9025,74.218750
9026,76.171875
9027,76.171875
9028,74.218750
9029,76.171875
9030,76.171875
9031,76.171875
9032,76.171875
9033,76.171875
9034,76.171875
9035,76.171875
9036,76.171875
9037,76.171875
9038,76.171875
9039,76.171875
9040,76.171875
9041,74.218750
9042,74.218750
9043,74.218750
9044,74.218750
9045,74.218750
9046,72.265625
9047,72.265625
9048,72.265625
9049,72.265625
9050,70.312500
9051,70.312500
9052,70.312500
9053,68.359375
9054,68.359375
9055,66.406250
9056,66.406250
9057,66.406250
9058,64.453125
9059,62.500000
9060,62.500000
9061,62.500000
9062,60.546875
9063,60.546875
9064,58.593750
9065,56.640625
9066,54.687500
9067,54.687500
9068,52.734375
9069,52.734375
9070,50.781250
9071,48.828125
9072,48.828125
9073,46.875000
9074,44.921875
9075,44.921875
9076,42.968750
9077,41.015625
9078,39.062500
9079,37.109375
9080,37.109375
9081,35.156250
9082,33.203125
9083,31.250000
9084,29.296875
9085,27.343750
9086,25.390625
9087,23.437500
9088,21.484375
9089,21.484375
9090,19.531250
9091,17.578125
9092,15.625000
9093,13.671875
9094,11.718750
9095,9.765625
9096,7.812500
9097,5.859375
9098,3.906250
9099,1.953125
9100,0.000000
9101,-1.953125
9102,-3.906250
9103,-5.859375
9104,-7.812500
9105,-9.765625
9106,-11.718750
9107,-13.671875
9108,-13.671875
9109,-17.578125
9110,-19.531250
9111,-21.484375
9112,-23.437500
9113,-25.390625
9114,-27.343750
9115,-29.296875
9116,-31.250000
9117,-33.203125
9118,-35.156250
9119,-37.109375
9120,-39.062500
9121,-41.015625
9122,-41.015625
9123,-44.921875
9124,-44.921875
9125,-46.875000
9126,-48.828125
9127,-50.781250
9128,-52.734375
9129,-54.687500
9130,-56.640625
9131,-58.593750
9132,-58.593750
9133,-62.500000
9134,-62.500000
9135,-64.453125
9136,-66.406250
9137,-68.359375
9138,-68.359375
9139,-70.312500
9140,-74.218750
9141,-74.218750
9142,-74.218750
9143,-76.171875
9144,-78.125000
9145,-80.078125
9146,-80.078125
9147,-82.031250
9148,-83.984375
9149,-83.984375
9150,-83.984375
9151,-85.937500
9152,-87.890625
9153,-87.890625
9154,-87.890625
9155,-89.843750
9156,-91.796875
9157,-91.796875
9158,-91.796875
9159,-91.796875
9160,-93.750000
9161,-93.750000
9162,-93.750000
9163,-95.703125
9164,-95.703125
9165,-95.703125
9166,-97.656250
9167,-97.656250
9168,-97.656250
9169,-97.656250
9170,-97.656250
9171,-97.656250
9172,-97.656250
9173,-97.656250
9174,-97.656250
9175,-97.656250
9176,-97.656250
9177,-97.656250
9178,-97.656250
9179,-97.656250
9180,-97.656250
9181,-95.703125
9182,-95.703125
9183,-95.703125
9184,-95.703125
9185,-95.703125
9186,-93.750000
9187,-93.750000
9188,-93.750000
9189,-91.796875
9190,-91.796875
9191,-91.796875
9192,-89.843750
9193,-89.843750
9194,-87.890625
9195,-87.890625
9196,-85.937500
9197,-85.937500
9198,-83.984375
9199,-83.984375
9200,-82.031250
9201,-80.078125
9202,-80.078125
9203,-80.078125
9204,-76.171875
9205,-76.171875
9206,-74.218750
9207,-74.218750
9208,-72.265625
9209,-70.312500
9210,-68.359375
9211,-68.359375
9212,-66.406250
9213,-64.453125
9214,-62.500000
9215,-60.546875
9216,-58.593750
9217,-58.593750
9218,-54.687500
9219,-54.687500
9220,-52.734375
9221,-50.781250
9222,-48.828125
9223,-46.875000
9224,-44.921875
9225,-42.968750
9226,-41.015625
9227,-39.062500
9228,-37.109375
9229,-35.156250
9230,-33.203125
9231,-31.250000
9232,-29.296875
9233,-27.343750
9234,-25.390625
9235,-23.437500
9236,-21.484375
9237,-19.531250
9238,-17.578125
9239,-15.625000
9240,-13.671875
9241,-13.671875
9242,-9.765625
9243,-7.812500
9244,-7.812500
9245,-3.906250
9246,-1.953125
9247,0.000000
9248,1.953125
9249,3.906250
9250,5.859375
9251,7.812500
9252,9.765625
9253,9.765625
9254,11.718750
9255,13.671875
9256,15.625000
9257,17.578125
9258,19.531250
9259,21.484375
9260,23.437500
9261,25.390625
9262,25.390625
9263,29.296875
9264,31.250000
9265,31.250000
9266,33.203125
9267,35.156250
9268,37.109375
9269,37.109375
9270,41.015625
9271,41.015625
9272,42.968750
9273,44.921875
9274,44.921875
9275,46.875000
9276,48.828125
9277,48.828125
9278,50.781250
9279,52.734375
9280,52.734375
9281,54.687500
9282,56.640625
9283,56.640625
9284,58.593750
9285,58.593750
9286,60.546875
9287,62.500000
9288,62.500000
9289,62.500000
9290,64.453125
9291,66.406250
9292,66.406250
9293,66.406250
9294,68.359375
9295,68.359375
9296,70.312500
9297,70.312500
9298,70.312500
9299,70.312500
9300,72.265625
9301,72.265625
9302,72.265625
9303,72.265625
9304,74.218750
9305,74.218750
9306,74.218750
9307,76.171875
9308,76.171875
9309,76.171875
9310,76.171875
9311,76.171875
9312,76.171875
9313,76.171875
9314,76.171875
9315,76.171875
9316,76.171875
9317,76.171875
9318,76.171875
9319,76.171875
9320,76.171875
9321,76.171875
9322,74.218750
9323,74.218750
9324,74.218750
9325,74.218750
9326,74.218750
9327,72.265625
9328,74.218750
9329,72.265625
9330,72.265625
9331,70.312500
9332,70.312500
9333,70.312500
9334,70.312500
9335,68.359375
9336,68.359375
9337,66.406250
9338,66.406250
9339,64.453125
9340,64.453125
9341,62.500000
9342,62.500000
9343,60.546875
9344,60.546875
9345,60.546875
9346,58.593750
9347,56.640625
9348,56.640625
9349,54.687500
9350,52.734375
9351,52.734375
9352,52.734375
9353,48.828125
9354,48.828125
9355,46.875000
9356,46.875000
9357,44.921875
9358,42.968750
9359,41.015625
9360,41.015625
9361,39.062500
9362,37.109375
9363,35.156250
9364,33.203125
9365,31.250000
9366,31.250000
9367,29.296875
9368,27.343750
9369,25.390625
9370,23.437500
9371,21.484375
9372,19.531250
9373,17.578125
9374,17.578125
9375,13.671875
9376,13.671875
9377,9.765625
9378,9.765625
9379,7.812500
9380,5.859375
9381,1.953125
9382,1.953125
9383,0.000000
9384,-1.953125
9385,-5.859375
9386,-5.859375
9387,-7.812500
9388,-11.718750
9389,-13.671875
9390,-13.671875
9391,-15.625000
9392,-17.578125
9393,-19.531250
9394,-21.484375
9395,-23.437500
9396,-25.390625
9397,-27.343750
9398,-29.296875
9399,-33.203125
9400,-35.156250
9401,-37.109375
9402,-37.109375
9403,-41.015625
9404,-41.015625
9405,-42.968750
9406,-44.921875
9407,-46.875000
9408,-48.828125
9409,-50.781250
9410,-52.734375
9411,-54.687500
9412,-56.640625
9413,-58.593750
9414,-58.593750
9415,-60.546875
9416,-62.500000
9417,-64.453125
9418,-66.406250
9419,-68.359375
9420,-70.312500
9421,-70.312500
9422,-72.265625
9423,-74.218750
9424,-74.218750
9425,-76.171875
9426,-78.125000
9427,-78.125000
9428,-80.078125
9429,-80.078125
9430,-82.031250
9431,-83.984375
9432,-83.984375
9433,-85.937500
9434,-85.937500
9435,-87.890625
9436,-87.890625
9437,-89.843750
9438,-89.843750
9439,-91.796875
9440,-91.796875
9441,-91.796875
9442,-93.750000
9443,-93.750000
9444,-93.750000
9445,-95.703125
9446,-95.703125
9447,-95.703125
9448,-95.703125
9449,-95.703125
9450,-97.656250
9451,-97.656250
9452,-97.656250
9453,-97.656250
9454,-97.656250
9455,-97.656250
9456,-97.656250
9457,-97.656250
9458,-97.656250
9459,-97.656250
9460,-97.656250
9461,-97.656250
9462,-97.656250
9463,-97.656250
9464,-95.703125
9465,-95.703125
9466,-95.703125
9467,-95.703125
9468,-95.703125
9469,-93.750000
9470,-93.750000
9471,-91.796875
9472,-91.796875
9473,-91.796875
9474,-89.843750
9475,-89.843750
9476,-89.843750
9477,-87.890625
9478,-85.937500
9479,-85.937500
9480,-83.984375
9481,-83.984375
9482,-82.031250
9483,-80.078125
9484,-80.078125
9485,-78.125000
9486,-78.125000
9487,-76.171875
9488,-74.218750
9489,-74.218750
9490,-72.265625
9491,-70.312500
9492,-68.359375
9493,-68.359375
9494,-66.406250
9495,-64.453125
9496,-62.500000
9497,-60.546875
9498,-58.593750
9499,-56.640625
9500,-56.640625
9501,-54.687500
9502,-52.734375
9503,-50.781250
9504,-48.828125
9505,-46.875000
9506,-44.921875
9507,-42.968750
9508,-41.015625
9509,-41.015625
9510,-39.062500
9511,-35.156250
9512,-33.203125
9513,-33.203125
9514,-31.250000
9515,-29.296875
9516,-27.343750
9517,-25.390625
9518,-23.437500
9519,-19.531250
9520,-19.531250
9521,-17.578125
9522,-15.625000
9523,-13.671875
9524,-11.718750
9525,-9.765625
9526,-7.812500
9527,-5.859375
9528,-3.906250
9529,-1.953125
9530,0.000000
9531,1.953125
9532,3.906250
9533,5.859375
9534,7.812500
9535,9.765625
9536,11.718750
9537,13.671875
9538,15.625000
9539,17.578125
9540,19.531250
9541,19.531250
9542,23.437500
9543,25.390625
9544,25.390625
9545,27.343750
9546,29.296875
9547,31.250000
9548,33.203125
9549,35.156250
9550,37.109375
9551,37.109375
9552,39.062500
9553,41.015625
9554,42.968750
9555,42.968750
9556,44.921875
9557,46.875000
9558,48.828125
9559,48.828125
9560,50.781250
9561,52.734375
9562,54.687500
9563,54.687500
9564,54.687500
9565,56.640625
9566,58.593750
9567,58.593750
9568,60.546875
9569,60.546875
9570,62.500000
9571,62.500000
9572,64.453125
9573,64.453125
9574,66.406250
9575,66.406250
9576,68.359375
9577,68.359375
9578,70.312500
9579,70.312500
9580,70.312500
9581,72.265625
9582,72.265625
9583,72.265625
9584,72.265625
9585,72.265625
9586,74.218750
9587,74.218750
9588,74.218750
9589,74.218750
9590,76.171875
9591,74.218750
9592,76.171875
9593,76.171875
9594,76.171875
9595,76.171875
9596,76.171875
9597,76.171875
9598,76.171875
9599,76.171875
9600,76.171875
9601,76.171875
9602,76.171875
9603,76.171875
9604,74.218750
9605,74.218750
9606,74.218750
9607,74.218750
9608,74.218750
9609,74.218750
9610,74.218750
9611,72.265625
9612,72.265625
9613,70.312500
9614,70.312500
9615,70.312500
9616,70.312500
9617,68.359375
9618,68.359375
9619,68.359375
9620,66.406250
9621,66.406250
9622,64.453125
9623,64.453125
9624,62.500000
9625,62.500000
9626,60.546875
9627,60.546875
9628,58.593750
9629,58.593750
9630,56.640625
9631,56.640625
9632,54.687500
9633,52.734375
9634,52.734375
9635,50.781250
9636,48.828125
9637,48.828125
9638,46.875000
9639,44.921875
9640,42.968750
9641,42.968750
9642,41.015625
9643,39.062500
9644,37.109375
9645,35.156250
9646,35.156250
9647,33.203125
9648,31.250000
9649,29.296875
9650,27.343750
9651,25.390625
9652,23.437500
9653,23.437500
9654,21.484375
9655,19.531250
9656,15.625000
9657,15.625000
9658,13.671875
9659,11.718750
9660,9.765625
9661,7.812500
9662,5.859375
9663,3.906250
9664,1.953125
9665,0.000000
9666,-1.953125
9667,-3.906250
9668,-5.859375
9669,-7.812500
9670,-9.765625
9671,-11.718750
9672,-13.671875
9673,-15.625000
9674,-17.578125
9675,-19.531250
9676,-21.484375
9677,-23.437500
9678,-25.390625
9679,-27.343750
9680,-29.296875
9681,-31.250000
9682,-33.203125
9683,-35.156250
9684,-37.109375
9685,-37.109375
9686,-41.015625
9687,-42.968750
9688,-44.921875
9689,-46.875000
9690,-46.875000
9691,-50.781250
9692,-50.781250
9693,-54.687500
9694,-54.687500
9695,-56.640625
9696,-58.593750
9697,-60.546875
9698,-62.500000
9699,-62.500000
9700,-64.453125
9701,-66.406250
9702,-68.359375
9703,-70.312500
9704,-70.312500
9705,-74.218750
9706,-74.218750
9707,-76.171875
9708,-76.171875
9709,-78.125000
9710,-80.078125
9711,-80.078125
9712,-82.031250
9713,-83.984375
9714,-83.984375
9715,-85.937500
9716,-85.937500
9717,-87.890625
9718,-87.890625
9719,-89.843750
9720,-89.843750
9721,-91.796875
9722,-91.796875
9723,-93.750000
9724,-93.750000
9725,-93.750000
9726,-93.750000
9727,-93.750000
9728,-95.703125
9729,-95.703125
9730,-95.703125
9731,-97.656250
9732,-97.656250
9733,-97.656250
9734,-97.656250
9735,-97.656250
9736,-97.656250
9737,-97.656250
9738,-97.656250
9739,-97.656250
9740,-97.656250
9741,-97.656250
9742,-97.656250
9743,-97.656250
9744,-97.656250
9745,-97.656250
9746,-95.703125
9747,-95.703125
9748,-95.703125
9749,-95.703125
9750,-93.750000
9751,-93.750000
9752,-93.750000
9753,-91.796875
9754,-91.796875
9755,-91.796875
9756,-91.796875
9757,-89.843750
9758,-87.890625
9759,-87.890625
9760,-87.890625
9761,-85.937500
9762,-85.937500
9763,-83.984375
9764,-82.031250
9765,-82.031250
9766,-80.078125
9767,-78.125000
9768,-76.171875
9769,-76.171875
9770,-76.171875
9771,-74.218750
9772,-72.265625
9773,-70.312500
9774,-70.312500
9775,-68.359375
9776,-66.406250
9777,-64.453125
9778,-64.453125
9779,-62.500000
9780,-60.546875
9781,-58.593750
9782,-56.640625
9783,-54.687500
9784,-52.734375
9785,-50.781250
9786,-48.828125
9787,-48.828125
9788,-46.875000
9789,-44.921875
9790,-42.968750
9791,-41.015625
9792,-39.062500
9793,-37.109375
9794,-35.156250
9795,-33.203125
9796,-31.250000
9797,-29.296875
9798,-27.343750
9799,-25.390625
9800,-23.437500
9801,-21.484375
9802,-19.531250
9803,-17.578125
9804,-15.625000
9805,-13.671875
9806,-11.718750
9807,-9.765625
9808,-7.812500
9809,-5.859375
9810,-3.906250
9811,-1.953125
9812,0.000000
9813,1.953125
9814,3.906250
9815,5.859375
9816,7.812500
9817,9.765625
9818,11.718750
9819,13.671875
9820,15.625000
9821,17.578125
9822,19.531250
9823,19.531250
9824,21.484375
9825,23.437500
9826,27.343750
9827,27.343750
9828,29.296875
9829,31.250000
9830,33.203125
9831,35.156250
9832,35.156250
9833,37.109375
9834,39.062500
9835,41.015625
9836,41.015625
9837,42.968750
9838,42.968750
9839,46.875000
9840,46.875000
9841,48.828125
9842,50.781250
9843,50.781250
9844,52.734375
9845,54.687500
9846,54.687500
9847,56.640625
9848,56.640625
9849,58.593750
9850,60.546875
9851,60.546875
9852,60.546875
9853,62.500000
9854,64.453125
9855,64.453125
9856,66.406250
9857,66.406250
9858,66.406250
9859,68.359375
9860,70.312500
9861,70.312500
9862,70.312500
9863,70.312500
9864,72.265625
9865,72.265625
9866,72.265625
9867,72.265625
9868,74.218750
9869,74.218750
9870,74.218750
9871,74.218750
9872,76.171875
9873,74.218750
9874,76.171875
9875,76.171875
9876,76.171875
9877,76.171875
9878,76.171875
9879,76.171875
9880,76.171875
9881,76.171875
9882,76.171875
9883,76.171875
9884,76.171875
9885,76.171875
9886,76.171875
9887,76.171875
9888,74.218750
9889,74.218750
9890,74.218750
9891,74.218750
9892,74.218750
9893,72.265625
9894,72.265625
9895,72.265625
9896,72.265625
9897,70.312500
9898,70.312500
9899,70.312500
9900,68.359375
9901,68.359375
9902,66.406250
9903,66.406250
9904,64.453125
9905,64.453125
9906,62.500000
9907,62.500000
9908,60.546875
9909,60.546875
9910,58.593750
9911,58.593750
9912,56.640625
9913,56.640625
9914,54.687500
9915,52.734375
9916,52.734375
9917,50.781250
9918,48.828125
9919,48.828125
9920,46.875000
9921,44.921875
9922,42.968750
9923,41.015625
9924,39.062500
9925,39.062500
9926,37.109375
9927,35.156250
9928,35.156250
9929,33.203125
9930,31.250000
9931,29.296875
9932,27.343750
9933,27.343750
9934,25.390625
9935,21.484375
9936,21.484375
9937,19.531250
9938,17.578125
9939,15.625000
9940,13.671875
9941,11.718750
9942,9.765625
9943,7.812500
9944,5.859375
9945,3.906250
9946,3.906250
9947,0.000000
9948,-1.953125
9949,-3.906250
9950,-5.859375
9951,-7.812500
9952,-9.765625
9953,-11.718750
9954,-13.671875
9955,-15.625000
9956,-17.578125
9957,-19.531250
9958,-21.484375
9959,-23.437500
9960,-25.390625
9961,-27.343750
9962,-29.296875
9963,-31.250000
9964,-33.203125
9965,-35.156250
9966,-37.109375
9967,-37.109375
9968,-41.015625
9969,-42.968750
9970,-42.968750
9971,-44.921875
9972,-48.828125
9973,-48.828125
9974,-52.734375
9975,-52.734375
9976,-54.687500
9977,-56.640625
9978,-58.593750
9979,-60.546875
9980,-62.500000
9981,-64.453125
9982,-64.453125
9983,-66.406250
9984,-68.359375
9985,-70.312500
9986,-70.312500
9987,-72.265625
9988,-74.218750
9989,-74.218750
9990,-76.171875
9991,-78.125000
9992,-80.078125
9993,-80.078125
9994,-82.031250
9995,-82.031250
9996,-83.984375
9997,-83.984375
9998,-85.937500
9999,-85.937500
10000,-87.890625
