Channel              :,CH1
Frequency            :,1.771kHz
Period               :,0.565ms
PK-PK                :,52.73mV
Probe attenuation    :,1X
Voltage per ADC value:,0.122070mV
Time interval        :,2.00000us

index,CH1_Voltage(mV)
1,17.578125
2,17.578125
3,17.578125
4,17.578125
5,19.531250
6,17.578125
7,17.578125
8,17.578125
9,17.578125
10,17.578125
11,19.531250
12,19.531250
13,17.578125
14,17.578125
15,17.578125
16,17.578125
17,17.578125
18,17.578125
19,17.578125
20,17.578125
21,17.578125
22,17.578125
23,17.578125
24,17.578125
25,17.578125
26,17.578125
27,15.625000
28,17.578125
29,15.625000
30,15.625000
31,15.625000
32,15.625000
33,15.625000
34,13.671875
35,13.671875
36,13.671875
37,13.671875
38,13.671875
39,11.718750
40,11.718750
41,11.718750
42,11.718750
43,11.718750
44,11.718750
45,9.765625
46,9.765625
47,9.765625
48,9.765625
49,9.765625
50,7.812500
51,7.812500
52,5.859375
53,7.812500
54,5.859375
55,5.859375
56,5.859375
57,5.859375
58,3.906250
59,3.906250
60,3.906250
61,3.906250
62,1.953125
63,1.953125
64,1.953125
65,0.000000
66,0.000000
67,0.000000
68,0.000000
69,-1.953125
70,-1.953125
71,-1.953125
72,-3.906250
73,-3.906250
74,-3.906250
75,-3.906250
76,-3.906250
77,-5.859375
78,-5.859375
79,-5.859375
80,-7.812500
81,-7.812500
82,-7.812500
83,-9.765625
84,-9.765625
85,-9.765625
86,-9.765625
87,-11.718750
88,-11.718750
89,-11.718750
90,-11.718750
91,-13.671875
92,-13.671875
93,-13.671875
94,-13.671875
95,-15.625000
96,-15.625000
97,-15.625000
98,-17.578125
99,-17.578125
100,-17.578125
101,-17.578125
102,-19.531250
103,-19.531250
104,-19.531250
105,-19.531250
106,-21.484375
107,-21.484375
108,-21.484375
109,-21.484375
110,-23.437500
111,-23.437500
112,-23.437500
113,-23.437500
114,-25.390625
115,-25.390625
116,-25.390625
117,-25.390625
118,-25.390625
119,-27.343750
120,-27.343750
121,-27.343750
122,-27.343750
123,-27.343750
124,-27.343750
125,-27.343750
126,-29.296875
127,-29.296875
128,-29.296875
129,-29.296875
130,-29.296875
131,-29.296875
132,-29.296875
133,-29.296875
134,-31.250000
135,-31.250000
136,-31.250000
137,-31.250000
138,-31.250000
139,-31.250000
140,-31.250000
141,-31.250000
142,-31.250000
143,-31.250000
144,-31.250000
145,-31.250000
146,-31.250000
147,-31.250000
148,-31.250000
149,-31.250000
150,-33.203125
151,-31.250000
152,-31.250000
153,-31.250000
154,-31.250000
155,-31.250000
156,-31.250000
157,-31.250000
158,-31.250000
159,-31.250000
160,-31.250000
161,-31.250000
162,-29.296875
163,-29.296875
164,-29.296875
165,-29.296875
166,-29.296875
167,-29.296875
168,-29.296875
169,-29.296875
170,-27.343750
171,-27.343750
172,-27.343750
173,-27.343750
174,-27.343750
175,-27.343750
176,-27.343750
177,-25.390625
178,-25.390625
179,-25.390625
180,-25.390625
181,-25.390625
182,-25.390625
183,-23.437500
184,-23.437500
185,-23.437500
186,-23.437500
187,-23.437500
188,-21.484375
189,-21.484375
190,-21.484375
191,-21.484375
192,-19.531250
193,-19.531250
194,-19.531250
195,-19.531250
196,-17.578125
197,-17.578125
198,-17.578125
199,-17.578125
200,-15.625000
201,-15.625000
202,-15.625000
203,-15.625000
204,-13.671875
205,-13.671875
206,-13.671875
207,-11.718750
208,-11.718750
209,-11.718750
210,-11.718750
211,-9.765625
212,-9.765625
213,-9.765625
214,-7.812500
215,-7.812500
216,-7.812500
217,-7.812500
218,-5.859375
219,-5.859375
220,-5.859375
221,-5.859375
222,-3.906250
223,-3.906250
224,-3.906250
225,-1.953125
226,-1.953125
227,-1.953125
228,0.000000
229,0.000000
230,0.000000
231,0.000000
232,1.953125
233,1.953125
234,1.953125
235,1.953125
236,3.906250
237,3.906250
238,3.906250
239,3.906250
240,5.859375
241,5.859375
242,5.859375
243,7.812500
244,7.812500
245,7.812500
246,7.812500
247,7.812500
248,9.765625
249,9.765625
250,9.765625
251,9.765625
252,11.718750
253,11.718750
254,11.718750
255,11.718750
256,11.718750
257,11.718750
258,13.671875
259,13.671875
260,13.671875
261,13.671875
262,15.625000
263,13.671875
264,13.671875
265,15.625000
266,15.625000
267,15.625000
268,15.625000
269,15.625000
270,15.625000
271,17.578125
272,15.625000
273,17.578125
274,17.578125
275,17.578125
276,17.578125
277,17.578125
278,17.578125
279,17.578125
280,17.578125
281,17.578125
282,17.578125
283,17.578125
284,17.578125
285,17.578125
286,19.531250
287,19.531250
288,17.578125
289,19.531250
290,19.531250
291,19.531250
292,19.531250
293,19.531250
294,19.531250
295,17.578125
296,17.578125
297,17.578125
298,17.578125
299,17.578125
300,17.578125
301,17.578125
302,17.578125
303,17.578125
304,17.578125
305,17.578125
306,17.578125
307,17.578125
308,17.578125
309,15.625000
310,15.625000
311,15.625000
312,15.625000
313,15.625000
314,15.625000
315,15.625000
316,13.671875
317,13.671875
318,13.671875
319,13.671875
320,13.671875
321,11.718750
322,13.671875
323,11.718750
324,11.718750
325,11.718750
326,9.765625
327,11.718750
328,9.765625
329,9.765625
330,9.765625
331,7.812500
332,7.812500
333,7.812500
334,5.859375
335,7.812500
336,7.812500
337,5.859375
338,5.859375
339,5.859375
340,3.906250
341,3.906250
342,3.906250
343,3.906250
344,1.953125
345,1.953125
346,1.953125
347,1.953125
348,0.000000
349,0.000000
350,0.000000
351,0.000000
352,-1.953125
353,-1.953125
354,-1.953125
355,-3.906250
356,-3.906250
357,-3.906250
358,-3.906250
359,-5.859375
360,-5.859375
361,-5.859375
362,-7.812500
363,-7.812500
364,-7.812500
365,-7.812500
366,-9.765625
367,-9.765625
368,-11.718750
369,-9.765625
370,-11.718750
371,-11.718750
372,-11.718750
373,-13.671875
374,-13.671875
375,-13.671875
376,-13.671875
377,-15.625000
378,-15.625000
379,-15.625000
380,-17.578125
381,-17.578125
382,-17.578125
383,-17.578125
384,-19.531250
385,-19.531250
386,-19.531250
387,-21.484375
388,-21.484375
389,-21.484375
390,-21.484375
391,-23.437500
392,-21.484375
393,-23.437500
394,-23.437500
395,-25.390625
396,-25.390625
397,-23.437500
398,-25.390625
399,-25.390625
400,-27.343750
401,-27.343750
402,-27.343750
403,-27.343750
404,-27.343750
405,-27.343750
406,-27.343750
407,-29.296875
408,-29.296875
409,-27.343750
410,-29.296875
411,-29.296875
412,-29.296875
413,-29.296875
414,-29.296875
415,-29.296875
416,-31.250000
417,-31.250000
418,-31.250000
419,-31.250000
420,-31.250000
421,-31.250000
422,-31.250000
423,-31.250000
424,-31.250000
425,-31.250000
426,-31.250000
427,-33.203125
428,-31.250000
429,-31.250000
430,-31.250000
431,-31.250000
432,-31.250000
433,-31.250000
434,-31.250000
435,-31.250000
436,-31.250000
437,-31.250000
438,-31.250000
439,-31.250000
440,-31.250000
441,-31.250000
442,-31.250000
443,-31.250000
444,-31.250000
445,-31.250000
446,-29.296875
447,-29.296875
448,-29.296875
449,-29.296875
450,-29.296875
451,-29.296875
452,-29.296875
453,-29.296875
454,-29.296875
455,-27.343750
456,-27.343750
457,-27.343750
458,-27.343750
459,-27.343750
460,-25.390625
461,-25.390625
462,-25.390625
463,-25.390625
464,-25.390625
465,-23.437500
466,-23.437500
467,-23.437500
468,-23.437500
469,-23.437500
470,-21.484375
471,-21.484375
472,-21.484375
473,-21.484375
474,-21.484375
475,-19.531250
476,-19.531250
477,-17.578125
478,-17.578125
479,-17.578125
480,-17.578125
481,-17.578125
482,-15.625000
483,-15.625000
484,-15.625000
485,-13.671875
486,-13.671875
487,-13.671875
488,-13.671875
489,-13.671875
490,-11.718750
491,-11.718750
492,-9.765625
493,-9.765625
494,-9.765625
495,-9.765625
496,-7.812500
497,-7.812500
498,-7.812500
499,-7.812500
500,-5.859375
501,-5.859375
502,-5.859375
503,-5.859375
504,-3.906250
505,-3.906250
506,-3.906250
507,-1.953125
508,-1.953125
509,-1.953125
510,0.000000
511,0.000000
512,0.000000
513,0.000000
514,0.000000
515,1.953125
516,1.953125
517,1.953125
518,3.906250
519,3.906250
520,3.906250
521,3.906250
522,3.906250
523,5.859375
524,5.859375
525,5.859375
526,5.859375
527,7.812500
528,7.812500
529,7.812500
530,7.812500
531,7.812500
532,9.765625
533,9.765625
534,9.765625
535,11.718750
536,11.718750
537,11.718750
538,11.718750
539,11.718750
540,13.671875
541,13.671875
542,13.671875
543,13.671875
544,13.671875
545,13.671875
546,15.625000
547,15.625000
548,15.625000
549,15.625000
550,15.625000
551,15.625000
552,15.625000
553,15.625000
554,17.578125
555,17.578125
556,17.578125
557,17.578125
558,17.578125
559,17.578125
560,17.578125
561,17.578125
562,17.578125
563,17.578125
564,17.578125
565,17.578125
566,17.578125
567,17.578125
568,17.578125
569,17.578125
570,19.531250
571,17.578125
572,17.578125
573,17.578125
574,17.578125
575,19.531250
576,17.578125
577,19.531250
578,19.531250
579,17.578125
580,17.578125
581,17.578125
582,17.578125
583,17.578125
584,17.578125
585,17.578125
586,17.578125
587,17.578125
588,17.578125
589,15.625000
590,17.578125
591,15.625000
592,15.625000
593,15.625000
594,15.625000
595,15.625000
596,15.625000
597,13.671875
598,13.671875
599,13.671875
600,13.671875
601,13.671875
602,13.671875
603,13.671875
604,11.718750
605,11.718750
606,11.718750
607,11.718750
608,11.718750
609,11.718750
610,9.765625
611,9.765625
612,9.765625
613,7.812500
614,7.812500
615,7.812500
616,7.812500
617,7.812500
618,7.812500
619,5.859375
620,5.859375
621,5.859375
622,3.906250
623,3.906250
624,3.906250
625,3.906250
626,1.953125
627,1.953125
628,1.953125
629,1.953125
630,0.000000
631,0.000000
632,0.000000
633,-1.953125
634,-1.953125
635,-1.953125
636,-1.953125
637,-3.906250
638,-3.906250
639,-3.906250
640,-3.906250
641,-5.859375
642,-5.859375
643,-5.859375
644,-5.859375
645,-7.812500
646,-7.812500
647,-7.812500
648,-9.765625
649,-9.765625
650,-11.718750
651,-11.718750
652,-11.718750
653,-11.718750
654,-13.671875
655,-13.671875
656,-13.671875
657,-15.625000
658,-13.671875
659,-15.625000
660,-15.625000
661,-15.625000
662,-17.578125
663,-17.578125
664,-17.578125
665,-19.531250
666,-19.531250
667,-19.531250
668,-19.531250
669,-19.531250
670,-21.484375
671,-21.484375
672,-21.484375
673,-21.484375
674,-23.437500
675,-23.437500
676,-23.437500
677,-23.437500
678,-25.390625
679,-23.437500
680,-25.390625
681,-25.390625
682,-25.390625
683,-25.390625
684,-25.390625
685,-27.343750
686,-27.343750
687,-27.343750
688,-27.343750
689,-27.343750
690,-27.343750
691,-29.296875
692,-29.296875
693,-29.296875
694,-29.296875
695,-29.296875
696,-29.296875
697,-29.296875
698,-29.296875
699,-31.250000
700,-29.296875
701,-31.250000
702,-31.250000
703,-31.250000
704,-31.250000
705,-31.250000
706,-31.250000
707,-31.250000
708,-31.250000
709,-31.250000
710,-31.250000
711,-31.250000
712,-31.250000
713,-31.250000
714,-31.250000
715,-31.250000
716,-31.250000
717,-31.250000
718,-31.250000
719,-31.250000
720,-33.203125
721,-31.250000
722,-31.250000
723,-31.250000
724,-31.250000
725,-31.250000
726,-29.296875
727,-31.250000
728,-29.296875
729,-29.296875
730,-29.296875
731,-29.296875
732,-29.296875
733,-29.296875
734,-29.296875
735,-29.296875
736,-27.343750
737,-27.343750
738,-27.343750
739,-27.343750
740,-27.343750
741,-25.390625
742,-25.390625
743,-25.390625
744,-25.390625
745,-25.390625
746,-25.390625
747,-23.437500
748,-23.437500
749,-23.437500
750,-23.437500
751,-23.437500
752,-21.484375
753,-21.484375
754,-21.484375
755,-21.484375
756,-19.531250
757,-19.531250
758,-19.531250
759,-19.531250
760,-19.531250
761,-17.578125
762,-17.578125
763,-17.578125
764,-15.625000
765,-15.625000
766,-15.625000
767,-15.625000
768,-13.671875
769,-13.671875
770,-13.671875
771,-13.671875
772,-9.765625
773,-11.718750
774,-11.718750
775,-11.718750
776,-9.765625
777,-9.765625
778,-9.765625
779,-7.812500
780,-7.812500
781,-7.812500
782,-7.812500
783,-7.812500
784,-5.859375
785,-5.859375
786,-3.906250
787,-3.906250
788,-3.906250
789,-3.906250
790,-1.953125
791,-1.953125
792,-1.953125
793,0.000000
794,-1.953125
795,0.000000
796,1.953125
797,1.953125
798,1.953125
799,1.953125
800,3.906250
801,3.906250
802,3.906250
803,3.906250
804,5.859375
805,5.859375
806,5.859375
807,5.859375
808,7.812500
809,7.812500
810,7.812500
811,7.812500
812,9.765625
813,7.812500
814,9.765625
815,9.765625
816,11.718750
817,9.765625
818,11.718750
819,11.718750
820,11.718750
821,11.718750
822,11.718750
823,13.671875
824,13.671875
825,13.671875
826,13.671875
827,13.671875
828,13.671875
829,15.625000
830,15.625000
831,15.625000
832,15.625000
833,15.625000
834,15.625000
835,15.625000
836,15.625000
837,15.625000
838,17.578125
839,17.578125
840,17.578125
841,17.578125
842,17.578125
843,17.578125
844,17.578125
845,17.578125
846,17.578125
847,17.578125
848,17.578125
849,17.578125
850,17.578125
851,17.578125
852,17.578125
853,17.578125
854,19.531250
855,19.531250
856,17.578125
857,17.578125
858,17.578125
859,19.531250
860,17.578125
861,17.578125
862,17.578125
863,19.531250
864,17.578125
865,17.578125
866,17.578125
867,17.578125
868,17.578125
869,17.578125
870,17.578125
871,17.578125
872,17.578125
873,15.625000
874,15.625000
875,15.625000
876,15.625000
877,15.625000
878,15.625000
879,15.625000
880,15.625000
881,15.625000
882,13.671875
883,13.671875
884,13.671875
885,13.671875
886,11.718750
887,13.671875
888,11.718750
889,11.718750
890,11.718750
891,11.718750
892,9.765625
893,9.765625
894,9.765625
895,7.812500
896,7.812500
897,7.812500
898,7.812500
899,5.859375
900,5.859375
901,5.859375
902,5.859375
903,5.859375
904,5.859375
905,3.906250
906,3.906250
907,3.906250
908,3.906250
909,1.953125
910,1.953125
911,0.000000
912,1.953125
913,0.000000
914,0.000000
915,0.000000
916,-1.953125
917,-1.953125
918,-1.953125
919,-1.953125
920,-3.906250
921,-3.906250
922,-3.906250
923,-5.859375
924,-5.859375
925,-5.859375
926,-5.859375
927,-7.812500
928,-7.812500
929,-7.812500
930,-9.765625
931,-7.812500
932,-9.765625
933,-11.718750
934,-11.718750
935,-11.718750
936,-11.718750
937,-13.671875
938,-13.671875
939,-13.671875
940,-13.671875
941,-15.625000
942,-15.625000
943,-15.625000
944,-15.625000
945,-17.578125
946,-17.578125
947,-19.531250
948,-19.531250
949,-19.531250
950,-19.531250
951,-19.531250
952,-21.484375
953,-21.484375
954,-21.484375
955,-21.484375
956,-21.484375
957,-21.484375
958,-23.437500
959,-23.437500
960,-23.437500
961,-23.437500
962,-23.437500
963,-25.390625
964,-25.390625
965,-27.343750
966,-25.390625
967,-27.343750
968,-27.343750
969,-27.343750
970,-27.343750
971,-27.343750
972,-29.296875
973,-29.296875
974,-29.296875
975,-29.296875
976,-29.296875
977,-29.296875
978,-29.296875
979,-31.250000
980,-31.250000
981,-29.296875
982,-31.250000
983,-31.250000
984,-31.250000
985,-31.250000
986,-31.250000
987,-31.250000
988,-31.250000
989,-31.250000
990,-31.250000
991,-31.250000
992,-31.250000
993,-31.250000
994,-31.250000
995,-31.250000
996,-31.250000
997,-31.250000
998,-31.250000
999,-31.250000
1000,-31.250000
1001,-31.250000
1002,-31.250000
1003,-31.250000
1004,-31.250000
1005,-31.250000
1006,-31.250000
1007,-31.250000
1008,-31.250000
1009,-31.250000
1010,-29.296875
1011,-29.296875
1012,-29.296875
1013,-29.296875
1014,-29.296875
1015,-29.296875
1016,-29.296875
1017,-29.296875
1018,-27.343750
1019,-27.343750
1020,-29.296875
1021,-27.343750
1022,-27.343750
1023,-27.343750
1024,-25.390625
1025,-25.390625
1026,-25.390625
1027,-25.390625
1028,-25.390625
1029,-25.390625
1030,-25.390625
1031,-23.437500
1032,-23.437500
1033,-23.437500
1034,-23.437500
1035,-21.484375
1036,-21.484375
1037,-21.484375
1038,-19.531250
1039,-19.531250
1040,-19.531250
1041,-19.531250
1042,-19.531250
1043,-19.531250
1044,-17.578125
1045,-17.578125
1046,-17.578125
1047,-15.625000
1048,-15.625000
1049,-15.625000
1050,-13.671875
1051,-13.671875
1052,-13.671875
1053,-13.671875
1054,-11.718750
1055,-11.718750
1056,-11.718750
1057,-11.718750
1058,-9.765625
1059,-9.765625
1060,-7.812500
1061,-7.812500
1062,-7.812500
1063,-7.812500
1064,-5.859375
1065,-5.859375
1066,-5.859375
1067,-5.859375
1068,-3.906250
1069,-3.906250
1070,-3.906250
1071,-1.953125
1072,-1.953125
1073,-1.953125
1074,-1.953125
1075,0.000000
1076,0.000000
1077,0.000000
1078,1.953125
1079,1.953125
1080,1.953125
1081,1.953125
1082,1.953125
1083,3.906250
1084,3.906250
1085,3.906250
1086,3.906250
1087,5.859375
1088,5.859375
1089,7.812500
1090,5.859375
1091,7.812500
1092,7.812500
1093,7.812500
1094,9.765625
1095,7.812500
1096,9.765625
1097,9.765625
1098,9.765625
1099,9.765625
1100,11.718750
1101,11.718750
1102,11.718750
1103,11.718750
1104,11.718750
1105,13.671875
1106,11.718750
1107,13.671875
1108,13.671875
1109,13.671875
1110,13.671875
1111,13.671875
1112,15.625000
1113,15.625000
1114,15.625000
1115,15.625000
1116,15.625000
1117,15.625000
1118,15.625000
1119,15.625000
1120,17.578125
1121,17.578125
1122,17.578125
1123,17.578125
1124,17.578125
1125,17.578125
1126,17.578125
1127,17.578125
1128,17.578125
1129,17.578125
1130,17.578125
1131,17.578125
1132,19.531250
1133,17.578125
1134,19.531250
1135,19.531250
1136,19.531250
1137,17.578125
1138,19.531250
1139,19.531250
1140,19.531250
1141,17.578125
1142,19.531250
1143,17.578125
1144,19.531250
1145,17.578125
1146,17.578125
1147,17.578125
1148,17.578125
1149,17.578125
1150,17.578125
1151,17.578125
1152,17.578125
1153,15.625000
1154,15.625000
1155,15.625000
1156,17.578125
1157,15.625000
1158,15.625000
1159,15.625000
1160,15.625000
1161,17.578125
1162,15.625000
1163,13.671875
1164,13.671875
1165,13.671875
1166,13.671875
1167,13.671875
1168,13.671875
1169,11.718750
1170,11.718750
1171,11.718750
1172,11.718750
1173,11.718750
1174,9.765625
1175,9.765625
1176,9.765625
1177,9.765625
1178,7.812500
1179,7.812500
1180,9.765625
1181,7.812500
1182,5.859375
1183,7.812500
1184,5.859375
1185,5.859375
1186,5.859375
1187,3.906250
1188,3.906250
1189,3.906250
1190,3.906250
1191,1.953125
1192,1.953125
1193,1.953125
1194,1.953125
1195,0.000000
1196,0.000000
1197,0.000000
1198,0.000000
1199,-1.953125
1200,-1.953125
1201,-1.953125
1202,-1.953125
1203,-3.906250
1204,-3.906250
1205,-5.859375
1206,-5.859375
1207,-5.859375
1208,-5.859375
1209,-5.859375
1210,-7.812500
1211,-7.812500
1212,-7.812500
1213,-9.765625
1214,-9.765625
1215,-11.718750
1216,-9.765625
1217,-11.718750
1218,-11.718750
1219,-11.718750
1220,-13.671875
1221,-13.671875
1222,-13.671875
1223,-15.625000
1224,-15.625000
1225,-15.625000
1226,-17.578125
1227,-17.578125
1228,-17.578125
1229,-17.578125
1230,-19.531250
1231,-19.531250
1232,-19.531250
1233,-19.531250
1234,-19.531250
1235,-21.484375
1236,-21.484375
1237,-21.484375
1238,-21.484375
1239,-23.437500
1240,-23.437500
1241,-23.437500
1242,-23.437500
1243,-25.390625
1244,-25.390625
1245,-23.437500
1246,-25.390625
1247,-25.390625
1248,-25.390625
1249,-27.343750
1250,-27.343750
1251,-27.343750
1252,-27.343750
1253,-27.343750
1254,-27.343750
1255,-27.343750
1256,-29.296875
1257,-29.296875
1258,-29.296875
1259,-29.296875
1260,-29.296875
1261,-29.296875
1262,-29.296875
1263,-29.296875
1264,-29.296875
1265,-31.250000
1266,-31.250000
1267,-31.250000
1268,-31.250000
1269,-31.250000
1270,-31.250000
1271,-31.250000
1272,-31.250000
1273,-31.250000
1274,-31.250000
1275,-31.250000
1276,-31.250000
1277,-31.250000
1278,-31.250000
1279,-31.250000
1280,-31.250000
1281,-31.250000
1282,-31.250000
1283,-31.250000
1284,-31.250000
1285,-31.250000
1286,-31.250000
1287,-31.250000
1288,-31.250000
1289,-31.250000
1290,-31.250000
1291,-29.296875
1292,-29.296875
1293,-29.296875
1294,-29.296875
1295,-29.296875
1296,-29.296875
1297,-29.296875
1298,-29.296875
1299,-29.296875
1300,-29.296875
1301,-27.343750
1302,-27.343750
1303,-27.343750
1304,-27.343750
1305,-27.343750
1306,-27.343750
1307,-27.343750
1308,-25.390625
1309,-25.390625
1310,-25.390625
1311,-25.390625
1312,-23.437500
1313,-23.437500
1314,-23.437500
1315,-23.437500
1316,-21.484375
1317,-21.484375
1318,-21.484375
1319,-21.484375
1320,-21.484375
1321,-19.531250
1322,-19.531250
1323,-19.531250
1324,-17.578125
1325,-19.531250
1326,-17.578125
1327,-17.578125
1328,-15.625000
1329,-17.578125
1330,-15.625000
1331,-15.625000
1332,-13.671875
1333,-13.671875
1334,-13.671875
1335,-13.671875
1336,-11.718750
1337,-11.718750
1338,-11.718750
1339,-11.718750
1340,-9.765625
1341,-9.765625
1342,-9.765625
1343,-9.765625
1344,-7.812500
1345,-7.812500
1346,-7.812500
1347,-7.812500
1348,-5.859375
1349,-5.859375
1350,-5.859375
1351,-3.906250
1352,-3.906250
1353,-3.906250
1354,-1.953125
1355,-1.953125
1356,-1.953125
1357,-1.953125
1358,0.000000
1359,0.000000
1360,0.000000
1361,0.000000
1362,1.953125
1363,1.953125
1364,1.953125
1365,3.906250
1366,3.906250
1367,3.906250
1368,3.906250
1369,5.859375
1370,5.859375
1371,5.859375
1372,5.859375
1373,7.812500
1374,7.812500
1375,7.812500
1376,7.812500
1377,9.765625
1378,9.765625
1379,7.812500
1380,9.765625
1381,9.765625
1382,11.718750
1383,11.718750
1384,11.718750
1385,11.718750
1386,11.718750
1387,11.718750
1388,13.671875
1389,13.671875
1390,13.671875
1391,13.671875
1392,15.625000
1393,15.625000
1394,15.625000
1395,15.625000
1396,15.625000
1397,15.625000
1398,15.625000
1399,15.625000
1400,15.625000
1401,17.578125
1402,17.578125
1403,17.578125
1404,17.578125
1405,17.578125
1406,17.578125
1407,17.578125
1408,17.578125
1409,17.578125
1410,17.578125
1411,17.578125
1412,17.578125
1413,17.578125
1414,17.578125
1415,19.531250
1416,19.531250
1417,17.578125
1418,17.578125
1419,17.578125
1420,17.578125
1421,17.578125
1422,19.531250
1423,19.531250
1424,17.578125
1425,17.578125
1426,17.578125
1427,17.578125
1428,17.578125
1429,17.578125
1430,17.578125
1431,17.578125
1432,17.578125
1433,17.578125
1434,17.578125
1435,17.578125
1436,17.578125
1437,17.578125
1438,17.578125
1439,15.625000
1440,15.625000
1441,15.625000
1442,15.625000
1443,15.625000
1444,13.671875
1445,15.625000
1446,15.625000
1447,13.671875
1448,13.671875
1449,13.671875
1450,13.671875
1451,13.671875
1452,11.718750
1453,11.718750
1454,11.718750
1455,11.718750
1456,11.718750
1457,9.765625
1458,9.765625
1459,9.765625
1460,9.765625
1461,9.765625
1462,7.812500
1463,7.812500
1464,5.859375
1465,7.812500
1466,5.859375
1467,5.859375
1468,5.859375
1469,5.859375
1470,3.906250
1471,3.906250
1472,3.906250
1473,3.906250
1474,1.953125
1475,1.953125
1476,1.953125
1477,1.953125
1478,0.000000
1479,0.000000
1480,0.000000
1481,-1.953125
1482,-1.953125
1483,-1.953125
1484,-1.953125
1485,-3.906250
1486,-3.906250
1487,-3.906250
1488,-5.859375
1489,-5.859375
1490,-5.859375
1491,-5.859375
1492,-7.812500
1493,-7.812500
1494,-7.812500
1495,-9.765625
1496,-9.765625
1497,-9.765625
1498,-11.718750
1499,-9.765625
1500,-11.718750
1501,-11.718750
1502,-13.671875
1503,-13.671875
1504,-13.671875
1505,-13.671875
1506,-15.625000
1507,-15.625000
1508,-15.625000
1509,-17.578125
1510,-17.578125
1511,-17.578125
1512,-17.578125
1513,-19.531250
1514,-19.531250
1515,-19.531250
1516,-19.531250
1517,-19.531250
1518,-19.531250
1519,-21.484375
1520,-21.484375
1521,-23.437500
1522,-23.437500
1523,-23.437500
1524,-23.437500
1525,-23.437500
1526,-23.437500
1527,-25.390625
1528,-25.390625
1529,-25.390625
1530,-25.390625
1531,-25.390625
1532,-27.343750
1533,-27.343750
1534,-27.343750
1535,-27.343750
1536,-27.343750
1537,-27.343750
1538,-27.343750
1539,-29.296875
1540,-29.296875
1541,-29.296875
1542,-29.296875
1543,-29.296875
1544,-29.296875
1545,-31.250000
1546,-31.250000
1547,-31.250000
1548,-31.250000
1549,-31.250000
1550,-31.250000
1551,-31.250000
1552,-31.250000
1553,-31.250000
1554,-31.250000
1555,-31.250000
1556,-31.250000
1557,-31.250000
1558,-31.250000
1559,-31.250000
1560,-31.250000
1561,-31.250000
1562,-33.203125
1563,-31.250000
1564,-31.250000
1565,-31.250000
1566,-31.250000
1567,-31.250000
1568,-31.250000
1569,-31.250000
1570,-31.250000
1571,-31.250000
1572,-31.250000
1573,-31.250000
1574,-31.250000
1575,-29.296875
1576,-29.296875
1577,-29.296875
1578,-29.296875
1579,-29.296875
1580,-29.296875
1581,-29.296875
1582,-27.343750
1583,-27.343750
1584,-27.343750
1585,-27.343750
1586,-27.343750
1587,-27.343750
1588,-25.390625
1589,-27.343750
1590,-25.390625
1591,-25.390625
1592,-25.390625
1593,-25.390625
1594,-23.437500
1595,-23.437500
1596,-23.437500
1597,-23.437500
1598,-23.437500
1599,-23.437500
1600,-21.484375
1601,-21.484375
1602,-21.484375
1603,-19.531250
1604,-19.531250
1605,-19.531250
1606,-19.531250
1607,-17.578125
1608,-17.578125
1609,-17.578125
1610,-17.578125
1611,-17.578125
1612,-15.625000
1613,-15.625000
1614,-13.671875
1615,-13.671875
1616,-13.671875
1617,-13.671875
1618,-13.671875
1619,-13.671875
1620,-11.718750
1621,-11.718750
1622,-11.718750
1623,-9.765625
1624,-9.765625
1625,-9.765625
1626,-7.812500
1627,-7.812500
1628,-7.812500
1629,-5.859375
1630,-5.859375
1631,-5.859375
1632,-3.906250
1633,-5.859375
1634,-3.906250
1635,-1.953125
1636,-1.953125
1637,-1.953125
1638,-1.953125
1639,-1.953125
1640,0.000000
1641,0.000000
1642,0.000000
1643,1.953125
1644,1.953125
1645,1.953125
1646,1.953125
1647,3.906250
1648,3.906250
1649,3.906250
1650,3.906250
1651,5.859375
1652,5.859375
1653,5.859375
1654,5.859375
1655,5.859375
1656,7.812500
1657,7.812500
1658,7.812500
1659,9.765625
1660,9.765625
1661,9.765625
1662,9.765625
1663,9.765625
1664,11.718750
1665,11.718750
1666,11.718750
1667,11.718750
1668,11.718750
1669,13.671875
1670,13.671875
1671,13.671875
1672,13.671875
1673,13.671875
1674,13.671875
1675,15.625000
1676,15.625000
1677,15.625000
1678,15.625000
1679,15.625000
1680,15.625000
1681,15.625000
1682,15.625000
1683,15.625000
1684,17.578125
1685,17.578125
1686,17.578125
1687,17.578125
1688,17.578125
1689,17.578125
1690,17.578125
1691,17.578125
1692,17.578125
1693,17.578125
1694,17.578125
1695,19.531250
1696,19.531250
1697,19.531250
1698,17.578125
1699,17.578125
1700,17.578125
1701,19.531250
1702,19.531250
1703,19.531250
1704,19.531250
1705,17.578125
1706,19.531250
1707,19.531250
1708,19.531250
1709,17.578125
1710,19.531250
1711,17.578125
1712,17.578125
1713,17.578125
1714,17.578125
1715,17.578125
1716,17.578125
1717,17.578125
1718,17.578125
1719,17.578125
1720,17.578125
1721,15.625000
1722,15.625000
1723,15.625000
1724,15.625000
1725,15.625000
1726,15.625000
1727,13.671875
1728,15.625000
1729,13.671875
1730,13.671875
1731,11.718750
1732,13.671875
1733,11.718750
1734,11.718750
1735,11.718750
1736,11.718750
1737,11.718750
1738,11.718750
1739,9.765625
1740,9.765625
1741,9.765625
1742,9.765625
1743,7.812500
1744,7.812500
1745,7.812500
1746,7.812500
1747,7.812500
1748,5.859375
1749,5.859375
1750,5.859375
1751,5.859375
1752,3.906250
1753,3.906250
1754,3.906250
1755,1.953125
1756,1.953125
1757,1.953125
1758,1.953125
1759,0.000000
1760,0.000000
1761,0.000000
1762,0.000000
1763,-1.953125
1764,0.000000
1765,-1.953125
1766,-3.906250
1767,-3.906250
1768,-3.906250
1769,-3.906250
1770,-5.859375
1771,-5.859375
1772,-5.859375
1773,-5.859375
1774,-7.812500
1775,-7.812500
1776,-7.812500
1777,-7.812500
1778,-9.765625
1779,-9.765625
1780,-11.718750
1781,-11.718750
1782,-11.718750
1783,-11.718750
1784,-13.671875
1785,-13.671875
1786,-13.671875
1787,-13.671875
1788,-15.625000
1789,-15.625000
1790,-15.625000
1791,-15.625000
1792,-17.578125
1793,-17.578125
1794,-17.578125
1795,-17.578125
1796,-19.531250
1797,-19.531250
1798,-19.531250
1799,-19.531250
1800,-21.484375
1801,-21.484375
1802,-21.484375
1803,-21.484375
1804,-23.437500
1805,-23.437500
1806,-23.437500
1807,-23.437500
1808,-23.437500
1809,-25.390625
1810,-25.390625
1811,-25.390625
1812,-25.390625
1813,-27.343750
1814,-27.343750
1815,-27.343750
1816,-27.343750
1817,-27.343750
1818,-27.343750
1819,-27.343750
1820,-29.296875
1821,-29.296875
1822,-29.296875
1823,-29.296875
1824,-29.296875
1825,-29.296875
1826,-31.250000
1827,-29.296875
1828,-31.250000
1829,-31.250000
1830,-31.250000
1831,-31.250000
1832,-31.250000
1833,-31.250000
1834,-31.250000
1835,-31.250000
1836,-31.250000
1837,-31.250000
1838,-31.250000
1839,-31.250000
1840,-31.250000
1841,-31.250000
1842,-31.250000
1843,-31.250000
1844,-31.250000
1845,-31.250000
1846,-31.250000
1847,-31.250000
1848,-31.250000
1849,-31.250000
1850,-31.250000
1851,-31.250000
1852,-31.250000
1853,-29.296875
1854,-31.250000
1855,-31.250000
1856,-29.296875
1857,-29.296875
1858,-29.296875
1859,-29.296875
1860,-29.296875
1861,-29.296875
1862,-29.296875
1863,-27.343750
1864,-27.343750
1865,-27.343750
1866,-27.343750
1867,-27.343750
1868,-27.343750
1869,-27.343750
1870,-27.343750
1871,-27.343750
1872,-25.390625
1873,-25.390625
1874,-25.390625
1875,-25.390625
1876,-25.390625
1877,-23.437500
1878,-23.437500
1879,-23.437500
1880,-23.437500
1881,-23.437500
1882,-21.484375
1883,-21.484375
1884,-21.484375
1885,-21.484375
1886,-19.531250
1887,-19.531250
1888,-19.531250
1889,-19.531250
1890,-17.578125
1891,-17.578125
1892,-17.578125
1893,-17.578125
1894,-15.625000
1895,-15.625000
1896,-15.625000
1897,-15.625000
1898,-13.671875
1899,-13.671875
1900,-13.671875
1901,-11.718750
1902,-11.718750
1903,-11.718750
1904,-9.765625
1905,-9.765625
1906,-9.765625
1907,-7.812500
1908,-7.812500
1909,-7.812500
1910,-7.812500
1911,-7.812500
1912,-5.859375
1913,-5.859375
1914,-3.906250
1915,-3.906250
1916,-3.906250
1917,-3.906250
1918,-1.953125
1919,-1.953125
1920,-1.953125
1921,-1.953125
1922,0.000000
1923,0.000000
1924,0.000000
1925,1.953125
1926,0.000000
1927,1.953125
1928,1.953125
1929,1.953125
1930,3.906250
1931,3.906250
1932,3.906250
1933,3.906250
1934,3.906250
1935,5.859375
1936,5.859375
1937,5.859375
1938,7.812500
1939,7.812500
1940,7.812500
1941,7.812500
1942,7.812500
1943,9.765625
1944,9.765625
1945,9.765625
1946,9.765625
1947,9.765625
1948,11.718750
1949,11.718750
1950,11.718750
1951,11.718750
1952,13.671875
1953,13.671875
1954,13.671875
1955,13.671875
1956,13.671875
1957,13.671875
1958,13.671875
1959,15.625000
1960,15.625000
1961,15.625000
1962,15.625000
1963,17.578125
1964,15.625000
1965,15.625000
1966,17.578125
1967,17.578125
1968,17.578125
1969,17.578125
1970,17.578125
1971,17.578125
1972,17.578125
1973,17.578125
1974,17.578125
1975,17.578125
1976,19.531250
1977,19.531250
1978,17.578125
1979,17.578125
1980,17.578125
1981,19.531250
1982,19.531250
1983,17.578125
1984,17.578125
1985,19.531250
1986,19.531250
1987,17.578125
1988,17.578125
1989,19.531250
1990,17.578125
1991,17.578125
1992,17.578125
1993,17.578125
1994,17.578125
1995,17.578125
1996,17.578125
1997,17.578125
1998,17.578125
1999,17.578125
2000,17.578125
2001,15.625000
2002,17.578125
2003,15.625000
2004,15.625000
2005,15.625000
2006,15.625000
2007,15.625000
2008,15.625000
2009,15.625000
2010,13.671875
2011,13.671875
2012,13.671875
2013,13.671875
2014,13.671875
2015,13.671875
2016,13.671875
2017,11.718750
2018,11.718750
2019,11.718750
2020,11.718750
2021,11.718750
2022,9.765625
2023,9.765625
2024,9.765625
2025,9.765625
2026,9.765625
2027,7.812500
2028,7.812500
2029,7.812500
2030,7.812500
2031,5.859375
2032,5.859375
2033,5.859375
2034,5.859375
2035,3.906250
2036,3.906250
2037,3.906250
2038,3.906250
2039,3.906250
2040,1.953125
2041,1.953125
2042,1.953125
2043,0.000000
2044,0.000000
2045,0.000000
2046,-1.953125
2047,-1.953125
2048,-1.953125
2049,-1.953125
2050,-3.906250
2051,-3.906250
2052,-3.906250
2053,-5.859375
2054,-5.859375
2055,-7.812500
2056,-7.812500
2057,-7.812500
2058,-7.812500
2059,-7.812500
2060,-9.765625
2061,-9.765625
2062,-9.765625
2063,-11.718750
2064,-11.718750
2065,-11.718750
2066,-11.718750
2067,-13.671875
2068,-13.671875
2069,-13.671875
2070,-13.671875
2071,-15.625000
2072,-15.625000
2073,-15.625000
2074,-17.578125
2075,-17.578125
2076,-17.578125
2077,-17.578125
2078,-19.531250
2079,-19.531250
2080,-19.531250
2081,-21.484375
2082,-21.484375
2083,-21.484375
2084,-21.484375
2085,-23.437500
2086,-23.437500
2087,-23.437500
2088,-23.437500
2089,-23.437500
2090,-25.390625
2091,-27.343750
2092,-25.390625
2093,-25.390625
2094,-27.343750
2095,-25.390625
2096,-25.390625
2097,-27.343750
2098,-27.343750
2099,-27.343750
2100,-27.343750
2101,-27.343750
2102,-27.343750
2103,-29.296875
2104,-27.343750
2105,-29.296875
2106,-29.296875
2107,-29.296875
2108,-29.296875
2109,-31.250000
2110,-29.296875
2111,-31.250000
2112,-31.250000
2113,-31.250000
2114,-31.250000
2115,-31.250000
2116,-31.250000
2117,-31.250000
2118,-31.250000
2119,-31.250000
2120,-31.250000
2121,-31.250000
2122,-33.203125
2123,-31.250000
2124,-31.250000
2125,-33.203125
2126,-31.250000
2127,-31.250000
2128,-31.250000
2129,-31.250000
2130,-31.250000
2131,-31.250000
2132,-31.250000
2133,-31.250000
2134,-31.250000
2135,-31.250000
2136,-31.250000
2137,-31.250000
2138,-31.250000
2139,-31.250000
2140,-31.250000
2141,-29.296875
2142,-29.296875
2143,-29.296875
2144,-29.296875
2145,-29.296875
2146,-29.296875
2147,-29.296875
2148,-27.343750
2149,-27.343750
2150,-27.343750
2151,-27.343750
2152,-27.343750
2153,-27.343750
2154,-25.390625
2155,-25.390625
2156,-25.390625
2157,-25.390625
2158,-25.390625
2159,-23.437500
2160,-23.437500
2161,-23.437500
2162,-21.484375
2163,-23.437500
2164,-21.484375
2165,-21.484375
2166,-21.484375
2167,-21.484375
2168,-21.484375
2169,-19.531250
2170,-19.531250
2171,-19.531250
2172,-17.578125
2173,-17.578125
2174,-17.578125
2175,-17.578125
2176,-15.625000
2177,-15.625000
2178,-15.625000
2179,-15.625000
2180,-13.671875
2181,-13.671875
2182,-13.671875
2183,-13.671875
2184,-11.718750
2185,-11.718750
2186,-11.718750
2187,-11.718750
2188,-9.765625
2189,-9.765625
2190,-7.812500
2191,-7.812500
2192,-7.812500
2193,-5.859375
2194,-5.859375
2195,-5.859375
2196,-5.859375
2197,-5.859375
2198,-3.906250
2199,-3.906250
2200,-1.953125
2201,-1.953125
2202,-1.953125
2203,-1.953125
2204,-1.953125
2205,0.000000
2206,0.000000
2207,0.000000
2208,0.000000
2209,1.953125
2210,1.953125
2211,1.953125
2212,3.906250
2213,3.906250
2214,3.906250
2215,3.906250
2216,5.859375
2217,5.859375
2218,5.859375
2219,5.859375
2220,7.812500
2221,7.812500
2222,7.812500
2223,7.812500
2224,7.812500
2225,9.765625
2226,9.765625
2227,9.765625
2228,9.765625
2229,11.718750
2230,11.718750
2231,11.718750
2232,11.718750
2233,13.671875
2234,13.671875
2235,13.671875
2236,13.671875
2237,13.671875
2238,13.671875
2239,13.671875
2240,13.671875
2241,15.625000
2242,15.625000
2243,15.625000
2244,15.625000
2245,15.625000
2246,15.625000
2247,15.625000
2248,17.578125
2249,17.578125
2250,17.578125
2251,17.578125
2252,17.578125
2253,17.578125
2254,17.578125
2255,17.578125
2256,17.578125
2257,17.578125
2258,19.531250
2259,17.578125
2260,17.578125
2261,17.578125
2262,17.578125
2263,17.578125
2264,17.578125
2265,19.531250
2266,19.531250
2267,17.578125
2268,17.578125
2269,17.578125
2270,17.578125
2271,17.578125
2272,17.578125
2273,17.578125
2274,17.578125
2275,17.578125
2276,17.578125
2277,17.578125
2278,17.578125
2279,17.578125
2280,17.578125
2281,17.578125
2282,17.578125
2283,17.578125
2284,17.578125
2285,15.625000
2286,15.625000
2287,15.625000
2288,15.625000
2289,15.625000
2290,15.625000
2291,15.625000
2292,15.625000
2293,17.578125
2294,13.671875
2295,13.671875
2296,13.671875
2297,11.718750
2298,13.671875
2299,11.718750
2300,11.718750
2301,11.718750
2302,9.765625
2303,11.718750
2304,11.718750
2305,9.765625
2306,9.765625
2307,9.765625
2308,7.812500
2309,7.812500
2310,7.812500
2311,7.812500
2312,5.859375
2313,5.859375
2314,5.859375
2315,5.859375
2316,5.859375
2317,3.906250
2318,3.906250
2319,3.906250
2320,1.953125
2321,1.953125
2322,1.953125
2323,1.953125
2324,0.000000
2325,0.000000
2326,0.000000
2327,-1.953125
2328,-1.953125
2329,-1.953125
2330,-1.953125
2331,-3.906250
2332,-3.906250
2333,-3.906250
2334,-3.906250
2335,-5.859375
2336,-5.859375
2337,-5.859375
2338,-7.812500
2339,-7.812500
2340,-7.812500
2341,-7.812500
2342,-9.765625
2343,-9.765625
2344,-9.765625
2345,-9.765625
2346,-11.718750
2347,-11.718750
2348,-13.671875
2349,-13.671875
2350,-13.671875
2351,-13.671875
2352,-15.625000
2353,-15.625000
2354,-15.625000
2355,-17.578125
2356,-17.578125
2357,-17.578125
2358,-17.578125
2359,-17.578125
2360,-17.578125
2361,-19.531250
2362,-19.531250
2363,-19.531250
2364,-21.484375
2365,-21.484375
2366,-21.484375
2367,-21.484375
2368,-21.484375
2369,-23.437500
2370,-23.437500
2371,-23.437500
2372,-25.390625
2373,-25.390625
2374,-25.390625
2375,-25.390625
2376,-25.390625
2377,-27.343750
2378,-27.343750
2379,-27.343750
2380,-27.343750
2381,-27.343750
2382,-27.343750
2383,-27.343750
2384,-27.343750
2385,-29.296875
2386,-29.296875
2387,-29.296875
2388,-29.296875
2389,-29.296875
2390,-31.250000
2391,-31.250000
2392,-31.250000
2393,-31.250000
2394,-31.250000
2395,-31.250000
2396,-31.250000
2397,-31.250000
2398,-31.250000
2399,-31.250000
2400,-31.250000
2401,-31.250000
2402,-31.250000
2403,-31.250000
2404,-31.250000
2405,-31.250000
2406,-31.250000
2407,-33.203125
2408,-31.250000
2409,-31.250000
2410,-31.250000
2411,-31.250000
2412,-31.250000
2413,-33.203125
2414,-31.250000
2415,-31.250000
2416,-31.250000
2417,-31.250000
2418,-31.250000
2419,-31.250000
2420,-31.250000
2421,-31.250000
2422,-29.296875
2423,-29.296875
2424,-29.296875
2425,-29.296875
2426,-29.296875
2427,-29.296875
2428,-29.296875
2429,-29.296875
2430,-27.343750
2431,-27.343750
2432,-27.343750
2433,-27.343750
2434,-27.343750
2435,-25.390625
2436,-25.390625
2437,-25.390625
2438,-25.390625
2439,-25.390625
2440,-23.437500
2441,-23.437500
2442,-23.437500
2443,-23.437500
2444,-25.390625
2445,-21.484375
2446,-21.484375
2447,-21.484375
2448,-19.531250
2449,-21.484375
2450,-21.484375
2451,-17.578125
2452,-19.531250
2453,-19.531250
2454,-19.531250
2455,-17.578125
2456,-17.578125
2457,-17.578125
2458,-15.625000
2459,-15.625000
2460,-15.625000
2461,-13.671875
2462,-15.625000
2463,-13.671875
2464,-13.671875
2465,-11.718750
2466,-11.718750
2467,-11.718750
2468,-11.718750
2469,-9.765625
2470,-9.765625
2471,-7.812500
2472,-9.765625
2473,-7.812500
2474,-7.812500
2475,-7.812500
2476,-5.859375
2477,-5.859375
2478,-5.859375
2479,-5.859375
2480,-3.906250
2481,-3.906250
2482,-1.953125
2483,-1.953125
2484,-1.953125
2485,-1.953125
2486,0.000000
2487,-1.953125
2488,0.000000
2489,1.953125
2490,1.953125
2491,1.953125
2492,1.953125
2493,1.953125
2494,1.953125
2495,3.906250
2496,3.906250
2497,3.906250
2498,5.859375
2499,5.859375
2500,5.859375
2501,5.859375
2502,7.812500
2503,7.812500
2504,9.765625
2505,7.812500
2506,7.812500
2507,9.765625
2508,9.765625
2509,9.765625
2510,9.765625
2511,9.765625
2512,9.765625
2513,11.718750
2514,11.718750
2515,11.718750
2516,11.718750
2517,13.671875
2518,11.718750
2519,13.671875
2520,13.671875
2521,17.578125
2522,13.671875
2523,17.578125
2524,15.625000
2525,15.625000
2526,15.625000
2527,15.625000
2528,15.625000
2529,15.625000
2530,15.625000
2531,15.625000
2532,17.578125
2533,17.578125
2534,15.625000
2535,17.578125
2536,17.578125
2537,17.578125
2538,17.578125
2539,17.578125
2540,17.578125
2541,17.578125
2542,17.578125
2543,17.578125
2544,17.578125
2545,19.531250
2546,17.578125
2547,19.531250
2548,17.578125
2549,19.531250
2550,17.578125
2551,17.578125
2552,19.531250
2553,19.531250
2554,17.578125
2555,17.578125
2556,17.578125
2557,19.531250
2558,17.578125
2559,17.578125
2560,17.578125
2561,17.578125
2562,17.578125
2563,17.578125
2564,17.578125
2565,17.578125
2566,17.578125
2567,15.625000
2568,15.625000
2569,15.625000
2570,15.625000
2571,15.625000
2572,15.625000
2573,15.625000
2574,13.671875
2575,13.671875
2576,13.671875
2577,13.671875
2578,13.671875
2579,13.671875
2580,11.718750
2581,13.671875
2582,11.718750
2583,11.718750
2584,11.718750
2585,11.718750
2586,9.765625
2587,9.765625
2588,9.765625
2589,9.765625
2590,9.765625
2591,7.812500
2592,7.812500
2593,7.812500
2594,7.812500
2595,5.859375
2596,5.859375
2597,5.859375
2598,5.859375
2599,3.906250
2600,3.906250
2601,3.906250
2602,1.953125
2603,1.953125
2604,1.953125
2605,1.953125
2606,0.000000
2607,0.000000
2608,0.000000
2609,0.000000
2610,-1.953125
2611,-1.953125
2612,-1.953125
2613,-1.953125
2614,-3.906250
2615,-3.906250
2616,-3.906250
2617,-3.906250
2618,-5.859375
2619,-5.859375
2620,-5.859375
2621,-5.859375
2622,-7.812500
2623,-7.812500
2624,-7.812500
2625,-9.765625
2626,-9.765625
2627,-9.765625
2628,-9.765625
2629,-11.718750
2630,-11.718750
2631,-11.718750
2632,-13.671875
2633,-13.671875
2634,-13.671875
2635,-15.625000
2636,-15.625000
2637,-15.625000
2638,-15.625000
2639,-17.578125
2640,-19.531250
2641,-17.578125
2642,-19.531250
2643,-19.531250
2644,-19.531250
2645,-19.531250
2646,-19.531250
2647,-21.484375
2648,-21.484375
2649,-21.484375
2650,-21.484375
2651,-23.437500
2652,-23.437500
2653,-23.437500
2654,-25.390625
2655,-23.437500
2656,-25.390625
2657,-23.437500
2658,-25.390625
2659,-27.343750
2660,-25.390625
2661,-27.343750
2662,-27.343750
2663,-27.343750
2664,-27.343750
2665,-27.343750
2666,-29.296875
2667,-29.296875
2668,-29.296875
2669,-29.296875
2670,-29.296875
2671,-29.296875
2672,-29.296875
2673,-29.296875
2674,-31.250000
2675,-29.296875
2676,-31.250000
2677,-31.250000
2678,-31.250000
2679,-31.250000
2680,-31.250000
2681,-31.250000
2682,-31.250000
2683,-31.250000
2684,-31.250000
2685,-31.250000
2686,-31.250000
2687,-31.250000
2688,-31.250000
2689,-31.250000
2690,-31.250000
2691,-31.250000
2692,-31.250000
2693,-31.250000
2694,-31.250000
2695,-31.250000
2696,-31.250000
2697,-31.250000
2698,-31.250000
2699,-31.250000
2700,-31.250000
2701,-31.250000
2702,-31.250000
2703,-31.250000
2704,-31.250000
2705,-31.250000
2706,-31.250000
2707,-29.296875
2708,-29.296875
2709,-29.296875
2710,-29.296875
2711,-29.296875
2712,-27.343750
2713,-27.343750
2714,-27.343750
2715,-27.343750
2716,-27.343750
2717,-27.343750
2718,-27.343750
2719,-25.390625
2720,-25.390625
2721,-25.390625
2722,-25.390625
2723,-25.390625
2724,-23.437500
2725,-23.437500
2726,-23.437500
2727,-23.437500
2728,-23.437500
2729,-23.437500
2730,-21.484375
2731,-21.484375
2732,-21.484375
2733,-19.531250
2734,-19.531250
2735,-19.531250
2736,-19.531250
2737,-17.578125
2738,-17.578125
2739,-17.578125
2740,-15.625000
2741,-15.625000
2742,-15.625000
2743,-15.625000
2744,-13.671875
2745,-13.671875
2746,-13.671875
2747,-13.671875
2748,-11.718750
2749,-11.718750
2750,-11.718750
2751,-9.765625
2752,-9.765625
2753,-9.765625
2754,-9.765625
2755,-7.812500
2756,-7.812500
2757,-5.859375
2758,-7.812500
2759,-5.859375
2760,-5.859375
2761,-5.859375
2762,-3.906250
2763,-3.906250
2764,-3.906250
2765,-3.906250
2766,-1.953125
2767,-1.953125
2768,-1.953125
2769,-1.953125
2770,0.000000
2771,0.000000
2772,0.000000
2773,1.953125
2774,1.953125
2775,1.953125
2776,1.953125
2777,3.906250
2778,3.906250
2779,3.906250
2780,3.906250
2781,5.859375
2782,5.859375
2783,5.859375
2784,5.859375
2785,7.812500
2786,7.812500
2787,7.812500
2788,7.812500
2789,9.765625
2790,9.765625
2791,9.765625
2792,9.765625
2793,11.718750
2794,11.718750
2795,11.718750
2796,11.718750
2797,11.718750
2798,11.718750
2799,11.718750
2800,13.671875
2801,13.671875
2802,13.671875
2803,13.671875
2804,15.625000
2805,15.625000
2806,15.625000
2807,13.671875
2808,15.625000
2809,15.625000
2810,15.625000
2811,15.625000
2812,17.578125
2813,17.578125
2814,17.578125
2815,17.578125
2816,17.578125
2817,17.578125
2818,17.578125
2819,17.578125
2820,17.578125
2821,17.578125
2822,19.531250
2823,19.531250
2824,17.578125
2825,17.578125
2826,19.531250
2827,17.578125
2828,17.578125
2829,17.578125
2830,19.531250
2831,17.578125
2832,19.531250
2833,17.578125
2834,17.578125
2835,17.578125
2836,17.578125
2837,17.578125
2838,17.578125
2839,17.578125
2840,17.578125
2841,17.578125
2842,17.578125
2843,17.578125
2844,17.578125
2845,17.578125
2846,17.578125
2847,15.625000
2848,15.625000
2849,15.625000
2850,15.625000
2851,15.625000
2852,15.625000
2853,15.625000
2854,15.625000
2855,13.671875
2856,13.671875
2857,15.625000
2858,13.671875
2859,13.671875
2860,13.671875
2861,11.718750
2862,11.718750
2863,11.718750
2864,11.718750
2865,11.718750
2866,11.718750
2867,9.765625
2868,11.718750
2869,9.765625
2870,9.765625
2871,9.765625
2872,9.765625
2873,7.812500
2874,7.812500
2875,7.812500
2876,7.812500
2877,5.859375
2878,7.812500
2879,5.859375
2880,5.859375
2881,5.859375
2882,3.906250
2883,3.906250
2884,3.906250
2885,1.953125
2886,1.953125
2887,1.953125
2888,1.953125
2889,0.000000
2890,0.000000
2891,0.000000
2892,0.000000
2893,-3.906250
2894,-1.953125
2895,-1.953125
2896,-3.906250
2897,-3.906250
2898,-7.812500
2899,-5.859375
2900,-5.859375
2901,-5.859375
2902,-7.812500
2903,-5.859375
2904,-7.812500
2905,-9.765625
2906,-7.812500
2907,-9.765625
2908,-9.765625
2909,-9.765625
2910,-11.718750
2911,-11.718750
2912,-11.718750
2913,-13.671875
2914,-13.671875
2915,-13.671875
2916,-13.671875
2917,-15.625000
2918,-15.625000
2919,-15.625000
2920,-17.578125
2921,-17.578125
2922,-17.578125
2923,-17.578125
2924,-19.531250
2925,-19.531250
2926,-19.531250
2927,-19.531250
2928,-21.484375
2929,-21.484375
2930,-21.484375
2931,-21.484375
2932,-21.484375
2933,-23.437500
2934,-23.437500
2935,-23.437500
2936,-23.437500
2937,-25.390625
2938,-25.390625
2939,-25.390625
2940,-25.390625
2941,-25.390625
2942,-25.390625
2943,-25.390625
2944,-27.343750
2945,-27.343750
2946,-27.343750
2947,-27.343750
2948,-27.343750
2949,-27.343750
2950,-29.296875
2951,-29.296875
2952,-29.296875
2953,-29.296875
2954,-29.296875
2955,-29.296875
2956,-29.296875
2957,-31.250000
2958,-31.250000
2959,-31.250000
2960,-31.250000
2961,-29.296875
2962,-31.250000
2963,-31.250000
2964,-31.250000
2965,-31.250000
2966,-31.250000
2967,-31.250000
2968,-31.250000
2969,-31.250000
2970,-31.250000
2971,-31.250000
2972,-31.250000
2973,-31.250000
2974,-31.250000
2975,-31.250000
2976,-31.250000
2977,-31.250000
2978,-31.250000
2979,-31.250000
2980,-31.250000
2981,-31.250000
2982,-31.250000
2983,-31.250000
2984,-31.250000
2985,-31.250000
2986,-29.296875
2987,-31.250000
2988,-29.296875
2989,-29.296875
2990,-29.296875
2991,-29.296875
2992,-29.296875
2993,-29.296875
2994,-29.296875
2995,-27.343750
2996,-27.343750
2997,-27.343750
2998,-27.343750
2999,-25.390625
3000,-25.390625
3001,-25.390625
3002,-25.390625
3003,-25.390625
3004,-25.390625
3005,-25.390625
3006,-23.437500
3007,-23.437500
3008,-23.437500
3009,-21.484375
3010,-21.484375
3011,-21.484375
3012,-21.484375
3013,-21.484375
3014,-19.531250
3015,-19.531250
3016,-19.531250
3017,-19.531250
3018,-19.531250
3019,-17.578125
3020,-17.578125
3021,-17.578125
3022,-17.578125
3023,-15.625000
3024,-15.625000
3025,-15.625000
3026,-15.625000
3027,-13.671875
3028,-13.671875
3029,-13.671875
3030,-11.718750
3031,-11.718750
3032,-11.718750
3033,-11.718750
3034,-9.765625
3035,-9.765625
3036,-9.765625
3037,-7.812500
3038,-7.812500
3039,-7.812500
3040,-7.812500
3041,-5.859375
3042,-5.859375
3043,-5.859375
3044,-5.859375
3045,-5.859375
3046,-3.906250
3047,-3.906250
3048,-1.953125
3049,-1.953125
3050,-1.953125
3051,-1.953125
3052,0.000000
3053,0.000000
3054,0.000000
3055,0.000000
3056,1.953125
3057,1.953125
3058,5.859375
3059,1.953125
3060,1.953125
3061,3.906250
3062,3.906250
3063,3.906250
3064,5.859375
3065,5.859375
3066,5.859375
3067,7.812500
3068,7.812500
3069,7.812500
3070,7.812500
3071,7.812500
3072,9.765625
3073,9.765625
3074,9.765625
3075,11.718750
3076,11.718750
3077,11.718750
3078,11.718750
3079,11.718750
3080,11.718750
3081,13.671875
3082,13.671875
3083,13.671875
3084,13.671875
3085,13.671875
3086,15.625000
3087,15.625000
3088,15.625000
3089,15.625000
3090,15.625000
3091,15.625000
3092,15.625000
3093,15.625000
3094,15.625000
3095,15.625000
3096,17.578125
3097,15.625000
3098,17.578125
3099,17.578125
3100,17.578125
3101,17.578125
3102,17.578125
3103,17.578125
3104,17.578125
3105,17.578125
3106,17.578125
3107,17.578125
3108,17.578125
3109,17.578125
3110,17.578125
3111,17.578125
3112,17.578125
3113,17.578125
3114,19.531250
3115,17.578125
3116,17.578125
3117,19.531250
3118,17.578125
3119,17.578125
3120,17.578125
3121,17.578125
3122,17.578125
3123,17.578125
3124,17.578125
3125,17.578125
3126,17.578125
3127,17.578125
3128,17.578125
3129,17.578125
3130,15.625000
3131,15.625000
3132,15.625000
3133,15.625000
3134,15.625000
3135,15.625000
3136,15.625000
3137,15.625000
3138,15.625000
3139,15.625000
3140,15.625000
3141,13.671875
3142,13.671875
3143,13.671875
3144,13.671875
3145,11.718750
3146,11.718750
3147,11.718750
3148,11.718750
3149,9.765625
3150,11.718750
3151,9.765625
3152,9.765625
3153,9.765625
3154,9.765625
3155,7.812500
3156,7.812500
3157,7.812500
3158,7.812500
3159,5.859375
3160,5.859375
3161,5.859375
3162,5.859375
3163,3.906250
3164,3.906250
3165,3.906250
3166,1.953125
3167,1.953125
3168,1.953125
3169,1.953125
3170,1.953125
3171,1.953125
3172,0.000000
3173,0.000000
3174,-1.953125
3175,-1.953125
3176,-1.953125
3177,-1.953125
3178,-3.906250
3179,-3.906250
3180,-3.906250
3181,-3.906250
3182,-5.859375
3183,-5.859375
3184,-5.859375
3185,-7.812500
3186,-7.812500
3187,-5.859375
3188,-7.812500
3189,-9.765625
3190,-11.718750
3191,-9.765625
3192,-9.765625
3193,-11.718750
3194,-11.718750
3195,-11.718750
3196,-13.671875
3197,-13.671875
3198,-13.671875
3199,-13.671875
3200,-15.625000
3201,-15.625000
3202,-15.625000
3203,-15.625000
3204,-15.625000
3205,-17.578125
3206,-15.625000
3207,-17.578125
3208,-19.531250
3209,-19.531250
3210,-19.531250
3211,-21.484375
3212,-21.484375
3213,-21.484375
3214,-23.437500
3215,-23.437500
3216,-23.437500
3217,-23.437500
3218,-23.437500
3219,-25.390625
3220,-25.390625
3221,-25.390625
3222,-25.390625
3223,-25.390625
3224,-25.390625
3225,-27.343750
3226,-27.343750
3227,-27.343750
3228,-27.343750
3229,-27.343750
3230,-27.343750
3231,-29.296875
3232,-29.296875
3233,-29.296875
3234,-29.296875
3235,-29.296875
3236,-29.296875
3237,-29.296875
3238,-29.296875
3239,-31.250000
3240,-31.250000
3241,-31.250000
3242,-31.250000
3243,-29.296875
3244,-29.296875
3245,-31.250000
3246,-31.250000
3247,-31.250000
3248,-31.250000
3249,-31.250000
3250,-31.250000
3251,-31.250000
3252,-31.250000
3253,-31.250000
3254,-31.250000
3255,-27.343750
3256,-31.250000
3257,-31.250000
3258,-31.250000
3259,-31.250000
3260,-31.250000
3261,-31.250000
3262,-31.250000
3263,-31.250000
3264,-31.250000
3265,-31.250000
3266,-31.250000
3267,-31.250000
3268,-29.296875
3269,-29.296875
3270,-29.296875
3271,-29.296875
3272,-29.296875
3273,-29.296875
3274,-29.296875
3275,-29.296875
3276,-27.343750
3277,-27.343750
3278,-27.343750
3279,-27.343750
3280,-27.343750
3281,-27.343750
3282,-25.390625
3283,-27.343750
3284,-25.390625
3285,-25.390625
3286,-25.390625
3287,-25.390625
3288,-23.437500
3289,-23.437500
3290,-23.437500
3291,-23.437500
3292,-23.437500
3293,-21.484375
3294,-21.484375
3295,-21.484375
3296,-21.484375
3297,-21.484375
3298,-19.531250
3299,-19.531250
3300,-19.531250
3301,-17.578125
3302,-19.531250
3303,-17.578125
3304,-17.578125
3305,-17.578125
3306,-15.625000
3307,-15.625000
3308,-15.625000
3309,-13.671875
3310,-13.671875
3311,-13.671875
3312,-11.718750
3313,-11.718750
3314,-11.718750
3315,-11.718750
3316,-9.765625
3317,-9.765625
3318,-9.765625
3319,-9.765625
3320,-7.812500
3321,-7.812500
3322,-7.812500
3323,-5.859375
3324,-5.859375
3325,-5.859375
3326,-3.906250
3327,-3.906250
3328,-3.906250
3329,-3.906250
3330,-1.953125
3331,-1.953125
3332,-1.953125
3333,-1.953125
3334,0.000000
3335,0.000000
3336,0.000000
3337,1.953125
3338,1.953125
3339,1.953125
3340,1.953125
3341,1.953125
3342,3.906250
3343,3.906250
3344,3.906250
3345,3.906250
3346,5.859375
3347,5.859375
3348,5.859375
3349,5.859375
3350,7.812500
3351,7.812500
3352,7.812500
3353,7.812500
3354,7.812500
3355,9.765625
3356,9.765625
3357,9.765625
3358,9.765625
3359,11.718750
3360,11.718750
3361,11.718750
3362,11.718750
3363,11.718750
3364,11.718750
3365,13.671875
3366,13.671875
3367,13.671875
3368,13.671875
3369,13.671875
3370,15.625000
3371,15.625000
3372,15.625000
3373,15.625000
3374,15.625000
3375,15.625000
3376,17.578125
3377,15.625000
3378,17.578125
3379,17.578125
3380,17.578125
3381,17.578125
3382,17.578125
3383,17.578125
3384,17.578125
3385,17.578125
3386,17.578125
3387,17.578125
3388,19.531250
3389,19.531250
3390,19.531250
3391,19.531250
3392,17.578125
3393,19.531250
3394,19.531250
3395,19.531250
3396,19.531250
3397,19.531250
3398,17.578125
3399,17.578125
3400,19.531250
3401,19.531250
3402,17.578125
3403,17.578125
3404,17.578125
3405,17.578125
3406,17.578125
3407,17.578125
3408,17.578125
3409,17.578125
3410,17.578125
3411,17.578125
3412,17.578125
3413,15.625000
3414,17.578125
3415,15.625000
3416,15.625000
3417,15.625000
3418,15.625000
3419,15.625000
3420,15.625000
3421,13.671875
3422,15.625000
3423,13.671875
3424,13.671875
3425,13.671875
3426,13.671875
3427,11.718750
3428,11.718750
3429,11.718750
3430,11.718750
3431,11.718750
3432,11.718750
3433,11.718750
3434,9.765625
3435,9.765625
3436,9.765625
3437,7.812500
3438,5.859375
3439,7.812500
3440,7.812500
3441,5.859375
3442,5.859375
3443,5.859375
3444,3.906250
3445,5.859375
3446,3.906250
3447,3.906250
3448,3.906250
3449,3.906250
3450,1.953125
3451,1.953125
3452,1.953125
3453,1.953125
3454,0.000000
3455,0.000000
3456,0.000000
3457,0.000000
3458,-1.953125
3459,-1.953125
3460,-3.906250
3461,-3.906250
3462,-3.906250
3463,-3.906250
3464,-3.906250
3465,-5.859375
3466,-5.859375
3467,-5.859375
3468,-7.812500
3469,-7.812500
3470,-7.812500
3471,-7.812500
3472,-7.812500
3473,-9.765625
3474,-9.765625
3475,-11.718750
3476,-11.718750
3477,-11.718750
3478,-13.671875
3479,-13.671875
3480,-13.671875
3481,-13.671875
3482,-15.625000
3483,-15.625000
3484,-15.625000
3485,-15.625000
3486,-17.578125
3487,-17.578125
3488,-17.578125
3489,-19.531250
3490,-19.531250
3491,-19.531250
3492,-19.531250
3493,-21.484375
3494,-21.484375
3495,-21.484375
3496,-21.484375
3497,-23.437500
3498,-23.437500
3499,-23.437500
3500,-23.437500
3501,-23.437500
3502,-23.437500
3503,-25.390625
3504,-25.390625
3505,-25.390625
3506,-25.390625
3507,-27.343750
3508,-27.343750
3509,-27.343750
3510,-27.343750
3511,-27.343750
3512,-27.343750
3513,-29.296875
3514,-29.296875
3515,-27.343750
3516,-29.296875
3517,-29.296875
3518,-29.296875
3519,-29.296875
3520,-31.250000
3521,-31.250000
3522,-29.296875
3523,-29.296875
3524,-31.250000
3525,-31.250000
3526,-31.250000
3527,-31.250000
3528,-31.250000
3529,-31.250000
3530,-31.250000
3531,-31.250000
3532,-31.250000
3533,-31.250000
3534,-31.250000
3535,-31.250000
3536,-31.250000
3537,-31.250000
3538,-31.250000
3539,-31.250000
3540,-31.250000
3541,-31.250000
3542,-31.250000
3543,-31.250000
3544,-31.250000
3545,-31.250000
3546,-31.250000
3547,-31.250000
3548,-31.250000
3549,-31.250000
3550,-31.250000
3551,-29.296875
3552,-29.296875
3553,-29.296875
3554,-29.296875
3555,-29.296875
3556,-29.296875
3557,-29.296875
3558,-27.343750
3559,-27.343750
3560,-29.296875
3561,-27.343750
3562,-27.343750
3563,-27.343750
3564,-27.343750
3565,-27.343750
3566,-25.390625
3567,-25.390625
3568,-25.390625
3569,-25.390625
3570,-25.390625
3571,-23.437500
3572,-23.437500
3573,-23.437500
3574,-23.437500
3575,-23.437500
3576,-21.484375
3577,-21.484375
3578,-21.484375
3579,-21.484375
3580,-19.531250
3581,-19.531250
3582,-19.531250
3583,-17.578125
3584,-17.578125
3585,-17.578125
3586,-17.578125
3587,-15.625000
3588,-15.625000
3589,-15.625000
3590,-15.625000
3591,-13.671875
3592,-13.671875
3593,-13.671875
3594,-13.671875
3595,-11.718750
3596,-11.718750
3597,-11.718750
3598,-11.718750
3599,-9.765625
3600,-9.765625
3601,-9.765625
3602,-7.812500
3603,-7.812500
3604,-5.859375
3605,-5.859375
3606,-7.812500
3607,-5.859375
3608,-5.859375
3609,-5.859375
3610,-3.906250
3611,-3.906250
3612,-3.906250
3613,-1.953125
3614,-1.953125
3615,0.000000
3616,0.000000
3617,0.000000
3618,0.000000
3619,0.000000
3620,0.000000
3621,1.953125
3622,1.953125
3623,1.953125
3624,3.906250
3625,3.906250
3626,3.906250
3627,3.906250
3628,5.859375
3629,5.859375
3630,5.859375
3631,5.859375
3632,7.812500
3633,7.812500
3634,7.812500
3635,7.812500
3636,9.765625
3637,9.765625
3638,9.765625
3639,9.765625
3640,9.765625
3641,9.765625
3642,11.718750
3643,11.718750
3644,11.718750
3645,11.718750
3646,13.671875
3647,13.671875
3648,13.671875
3649,13.671875
3650,13.671875
3651,15.625000
3652,15.625000
3653,15.625000
3654,15.625000
3655,15.625000
3656,15.625000
3657,15.625000
3658,17.578125
3659,15.625000
3660,17.578125
3661,17.578125
3662,17.578125
3663,17.578125
3664,17.578125
3665,17.578125
3666,17.578125
3667,17.578125
3668,17.578125
3669,17.578125
3670,17.578125
3671,17.578125
3672,19.531250
3673,19.531250
3674,17.578125
3675,17.578125
3676,17.578125
3677,19.531250
3678,17.578125
3679,17.578125
3680,17.578125
3681,19.531250
3682,17.578125
3683,17.578125
3684,17.578125
3685,17.578125
3686,17.578125
3687,17.578125
3688,17.578125
3689,17.578125
3690,17.578125
3691,17.578125
3692,17.578125
3693,17.578125
3694,17.578125
3695,17.578125
3696,15.625000
3697,15.625000
3698,15.625000
3699,15.625000
3700,15.625000
3701,15.625000
3702,15.625000
3703,13.671875
3704,13.671875
3705,13.671875
3706,13.671875
3707,13.671875
3708,13.671875
3709,13.671875
3710,11.718750
3711,11.718750
3712,11.718750
3713,11.718750
3714,11.718750
3715,11.718750
3716,9.765625
3717,9.765625
3718,9.765625
3719,9.765625
3720,9.765625
3721,7.812500
3722,7.812500
3723,7.812500
3724,7.812500
3725,5.859375
3726,5.859375
3727,5.859375
3728,5.859375
3729,3.906250
3730,3.906250
3731,3.906250
3732,3.906250
3733,1.953125
3734,1.953125
3735,1.953125
3736,0.000000
3737,0.000000
3738,0.000000
3739,0.000000
3740,-1.953125
3741,-1.953125
3742,-1.953125
3743,-3.906250
3744,-3.906250
3745,-3.906250
3746,-3.906250
3747,-5.859375
3748,-5.859375
3749,-5.859375
3750,-7.812500
3751,-7.812500
3752,-7.812500
3753,-9.765625
3754,-9.765625
3755,-9.765625
3756,-9.765625
3757,-9.765625
3758,-11.718750
3759,-11.718750
3760,-13.671875
3761,-13.671875
3762,-13.671875
3763,-13.671875
3764,-13.671875
3765,-15.625000
3766,-15.625000
3767,-15.625000
3768,-17.578125
3769,-17.578125
3770,-17.578125
3771,-17.578125
3772,-19.531250
3773,-19.531250
3774,-19.531250
3775,-19.531250
3776,-19.531250
3777,-21.484375
3778,-21.484375
3779,-21.484375
3780,-21.484375
3781,-23.437500
3782,-23.437500
3783,-23.437500
3784,-23.437500
3785,-25.390625
3786,-25.390625
3787,-25.390625
3788,-25.390625
3789,-25.390625
3790,-25.390625
3791,-27.343750
3792,-27.343750
3793,-27.343750
3794,-27.343750
3795,-27.343750
3796,-27.343750
3797,-29.296875
3798,-29.296875
3799,-29.296875
3800,-29.296875
3801,-29.296875
3802,-29.296875
3803,-29.296875
3804,-31.250000
3805,-31.250000
3806,-31.250000
3807,-31.250000
3808,-31.250000
3809,-31.250000
3810,-31.250000
3811,-31.250000
3812,-33.203125
3813,-31.250000
3814,-31.250000
3815,-31.250000
3816,-31.250000
3817,-31.250000
3818,-31.250000
3819,-31.250000
3820,-31.250000
3821,-31.250000
3822,-31.250000
3823,-31.250000
3824,-31.250000
3825,-31.250000
3826,-33.203125
3827,-31.250000
3828,-31.250000
3829,-31.250000
3830,-31.250000
3831,-31.250000
3832,-31.250000
3833,-29.296875
3834,-29.296875
3835,-29.296875
3836,-29.296875
3837,-29.296875
3838,-29.296875
3839,-29.296875
3840,-29.296875
3841,-27.343750
3842,-27.343750
3843,-27.343750
3844,-27.343750
3845,-27.343750
3846,-27.343750
3847,-27.343750
3848,-25.390625
3849,-25.390625
3850,-25.390625
3851,-25.390625
3852,-25.390625
3853,-23.437500
3854,-23.437500
3855,-23.437500
3856,-23.437500
3857,-23.437500
3858,-21.484375
3859,-21.484375
3860,-21.484375
3861,-21.484375
3862,-17.578125
3863,-19.531250
3864,-19.531250
3865,-19.531250
3866,-19.531250
3867,-17.578125
3868,-17.578125
3869,-17.578125
3870,-17.578125
3871,-15.625000
3872,-15.625000
3873,-15.625000
3874,-13.671875
3875,-13.671875
3876,-13.671875
3877,-13.671875
3878,-11.718750
3879,-11.718750
3880,-11.718750
3881,-11.718750
3882,-9.765625
3883,-9.765625
3884,-9.765625
3885,-7.812500
3886,-7.812500
3887,-7.812500
3888,-5.859375
3889,-5.859375
3890,-5.859375
3891,-5.859375
3892,-3.906250
3893,-3.906250
3894,-3.906250
3895,-3.906250
3896,-1.953125
3897,-1.953125
3898,-1.953125
3899,-1.953125
3900,0.000000
3901,0.000000
3902,0.000000
3903,1.953125
3904,1.953125
3905,3.906250
3906,3.906250
3907,3.906250
3908,3.906250
3909,3.906250
3910,5.859375
3911,5.859375
3912,5.859375
3913,5.859375
3914,5.859375
3915,7.812500
3916,7.812500
3917,7.812500
3918,9.765625
3919,9.765625
3920,9.765625
3921,9.765625
3922,11.718750
3923,11.718750
3924,11.718750
3925,11.718750
3926,11.718750
3927,11.718750
3928,13.671875
3929,13.671875
3930,13.671875
3931,13.671875
3932,15.625000
3933,13.671875
3934,15.625000
3935,15.625000
3936,13.671875
3937,15.625000
3938,15.625000
3939,15.625000
3940,17.578125
3941,15.625000
3942,15.625000
3943,17.578125
3944,17.578125
3945,15.625000
3946,17.578125
3947,17.578125
3948,17.578125
3949,17.578125
3950,17.578125
3951,17.578125
3952,17.578125
3953,19.531250
3954,17.578125
3955,17.578125
3956,17.578125
3957,19.531250
3958,17.578125
3959,17.578125
3960,19.531250
3961,17.578125
3962,19.531250
3963,17.578125
3964,17.578125
3965,19.531250
3966,19.531250
3967,17.578125
3968,17.578125
3969,17.578125
3970,17.578125
3971,17.578125
3972,17.578125
3973,17.578125
3974,17.578125
3975,17.578125
3976,17.578125
3977,17.578125
3978,17.578125
3979,17.578125
3980,15.625000
3981,15.625000
3982,15.625000
3983,15.625000
3984,15.625000
3985,15.625000
3986,15.625000
3987,13.671875
3988,13.671875
3989,13.671875
3990,13.671875
3991,11.718750
3992,13.671875
3993,11.718750
3994,11.718750
3995,11.718750
3996,11.718750
3997,9.765625
3998,11.718750
3999,9.765625
4000,9.765625
4001,9.765625
4002,7.812500
4003,7.812500
4004,7.812500
4005,7.812500
4006,7.812500
4007,5.859375
4008,5.859375
4009,5.859375
4010,5.859375
4011,3.906250
4012,3.906250
4013,3.906250
4014,3.906250
4015,1.953125
4016,1.953125
4017,1.953125
4018,0.000000
4019,0.000000
4020,0.000000
4021,-1.953125
4022,-1.953125
4023,-1.953125
4024,-1.953125
4025,-3.906250
4026,-3.906250
4027,-3.906250
4028,-3.906250
4029,-5.859375
4030,-5.859375
4031,-1.953125
4032,-5.859375
4033,-7.812500
4034,-7.812500
4035,-7.812500
4036,-9.765625
4037,-9.765625
4038,-9.765625
4039,-9.765625
4040,-11.718750
4041,-11.718750
4042,-11.718750
4043,-11.718750
4044,-13.671875
4045,-13.671875
4046,-13.671875
4047,-15.625000
4048,-15.625000
4049,-15.625000
4050,-17.578125
4051,-17.578125
4052,-17.578125
4053,-17.578125
4054,-19.531250
4055,-19.531250
4056,-19.531250
4057,-19.531250
4058,-19.531250
4059,-21.484375
4060,-23.437500
4061,-21.484375
4062,-23.437500
4063,-19.531250
4064,-23.437500
4065,-25.390625
4066,-23.437500
4067,-25.390625
4068,-25.390625
4069,-25.390625
4070,-25.390625
4071,-27.343750
4072,-27.343750
4073,-27.343750
4074,-27.343750
4075,-29.296875
4076,-27.343750
4077,-29.296875
4078,-29.296875
4079,-29.296875
4080,-29.296875
4081,-29.296875
4082,-29.296875
4083,-29.296875
4084,-29.296875
4085,-29.296875
4086,-29.296875
4087,-31.250000
4088,-31.250000
4089,-31.250000
4090,-31.250000
4091,-31.250000
4092,-31.250000
4093,-31.250000
4094,-31.250000
4095,-31.250000
4096,-31.250000
4097,-31.250000
4098,-31.250000
4099,-31.250000
4100,-31.250000
4101,-31.250000
4102,-31.250000
4103,-31.250000
4104,-31.250000
4105,-31.250000
4106,-31.250000
4107,-31.250000
4108,-31.250000
4109,-31.250000
4110,-31.250000
4111,-31.250000
4112,-29.296875
4113,-31.250000
4114,-31.250000
4115,-31.250000
4116,-29.296875
4117,-29.296875
4118,-29.296875
4119,-29.296875
4120,-29.296875
4121,-29.296875
4122,-29.296875
4123,-27.343750
4124,-27.343750
4125,-29.296875
4126,-27.343750
4127,-27.343750
4128,-27.343750
4129,-27.343750
4130,-27.343750
4131,-25.390625
4132,-25.390625
4133,-25.390625
4134,-25.390625
4135,-25.390625
4136,-23.437500
4137,-23.437500
4138,-23.437500
4139,-23.437500
4140,-23.437500
4141,-21.484375
4142,-21.484375
4143,-21.484375
4144,-21.484375
4145,-19.531250
4146,-19.531250
4147,-19.531250
4148,-19.531250
4149,-17.578125
4150,-17.578125
4151,-17.578125
4152,-15.625000
4153,-15.625000
4154,-15.625000
4155,-15.625000
4156,-15.625000
4157,-13.671875
4158,-13.671875
4159,-13.671875
4160,-13.671875
4161,-11.718750
4162,-11.718750
4163,-11.718750
4164,-11.718750
4165,-9.765625
4166,-7.812500
4167,-7.812500
4168,-7.812500
4169,-7.812500
4170,-5.859375
4171,-5.859375
4172,-5.859375
4173,-5.859375
4174,-3.906250
4175,-3.906250
4176,-3.906250
4177,-1.953125
4178,-1.953125
4179,-1.953125
4180,-1.953125
4181,0.000000
4182,0.000000
4183,0.000000
4184,1.953125
4185,1.953125
4186,1.953125
4187,3.906250
4188,3.906250
4189,3.906250
4190,3.906250
4191,3.906250
4192,5.859375
4193,3.906250
4194,5.859375
4195,5.859375
4196,7.812500
4197,7.812500
4198,7.812500
4199,7.812500
4200,7.812500
4201,9.765625
4202,9.765625
4203,9.765625
4204,9.765625
4205,11.718750
4206,11.718750
4207,11.718750
4208,11.718750
4209,11.718750
4210,11.718750
4211,13.671875
4212,13.671875
4213,13.671875
4214,13.671875
4215,13.671875
4216,13.671875
4217,15.625000
4218,15.625000
4219,15.625000
4220,15.625000
4221,15.625000
4222,15.625000
4223,15.625000
4224,17.578125
4225,17.578125
4226,15.625000
4227,17.578125
4228,17.578125
4229,17.578125
4230,17.578125
4231,17.578125
4232,17.578125
4233,17.578125
4234,17.578125
4235,17.578125
4236,17.578125
4237,17.578125
4238,19.531250
4239,19.531250
4240,19.531250
4241,19.531250
4242,17.578125
4243,19.531250
4244,19.531250
4245,19.531250
4246,17.578125
4247,19.531250
4248,19.531250
4249,17.578125
4250,17.578125
4251,19.531250
4252,17.578125
4253,17.578125
4254,17.578125
4255,17.578125
4256,17.578125
4257,17.578125
4258,17.578125
4259,17.578125
4260,17.578125
4261,15.625000
4262,15.625000
4263,15.625000
4264,15.625000
4265,15.625000
4266,15.625000
4267,15.625000
4268,15.625000
4269,13.671875
4270,13.671875
4271,13.671875
4272,13.671875
4273,13.671875
4274,13.671875
4275,11.718750
4276,11.718750
4277,11.718750
4278,11.718750
4279,11.718750
4280,9.765625
4281,9.765625
4282,9.765625
4283,9.765625
4284,9.765625
4285,7.812500
4286,7.812500
4287,7.812500
4288,7.812500
4289,5.859375
4290,5.859375
4291,5.859375
4292,5.859375
4293,3.906250
4294,3.906250
4295,3.906250
4296,3.906250
4297,1.953125
4298,1.953125
4299,1.953125
4300,1.953125
4301,1.953125
4302,0.000000
4303,0.000000
4304,0.000000
4305,-1.953125
4306,-1.953125
4307,-1.953125
4308,-3.906250
4309,-3.906250
4310,-3.906250
4311,-5.859375
4312,-5.859375
4313,-5.859375
4314,-5.859375
4315,-5.859375
4316,-7.812500
4317,-7.812500
4318,-9.765625
4319,-9.765625
4320,-9.765625
4321,-9.765625
4322,-11.718750
4323,-11.718750
4324,-11.718750
4325,-13.671875
4326,-13.671875
4327,-13.671875
4328,-13.671875
4329,-15.625000
4330,-15.625000
4331,-15.625000
4332,-15.625000
4333,-17.578125
4334,-17.578125
4335,-17.578125
4336,-19.531250
4337,-19.531250
4338,-19.531250
4339,-19.531250
4340,-19.531250
4341,-21.484375
4342,-21.484375
4343,-21.484375
4344,-21.484375
4345,-23.437500
4346,-23.437500
4347,-23.437500
4348,-23.437500
4349,-23.437500
4350,-25.390625
4351,-25.390625
4352,-25.390625
4353,-25.390625
4354,-25.390625
4355,-25.390625
4356,-27.343750
4357,-27.343750
4358,-27.343750
4359,-27.343750
4360,-27.343750
4361,-27.343750
4362,-29.296875
4363,-29.296875
4364,-29.296875
4365,-29.296875
4366,-29.296875
4367,-29.296875
4368,-29.296875
4369,-31.250000
4370,-31.250000
4371,-31.250000
4372,-31.250000
4373,-31.250000
4374,-31.250000
4375,-31.250000
4376,-31.250000
4377,-31.250000
4378,-31.250000
4379,-31.250000
4380,-31.250000
4381,-31.250000
4382,-31.250000
4383,-31.250000
4384,-31.250000
4385,-31.250000
4386,-31.250000
4387,-31.250000
4388,-31.250000
4389,-31.250000
4390,-31.250000
4391,-31.250000
4392,-31.250000
4393,-31.250000
4394,-31.250000
4395,-31.250000
4396,-31.250000
4397,-31.250000
4398,-31.250000
4399,-29.296875
4400,-29.296875
4401,-29.296875
4402,-29.296875
4403,-29.296875
4404,-29.296875
4405,-29.296875
4406,-25.390625
4407,-27.343750
4408,-27.343750
4409,-27.343750
4410,-27.343750
4411,-27.343750
4412,-27.343750
4413,-25.390625
4414,-25.390625
4415,-25.390625
4416,-25.390625
4417,-23.437500
4418,-23.437500
4419,-23.437500
4420,-23.437500
4421,-23.437500
4422,-23.437500
4423,-21.484375
4424,-21.484375
4425,-21.484375
4426,-19.531250
4427,-19.531250
4428,-19.531250
4429,-19.531250
4430,-17.578125
4431,-19.531250
4432,-17.578125
4433,-15.625000
4434,-15.625000
4435,-15.625000
4436,-15.625000
4437,-15.625000
4438,-15.625000
4439,-13.671875
4440,-13.671875
4441,-11.718750
4442,-11.718750
4443,-11.718750
4444,-11.718750
4445,-11.718750
4446,-9.765625
4447,-9.765625
4448,-9.765625
4449,-7.812500
4450,-7.812500
4451,-7.812500
4452,-7.812500
4453,-5.859375
4454,-5.859375
4455,-5.859375
4456,-5.859375
4457,-3.906250
4458,-3.906250
4459,-1.953125
4460,-3.906250
4461,-1.953125
4462,-1.953125
4463,-1.953125
4464,0.000000
4465,0.000000
4466,0.000000
4467,1.953125
4468,1.953125
4469,1.953125
4470,1.953125
4471,3.906250
4472,3.906250
4473,3.906250
4474,3.906250
4475,5.859375
4476,5.859375
4477,5.859375
4478,5.859375
4479,7.812500
4480,7.812500
4481,7.812500
4482,7.812500
4483,9.765625
4484,9.765625
4485,9.765625
4486,9.765625
4487,9.765625
4488,11.718750
4489,11.718750
4490,11.718750
4491,11.718750
4492,13.671875
4493,13.671875
4494,13.671875
4495,13.671875
4496,13.671875
4497,13.671875
4498,15.625000
4499,15.625000
4500,15.625000
4501,15.625000
4502,15.625000
4503,15.625000
4504,15.625000
4505,15.625000
4506,15.625000
4507,17.578125
4508,17.578125
4509,17.578125
4510,17.578125
4511,17.578125
4512,17.578125
4513,17.578125
4514,17.578125
4515,17.578125
4516,17.578125
4517,17.578125
4518,17.578125
4519,17.578125
4520,17.578125
4521,19.531250
4522,17.578125
4523,17.578125
4524,17.578125
4525,17.578125
4526,17.578125
4527,19.531250
4528,19.531250
4529,17.578125
4530,17.578125
4531,17.578125
4532,17.578125
4533,19.531250
4534,17.578125
4535,17.578125
4536,17.578125
4537,17.578125
4538,17.578125
4539,17.578125
4540,17.578125
4541,17.578125
4542,17.578125
4543,15.625000
4544,15.625000
4545,15.625000
4546,15.625000
4547,15.625000
4548,15.625000
4549,15.625000
4550,15.625000
4551,13.671875
4552,13.671875
4553,13.671875
4554,13.671875
4555,13.671875
4556,11.718750
4557,13.671875
4558,11.718750
4559,11.718750
4560,11.718750
4561,9.765625
4562,9.765625
4563,9.765625
4564,9.765625
4565,9.765625
4566,7.812500
4567,7.812500
4568,7.812500
4569,7.812500
4570,7.812500
4571,5.859375
4572,5.859375
4573,5.859375
4574,5.859375
4575,5.859375
4576,3.906250
4577,3.906250
4578,3.906250
4579,1.953125
4580,1.953125
4581,1.953125
4582,1.953125
4583,0.000000
4584,0.000000
4585,0.000000
4586,-1.953125
4587,-1.953125
4588,-1.953125
4589,-3.906250
4590,-3.906250
4591,-3.906250
4592,-3.906250
4593,-3.906250
4594,-5.859375
4595,-5.859375
4596,-7.812500
4597,-7.812500
4598,-7.812500
4599,-7.812500
4600,-7.812500
4601,-9.765625
4602,-9.765625
4603,-11.718750
4604,-11.718750
4605,-11.718750
4606,-11.718750
4607,-11.718750
4608,-13.671875
4609,-13.671875
4610,-13.671875
4611,-15.625000
4612,-15.625000
4613,-15.625000
4614,-15.625000
4615,-15.625000
4616,-17.578125
4617,-17.578125
4618,-19.531250
4619,-19.531250
4620,-19.531250
4621,-19.531250
4622,-19.531250
4623,-21.484375
4624,-21.484375
4625,-21.484375
4626,-21.484375
4627,-23.437500
4628,-23.437500
4629,-23.437500
4630,-23.437500
4631,-23.437500
4632,-25.390625
4633,-25.390625
4634,-25.390625
4635,-25.390625
4636,-25.390625
4637,-25.390625
4638,-27.343750
4639,-27.343750
4640,-27.343750
4641,-27.343750
4642,-27.343750
4643,-29.296875
4644,-29.296875
4645,-29.296875
4646,-29.296875
4647,-31.250000
4648,-29.296875
4649,-29.296875
4650,-29.296875
4651,-31.250000
4652,-31.250000
4653,-31.250000
4654,-31.250000
4655,-31.250000
4656,-31.250000
4657,-31.250000
4658,-31.250000
4659,-31.250000
4660,-31.250000
4661,-31.250000
4662,-31.250000
4663,-31.250000
4664,-31.250000
4665,-31.250000
4666,-31.250000
4667,-31.250000
4668,-31.250000
4669,-31.250000
4670,-31.250000
4671,-31.250000
4672,-31.250000
4673,-31.250000
4674,-31.250000
4675,-31.250000
4676,-31.250000
4677,-31.250000
4678,-31.250000
4679,-31.250000
4680,-29.296875
4681,-29.296875
4682,-29.296875
4683,-29.296875
4684,-29.296875
4685,-29.296875
4686,-29.296875
4687,-27.343750
4688,-29.296875
4689,-27.343750
4690,-27.343750
4691,-27.343750
4692,-27.343750
4693,-27.343750
4694,-27.343750
4695,-25.390625
4696,-25.390625
4697,-25.390625
4698,-25.390625
4699,-25.390625
4700,-25.390625
4701,-23.437500
4702,-23.437500
4703,-23.437500
4704,-21.484375
4705,-23.437500
4706,-21.484375
4707,-21.484375
4708,-21.484375
4709,-21.484375
4710,-19.531250
4711,-19.531250
4712,-19.531250
4713,-19.531250
4714,-17.578125
4715,-17.578125
4716,-17.578125
4717,-17.578125
4718,-15.625000
4719,-15.625000
4720,-13.671875
4721,-15.625000
4722,-13.671875
4723,-13.671875
4724,-13.671875
4725,-11.718750
4726,-11.718750
4727,-11.718750
4728,-9.765625
4729,-9.765625
4730,-9.765625
4731,-7.812500
4732,-7.812500
4733,-7.812500
4734,-7.812500
4735,-5.859375
4736,-5.859375
4737,-3.906250
4738,-3.906250
4739,-3.906250
4740,-3.906250
4741,-3.906250
4742,-3.906250
4743,-1.953125
4744,-1.953125
4745,0.000000
4746,0.000000
4747,0.000000
4748,0.000000
4749,1.953125
4750,1.953125
4751,1.953125
4752,1.953125
4753,3.906250
4754,3.906250
4755,3.906250
4756,3.906250
4757,5.859375
4758,5.859375
4759,5.859375
4760,5.859375
4761,7.812500
4762,7.812500
4763,7.812500
4764,7.812500
4765,9.765625
4766,9.765625
4767,9.765625
4768,9.765625
4769,9.765625
4770,11.718750
4771,13.671875
4772,11.718750
4773,11.718750
4774,11.718750
4775,13.671875
4776,13.671875
4777,13.671875
4778,13.671875
4779,13.671875
4780,13.671875
4781,15.625000
4782,15.625000
4783,15.625000
4784,15.625000
4785,15.625000
4786,15.625000
4787,15.625000
4788,15.625000
4789,17.578125
4790,15.625000
4791,17.578125
4792,17.578125
4793,17.578125
4794,17.578125
4795,17.578125
4796,17.578125
4797,17.578125
4798,17.578125
4799,17.578125
4800,17.578125
4801,19.531250
4802,17.578125
4803,19.531250
4804,17.578125
4805,17.578125
4806,17.578125
4807,17.578125
4808,19.531250
4809,19.531250
4810,17.578125
4811,17.578125
4812,17.578125
4813,19.531250
4814,17.578125
4815,19.531250
4816,17.578125
4817,17.578125
4818,17.578125
4819,17.578125
4820,17.578125
4821,17.578125
4822,17.578125
4823,17.578125
4824,17.578125
4825,17.578125
4826,17.578125
4827,15.625000
4828,15.625000
4829,15.625000
4830,15.625000
4831,15.625000
4832,15.625000
4833,17.578125
4834,13.671875
4835,13.671875
4836,13.671875
4837,13.671875
4838,13.671875
4839,11.718750
4840,11.718750
4841,11.718750
4842,11.718750
4843,11.718750
4844,9.765625
4845,9.765625
4846,9.765625
4847,9.765625
4848,7.812500
4849,7.812500
4850,7.812500
4851,5.859375
4852,5.859375
4853,7.812500
4854,3.906250
4855,3.906250
4856,5.859375
4857,3.906250
4858,3.906250
4859,3.906250
4860,3.906250
4861,1.953125
4862,1.953125
4863,1.953125
4864,0.000000
4865,1.953125
4866,0.000000
4867,0.000000
4868,-1.953125
4869,-1.953125
4870,-1.953125
4871,-1.953125
4872,-1.953125
4873,-3.906250
4874,-3.906250
4875,-3.906250
4876,-5.859375
4877,-5.859375
4878,-5.859375
4879,-7.812500
4880,-7.812500
4881,-7.812500
4882,-7.812500
4883,-9.765625
4884,-9.765625
4885,-9.765625
4886,-11.718750
4887,-11.718750
4888,-11.718750
4889,-11.718750
4890,-13.671875
4891,-13.671875
4892,-13.671875
4893,-13.671875
4894,-15.625000
4895,-15.625000
4896,-15.625000
4897,-17.578125
4898,-17.578125
4899,-17.578125
4900,-19.531250
4901,-19.531250
4902,-19.531250
4903,-19.531250
4904,-19.531250
4905,-21.484375
4906,-21.484375
4907,-21.484375
4908,-21.484375
4909,-21.484375
4910,-23.437500
4911,-23.437500
4912,-23.437500
4913,-25.390625
4914,-25.390625
4915,-25.390625
4916,-25.390625
4917,-25.390625
4918,-27.343750
4919,-27.343750
4920,-27.343750
4921,-27.343750
4922,-27.343750
4923,-27.343750
4924,-27.343750
4925,-29.296875
4926,-29.296875
4927,-29.296875
4928,-29.296875
4929,-29.296875
4930,-29.296875
4931,-29.296875
4932,-29.296875
4933,-29.296875
4934,-31.250000
4935,-29.296875
4936,-31.250000
4937,-31.250000
4938,-31.250000
4939,-31.250000
4940,-31.250000
4941,-31.250000
4942,-31.250000
4943,-31.250000
4944,-31.250000
4945,-31.250000
4946,-31.250000
4947,-31.250000
4948,-31.250000
4949,-31.250000
4950,-31.250000
4951,-31.250000
4952,-31.250000
4953,-31.250000
4954,-29.296875
4955,-31.250000
4956,-31.250000
4957,-31.250000
4958,-31.250000
4959,-31.250000
4960,-31.250000
4961,-29.296875
4962,-31.250000
4963,-29.296875
4964,-31.250000
4965,-29.296875
4966,-29.296875
4967,-29.296875
4968,-29.296875
4969,-29.296875
4970,-29.296875
4971,-29.296875
4972,-27.343750
4973,-27.343750
4974,-27.343750
4975,-27.343750
4976,-27.343750
4977,-27.343750
4978,-25.390625
4979,-25.390625
4980,-25.390625
4981,-25.390625
4982,-25.390625
4983,-23.437500
4984,-23.437500
4985,-23.437500
4986,-23.437500
4987,-21.484375
4988,-21.484375
4989,-21.484375
4990,-21.484375
4991,-21.484375
4992,-19.531250
4993,-19.531250
4994,-19.531250
4995,-19.531250
4996,-17.578125
4997,-17.578125
4998,-17.578125
4999,-17.578125
5000,-15.625000
5001,-15.625000
5002,-15.625000
5003,-13.671875
5004,-13.671875
5005,-13.671875
5006,-11.718750
5007,-11.718750
5008,-11.718750
5009,-9.765625
5010,-9.765625
5011,-9.765625
5012,-9.765625
5013,-7.812500
5014,-7.812500
5015,-7.812500
5016,-7.812500
5017,-5.859375
5018,-5.859375
5019,-3.906250
5020,-5.859375
5021,-3.906250
5022,-1.953125
5023,-3.906250
5024,-3.906250
5025,-1.953125
5026,0.000000
5027,0.000000
5028,0.000000
5029,0.000000
5030,0.000000
5031,1.953125
5032,1.953125
5033,1.953125
5034,1.953125
5035,1.953125
5036,3.906250
5037,3.906250
5038,3.906250
5039,3.906250
5040,5.859375
5041,5.859375
5042,5.859375
5043,5.859375
5044,7.812500
5045,7.812500
5046,7.812500
5047,7.812500
5048,7.812500
5049,9.765625
5050,9.765625
5051,9.765625
5052,9.765625
5053,11.718750
5054,11.718750
5055,11.718750
5056,11.718750
5057,11.718750
5058,13.671875
5059,13.671875
5060,13.671875
5061,13.671875
5062,13.671875
5063,15.625000
5064,13.671875
5065,15.625000
5066,15.625000
5067,15.625000
5068,15.625000
5069,15.625000
5070,15.625000
5071,17.578125
5072,17.578125
5073,17.578125
5074,17.578125
5075,17.578125
5076,17.578125
5077,17.578125
5078,17.578125
5079,17.578125
5080,17.578125
5081,17.578125
5082,17.578125
5083,17.578125
5084,17.578125
5085,19.531250
5086,17.578125
5087,17.578125
5088,17.578125
5089,19.531250
5090,19.531250
5091,17.578125
5092,17.578125
5093,17.578125
5094,17.578125
5095,17.578125
5096,17.578125
5097,17.578125
5098,17.578125
5099,17.578125
5100,17.578125
5101,17.578125
5102,17.578125
5103,17.578125
5104,17.578125
5105,17.578125
5106,17.578125
5107,15.625000
5108,15.625000
5109,15.625000
5110,15.625000
5111,15.625000
5112,15.625000
5113,13.671875
5114,15.625000
5115,15.625000
5116,13.671875
5117,13.671875
5118,13.671875
5119,13.671875
5120,13.671875
5121,11.718750
5122,13.671875
5123,11.718750
5124,11.718750
5125,11.718750
5126,9.765625
5127,11.718750
5128,9.765625
5129,9.765625
5130,9.765625
5131,9.765625
5132,9.765625
5133,7.812500
5134,7.812500
5135,5.859375
5136,5.859375
5137,5.859375
5138,5.859375
5139,5.859375
5140,3.906250
5141,3.906250
5142,3.906250
5143,3.906250
5144,1.953125
5145,1.953125
5146,1.953125
5147,1.953125
5148,0.000000
5149,0.000000
5150,0.000000
5151,-1.953125
5152,-1.953125
5153,-1.953125
5154,-1.953125
5155,-3.906250
5156,-3.906250
5157,-3.906250
5158,-5.859375
5159,-5.859375
5160,-5.859375
5161,-7.812500
5162,-7.812500
5163,-7.812500
5164,-7.812500
5165,-9.765625
5166,-9.765625
5167,-9.765625
5168,-11.718750
5169,-11.718750
5170,-11.718750
5171,-13.671875
5172,-13.671875
5173,-13.671875
5174,-13.671875
5175,-13.671875
5176,-15.625000
5177,-15.625000
5178,-15.625000
5179,-17.578125
5180,-17.578125
5181,-17.578125
5182,-19.531250
5183,-19.531250
5184,-19.531250
5185,-19.531250
5186,-19.531250
5187,-21.484375
5188,-21.484375
5189,-21.484375
5190,-21.484375
5191,-23.437500
5192,-23.437500
5193,-23.437500
5194,-23.437500
5195,-23.437500
5196,-23.437500
5197,-25.390625
5198,-25.390625
5199,-25.390625
5200,-25.390625
5201,-27.343750
5202,-27.343750
5203,-27.343750
5204,-27.343750
5205,-27.343750
5206,-27.343750
5207,-27.343750
5208,-29.296875
5209,-29.296875
5210,-29.296875
5211,-29.296875
5212,-29.296875
5213,-29.296875
5214,-29.296875
5215,-29.296875
5216,-31.250000
5217,-31.250000
5218,-31.250000
5219,-31.250000
5220,-31.250000
5221,-31.250000
5222,-31.250000
5223,-31.250000
5224,-31.250000
5225,-31.250000
5226,-31.250000
5227,-31.250000
5228,-31.250000
5229,-31.250000
5230,-31.250000
5231,-33.203125
5232,-31.250000
5233,-31.250000
5234,-31.250000
5235,-31.250000
5236,-31.250000
5237,-31.250000
5238,-31.250000
5239,-31.250000
5240,-31.250000
5241,-31.250000
5242,-31.250000
5243,-31.250000
5244,-31.250000
5245,-31.250000
5246,-31.250000
5247,-29.296875
5248,-29.296875
5249,-29.296875
5250,-29.296875
5251,-29.296875
5252,-29.296875
5253,-29.296875
5254,-27.343750
5255,-27.343750
5256,-27.343750
5257,-27.343750
5258,-27.343750
5259,-27.343750
5260,-25.390625
5261,-25.390625
5262,-25.390625
5263,-25.390625
5264,-25.390625
5265,-25.390625
5266,-23.437500
5267,-23.437500
5268,-23.437500
5269,-23.437500
5270,-21.484375
5271,-21.484375
5272,-21.484375
5273,-21.484375
5274,-19.531250
5275,-19.531250
5276,-19.531250
5277,-17.578125
5278,-17.578125
5279,-17.578125
5280,-17.578125
5281,-17.578125
5282,-15.625000
5283,-15.625000
5284,-15.625000
5285,-15.625000
5286,-13.671875
5287,-13.671875
5288,-13.671875
5289,-11.718750
5290,-11.718750
5291,-11.718750
5292,-9.765625
5293,-11.718750
5294,-9.765625
5295,-9.765625
5296,-9.765625
5297,-7.812500
5298,-7.812500
5299,-5.859375
5300,-5.859375
5301,-5.859375
5302,-5.859375
5303,-5.859375
5304,-3.906250
5305,-3.906250
5306,-3.906250
5307,-1.953125
5308,-1.953125
5309,-1.953125
5310,-1.953125
5311,0.000000
5312,0.000000
5313,0.000000
5314,0.000000
5315,1.953125
5316,1.953125
5317,1.953125
5318,3.906250
5319,3.906250
5320,3.906250
5321,3.906250
5322,5.859375
5323,5.859375
5324,5.859375
5325,7.812500
5326,7.812500
5327,7.812500
5328,7.812500
5329,9.765625
5330,9.765625
5331,9.765625
5332,9.765625
5333,9.765625
5334,9.765625
5335,9.765625
5336,11.718750
5337,11.718750
5338,11.718750
5339,13.671875
5340,13.671875
5341,13.671875
5342,13.671875
5343,13.671875
5344,13.671875
5345,13.671875
5346,13.671875
5347,15.625000
5348,13.671875
5349,15.625000
5350,15.625000
5351,15.625000
5352,15.625000
5353,15.625000
5354,17.578125
5355,17.578125
5356,15.625000
5357,17.578125
5358,17.578125
5359,17.578125
5360,17.578125
5361,17.578125
5362,17.578125
5363,17.578125
5364,17.578125
5365,17.578125
5366,17.578125
5367,17.578125
5368,19.531250
5369,19.531250
5370,19.531250
5371,19.531250
5372,17.578125
5373,17.578125
5374,17.578125
5375,17.578125
5376,17.578125
5377,17.578125
5378,17.578125
5379,17.578125
5380,17.578125
5381,17.578125
5382,17.578125
5383,17.578125
5384,17.578125
5385,17.578125
5386,17.578125
5387,15.625000
5388,17.578125
5389,17.578125
5390,15.625000
5391,15.625000
5392,15.625000
5393,15.625000
5394,15.625000
5395,15.625000
5396,15.625000
5397,15.625000
5398,15.625000
5399,13.671875
5400,13.671875
5401,13.671875
5402,13.671875
5403,13.671875
5404,11.718750
5405,11.718750
5406,11.718750
5407,9.765625
5408,11.718750
5409,11.718750
5410,9.765625
5411,9.765625
5412,7.812500
5413,9.765625
5414,7.812500
5415,7.812500
5416,7.812500
5417,5.859375
5418,5.859375
5419,5.859375
5420,5.859375
5421,3.906250
5422,3.906250
5423,3.906250
5424,5.859375
5425,3.906250
5426,1.953125
5427,1.953125
5428,1.953125
5429,0.000000
5430,0.000000
5431,0.000000
5432,0.000000
5433,-1.953125
5434,-1.953125
5435,-1.953125
5436,-3.906250
5437,-3.906250
5438,-3.906250
5439,-3.906250
5440,-5.859375
5441,-5.859375
5442,-5.859375
5443,-7.812500
5444,-7.812500
5445,-7.812500
5446,-7.812500
5447,-9.765625
5448,-9.765625
5449,-9.765625
5450,-11.718750
5451,-11.718750
5452,-11.718750
5453,-11.718750
5454,-11.718750
5455,-13.671875
5456,-13.671875
5457,-13.671875
5458,-15.625000
5459,-15.625000
5460,-15.625000
5461,-15.625000
5462,-17.578125
5463,-17.578125
5464,-17.578125
5465,-17.578125
5466,-19.531250
5467,-19.531250
5468,-19.531250
5469,-19.531250
5470,-21.484375
5471,-21.484375
5472,-21.484375
5473,-21.484375
5474,-23.437500
5475,-23.437500
5476,-23.437500
5477,-23.437500
5478,-23.437500
5479,-25.390625
5480,-25.390625
5481,-25.390625
5482,-25.390625
5483,-27.343750
5484,-27.343750
5485,-27.343750
5486,-27.343750
5487,-27.343750
5488,-27.343750
5489,-29.296875
5490,-29.296875
5491,-29.296875
5492,-29.296875
5493,-29.296875
5494,-31.250000
5495,-29.296875
5496,-29.296875
5497,-31.250000
5498,-29.296875
5499,-31.250000
5500,-31.250000
5501,-31.250000
5502,-31.250000
5503,-31.250000
5504,-31.250000
5505,-31.250000
5506,-31.250000
5507,-31.250000
5508,-31.250000
5509,-31.250000
5510,-31.250000
5511,-31.250000
5512,-31.250000
5513,-31.250000
5514,-31.250000
5515,-31.250000
5516,-33.203125
5517,-31.250000
5518,-31.250000
5519,-31.250000
5520,-31.250000
5521,-31.250000
5522,-31.250000
5523,-31.250000
5524,-31.250000
5525,-31.250000
5526,-31.250000
5527,-29.296875
5528,-29.296875
5529,-29.296875
5530,-29.296875
5531,-29.296875
5532,-29.296875
5533,-29.296875
5534,-29.296875
5535,-27.343750
5536,-27.343750
5537,-27.343750
5538,-27.343750
5539,-27.343750
5540,-27.343750
5541,-27.343750
5542,-25.390625
5543,-25.390625
5544,-25.390625
5545,-25.390625
5546,-25.390625
5547,-25.390625
5548,-23.437500
5549,-23.437500
5550,-23.437500
5551,-21.484375
5552,-21.484375
5553,-21.484375
5554,-21.484375
5555,-21.484375
5556,-19.531250
5557,-19.531250
5558,-19.531250
5559,-19.531250
5560,-19.531250
5561,-17.578125
5562,-17.578125
5563,-17.578125
5564,-17.578125
5565,-15.625000
5566,-17.578125
5567,-15.625000
5568,-13.671875
5569,-13.671875
5570,-13.671875
5571,-13.671875
5572,-13.671875
5573,-11.718750
5574,-11.718750
5575,-9.765625
5576,-9.765625
5577,-9.765625
5578,-7.812500
5579,-9.765625
5580,-7.812500
5581,-7.812500
5582,-7.812500
5583,-5.859375
5584,-5.859375
5585,-3.906250
5586,-3.906250
5587,-3.906250
5588,-3.906250
5589,-3.906250
5590,-1.953125
5591,-1.953125
5592,-1.953125
5593,0.000000
5594,0.000000
5595,0.000000
5596,0.000000
5597,1.953125
5598,1.953125
5599,1.953125
5600,3.906250
5601,3.906250
5602,3.906250
5603,3.906250
5604,3.906250
5605,3.906250
5606,5.859375
5607,5.859375
5608,7.812500
5609,7.812500
5610,7.812500
5611,7.812500
5612,7.812500
5613,7.812500
5614,9.765625
5615,9.765625
5616,9.765625
5617,9.765625
5618,11.718750
5619,11.718750
5620,11.718750
5621,11.718750
5622,11.718750
5623,13.671875
5624,13.671875
5625,13.671875
5626,13.671875
5627,13.671875
5628,13.671875
5629,13.671875
5630,13.671875
5631,15.625000
5632,15.625000
5633,15.625000
5634,15.625000
5635,15.625000
5636,15.625000
5637,15.625000
5638,17.578125
5639,17.578125
5640,17.578125
5641,17.578125
5642,17.578125
5643,17.578125
5644,17.578125
5645,17.578125
5646,17.578125
5647,17.578125
5648,17.578125
5649,17.578125
5650,19.531250
5651,17.578125
5652,19.531250
5653,17.578125
5654,17.578125
5655,17.578125
5656,19.531250
5657,19.531250
5658,17.578125
5659,17.578125
5660,17.578125
5661,17.578125
5662,17.578125
5663,17.578125
5664,17.578125
5665,17.578125
5666,17.578125
5667,17.578125
5668,17.578125
5669,17.578125
5670,17.578125
5671,17.578125
5672,15.625000
5673,15.625000
5674,15.625000
5675,15.625000
5676,15.625000
5677,15.625000
5678,13.671875
5679,15.625000
5680,13.671875
5681,13.671875
5682,13.671875
5683,13.671875
5684,13.671875
5685,11.718750
5686,11.718750
5687,11.718750
5688,11.718750
5689,11.718750
5690,11.718750
5691,11.718750
5692,9.765625
5693,9.765625
5694,9.765625
5695,7.812500
5696,7.812500
5697,7.812500
5698,7.812500
5699,7.812500
5700,7.812500
5701,5.859375
5702,5.859375
5703,5.859375
5704,5.859375
5705,3.906250
5706,3.906250
5707,3.906250
5708,1.953125
5709,1.953125
5710,1.953125
5711,1.953125
5712,0.000000
5713,0.000000
5714,0.000000
5715,0.000000
5716,-1.953125
5717,-1.953125
5718,-1.953125
5719,-1.953125
5720,-3.906250
5721,-3.906250
5722,-3.906250
5723,-5.859375
5724,-5.859375
5725,-5.859375
5726,-5.859375
5727,-7.812500
5728,-7.812500
5729,-7.812500
5730,-9.765625
5731,-9.765625
5732,-9.765625
5733,-11.718750
5734,-11.718750
5735,-11.718750
5736,-13.671875
5737,-13.671875
5738,-13.671875
5739,-15.625000
5740,-15.625000
5741,-15.625000
5742,-15.625000
5743,-15.625000
5744,-17.578125
5745,-17.578125
5746,-17.578125
5747,-19.531250
5748,-19.531250
5749,-19.531250
5750,-19.531250
5751,-21.484375
5752,-21.484375
5753,-21.484375
5754,-21.484375
5755,-21.484375
5756,-23.437500
5757,-23.437500
5758,-23.437500
5759,-23.437500
5760,-25.390625
5761,-27.343750
5762,-25.390625
5763,-25.390625
5764,-25.390625
5765,-27.343750
5766,-29.296875
5767,-27.343750
5768,-27.343750
5769,-27.343750
5770,-27.343750
5771,-27.343750
5772,-29.296875
5773,-27.343750
5774,-29.296875
5775,-31.250000
5776,-29.296875
5777,-31.250000
5778,-29.296875
5779,-29.296875
5780,-31.250000
5781,-29.296875
5782,-31.250000
5783,-31.250000
5784,-31.250000
5785,-31.250000
5786,-31.250000
5787,-31.250000
5788,-31.250000
5789,-31.250000
5790,-31.250000
5791,-31.250000
5792,-31.250000
5793,-31.250000
5794,-31.250000
5795,-31.250000
5796,-31.250000
5797,-31.250000
5798,-31.250000
5799,-31.250000
5800,-31.250000
5801,-31.250000
5802,-31.250000
5803,-31.250000
5804,-31.250000
5805,-31.250000
5806,-31.250000
5807,-31.250000
5808,-29.296875
5809,-31.250000
5810,-31.250000
5811,-29.296875
5812,-29.296875
5813,-27.343750
5814,-31.250000
5815,-29.296875
5816,-29.296875
5817,-29.296875
5818,-25.390625
5819,-27.343750
5820,-27.343750
5821,-27.343750
5822,-27.343750
5823,-27.343750
5824,-27.343750
5825,-25.390625
5826,-25.390625
5827,-25.390625
5828,-25.390625
5829,-25.390625
5830,-23.437500
5831,-25.390625
5832,-23.437500
5833,-23.437500
5834,-23.437500
5835,-21.484375
5836,-21.484375
5837,-21.484375
5838,-19.531250
5839,-21.484375
5840,-19.531250
5841,-19.531250
5842,-19.531250
5843,-17.578125
5844,-17.578125
5845,-17.578125
5846,-15.625000
5847,-15.625000
5848,-15.625000
5849,-15.625000
5850,-13.671875
5851,-13.671875
5852,-13.671875
5853,-11.718750
5854,-11.718750
5855,-11.718750
5856,-11.718750
5857,-11.718750
5858,-9.765625
5859,-9.765625
5860,-9.765625
5861,-7.812500
5862,-7.812500
5863,-7.812500
5864,-7.812500
5865,-5.859375
5866,-5.859375
5867,-5.859375
5868,-3.906250
5869,-3.906250
5870,-3.906250
5871,-3.906250
5872,-1.953125
5873,-1.953125
5874,-1.953125
5875,0.000000
5876,0.000000
5877,0.000000
5878,1.953125
5879,0.000000
5880,1.953125
5881,1.953125
5882,3.906250
5883,3.906250
5884,3.906250
5885,3.906250
5886,5.859375
5887,3.906250
5888,5.859375
5889,5.859375
5890,5.859375
5891,7.812500
5892,7.812500
5893,9.765625
5894,7.812500
5895,9.765625
5896,9.765625
5897,9.765625
5898,9.765625
5899,9.765625
5900,9.765625
5901,11.718750
5902,11.718750
5903,11.718750
5904,11.718750
5905,13.671875
5906,13.671875
5907,13.671875
5908,13.671875
5909,13.671875
5910,15.625000
5911,15.625000
5912,15.625000
5913,15.625000
5914,15.625000
5915,15.625000
5916,15.625000
5917,15.625000
5918,15.625000
5919,15.625000
5920,17.578125
5921,17.578125
5922,17.578125
5923,17.578125
5924,17.578125
5925,17.578125
5926,19.531250
5927,17.578125
5928,17.578125
5929,19.531250
5930,17.578125
5931,17.578125
5932,17.578125
5933,17.578125
5934,17.578125
5935,17.578125
5936,19.531250
5937,19.531250
5938,19.531250
5939,17.578125
5940,17.578125
5941,17.578125
5942,17.578125
5943,19.531250
5944,17.578125
5945,17.578125
5946,17.578125
5947,17.578125
5948,17.578125
5949,17.578125
5950,17.578125
5951,17.578125
5952,17.578125
5953,17.578125
5954,17.578125
5955,15.625000
5956,15.625000
5957,15.625000
5958,15.625000
5959,15.625000
5960,15.625000
5961,15.625000
5962,15.625000
5963,13.671875
5964,13.671875
5965,13.671875
5966,13.671875
5967,13.671875
5968,13.671875
5969,13.671875
5970,11.718750
5971,11.718750
5972,11.718750
5973,11.718750
5974,11.718750
5975,13.671875
5976,9.765625
5977,9.765625
5978,9.765625
5979,7.812500
5980,7.812500
5981,7.812500
5982,7.812500
5983,5.859375
5984,5.859375
5985,5.859375
5986,5.859375
5987,3.906250
5988,3.906250
5989,3.906250
5990,3.906250
5991,1.953125
5992,3.906250
5993,1.953125
5994,-1.953125
5995,0.000000
5996,0.000000
5997,0.000000
5998,-1.953125
5999,-1.953125
6000,-1.953125
6001,-1.953125
6002,-3.906250
6003,-3.906250
6004,-3.906250
6005,-5.859375
6006,-5.859375
6007,-7.812500
6008,-9.765625
6009,-7.812500
6010,-9.765625
6011,-9.765625
6012,-7.812500
6013,-9.765625
6014,-9.765625
6015,-11.718750
6016,-11.718750
6017,-11.718750
6018,-13.671875
6019,-13.671875
6020,-13.671875
6021,-13.671875
6022,-13.671875
6023,-15.625000
6024,-15.625000
6025,-15.625000
6026,-17.578125
6027,-17.578125
6028,-17.578125
6029,-17.578125
6030,-19.531250
6031,-19.531250
6032,-19.531250
6033,-19.531250
6034,-19.531250
6035,-21.484375
6036,-21.484375
6037,-21.484375
6038,-23.437500
6039,-23.437500
6040,-23.437500
6041,-23.437500
6042,-23.437500
6043,-25.390625
6044,-25.390625
6045,-25.390625
6046,-25.390625
6047,-25.390625
6048,-25.390625
6049,-25.390625
6050,-27.343750
6051,-27.343750
6052,-27.343750
6053,-27.343750
6054,-29.296875
6055,-29.296875
6056,-29.296875
6057,-29.296875
6058,-29.296875
6059,-29.296875
6060,-29.296875
6061,-31.250000
6062,-29.296875
6063,-31.250000
6064,-31.250000
6065,-31.250000
6066,-31.250000
6067,-31.250000
6068,-31.250000
6069,-31.250000
6070,-31.250000
6071,-31.250000
6072,-31.250000
6073,-33.203125
6074,-31.250000
6075,-31.250000
6076,-31.250000
6077,-31.250000
6078,-31.250000
6079,-31.250000
6080,-33.203125
6081,-31.250000
6082,-31.250000
6083,-31.250000
6084,-31.250000
6085,-31.250000
6086,-31.250000
6087,-31.250000
6088,-31.250000
6089,-31.250000
6090,-29.296875
6091,-29.296875
6092,-31.250000
6093,-29.296875
6094,-29.296875
6095,-29.296875
6096,-31.250000
6097,-29.296875
6098,-29.296875
6099,-29.296875
6100,-27.343750
6101,-27.343750
6102,-27.343750
6103,-27.343750
6104,-27.343750
6105,-27.343750
6106,-25.390625
6107,-25.390625
6108,-25.390625
6109,-25.390625
6110,-25.390625
6111,-23.437500
6112,-23.437500
6113,-23.437500
6114,-23.437500
6115,-23.437500
6116,-21.484375
6117,-21.484375
6118,-21.484375
6119,-21.484375
6120,-19.531250
6121,-19.531250
6122,-19.531250
6123,-19.531250
6124,-19.531250
6125,-17.578125
6126,-17.578125
6127,-17.578125
6128,-17.578125
6129,-15.625000
6130,-15.625000
6131,-15.625000
6132,-15.625000
6133,-13.671875
6134,-13.671875
6135,-13.671875
6136,-13.671875
6137,-11.718750
6138,-11.718750
6139,-11.718750
6140,-9.765625
6141,-9.765625
6142,-9.765625
6143,-7.812500
6144,-7.812500
6145,-7.812500
6146,-5.859375
6147,-5.859375
6148,-5.859375
6149,-5.859375
6150,-3.906250
6151,-3.906250
6152,-3.906250
6153,-1.953125
6154,-3.906250
6155,-1.953125
6156,-1.953125
6157,0.000000
6158,0.000000
6159,0.000000
6160,0.000000
6161,0.000000
6162,1.953125
6163,1.953125
6164,3.906250
6165,3.906250
6166,3.906250
6167,3.906250
6168,5.859375
6169,5.859375
6170,5.859375
6171,5.859375
6172,5.859375
6173,7.812500
6174,7.812500
6175,7.812500
6176,7.812500
6177,9.765625
6178,9.765625
6179,9.765625
6180,9.765625
6181,11.718750
6182,9.765625
6183,11.718750
6184,11.718750
6185,11.718750
6186,13.671875
6187,13.671875
6188,13.671875
6189,13.671875
6190,13.671875
6191,13.671875
6192,13.671875
6193,13.671875
6194,13.671875
6195,15.625000
6196,15.625000
6197,15.625000
6198,15.625000
6199,15.625000
6200,15.625000
6201,17.578125
6202,17.578125
6203,17.578125
6204,17.578125
6205,17.578125
6206,17.578125
6207,17.578125
6208,17.578125
6209,17.578125
6210,19.531250
6211,17.578125
6212,17.578125
6213,17.578125
6214,17.578125
6215,17.578125
6216,19.531250
6217,17.578125
6218,17.578125
6219,17.578125
6220,17.578125
6221,17.578125
6222,19.531250
6223,19.531250
6224,17.578125
6225,19.531250
6226,17.578125
6227,17.578125
6228,17.578125
6229,17.578125
6230,17.578125
6231,17.578125
6232,17.578125
6233,17.578125
6234,15.625000
6235,15.625000
6236,15.625000
6237,15.625000
6238,17.578125
6239,15.625000
6240,15.625000
6241,15.625000
6242,15.625000
6243,15.625000
6244,15.625000
6245,13.671875
6246,13.671875
6247,13.671875
6248,13.671875
6249,13.671875
6250,13.671875
6251,11.718750
6252,11.718750
6253,11.718750
6254,11.718750
6255,9.765625
6256,9.765625
6257,9.765625
6258,9.765625
6259,9.765625
6260,9.765625
6261,7.812500
6262,7.812500
6263,7.812500
6264,7.812500
6265,5.859375
6266,5.859375
6267,5.859375
6268,3.906250
6269,5.859375
6270,3.906250
6271,3.906250
6272,3.906250
6273,1.953125
6274,1.953125
6275,1.953125
6276,1.953125
6277,0.000000
6278,0.000000
6279,0.000000
6280,0.000000
6281,-1.953125
6282,-1.953125
6283,-1.953125
6284,-3.906250
6285,-3.906250
6286,-3.906250
6287,-3.906250
6288,-5.859375
6289,-5.859375
6290,-5.859375
6291,-7.812500
6292,-7.812500
6293,-7.812500
6294,-7.812500
6295,-9.765625
6296,-9.765625
6297,-9.765625
6298,-9.765625
6299,-11.718750
6300,-11.718750
6301,-11.718750
6302,-13.671875
6303,-13.671875
6304,-13.671875
6305,-13.671875
6306,-15.625000
6307,-15.625000
6308,-15.625000
6309,-17.578125
6310,-17.578125
6311,-17.578125
6312,-19.531250
6313,-19.531250
6314,-19.531250
6315,-19.531250
6316,-19.531250
6317,-21.484375
6318,-21.484375
6319,-21.484375
6320,-23.437500
6321,-21.484375
6322,-23.437500
6323,-23.437500
6324,-23.437500
6325,-25.390625
6326,-25.390625
6327,-25.390625
6328,-25.390625
6329,-25.390625
6330,-27.343750
6331,-27.343750
6332,-27.343750
6333,-27.343750
6334,-27.343750
6335,-27.343750
6336,-29.296875
6337,-29.296875
6338,-29.296875
6339,-29.296875
6340,-29.296875
6341,-29.296875
6342,-29.296875
6343,-29.296875
6344,-29.296875
6345,-29.296875
6346,-31.250000
6347,-31.250000
6348,-31.250000
6349,-31.250000
6350,-31.250000
6351,-31.250000
6352,-31.250000
6353,-31.250000
6354,-31.250000
6355,-31.250000
6356,-31.250000
6357,-33.203125
6358,-31.250000
6359,-31.250000
6360,-31.250000
6361,-31.250000
6362,-31.250000
6363,-29.296875
6364,-31.250000
6365,-31.250000
6366,-31.250000
6367,-31.250000
6368,-31.250000
6369,-31.250000
6370,-31.250000
6371,-31.250000
6372,-31.250000
6373,-31.250000
6374,-29.296875
6375,-29.296875
6376,-29.296875
6377,-29.296875
6378,-29.296875
6379,-29.296875
6380,-29.296875
6381,-29.296875
6382,-29.296875
6383,-29.296875
6384,-29.296875
6385,-29.296875
6386,-27.343750
6387,-27.343750
6388,-27.343750
6389,-25.390625
6390,-25.390625
6391,-25.390625
6392,-25.390625
6393,-25.390625
6394,-25.390625
6395,-25.390625
6396,-25.390625
6397,-23.437500
6398,-23.437500
6399,-21.484375
6400,-21.484375
6401,-21.484375
6402,-21.484375
6403,-21.484375
6404,-19.531250
6405,-19.531250
6406,-19.531250
6407,-19.531250
6408,-17.578125
6409,-17.578125
6410,-17.578125
6411,-15.625000
6412,-15.625000
6413,-15.625000
6414,-15.625000
6415,-15.625000
6416,-13.671875
6417,-13.671875
6418,-11.718750
6419,-11.718750
6420,-11.718750
6421,-11.718750
6422,-9.765625
6423,-9.765625
6424,-9.765625
6425,-9.765625
6426,-7.812500
6427,-7.812500
6428,-7.812500
6429,-5.859375
6430,-5.859375
6431,-5.859375
6432,-3.906250
6433,-3.906250
6434,-3.906250
6435,-3.906250
6436,-1.953125
6437,-1.953125
6438,-1.953125
6439,0.000000
6440,0.000000
6441,0.000000
6442,0.000000
6443,0.000000
6444,1.953125
6445,1.953125
6446,3.906250
6447,3.906250
6448,3.906250
6449,3.906250
6450,3.906250
6451,5.859375
6452,5.859375
6453,5.859375
6454,5.859375
6455,5.859375
6456,7.812500
6457,7.812500
6458,7.812500
6459,7.812500
6460,9.765625
6461,9.765625
6462,9.765625
6463,9.765625
6464,9.765625
6465,11.718750
6466,11.718750
6467,11.718750
6468,11.718750
6469,11.718750
6470,13.671875
6471,13.671875
6472,13.671875
6473,13.671875
6474,13.671875
6475,13.671875
6476,13.671875
6477,15.625000
6478,15.625000
6479,15.625000
6480,15.625000
6481,15.625000
6482,15.625000
6483,15.625000
6484,17.578125
6485,17.578125
6486,17.578125
6487,17.578125
6488,17.578125
6489,17.578125
6490,17.578125
6491,17.578125
6492,17.578125
6493,17.578125
6494,17.578125
6495,17.578125
6496,17.578125
6497,19.531250
6498,19.531250
6499,19.531250
6500,19.531250
6501,19.531250
6502,19.531250
6503,19.531250
6504,17.578125
6505,17.578125
6506,17.578125
6507,17.578125
6508,17.578125
6509,17.578125
6510,19.531250
6511,17.578125
6512,17.578125
6513,17.578125
6514,17.578125
6515,17.578125
6516,17.578125
6517,17.578125
6518,17.578125
6519,17.578125
6520,15.625000
6521,15.625000
6522,15.625000
6523,15.625000
6524,15.625000
6525,15.625000
6526,15.625000
6527,15.625000
6528,13.671875
6529,13.671875
6530,13.671875
6531,13.671875
6532,13.671875
6533,11.718750
6534,11.718750
6535,11.718750
6536,11.718750
6537,11.718750
6538,9.765625
6539,9.765625
6540,9.765625
6541,9.765625
6542,9.765625
6543,7.812500
6544,7.812500
6545,7.812500
6546,7.812500
6547,7.812500
6548,5.859375
6549,5.859375
6550,5.859375
6551,3.906250
6552,3.906250
6553,3.906250
6554,3.906250
6555,3.906250
6556,1.953125
6557,1.953125
6558,1.953125
6559,1.953125
6560,0.000000
6561,0.000000
6562,0.000000
6563,0.000000
6564,0.000000
6565,-1.953125
6566,-3.906250
6567,-3.906250
6568,-3.906250
6569,-3.906250
6570,-5.859375
6571,-5.859375
6572,-5.859375
6573,-5.859375
6574,-7.812500
6575,-7.812500
6576,-7.812500
6577,-9.765625
6578,-9.765625
6579,-9.765625
6580,-11.718750
6581,-11.718750
6582,-11.718750
6583,-13.671875
6584,-13.671875
6585,-13.671875
6586,-13.671875
6587,-13.671875
6588,-15.625000
6589,-15.625000
6590,-15.625000
6591,-17.578125
6592,-17.578125
6593,-17.578125
6594,-19.531250
6595,-19.531250
6596,-19.531250
6597,-19.531250
6598,-19.531250
6599,-21.484375
6600,-21.484375
6601,-21.484375
6602,-23.437500
6603,-23.437500
6604,-23.437500
6605,-23.437500
6606,-23.437500
6607,-23.437500
6608,-25.390625
6609,-25.390625
6610,-25.390625
6611,-25.390625
6612,-27.343750
6613,-27.343750
6614,-27.343750
6615,-27.343750
6616,-27.343750
6617,-27.343750
6618,-27.343750
6619,-29.296875
6620,-29.296875
6621,-29.296875
6622,-29.296875
6623,-29.296875
6624,-29.296875
6625,-29.296875
6626,-29.296875
6627,-29.296875
6628,-29.296875
6629,-31.250000
6630,-31.250000
6631,-31.250000
6632,-31.250000
6633,-31.250000
6634,-31.250000
6635,-31.250000
6636,-31.250000
6637,-31.250000
6638,-31.250000
6639,-33.203125
6640,-31.250000
6641,-31.250000
6642,-31.250000
6643,-31.250000
6644,-31.250000
6645,-31.250000
6646,-31.250000
6647,-31.250000
6648,-31.250000
6649,-31.250000
6650,-31.250000
6651,-31.250000
6652,-31.250000
6653,-31.250000
6654,-31.250000
6655,-31.250000
6656,-31.250000
6657,-31.250000
6658,-29.296875
6659,-29.296875
6660,-29.296875
6661,-29.296875
6662,-29.296875
6663,-29.296875
6664,-29.296875
6665,-27.343750
6666,-27.343750
6667,-27.343750
6668,-27.343750
6669,-27.343750
6670,-27.343750
6671,-25.390625
6672,-25.390625
6673,-25.390625
6674,-25.390625
6675,-23.437500
6676,-23.437500
6677,-23.437500
6678,-23.437500
6679,-23.437500
6680,-23.437500
6681,-23.437500
6682,-21.484375
6683,-21.484375
6684,-21.484375
6685,-19.531250
6686,-21.484375
6687,-19.531250
6688,-19.531250
6689,-17.578125
6690,-17.578125
6691,-17.578125
6692,-17.578125
6693,-17.578125
6694,-15.625000
6695,-15.625000
6696,-15.625000
6697,-11.718750
6698,-13.671875
6699,-13.671875
6700,-13.671875
6701,-13.671875
6702,-11.718750
6703,-11.718750
6704,-9.765625
6705,-9.765625
6706,-9.765625
6707,-9.765625
6708,-7.812500
6709,-7.812500
6710,-7.812500
6711,-5.859375
6712,-5.859375
6713,-5.859375
6714,-5.859375
6715,-3.906250
6716,-3.906250
6717,-3.906250
6718,-3.906250
6719,-1.953125
6720,-1.953125
6721,-1.953125
6722,0.000000
6723,0.000000
6724,0.000000
6725,1.953125
6726,1.953125
6727,1.953125
6728,1.953125
6729,1.953125
6730,3.906250
6731,3.906250
6732,3.906250
6733,3.906250
6734,5.859375
6735,5.859375
6736,5.859375
6737,5.859375
6738,7.812500
6739,7.812500
6740,7.812500
6741,9.765625
6742,9.765625
6743,9.765625
6744,9.765625
6745,9.765625
6746,9.765625
6747,9.765625
6748,11.718750
6749,11.718750
6750,11.718750
6751,13.671875
6752,13.671875
6753,13.671875
6754,13.671875
6755,13.671875
6756,13.671875
6757,13.671875
6758,15.625000
6759,15.625000
6760,15.625000
6761,15.625000
6762,15.625000
6763,15.625000
6764,15.625000
6765,15.625000
6766,17.578125
6767,17.578125
6768,17.578125
6769,17.578125
6770,17.578125
6771,17.578125
6772,17.578125
6773,17.578125
6774,17.578125
6775,17.578125
6776,17.578125
6777,17.578125
6778,17.578125
6779,17.578125
6780,17.578125
6781,17.578125
6782,19.531250
6783,17.578125
6784,17.578125
6785,17.578125
6786,17.578125
6787,17.578125
6788,17.578125
6789,17.578125
6790,17.578125
6791,17.578125
6792,17.578125
6793,17.578125
6794,17.578125
6795,17.578125
6796,17.578125
6797,17.578125
6798,17.578125
6799,17.578125
6800,17.578125
6801,17.578125
6802,15.625000
6803,15.625000
6804,15.625000
6805,15.625000
6806,15.625000
6807,15.625000
6808,13.671875
6809,15.625000
6810,13.671875
6811,13.671875
6812,13.671875
6813,13.671875
6814,13.671875
6815,13.671875
6816,11.718750
6817,11.718750
6818,11.718750
6819,11.718750
6820,11.718750
6821,9.765625
6822,9.765625
6823,9.765625
6824,9.765625
6825,9.765625
6826,7.812500
6827,7.812500
6828,7.812500
6829,5.859375
6830,7.812500
6831,5.859375
6832,5.859375
6833,3.906250
6834,3.906250
6835,3.906250
6836,3.906250
6837,1.953125
6838,1.953125
6839,1.953125
6840,1.953125
6841,1.953125
6842,0.000000
6843,0.000000
6844,-1.953125
6845,-1.953125
6846,-1.953125
6847,-1.953125
6848,-3.906250
6849,-3.906250
6850,-3.906250
6851,-3.906250
6852,-5.859375
6853,-5.859375
6854,-5.859375
6855,-5.859375
6856,-7.812500
6857,-7.812500
6858,-9.765625
6859,-9.765625
6860,-9.765625
6861,-9.765625
6862,-11.718750
6863,-11.718750
6864,-11.718750
6865,-11.718750
6866,-13.671875
6867,-13.671875
6868,-13.671875
6869,-13.671875
6870,-15.625000
6871,-15.625000
6872,-15.625000
6873,-15.625000
6874,-17.578125
6875,-17.578125
6876,-17.578125
6877,-17.578125
6878,-19.531250
6879,-19.531250
6880,-19.531250
6881,-19.531250
6882,-21.484375
6883,-21.484375
6884,-21.484375
6885,-23.437500
6886,-23.437500
6887,-23.437500
6888,-23.437500
6889,-23.437500
6890,-25.390625
6891,-25.390625
6892,-25.390625
6893,-25.390625
6894,-25.390625
6895,-25.390625
6896,-27.343750
6897,-27.343750
6898,-27.343750
6899,-27.343750
6900,-29.296875
6901,-29.296875
6902,-29.296875
6903,-29.296875
6904,-29.296875
6905,-29.296875
6906,-29.296875
6907,-29.296875
6908,-29.296875
6909,-31.250000
6910,-31.250000
6911,-31.250000
6912,-31.250000
6913,-31.250000
6914,-31.250000
6915,-31.250000
6916,-31.250000
6917,-31.250000
6918,-31.250000
6919,-31.250000
6920,-31.250000
6921,-31.250000
6922,-31.250000
6923,-31.250000
6924,-31.250000
6925,-31.250000
6926,-31.250000
6927,-31.250000
6928,-31.250000
6929,-31.250000
6930,-31.250000
6931,-31.250000
6932,-31.250000
6933,-31.250000
6934,-31.250000
6935,-31.250000
6936,-31.250000
6937,-29.296875
6938,-31.250000
6939,-29.296875
6940,-31.250000
6941,-29.296875
6942,-29.296875
6943,-29.296875
6944,-29.296875
6945,-29.296875
6946,-29.296875
6947,-29.296875
6948,-27.343750
6949,-27.343750
6950,-27.343750
6951,-27.343750
6952,-27.343750
6953,-27.343750
6954,-25.390625
6955,-25.390625
6956,-25.390625
6957,-25.390625
6958,-25.390625
6959,-25.390625
6960,-23.437500
6961,-23.437500
6962,-23.437500
6963,-21.484375
6964,-21.484375
6965,-21.484375
6966,-21.484375
6967,-21.484375
6968,-19.531250
6969,-19.531250
6970,-19.531250
6971,-19.531250
6972,-19.531250
6973,-17.578125
6974,-17.578125
6975,-17.578125
6976,-15.625000
6977,-15.625000
6978,-15.625000
6979,-15.625000
6980,-13.671875
6981,-13.671875
6982,-13.671875
6983,-11.718750
6984,-11.718750
6985,-11.718750
6986,-11.718750
6987,-11.718750
6988,-9.765625
6989,-9.765625
6990,-7.812500
6991,-7.812500
6992,-7.812500
6993,-7.812500
6994,-5.859375
6995,-5.859375
6996,-5.859375
6997,-3.906250
6998,-3.906250
6999,-3.906250
7000,-3.906250
7001,-1.953125
7002,-1.953125
7003,-1.953125
7004,-1.953125
7005,0.000000
7006,0.000000
7007,0.000000
7008,1.953125
7009,1.953125
7010,1.953125
7011,1.953125
7012,1.953125
7013,3.906250
7014,3.906250
7015,3.906250
7016,5.859375
7017,5.859375
7018,5.859375
7019,5.859375
7020,7.812500
7021,7.812500
7022,7.812500
7023,7.812500
7024,9.765625
7025,9.765625
7026,9.765625
7027,9.765625
7028,9.765625
7029,9.765625
7030,11.718750
7031,11.718750
7032,11.718750
7033,11.718750
7034,13.671875
7035,13.671875
7036,13.671875
7037,13.671875
7038,13.671875
7039,13.671875
7040,13.671875
7041,15.625000
7042,13.671875
7043,15.625000
7044,15.625000
7045,15.625000
7046,15.625000
7047,15.625000
7048,17.578125
7049,15.625000
7050,17.578125
7051,17.578125
7052,17.578125
7053,17.578125
7054,17.578125
7055,17.578125
7056,17.578125
7057,17.578125
7058,17.578125
7059,17.578125
7060,17.578125
7061,19.531250
7062,17.578125
7063,19.531250
7064,17.578125
7065,17.578125
7066,17.578125
7067,17.578125
7068,19.531250
7069,17.578125
7070,19.531250
7071,17.578125
7072,17.578125
7073,17.578125
7074,17.578125
7075,17.578125
7076,17.578125
7077,17.578125
7078,17.578125
7079,17.578125
7080,17.578125
7081,17.578125
7082,17.578125
7083,17.578125
7084,15.625000
7085,15.625000
7086,15.625000
7087,15.625000
7088,15.625000
7089,15.625000
7090,15.625000
7091,15.625000
7092,13.671875
7093,13.671875
7094,13.671875
7095,13.671875
7096,13.671875
7097,11.718750
7098,11.718750
7099,11.718750
7100,11.718750
7101,11.718750
7102,9.765625
7103,11.718750
7104,9.765625
7105,9.765625
7106,9.765625
7107,9.765625
7108,7.812500
7109,7.812500
7110,7.812500
7111,5.859375
7112,5.859375
7113,5.859375
7114,5.859375
7115,5.859375
7116,3.906250
7117,3.906250
7118,3.906250
7119,3.906250
7120,1.953125
7121,1.953125
7122,1.953125
7123,1.953125
7124,0.000000
7125,0.000000
7126,0.000000
7127,0.000000
7128,-1.953125
7129,-1.953125
7130,-1.953125
7131,-3.906250
7132,-3.906250
7133,-3.906250
7134,-3.906250
7135,-5.859375
7136,-5.859375
7137,-5.859375
7138,-7.812500
7139,-7.812500
7140,-7.812500
7141,-7.812500
7142,-9.765625
7143,-9.765625
7144,-11.718750
7145,-11.718750
7146,-11.718750
7147,-11.718750
7148,-13.671875
7149,-13.671875
7150,-13.671875
7151,-13.671875
7152,-15.625000
7153,-15.625000
7154,-15.625000
7155,-17.578125
7156,-17.578125
7157,-17.578125
7158,-17.578125
7159,-17.578125
7160,-19.531250
7161,-19.531250
7162,-19.531250
7163,-21.484375
7164,-21.484375
7165,-21.484375
7166,-21.484375
7167,-23.437500
7168,-23.437500
7169,-23.437500
7170,-23.437500
7171,-23.437500
7172,-23.437500
7173,-25.390625
7174,-25.390625
7175,-25.390625
7176,-25.390625
7177,-27.343750
7178,-27.343750
7179,-27.343750
7180,-27.343750
7181,-27.343750
7182,-27.343750
7183,-29.296875
7184,-27.343750
7185,-29.296875
7186,-29.296875
7187,-29.296875
7188,-29.296875
7189,-29.296875
7190,-29.296875
7191,-31.250000
7192,-29.296875
7193,-29.296875
7194,-29.296875
7195,-31.250000
7196,-31.250000
7197,-31.250000
7198,-31.250000
7199,-31.250000
7200,-31.250000
7201,-31.250000
7202,-31.250000
7203,-31.250000
7204,-31.250000
7205,-31.250000
7206,-31.250000
7207,-31.250000
7208,-31.250000
7209,-31.250000
7210,-31.250000
7211,-31.250000
7212,-31.250000
7213,-31.250000
7214,-31.250000
7215,-31.250000
7216,-31.250000
7217,-31.250000
7218,-31.250000
7219,-31.250000
7220,-31.250000
7221,-31.250000
7222,-31.250000
7223,-29.296875
7224,-29.296875
7225,-29.296875
7226,-29.296875
7227,-29.296875
7228,-29.296875
7229,-29.296875
7230,-29.296875
7231,-29.296875
7232,-27.343750
7233,-27.343750
7234,-27.343750
7235,-27.343750
7236,-27.343750
7237,-25.390625
7238,-25.390625
7239,-25.390625
7240,-25.390625
7241,-23.437500
7242,-25.390625
7243,-23.437500
7244,-23.437500
7245,-23.437500
7246,-21.484375
7247,-21.484375
7248,-21.484375
7249,-21.484375
7250,-19.531250
7251,-19.531250
7252,-19.531250
7253,-19.531250
7254,-17.578125
7255,-17.578125
7256,-17.578125
7257,-17.578125
7258,-15.625000
7259,-15.625000
7260,-15.625000
7261,-15.625000
7262,-13.671875
7263,-13.671875
7264,-13.671875
7265,-13.671875
7266,-11.718750
7267,-11.718750
7268,-11.718750
7269,-9.765625
7270,-9.765625
7271,-9.765625
7272,-9.765625
7273,-7.812500
7274,-7.812500
7275,-7.812500
7276,-5.859375
7277,-5.859375
7278,-5.859375
7279,-3.906250
7280,-3.906250
7281,-3.906250
7282,-1.953125
7283,-1.953125
7284,-1.953125
7285,-1.953125
7286,0.000000
7287,0.000000
7288,0.000000
7289,0.000000
7290,1.953125
7291,1.953125
7292,1.953125
7293,1.953125
7294,3.906250
7295,3.906250
7296,3.906250
7297,3.906250
7298,5.859375
7299,5.859375
7300,5.859375
7301,5.859375
7302,5.859375
7303,7.812500
7304,7.812500
7305,7.812500
7306,7.812500
7307,7.812500
7308,9.765625
7309,9.765625
7310,9.765625
7311,11.718750
7312,11.718750
7313,11.718750
7314,11.718750
7315,11.718750
7316,13.671875
7317,13.671875
7318,13.671875
7319,13.671875
7320,13.671875
7321,15.625000
7322,13.671875
7323,15.625000
7324,15.625000
7325,15.625000
7326,15.625000
7327,15.625000
7328,15.625000
7329,17.578125
7330,17.578125
7331,17.578125
7332,17.578125
7333,17.578125
7334,17.578125
7335,17.578125
7336,17.578125
7337,17.578125
7338,17.578125
7339,17.578125
7340,19.531250
7341,17.578125
7342,17.578125
7343,17.578125
7344,17.578125
7345,19.531250
7346,19.531250
7347,19.531250
7348,17.578125
7349,17.578125
7350,17.578125
7351,19.531250
7352,17.578125
7353,17.578125
7354,17.578125
7355,17.578125
7356,17.578125
7357,17.578125
7358,17.578125
7359,17.578125
7360,17.578125
7361,17.578125
7362,17.578125
7363,17.578125
7364,17.578125
7365,15.625000
7366,15.625000
7367,15.625000
7368,15.625000
7369,15.625000
7370,15.625000
7371,15.625000
7372,13.671875
7373,13.671875
7374,13.671875
7375,13.671875
7376,13.671875
7377,13.671875
7378,13.671875
7379,11.718750
7380,11.718750
7381,11.718750
7382,11.718750
7383,11.718750
7384,9.765625
7385,9.765625
7386,9.765625
7387,9.765625
7388,9.765625
7389,9.765625
7390,7.812500
7391,7.812500
7392,7.812500
7393,7.812500
7394,5.859375
7395,5.859375
7396,5.859375
7397,5.859375
7398,3.906250
7399,3.906250
7400,3.906250
7401,3.906250
7402,3.906250
7403,1.953125
7404,1.953125
7405,1.953125
7406,0.000000
7407,0.000000
7408,0.000000
7409,0.000000
7410,-1.953125
7411,-1.953125
7412,-1.953125
7413,-1.953125
7414,-3.906250
7415,-3.906250
7416,-3.906250
7417,-5.859375
7418,-5.859375
7419,-5.859375
7420,-7.812500
7421,-7.812500
7422,-7.812500
7423,-7.812500
7424,-9.765625
7425,-9.765625
7426,-9.765625
7427,-11.718750
7428,-11.718750
7429,-11.718750
7430,-11.718750
7431,-13.671875
7432,-13.671875
7433,-13.671875
7434,-15.625000
7435,-15.625000
7436,-15.625000
7437,-15.625000
7438,-17.578125
7439,-17.578125
7440,-17.578125
7441,-17.578125
7442,-19.531250
7443,-19.531250
7444,-19.531250
7445,-19.531250
7446,-19.531250
7447,-21.484375
7448,-21.484375
7449,-21.484375
7450,-21.484375
7451,-23.437500
7452,-23.437500
7453,-23.437500
7454,-23.437500
7455,-23.437500
7456,-25.390625
7457,-25.390625
7458,-25.390625
7459,-25.390625
7460,-25.390625
7461,-27.343750
7462,-27.343750
7463,-27.343750
7464,-27.343750
7465,-27.343750
7466,-29.296875
7467,-29.296875
7468,-29.296875
7469,-29.296875
7470,-29.296875
7471,-29.296875
7472,-29.296875
7473,-29.296875
7474,-31.250000
7475,-31.250000
7476,-31.250000
7477,-31.250000
7478,-31.250000
7479,-31.250000
7480,-31.250000
7481,-31.250000
7482,-31.250000
7483,-31.250000
7484,-31.250000
7485,-31.250000
7486,-31.250000
7487,-31.250000
7488,-31.250000
7489,-31.250000
7490,-31.250000
7491,-31.250000
7492,-31.250000
7493,-31.250000
7494,-31.250000
7495,-31.250000
7496,-31.250000
7497,-31.250000
7498,-31.250000
7499,-31.250000
7500,-31.250000
7501,-31.250000
7502,-31.250000
7503,-29.296875
7504,-29.296875
7505,-29.296875
7506,-29.296875
7507,-29.296875
7508,-29.296875
7509,-29.296875
7510,-29.296875
7511,-29.296875
7512,-29.296875
7513,-27.343750
7514,-27.343750
7515,-27.343750
7516,-27.343750
7517,-27.343750
7518,-27.343750
7519,-25.390625
7520,-25.390625
7521,-25.390625
7522,-25.390625
7523,-23.437500
7524,-23.437500
7525,-23.437500
7526,-23.437500
7527,-23.437500
7528,-21.484375
7529,-21.484375
7530,-21.484375
7531,-21.484375
7532,-19.531250
7533,-19.531250
7534,-19.531250
7535,-19.531250
7536,-19.531250
7537,-17.578125
7538,-17.578125
7539,-17.578125
7540,-17.578125
7541,-15.625000
7542,-15.625000
7543,-15.625000
7544,-15.625000
7545,-13.671875
7546,-13.671875
7547,-11.718750
7548,-11.718750
7549,-11.718750
7550,-11.718750
7551,-11.718750
7552,-9.765625
7553,-9.765625
7554,-9.765625
7555,-7.812500
7556,-7.812500
7557,-7.812500
7558,-7.812500
7559,-5.859375
7560,-5.859375
7561,-5.859375
7562,-5.859375
7563,-3.906250
7564,-3.906250
7565,-1.953125
7566,-1.953125
7567,-1.953125
7568,-1.953125
7569,0.000000
7570,0.000000
7571,0.000000
7572,0.000000
7573,1.953125
7574,1.953125
7575,1.953125
7576,3.906250
7577,3.906250
7578,3.906250
7579,3.906250
7580,5.859375
7581,5.859375
7582,5.859375
7583,5.859375
7584,5.859375
7585,7.812500
7586,7.812500
7587,7.812500
7588,7.812500
7589,9.765625
7590,9.765625
7591,9.765625
7592,9.765625
7593,9.765625
7594,11.718750
7595,11.718750
7596,11.718750
7597,11.718750
7598,13.671875
7599,13.671875
7600,13.671875
7601,13.671875
7602,13.671875
7603,13.671875
7604,15.625000
7605,15.625000
7606,15.625000
7607,15.625000
7608,15.625000
7609,15.625000
7610,15.625000
7611,15.625000
7612,17.578125
7613,15.625000
7614,15.625000
7615,17.578125
7616,17.578125
7617,17.578125
7618,17.578125
7619,17.578125
7620,17.578125
7621,17.578125
7622,17.578125
7623,17.578125
7624,17.578125
7625,17.578125
7626,17.578125
7627,17.578125
7628,17.578125
7629,17.578125
7630,17.578125
7631,17.578125
7632,19.531250
7633,17.578125
7634,17.578125
7635,19.531250
7636,19.531250
7637,17.578125
7638,17.578125
7639,17.578125
7640,17.578125
7641,17.578125
7642,17.578125
7643,17.578125
7644,17.578125
7645,17.578125
7646,17.578125
7647,17.578125
7648,17.578125
7649,15.625000
7650,15.625000
7651,15.625000
7652,15.625000
7653,15.625000
7654,15.625000
7655,15.625000
7656,13.671875
7657,15.625000
7658,13.671875
7659,13.671875
7660,13.671875
7661,13.671875
7662,13.671875
7663,11.718750
7664,11.718750
7665,11.718750
7666,11.718750
7667,11.718750
7668,11.718750
7669,9.765625
7670,9.765625
7671,9.765625
7672,7.812500
7673,7.812500
7674,7.812500
7675,7.812500
7676,7.812500
7677,7.812500
7678,5.859375
7679,5.859375
7680,5.859375
7681,3.906250
7682,3.906250
7683,3.906250
7684,1.953125
7685,1.953125
7686,1.953125
7687,0.000000
7688,0.000000
7689,0.000000
7690,-1.953125
7691,-1.953125
7692,-1.953125
7693,-1.953125
7694,-1.953125
7695,-1.953125
7696,-3.906250
7697,-3.906250
7698,-3.906250
7699,-3.906250
7700,-5.859375
7701,-5.859375
7702,-5.859375
7703,-7.812500
7704,-7.812500
7705,-7.812500
7706,-9.765625
7707,-9.765625
7708,-9.765625
7709,-9.765625
7710,-11.718750
7711,-11.718750
7712,-11.718750
7713,-13.671875
7714,-13.671875
7715,-13.671875
7716,-13.671875
7717,-13.671875
7718,-15.625000
7719,-15.625000
7720,-15.625000
7721,-17.578125
7722,-17.578125
7723,-17.578125
7724,-17.578125
7725,-21.484375
7726,-19.531250
7727,-19.531250
7728,-19.531250
7729,-21.484375
7730,-21.484375
7731,-21.484375
7732,-21.484375
7733,-21.484375
7734,-23.437500
7735,-23.437500
7736,-25.390625
7737,-25.390625
7738,-23.437500
7739,-25.390625
7740,-25.390625
7741,-25.390625
7742,-25.390625
7743,-27.343750
7744,-27.343750
7745,-27.343750
7746,-27.343750
7747,-29.296875
7748,-27.343750
7749,-29.296875
7750,-29.296875
7751,-29.296875
7752,-29.296875
7753,-29.296875
7754,-29.296875
7755,-31.250000
7756,-31.250000
7757,-29.296875
7758,-31.250000
7759,-31.250000
7760,-31.250000
7761,-31.250000
7762,-31.250000
7763,-31.250000
7764,-31.250000
7765,-31.250000
7766,-31.250000
7767,-31.250000
7768,-31.250000
7769,-31.250000
7770,-31.250000
7771,-31.250000
7772,-31.250000
7773,-31.250000
7774,-31.250000
7775,-31.250000
7776,-31.250000
7777,-31.250000
7778,-31.250000
7779,-31.250000
7780,-31.250000
7781,-31.250000
7782,-31.250000
7783,-29.296875
7784,-31.250000
7785,-31.250000
7786,-31.250000
7787,-29.296875
7788,-29.296875
7789,-29.296875
7790,-29.296875
7791,-29.296875
7792,-29.296875
7793,-27.343750
7794,-29.296875
7795,-27.343750
7796,-27.343750
7797,-27.343750
7798,-27.343750
7799,-27.343750
7800,-27.343750
7801,-25.390625
7802,-25.390625
7803,-25.390625
7804,-25.390625
7805,-25.390625
7806,-25.390625
7807,-23.437500
7808,-23.437500
7809,-23.437500
7810,-23.437500
7811,-23.437500
7812,-21.484375
7813,-21.484375
7814,-21.484375
7815,-21.484375
7816,-19.531250
7817,-19.531250
7818,-19.531250
7819,-19.531250
7820,-17.578125
7821,-17.578125
7822,-15.625000
7823,-15.625000
7824,-15.625000
7825,-15.625000
7826,-15.625000
7827,-13.671875
7828,-13.671875
7829,-13.671875
7830,-13.671875
7831,-11.718750
7832,-11.718750
7833,-9.765625
7834,-9.765625
7835,-9.765625
7836,-9.765625
7837,-9.765625
7838,-7.812500
7839,-7.812500
7840,-5.859375
7841,-5.859375
7842,-5.859375
7843,-5.859375
7844,-5.859375
7845,-3.906250
7846,-3.906250
7847,-3.906250
7848,-1.953125
7849,-1.953125
7850,0.000000
7851,0.000000
7852,0.000000
7853,0.000000
7854,0.000000
7855,1.953125
7856,1.953125
7857,1.953125
7858,3.906250
7859,3.906250
7860,3.906250
7861,3.906250
7862,5.859375
7863,5.859375
7864,5.859375
7865,5.859375
7866,5.859375
7867,7.812500
7868,7.812500
7869,7.812500
7870,7.812500
7871,7.812500
7872,9.765625
7873,9.765625
7874,9.765625
7875,9.765625
7876,11.718750
7877,11.718750
7878,11.718750
7879,11.718750
7880,11.718750
7881,13.671875
7882,13.671875
7883,13.671875
7884,13.671875
7885,13.671875
7886,15.625000
7887,13.671875
7888,15.625000
7889,15.625000
7890,15.625000
7891,15.625000
7892,15.625000
7893,15.625000
7894,15.625000
7895,15.625000
7896,17.578125
7897,17.578125
7898,17.578125
7899,17.578125
7900,17.578125
7901,17.578125
7902,17.578125
7903,17.578125
7904,17.578125
7905,17.578125
7906,17.578125
7907,17.578125
7908,17.578125
7909,19.531250
7910,19.531250
7911,17.578125
7912,19.531250
7913,19.531250
7914,17.578125
7915,19.531250
7916,19.531250
7917,17.578125
7918,17.578125
7919,17.578125
7920,17.578125
7921,17.578125
7922,17.578125
7923,17.578125
7924,17.578125
7925,17.578125
7926,17.578125
7927,17.578125
7928,17.578125
7929,15.625000
7930,17.578125
7931,17.578125
7932,15.625000
7933,15.625000
7934,13.671875
7935,15.625000
7936,15.625000
7937,15.625000
7938,15.625000
7939,15.625000
7940,13.671875
7941,13.671875
7942,13.671875
7943,11.718750
7944,13.671875
7945,11.718750
7946,11.718750
7947,11.718750
7948,9.765625
7949,11.718750
7950,9.765625
7951,9.765625
7952,9.765625
7953,9.765625
7954,9.765625
7955,7.812500
7956,7.812500
7957,7.812500
7958,7.812500
7959,7.812500
7960,5.859375
7961,5.859375
7962,5.859375
7963,5.859375
7964,3.906250
7965,3.906250
7966,1.953125
7967,3.906250
7968,1.953125
7969,1.953125
7970,1.953125
7971,0.000000
7972,0.000000
7973,0.000000
7974,0.000000
7975,-1.953125
7976,-1.953125
7977,-1.953125
7978,-3.906250
7979,-1.953125
7980,-3.906250
7981,-3.906250
7982,-3.906250
7983,-5.859375
7984,-5.859375
7985,-7.812500
7986,-7.812500
7987,-7.812500
7988,-7.812500
7989,-9.765625
7990,-9.765625
7991,-9.765625
7992,-9.765625
7993,-9.765625
7994,-11.718750
7995,-13.671875
7996,-13.671875
7997,-13.671875
7998,-13.671875
7999,-13.671875
8000,-15.625000
8001,-15.625000
8002,-15.625000
8003,-17.578125
8004,-17.578125
8005,-19.531250
8006,-19.531250
8007,-19.531250
8008,-19.531250
8009,-19.531250
8010,-19.531250
8011,-21.484375
8012,-21.484375
8013,-21.484375
8014,-21.484375
8015,-23.437500
8016,-23.437500
8017,-23.437500
8018,-23.437500
8019,-23.437500
8020,-25.390625
8021,-25.390625
8022,-25.390625
8023,-25.390625
8024,-25.390625
8025,-25.390625
8026,-27.343750
8027,-27.343750
8028,-27.343750
8029,-27.343750
8030,-27.343750
8031,-27.343750
8032,-27.343750
8033,-29.296875
8034,-29.296875
8035,-29.296875
8036,-29.296875
8037,-29.296875
8038,-29.296875
8039,-31.250000
8040,-31.250000
8041,-31.250000
8042,-31.250000
8043,-31.250000
8044,-31.250000
8045,-31.250000
8046,-31.250000
8047,-31.250000
8048,-31.250000
8049,-31.250000
8050,-31.250000
8051,-31.250000
8052,-31.250000
8053,-31.250000
8054,-31.250000
8055,-31.250000
8056,-31.250000
8057,-31.250000
8058,-31.250000
8059,-31.250000
8060,-31.250000
8061,-31.250000
8062,-31.250000
8063,-31.250000
8064,-31.250000
8065,-29.296875
8066,-31.250000
8067,-31.250000
8068,-29.296875
8069,-29.296875
8070,-31.250000
8071,-29.296875
8072,-29.296875
8073,-29.296875
8074,-29.296875
8075,-29.296875
8076,-27.343750
8077,-27.343750
8078,-27.343750
8079,-27.343750
8080,-27.343750
8081,-27.343750
8082,-27.343750
8083,-25.390625
8084,-25.390625
8085,-25.390625
8086,-25.390625
8087,-25.390625
8088,-25.390625
8089,-23.437500
8090,-23.437500
8091,-23.437500
8092,-23.437500
8093,-21.484375
8094,-21.484375
8095,-21.484375
8096,-21.484375
8097,-19.531250
8098,-19.531250
8099,-19.531250
8100,-19.531250
8101,-17.578125
8102,-17.578125
8103,-17.578125
8104,-17.578125
8105,-15.625000
8106,-15.625000
8107,-15.625000
8108,-15.625000
8109,-13.671875
8110,-13.671875
8111,-13.671875
8112,-11.718750
8113,-11.718750
8114,-11.718750
8115,-11.718750
8116,-9.765625
8117,-9.765625
8118,-9.765625
8119,-9.765625
8120,-5.859375
8121,-7.812500
8122,-7.812500
8123,-5.859375
8124,-5.859375
8125,-5.859375
8126,-5.859375
8127,-3.906250
8128,-3.906250
8129,-3.906250
8130,-1.953125
8131,-1.953125
8132,-1.953125
8133,-1.953125
8134,-1.953125
8135,0.000000
8136,0.000000
8137,0.000000
8138,1.953125
8139,1.953125
8140,1.953125
8141,1.953125
8142,3.906250
8143,3.906250
8144,3.906250
8145,5.859375
8146,5.859375
8147,5.859375
8148,5.859375
8149,5.859375
8150,5.859375
8151,7.812500
8152,7.812500
8153,7.812500
8154,9.765625
8155,9.765625
8156,9.765625
8157,9.765625
8158,9.765625
8159,11.718750
8160,11.718750
8161,11.718750
8162,11.718750
8163,11.718750
8164,11.718750
8165,11.718750
8166,13.671875
8167,13.671875
8168,13.671875
8169,15.625000
8170,15.625000
8171,15.625000
8172,15.625000
8173,15.625000
8174,15.625000
8175,15.625000
8176,17.578125
8177,17.578125
8178,17.578125
8179,17.578125
8180,17.578125
8181,17.578125
8182,17.578125
8183,17.578125
8184,17.578125
8185,17.578125
8186,17.578125
8187,17.578125
8188,17.578125
8189,17.578125
8190,17.578125
8191,19.531250
8192,17.578125
8193,19.531250
8194,19.531250
8195,17.578125
8196,17.578125
8197,17.578125
8198,17.578125
8199,17.578125
8200,17.578125
8201,17.578125
8202,17.578125
8203,17.578125
8204,17.578125
8205,17.578125
8206,17.578125
8207,17.578125
8208,17.578125
8209,17.578125
8210,17.578125
8211,15.625000
8212,15.625000
8213,17.578125
8214,15.625000
8215,15.625000
8216,15.625000
8217,15.625000
8218,15.625000
8219,15.625000
8220,15.625000
8221,15.625000
8222,13.671875
8223,13.671875
8224,13.671875
8225,13.671875
8226,13.671875
8227,13.671875
8228,11.718750
8229,11.718750
8230,11.718750
8231,11.718750
8232,11.718750
8233,11.718750
8234,9.765625
8235,9.765625
8236,9.765625
8237,9.765625
8238,9.765625
8239,7.812500
8240,7.812500
8241,7.812500
8242,7.812500
8243,5.859375
8244,5.859375
8245,5.859375
8246,5.859375
8247,3.906250
8248,3.906250
8249,1.953125
8250,1.953125
8251,1.953125
8252,0.000000
8253,0.000000
8254,0.000000
8255,0.000000
8256,0.000000
8257,-1.953125
8258,-1.953125
8259,-1.953125
8260,-3.906250
8261,-3.906250
8262,-3.906250
8263,-3.906250
8264,-5.859375
8265,-5.859375
8266,-5.859375
8267,-7.812500
8268,-7.812500
8269,-7.812500
8270,-9.765625
8271,-9.765625
8272,-9.765625
8273,-9.765625
8274,-11.718750
8275,-11.718750
8276,-11.718750
8277,-13.671875
8278,-13.671875
8279,-13.671875
8280,-13.671875
8281,-13.671875
8282,-15.625000
8283,-15.625000
8284,-15.625000
8285,-15.625000
8286,-17.578125
8287,-17.578125
8288,-17.578125
8289,-19.531250
8290,-19.531250
8291,-19.531250
8292,-19.531250
8293,-21.484375
8294,-21.484375
8295,-21.484375
8296,-21.484375
8297,-21.484375
8298,-23.437500
8299,-23.437500
8300,-23.437500
8301,-23.437500
8302,-25.390625
8303,-25.390625
8304,-25.390625
8305,-25.390625
8306,-27.343750
8307,-25.390625
8308,-27.343750
8309,-27.343750
8310,-27.343750
8311,-27.343750
8312,-27.343750
8313,-27.343750
8314,-29.296875
8315,-29.296875
8316,-29.296875
8317,-29.296875
8318,-29.296875
8319,-29.296875
8320,-29.296875
8321,-31.250000
8322,-31.250000
8323,-31.250000
8324,-31.250000
8325,-31.250000
8326,-31.250000
8327,-31.250000
8328,-31.250000
8329,-31.250000
8330,-31.250000
8331,-31.250000
8332,-31.250000
8333,-31.250000
8334,-31.250000
8335,-31.250000
8336,-31.250000
8337,-33.203125
8338,-33.203125
8339,-31.250000
8340,-31.250000
8341,-31.250000
8342,-31.250000
8343,-31.250000
8344,-31.250000
8345,-31.250000
8346,-31.250000
8347,-31.250000
8348,-31.250000
8349,-31.250000
8350,-29.296875
8351,-29.296875
8352,-29.296875
8353,-29.296875
8354,-29.296875
8355,-29.296875
8356,-29.296875
8357,-29.296875
8358,-29.296875
8359,-27.343750
8360,-27.343750
8361,-27.343750
8362,-27.343750
8363,-27.343750
8364,-27.343750
8365,-25.390625
8366,-25.390625
8367,-25.390625
8368,-25.390625
8369,-25.390625
8370,-25.390625
8371,-23.437500
8372,-23.437500
8373,-21.484375
8374,-23.437500
8375,-23.437500
8376,-21.484375
8377,-21.484375
8378,-21.484375
8379,-21.484375
8380,-19.531250
8381,-19.531250
8382,-19.531250
8383,-19.531250
8384,-17.578125
8385,-17.578125
8386,-17.578125
8387,-17.578125
8388,-15.625000
8389,-15.625000
8390,-15.625000
8391,-15.625000
8392,-13.671875
8393,-13.671875
8394,-11.718750
8395,-11.718750
8396,-11.718750
8397,-11.718750
8398,-9.765625
8399,-9.765625
8400,-9.765625
8401,-9.765625
8402,-7.812500
8403,-7.812500
8404,-7.812500
8405,-7.812500
8406,-5.859375
8407,-5.859375
8408,-5.859375
8409,-3.906250
8410,-3.906250
8411,-3.906250
8412,-3.906250
8413,-1.953125
8414,-1.953125
8415,-1.953125
8416,0.000000
8417,0.000000
8418,0.000000
8419,0.000000
8420,1.953125
8421,1.953125
8422,1.953125
8423,3.906250
8424,3.906250
8425,3.906250
8426,3.906250
8427,5.859375
8428,5.859375
8429,5.859375
8430,5.859375
8431,5.859375
8432,7.812500
8433,7.812500
8434,7.812500
8435,7.812500
8436,9.765625
8437,9.765625
8438,9.765625
8439,9.765625
8440,11.718750
8441,11.718750
8442,11.718750
8443,11.718750
8444,11.718750
8445,11.718750
8446,13.671875
8447,13.671875
8448,13.671875
8449,13.671875
8450,15.625000
8451,15.625000
8452,15.625000
8453,15.625000
8454,15.625000
8455,15.625000
8456,15.625000
8457,15.625000
8458,15.625000
8459,15.625000
8460,17.578125
8461,17.578125
8462,17.578125
8463,17.578125
8464,17.578125
8465,17.578125
8466,17.578125
8467,17.578125
8468,17.578125
8469,19.531250
8470,17.578125
8471,17.578125
8472,17.578125
8473,19.531250
8474,17.578125
8475,17.578125
8476,19.531250
8477,17.578125
8478,19.531250
8479,19.531250
8480,19.531250
8481,17.578125
8482,17.578125
8483,19.531250
8484,19.531250
8485,17.578125
8486,17.578125
8487,17.578125
8488,17.578125
8489,17.578125
8490,17.578125
8491,17.578125
8492,17.578125
8493,17.578125
8494,17.578125
8495,15.625000
8496,15.625000
8497,17.578125
8498,17.578125
8499,15.625000
8500,15.625000
8501,15.625000
8502,15.625000
8503,15.625000
8504,13.671875
8505,13.671875
8506,13.671875
8507,13.671875
8508,13.671875
8509,11.718750
8510,11.718750
8511,11.718750
8512,11.718750
8513,11.718750
8514,11.718750
8515,11.718750
8516,9.765625
8517,9.765625
8518,9.765625
8519,9.765625
8520,9.765625
8521,7.812500
8522,5.859375
8523,7.812500
8524,5.859375
8525,5.859375
8526,5.859375
8527,3.906250
8528,3.906250
8529,3.906250
8530,3.906250
8531,1.953125
8532,1.953125
8533,1.953125
8534,1.953125
8535,1.953125
8536,0.000000
8537,0.000000
8538,0.000000
8539,-1.953125
8540,-1.953125
8541,-1.953125
8542,-1.953125
8543,-3.906250
8544,-3.906250
8545,-3.906250
8546,-3.906250
8547,-5.859375
8548,-5.859375
8549,-5.859375
8550,-7.812500
8551,-7.812500
8552,-7.812500
8553,-7.812500
8554,-9.765625
8555,-9.765625
8556,-9.765625
8557,-11.718750
8558,-11.718750
8559,-11.718750
8560,-13.671875
8561,-13.671875
8562,-13.671875
8563,-13.671875
8564,-15.625000
8565,-15.625000
8566,-15.625000
8567,-15.625000
8568,-17.578125
8569,-17.578125
8570,-17.578125
8571,-19.531250
8572,-19.531250
8573,-19.531250
8574,-19.531250
8575,-19.531250
8576,-21.484375
8577,-21.484375
8578,-21.484375
8579,-23.437500
8580,-23.437500
8581,-23.437500
8582,-23.437500
8583,-25.390625
8584,-23.437500
8585,-25.390625
8586,-25.390625
8587,-25.390625
8588,-25.390625
8589,-27.343750
8590,-27.343750
8591,-27.343750
8592,-27.343750
8593,-27.343750
8594,-27.343750
8595,-29.296875
8596,-29.296875
8597,-29.296875
8598,-29.296875
8599,-29.296875
8600,-29.296875
8601,-29.296875
8602,-29.296875
8603,-31.250000
8604,-31.250000
8605,-31.250000
8606,-31.250000
8607,-31.250000
8608,-31.250000
8609,-31.250000
8610,-31.250000
8611,-31.250000
8612,-31.250000
8613,-31.250000
8614,-31.250000
8615,-31.250000
8616,-31.250000
8617,-31.250000
8618,-31.250000
8619,-31.250000
8620,-31.250000
8621,-31.250000
8622,-31.250000
8623,-31.250000
8624,-31.250000
8625,-31.250000
8626,-31.250000
8627,-31.250000
8628,-31.250000
8629,-31.250000
8630,-31.250000
8631,-31.250000
8632,-29.296875
8633,-29.296875
8634,-29.296875
8635,-29.296875
8636,-29.296875
8637,-29.296875
8638,-29.296875
8639,-27.343750
8640,-29.296875
8641,-29.296875
8642,-27.343750
8643,-27.343750
8644,-27.343750
8645,-27.343750
8646,-27.343750
8647,-27.343750
8648,-27.343750
8649,-25.390625
8650,-25.390625
8651,-25.390625
8652,-25.390625
8653,-23.437500
8654,-23.437500
8655,-23.437500
8656,-23.437500
8657,-23.437500
8658,-23.437500
8659,-21.484375
8660,-21.484375
8661,-21.484375
8662,-19.531250
8663,-19.531250
8664,-19.531250
8665,-19.531250
8666,-17.578125
8667,-17.578125
8668,-17.578125
8669,-17.578125
8670,-15.625000
8671,-15.625000
8672,-15.625000
8673,-13.671875
8674,-11.718750
8675,-13.671875
8676,-13.671875
8677,-11.718750
8678,-11.718750
8679,-11.718750
8680,-9.765625
8681,-9.765625
8682,-9.765625
8683,-7.812500
8684,-7.812500
8685,-7.812500
8686,-7.812500
8687,-7.812500
8688,-5.859375
8689,-5.859375
8690,-5.859375
8691,-3.906250
8692,-3.906250
8693,-3.906250
8694,-3.906250
8695,-1.953125
8696,-1.953125
8697,-1.953125
8698,0.000000
8699,0.000000
8700,0.000000
8701,0.000000
8702,1.953125
8703,1.953125
8704,1.953125
8705,1.953125
8706,3.906250
8707,3.906250
8708,3.906250
8709,3.906250
8710,3.906250
8711,5.859375
8712,5.859375
8713,5.859375
8714,7.812500
8715,7.812500
8716,7.812500
8717,7.812500
8718,7.812500
8719,9.765625
8720,9.765625
8721,9.765625
8722,9.765625
8723,9.765625
8724,11.718750
8725,11.718750
8726,11.718750
8727,11.718750
8728,11.718750
8729,13.671875
8730,13.671875
8731,13.671875
8732,13.671875
8733,15.625000
8734,15.625000
8735,15.625000
8736,15.625000
8737,15.625000
8738,15.625000
8739,15.625000
8740,15.625000
8741,17.578125
8742,17.578125
8743,17.578125
8744,17.578125
8745,17.578125
8746,17.578125
8747,17.578125
8748,17.578125
8749,17.578125
8750,17.578125
8751,17.578125
8752,17.578125
8753,17.578125
8754,17.578125
8755,17.578125
8756,17.578125
8757,19.531250
8758,19.531250
8759,19.531250
8760,17.578125
8761,19.531250
8762,17.578125
8763,17.578125
8764,19.531250
8765,17.578125
8766,17.578125
8767,17.578125
8768,17.578125
8769,17.578125
8770,17.578125
8771,17.578125
8772,17.578125
8773,17.578125
8774,17.578125
8775,15.625000
8776,17.578125
8777,17.578125
8778,17.578125
8779,15.625000
8780,15.625000
8781,15.625000
8782,15.625000
8783,15.625000
8784,15.625000
8785,15.625000
8786,13.671875
8787,13.671875
8788,13.671875
8789,13.671875
8790,13.671875
8791,13.671875
8792,11.718750
8793,11.718750
8794,11.718750
8795,11.718750
8796,11.718750
8797,9.765625
8798,9.765625
8799,9.765625
8800,9.765625
8801,9.765625
8802,7.812500
8803,7.812500
8804,7.812500
8805,7.812500
8806,5.859375
8807,5.859375
8808,5.859375
8809,5.859375
8810,5.859375
8811,3.906250
8812,3.906250
8813,3.906250
8814,3.906250
8815,1.953125
8816,1.953125
8817,1.953125
8818,1.953125
8819,0.000000
8820,0.000000
8821,-1.953125
8822,-1.953125
8823,-1.953125
8824,-1.953125
8825,-3.906250
8826,-3.906250
8827,-3.906250
8828,-3.906250
8829,-5.859375
8830,-5.859375
8831,-5.859375
8832,-7.812500
8833,-7.812500
8834,-7.812500
8835,-9.765625
8836,-9.765625
8837,-9.765625
8838,-9.765625
8839,-11.718750
8840,-11.718750
8841,-11.718750
8842,-13.671875
8843,-13.671875
8844,-13.671875
8845,-13.671875
8846,-15.625000
8847,-15.625000
8848,-15.625000
8849,-17.578125
8850,-17.578125
8851,-17.578125
8852,-17.578125
8853,-19.531250
8854,-19.531250
8855,-19.531250
8856,-19.531250
8857,-19.531250
8858,-21.484375
8859,-21.484375
8860,-21.484375
8861,-23.437500
8862,-23.437500
8863,-23.437500
8864,-23.437500
8865,-23.437500
8866,-25.390625
8867,-25.390625
8868,-25.390625
8869,-25.390625
8870,-25.390625
8871,-27.343750
8872,-27.343750
8873,-27.343750
8874,-27.343750
8875,-27.343750
8876,-27.343750
8877,-29.296875
8878,-27.343750
8879,-29.296875
8880,-29.296875
8881,-29.296875
8882,-29.296875
8883,-29.296875
8884,-29.296875
8885,-29.296875
8886,-31.250000
8887,-31.250000
8888,-31.250000
8889,-31.250000
8890,-31.250000
8891,-29.296875
8892,-31.250000
8893,-31.250000
8894,-31.250000
8895,-31.250000
8896,-31.250000
8897,-31.250000
8898,-31.250000
8899,-31.250000
8900,-29.296875
8901,-31.250000
8902,-31.250000
8903,-33.203125
8904,-31.250000
8905,-31.250000
8906,-31.250000
8907,-31.250000
8908,-31.250000
8909,-31.250000
8910,-31.250000
8911,-31.250000
8912,-31.250000
8913,-31.250000
8914,-31.250000
8915,-31.250000
8916,-29.296875
8917,-31.250000
8918,-29.296875
8919,-29.296875
8920,-31.250000
8921,-29.296875
8922,-29.296875
8923,-29.296875
8924,-27.343750
8925,-27.343750
8926,-27.343750
8927,-27.343750
8928,-27.343750
8929,-25.390625
8930,-25.390625
8931,-25.390625
8932,-25.390625
8933,-25.390625
8934,-25.390625
8935,-25.390625
8936,-23.437500
8937,-23.437500
8938,-23.437500
8939,-21.484375
8940,-21.484375
8941,-21.484375
8942,-21.484375
8943,-21.484375
8944,-19.531250
8945,-19.531250
8946,-19.531250
8947,-17.578125
8948,-19.531250
8949,-17.578125
8950,-17.578125
8951,-17.578125
8952,-15.625000
8953,-15.625000
8954,-15.625000
8955,-15.625000
8956,-13.671875
8957,-13.671875
8958,-13.671875
8959,-11.718750
8960,-11.718750
8961,-11.718750
8962,-11.718750
8963,-11.718750
8964,-9.765625
8965,-9.765625
8966,-9.765625
8967,-7.812500
8968,-7.812500
8969,-5.859375
8970,-7.812500
8971,-5.859375
8972,-5.859375
8973,-5.859375
8974,-3.906250
8975,-3.906250
8976,-3.906250
8977,-3.906250
8978,-3.906250
8979,-1.953125
8980,-1.953125
8981,-1.953125
8982,0.000000
8983,0.000000
8984,1.953125
8985,1.953125
8986,1.953125
8987,1.953125
8988,3.906250
8989,3.906250
8990,3.906250
8991,3.906250
8992,5.859375
8993,5.859375
8994,5.859375
8995,5.859375
8996,7.812500
8997,7.812500
8998,7.812500
8999,7.812500
9000,9.765625
9001,9.765625
9002,9.765625
9003,9.765625
9004,9.765625
9005,11.718750
9006,11.718750
9007,11.718750
9008,11.718750
9009,13.671875
9010,11.718750
9011,11.718750
9012,13.671875
9013,13.671875
9014,13.671875
9015,13.671875
9016,13.671875
9017,15.625000
9018,15.625000
9019,15.625000
9020,15.625000
9021,15.625000
9022,15.625000
9023,17.578125
9024,15.625000
9025,17.578125
9026,17.578125
9027,17.578125
9028,17.578125
9029,17.578125
9030,17.578125
9031,17.578125
9032,17.578125
9033,17.578125
9034,19.531250
9035,17.578125
9036,19.531250
9037,17.578125
9038,17.578125
9039,19.531250
9040,19.531250
9041,17.578125
9042,17.578125
9043,17.578125
9044,17.578125
9045,19.531250
9046,19.531250
9047,17.578125
9048,17.578125
9049,17.578125
9050,17.578125
9051,17.578125
9052,17.578125
9053,17.578125
9054,17.578125
9055,17.578125
9056,17.578125
9057,17.578125
9058,17.578125
9059,17.578125
9060,17.578125
9061,15.625000
9062,15.625000
9063,15.625000
9064,15.625000
9065,15.625000
9066,15.625000
9067,13.671875
9068,15.625000
9069,13.671875
9070,13.671875
9071,13.671875
9072,13.671875
9073,13.671875
9074,11.718750
9075,13.671875
9076,11.718750
9077,11.718750
9078,11.718750
9079,11.718750
9080,9.765625
9081,9.765625
9082,9.765625
9083,9.765625
9084,9.765625
9085,7.812500
9086,7.812500
9087,7.812500
9088,7.812500
9089,5.859375
9090,5.859375
9091,5.859375
9092,5.859375
9093,3.906250
9094,3.906250
9095,3.906250
9096,1.953125
9097,1.953125
9098,1.953125
9099,0.000000
9100,1.953125
9101,0.000000
9102,0.000000
9103,-1.953125
9104,-1.953125
9105,-1.953125
9106,-1.953125
9107,-3.906250
9108,-3.906250
9109,-3.906250
9110,-5.859375
9111,-5.859375
9112,-5.859375
9113,-5.859375
9114,-5.859375
9115,-7.812500
9116,-7.812500
9117,-7.812500
9118,-9.765625
9119,-9.765625
9120,-9.765625
9121,-11.718750
9122,-11.718750
9123,-11.718750
9124,-13.671875
9125,-13.671875
9126,-13.671875
9127,-13.671875
9128,-15.625000
9129,-13.671875
9130,-15.625000
9131,-15.625000
9132,-15.625000
9133,-17.578125
9134,-17.578125
9135,-17.578125
9136,-19.531250
9137,-19.531250
9138,-19.531250
9139,-21.484375
9140,-21.484375
9141,-21.484375
9142,-21.484375
9143,-21.484375
9144,-21.484375
9145,-23.437500
9146,-23.437500
9147,-23.437500
9148,-25.390625
9149,-25.390625
9150,-25.390625
9151,-25.390625
9152,-25.390625
9153,-25.390625
9154,-27.343750
9155,-27.343750
9156,-27.343750
9157,-27.343750
9158,-27.343750
9159,-27.343750
9160,-27.343750
9161,-29.296875
9162,-29.296875
9163,-29.296875
9164,-29.296875
9165,-29.296875
9166,-31.250000
9167,-29.296875
9168,-31.250000
9169,-31.250000
9170,-31.250000
9171,-31.250000
9172,-31.250000
9173,-31.250000
9174,-31.250000
9175,-31.250000
9176,-31.250000
9177,-31.250000
9178,-31.250000
9179,-31.250000
9180,-31.250000
9181,-33.203125
9182,-31.250000
9183,-31.250000
9184,-31.250000
9185,-31.250000
9186,-31.250000
9187,-31.250000
9188,-31.250000
9189,-31.250000
9190,-31.250000
9191,-31.250000
9192,-31.250000
9193,-31.250000
9194,-31.250000
9195,-31.250000
9196,-31.250000
9197,-29.296875
9198,-29.296875
9199,-29.296875
9200,-29.296875
9201,-29.296875
9202,-29.296875
9203,-29.296875
9204,-29.296875
9205,-27.343750
9206,-27.343750
9207,-27.343750
9208,-27.343750
9209,-27.343750
9210,-27.343750
9211,-27.343750
9212,-25.390625
9213,-25.390625
9214,-25.390625
9215,-25.390625
9216,-25.390625
9217,-25.390625
9218,-23.437500
9219,-23.437500
9220,-23.437500
9221,-23.437500
9222,-21.484375
9223,-21.484375
9224,-21.484375
9225,-21.484375
9226,-19.531250
9227,-19.531250
9228,-19.531250
9229,-19.531250
9230,-19.531250
9231,-17.578125
9232,-17.578125
9233,-17.578125
9234,-15.625000
9235,-15.625000
9236,-15.625000
9237,-15.625000
9238,-13.671875
9239,-13.671875
9240,-13.671875
9241,-11.718750
9242,-13.671875
9243,-11.718750
9244,-11.718750
9245,-11.718750
9246,-9.765625
9247,-9.765625
9248,-9.765625
9249,-7.812500
9250,-7.812500
9251,-5.859375
9252,-5.859375
9253,-5.859375
9254,-5.859375
9255,-5.859375
9256,-3.906250
9257,-3.906250
9258,-1.953125
9259,-3.906250
9260,-1.953125
9261,-1.953125
9262,-1.953125
9263,0.000000
9264,0.000000
9265,0.000000
9266,0.000000
9267,1.953125
9268,1.953125
9269,1.953125
9270,3.906250
9271,3.906250
9272,3.906250
9273,3.906250
9274,3.906250
9275,5.859375
9276,5.859375
9277,5.859375
9278,5.859375
9279,5.859375
9280,9.765625
9281,7.812500
9282,7.812500
9283,7.812500
9284,9.765625
9285,9.765625
9286,9.765625
9287,9.765625
9288,11.718750
9289,13.671875
9290,11.718750
9291,11.718750
9292,11.718750
9293,11.718750
9294,13.671875
9295,13.671875
9296,13.671875
9297,13.671875
9298,13.671875
9299,15.625000
9300,15.625000
9301,15.625000
9302,15.625000
9303,15.625000
9304,15.625000
9305,15.625000
9306,15.625000
9307,15.625000
9308,17.578125
9309,17.578125
9310,17.578125
9311,17.578125
9312,17.578125
9313,17.578125
9314,17.578125
9315,17.578125
9316,17.578125
9317,17.578125
9318,17.578125
9319,19.531250
9320,19.531250
9321,17.578125
9322,17.578125
9323,17.578125
9324,17.578125
9325,17.578125
9326,17.578125
9327,19.531250
9328,17.578125
9329,17.578125
9330,17.578125
9331,17.578125
9332,17.578125
9333,17.578125
9334,17.578125
9335,17.578125
9336,17.578125
9337,17.578125
9338,17.578125
9339,17.578125
9340,17.578125
9341,17.578125
9342,17.578125
9343,15.625000
9344,15.625000
9345,15.625000
9346,15.625000
9347,15.625000
9348,15.625000
9349,15.625000
9350,13.671875
9351,13.671875
9352,13.671875
9353,13.671875
9354,13.671875
9355,13.671875
9356,13.671875
9357,11.718750
9358,11.718750
9359,11.718750
9360,11.718750
9361,9.765625
9362,9.765625
9363,9.765625
9364,9.765625
9365,9.765625
9366,7.812500
9367,7.812500
9368,7.812500
9369,7.812500
9370,7.812500
9371,5.859375
9372,5.859375
9373,5.859375
9374,5.859375
9375,3.906250
9376,3.906250
9377,3.906250
9378,3.906250
9379,1.953125
9380,1.953125
9381,1.953125
9382,1.953125
9383,0.000000
9384,0.000000
9385,0.000000
9386,0.000000
9387,-1.953125
9388,-1.953125
9389,-1.953125
9390,-3.906250
9391,-3.906250
9392,-3.906250
9393,-3.906250
9394,-5.859375
9395,-5.859375
9396,-5.859375
9397,-7.812500
9398,-7.812500
9399,-7.812500
9400,-9.765625
9401,-9.765625
9402,-9.765625
9403,-9.765625
9404,-11.718750
9405,-11.718750
9406,-11.718750
9407,-11.718750
9408,-13.671875
9409,-15.625000
9410,-13.671875
9411,-15.625000
9412,-15.625000
9413,-15.625000
9414,-15.625000
9415,-17.578125
9416,-17.578125
9417,-17.578125
9418,-17.578125
9419,-19.531250
9420,-19.531250
9421,-19.531250
9422,-21.484375
9423,-21.484375
9424,-21.484375
9425,-21.484375
9426,-21.484375
9427,-23.437500
9428,-23.437500
9429,-23.437500
9430,-23.437500
9431,-23.437500
9432,-25.390625
9433,-25.390625
9434,-25.390625
9435,-25.390625
9436,-27.343750
9437,-27.343750
9438,-27.343750
9439,-27.343750
9440,-27.343750
9441,-27.343750
9442,-27.343750
9443,-29.296875
9444,-29.296875
9445,-29.296875
9446,-29.296875
9447,-29.296875
9448,-31.250000
9449,-29.296875
9450,-29.296875
9451,-31.250000
9452,-31.250000
9453,-31.250000
9454,-31.250000
9455,-31.250000
9456,-31.250000
9457,-31.250000
9458,-31.250000
9459,-31.250000
9460,-31.250000
9461,-31.250000
9462,-31.250000
9463,-31.250000
9464,-31.250000
9465,-31.250000
9466,-31.250000
9467,-31.250000
9468,-31.250000
9469,-33.203125
9470,-31.250000
9471,-31.250000
9472,-31.250000
9473,-31.250000
9474,-31.250000
9475,-31.250000
9476,-31.250000
9477,-29.296875
9478,-31.250000
9479,-31.250000
9480,-29.296875
9481,-29.296875
9482,-29.296875
9483,-29.296875
9484,-29.296875
9485,-29.296875
9486,-29.296875
9487,-29.296875
9488,-29.296875
9489,-27.343750
9490,-27.343750
9491,-27.343750
9492,-27.343750
9493,-27.343750
9494,-27.343750
9495,-27.343750
9496,-25.390625
9497,-27.343750
9498,-25.390625
9499,-25.390625
9500,-23.437500
9501,-23.437500
9502,-23.437500
9503,-23.437500
9504,-23.437500
9505,-21.484375
9506,-21.484375
9507,-21.484375
9508,-21.484375
9509,-19.531250
9510,-19.531250
9511,-19.531250
9512,-17.578125
9513,-17.578125
9514,-17.578125
9515,-17.578125
9516,-15.625000
9517,-15.625000
9518,-15.625000
9519,-15.625000
9520,-13.671875
9521,-13.671875
9522,-13.671875
9523,-13.671875
9524,-11.718750
9525,-11.718750
9526,-11.718750
9527,-9.765625
9528,-9.765625
9529,-9.765625
9530,-9.765625
9531,-9.765625
9532,-7.812500
9533,-7.812500
9534,-7.812500
9535,-5.859375
9536,-5.859375
9537,-3.906250
9538,-3.906250
9539,-3.906250
9540,-3.906250
9541,-3.906250
9542,-1.953125
9543,-1.953125
9544,-1.953125
9545,-1.953125
9546,0.000000
9547,0.000000
9548,0.000000
9549,1.953125
9550,1.953125
9551,1.953125
9552,3.906250
9553,3.906250
9554,3.906250
9555,3.906250
9556,3.906250
9557,3.906250
9558,5.859375
9559,5.859375
9560,5.859375
9561,7.812500
9562,7.812500
9563,7.812500
9564,9.765625
9565,9.765625
9566,9.765625
9567,9.765625
9568,9.765625
9569,9.765625
9570,11.718750
9571,11.718750
9572,11.718750
9573,11.718750
9574,11.718750
9575,13.671875
9576,13.671875
9577,13.671875
9578,13.671875
9579,13.671875
9580,13.671875
9581,15.625000
9582,15.625000
9583,15.625000
9584,15.625000
9585,15.625000
9586,15.625000
9587,15.625000
9588,15.625000
9589,17.578125
9590,17.578125
9591,17.578125
9592,17.578125
9593,17.578125
9594,17.578125
9595,17.578125
9596,17.578125
9597,17.578125
9598,17.578125
9599,17.578125
9600,19.531250
9601,19.531250
9602,19.531250
9603,17.578125
9604,17.578125
9605,17.578125
9606,19.531250
9607,19.531250
9608,19.531250
9609,17.578125
9610,17.578125
9611,17.578125
9612,17.578125
9613,19.531250
9614,17.578125
9615,17.578125
9616,17.578125
9617,17.578125
9618,17.578125
9619,17.578125
9620,17.578125
9621,17.578125
9622,15.625000
9623,17.578125
9624,17.578125
9625,17.578125
9626,15.625000
9627,15.625000
9628,15.625000
9629,15.625000
9630,13.671875
9631,15.625000
9632,13.671875
9633,15.625000
9634,13.671875
9635,13.671875
9636,13.671875
9637,13.671875
9638,13.671875
9639,11.718750
9640,11.718750
9641,11.718750
9642,11.718750
9643,11.718750
9644,11.718750
9645,9.765625
9646,9.765625
9647,9.765625
9648,9.765625
9649,7.812500
9650,7.812500
9651,7.812500
9652,7.812500
9653,7.812500
9654,5.859375
9655,5.859375
9656,5.859375
9657,5.859375
9658,3.906250
9659,3.906250
9660,3.906250
9661,1.953125
9662,1.953125
9663,1.953125
9664,1.953125
9665,0.000000
9666,0.000000
9667,0.000000
9668,-1.953125
9669,-1.953125
9670,-1.953125
9671,-1.953125
9672,-3.906250
9673,-3.906250
9674,-3.906250
9675,-5.859375
9676,-5.859375
9677,-5.859375
9678,-3.906250
9679,-7.812500
9680,-7.812500
9681,-7.812500
9682,-7.812500
9683,-9.765625
9684,-9.765625
9685,-9.765625
9686,-11.718750
9687,-11.718750
9688,-11.718750
9689,-13.671875
9690,-13.671875
9691,-13.671875
9692,-13.671875
9693,-15.625000
9694,-15.625000
9695,-15.625000
9696,-17.578125
9697,-17.578125
9698,-17.578125
9699,-17.578125
9700,-19.531250
9701,-19.531250
9702,-19.531250
9703,-19.531250
9704,-19.531250
9705,-21.484375
9706,-21.484375
9707,-21.484375
9708,-21.484375
9709,-23.437500
9710,-23.437500
9711,-23.437500
9712,-23.437500
9713,-23.437500
9714,-25.390625
9715,-25.390625
9716,-25.390625
9717,-25.390625
9718,-25.390625
9719,-25.390625
9720,-27.343750
9721,-27.343750
9722,-27.343750
9723,-27.343750
9724,-27.343750
9725,-29.296875
9726,-29.296875
9727,-29.296875
9728,-29.296875
9729,-29.296875
9730,-29.296875
9731,-29.296875
9732,-29.296875
9733,-31.250000
9734,-31.250000
9735,-31.250000
9736,-31.250000
9737,-31.250000
9738,-31.250000
9739,-31.250000
9740,-31.250000
9741,-31.250000
9742,-31.250000
9743,-31.250000
9744,-31.250000
9745,-31.250000
9746,-31.250000
9747,-31.250000
9748,-31.250000
9749,-31.250000
9750,-31.250000
9751,-31.250000
9752,-31.250000
9753,-31.250000
9754,-31.250000
9755,-31.250000
9756,-31.250000
9757,-31.250000
9758,-31.250000
9759,-31.250000
9760,-31.250000
9761,-31.250000
9762,-31.250000
9763,-29.296875
9764,-29.296875
9765,-31.250000
9766,-29.296875
9767,-29.296875
9768,-29.296875
9769,-29.296875
9770,-27.343750
9771,-27.343750
9772,-27.343750
9773,-27.343750
9774,-27.343750
9775,-27.343750
9776,-27.343750
9777,-25.390625
9778,-25.390625
9779,-25.390625
9780,-25.390625
9781,-25.390625
9782,-23.437500
9783,-23.437500
9784,-23.437500
9785,-23.437500
9786,-21.484375
9787,-21.484375
9788,-21.484375
9789,-21.484375
9790,-21.484375
9791,-19.531250
9792,-19.531250
9793,-19.531250
9794,-19.531250
9795,-17.578125
9796,-17.578125
9797,-17.578125
9798,-17.578125
9799,-15.625000
9800,-15.625000
9801,-15.625000
9802,-15.625000
9803,-15.625000
9804,-13.671875
9805,-13.671875
9806,-11.718750
9807,-11.718750
9808,-11.718750
9809,-11.718750
9810,-11.718750
9811,-9.765625
9812,-9.765625
9813,-7.812500
9814,-7.812500
9815,-7.812500
9816,-7.812500
9817,-5.859375
9818,-5.859375
9819,-5.859375
9820,-3.906250
9821,-3.906250
9822,-3.906250
9823,-3.906250
9824,-3.906250
9825,-1.953125
9826,-1.953125
9827,0.000000
9828,0.000000
9829,0.000000
9830,0.000000
9831,1.953125
9832,1.953125
9833,1.953125
9834,1.953125
9835,3.906250
9836,5.859375
9837,3.906250
9838,3.906250
9839,5.859375
9840,5.859375
9841,5.859375
9842,5.859375
9843,7.812500
9844,7.812500
9845,7.812500
9846,7.812500
9847,7.812500
9848,9.765625
9849,9.765625
9850,9.765625
9851,9.765625
9852,11.718750
9853,11.718750
9854,11.718750
9855,11.718750
9856,11.718750
9857,11.718750
9858,13.671875
9859,13.671875
9860,13.671875
9861,13.671875
9862,13.671875
9863,15.625000
9864,15.625000
9865,15.625000
9866,15.625000
9867,15.625000
9868,15.625000
9869,15.625000
9870,17.578125
9871,15.625000
9872,17.578125
9873,17.578125
9874,17.578125
9875,17.578125
9876,17.578125
9877,17.578125
9878,17.578125
9879,17.578125
9880,17.578125
9881,17.578125
9882,17.578125
9883,17.578125
9884,17.578125
9885,17.578125
9886,17.578125
9887,17.578125
9888,17.578125
9889,19.531250
9890,17.578125
9891,17.578125
9892,17.578125
9893,17.578125
9894,17.578125
9895,17.578125
9896,17.578125
9897,17.578125
9898,17.578125
9899,17.578125
9900,17.578125
9901,17.578125
9902,17.578125
9903,17.578125
9904,17.578125
9905,17.578125
9906,17.578125
9907,17.578125
9908,17.578125
9909,15.625000
9910,15.625000
9911,15.625000
9912,15.625000
9913,15.625000
9914,15.625000
9915,13.671875
9916,13.671875
9917,13.671875
9918,13.671875
9919,13.671875
9920,13.671875
9921,11.718750
9922,11.718750
9923,11.718750
9924,11.718750
9925,11.718750
9926,9.765625
9927,9.765625
9928,9.765625
9929,9.765625
9930,9.765625
9931,7.812500
9932,7.812500
9933,7.812500
9934,7.812500
9935,7.812500
9936,5.859375
9937,5.859375
9938,5.859375
9939,3.906250
9940,3.906250
9941,3.906250
9942,3.906250
9943,1.953125
9944,1.953125
9945,1.953125
9946,1.953125
9947,1.953125
9948,0.000000
9949,0.000000
9950,0.000000
9951,-1.953125
9952,-1.953125
9953,-1.953125
9954,-1.953125
9955,-3.906250
9956,-3.906250
9957,-3.906250
9958,-5.859375
9959,-5.859375
9960,-5.859375
9961,-5.859375
9962,-7.812500
9963,-7.812500
9964,-9.765625
9965,-9.765625
9966,-9.765625
9967,-9.765625
9968,-9.765625
9969,-11.718750
9970,-11.718750
9971,-11.718750
9972,-13.671875
9973,-13.671875
9974,-13.671875
9975,-15.625000
9976,-15.625000
9977,-15.625000
9978,-15.625000
9979,-17.578125
9980,-17.578125
9981,-17.578125
9982,-17.578125
9983,-19.531250
9984,-19.531250
9985,-19.531250
9986,-19.531250
9987,-21.484375
9988,-21.484375
9989,-21.484375
9990,-21.484375
9991,-23.437500
9992,-23.437500
9993,-23.437500
9994,-23.437500
9995,-25.390625
9996,-25.390625
9997,-25.390625
9998,-25.390625
9999,-25.390625
10000,-25.390625
