Channel              :,CH1
Frequency            :,1.771kHz
Period               :,0.565ms
PK-PK                :,177.7mV
Probe attenuation    :,1X
Voltage per ADC value:,0.122070mV
Time interval        :,2.00000us

index,CH1_Voltage(mV)
1,78.125000
2,78.125000
3,78.125000
4,78.125000
5,78.125000
6,78.125000
7,76.171875
8,78.125000
9,76.171875
10,76.171875
11,76.171875
12,74.218750
13,76.171875
14,74.218750
15,74.218750
16,72.265625
17,72.265625
18,72.265625
19,72.265625
20,70.312500
21,70.312500
22,68.359375
23,68.359375
24,68.359375
25,64.453125
26,64.453125
27,64.453125
28,62.500000
29,62.500000
30,60.546875
31,58.593750
32,58.593750
33,56.640625
34,56.640625
35,54.687500
36,52.734375
37,52.734375
38,50.781250
39,48.828125
40,48.828125
41,46.875000
42,44.921875
43,42.968750
44,41.015625
45,41.015625
46,39.062500
47,37.109375
48,35.156250
49,33.203125
50,33.203125
51,31.250000
52,29.296875
53,27.343750
54,25.390625
55,25.390625
56,21.484375
57,21.484375
58,19.531250
59,17.578125
60,15.625000
61,11.718750
62,11.718750
63,9.765625
64,7.812500
65,5.859375
66,1.953125
67,1.953125
68,0.000000
69,-1.953125
70,-5.859375
71,-5.859375
72,-7.812500
73,-9.765625
74,-11.718750
75,-13.671875
76,-17.578125
77,-17.578125
78,-19.531250
79,-23.437500
80,-23.437500
81,-27.343750
82,-27.343750
83,-29.296875
84,-33.203125
85,-33.203125
86,-35.156250
87,-39.062500
88,-39.062500
89,-41.015625
90,-42.968750
91,-44.921875
92,-46.875000
93,-48.828125
94,-50.781250
95,-52.734375
96,-54.687500
97,-56.640625
98,-58.593750
99,-58.593750
100,-60.546875
101,-62.500000
102,-64.453125
103,-64.453125
104,-66.406250
105,-68.359375
106,-70.312500
107,-70.312500
108,-72.265625
109,-74.218750
110,-74.218750
111,-76.171875
112,-78.125000
113,-78.125000
114,-80.078125
115,-82.031250
116,-82.031250
117,-82.031250
118,-83.984375
119,-85.937500
120,-85.937500
121,-85.937500
122,-87.890625
123,-87.890625
124,-89.843750
125,-91.796875
126,-89.843750
127,-91.796875
128,-93.750000
129,-93.750000
130,-93.750000
131,-93.750000
132,-95.703125
133,-95.703125
134,-95.703125
135,-95.703125
136,-95.703125
137,-95.703125
138,-95.703125
139,-95.703125
140,-97.656250
141,-95.703125
142,-95.703125
143,-95.703125
144,-95.703125
145,-95.703125
146,-95.703125
147,-95.703125
148,-95.703125
149,-93.750000
150,-93.750000
151,-93.750000
152,-93.750000
153,-91.796875
154,-91.796875
155,-91.796875
156,-89.843750
157,-89.843750
158,-87.890625
159,-87.890625
160,-87.890625
161,-85.937500
162,-83.984375
163,-83.984375
164,-83.984375
165,-82.031250
166,-82.031250
167,-80.078125
168,-80.078125
169,-78.125000
170,-76.171875
171,-74.218750
172,-74.218750
173,-74.218750
174,-70.312500
175,-68.359375
176,-68.359375
177,-66.406250
178,-64.453125
179,-62.500000
180,-62.500000
181,-60.546875
182,-58.593750
183,-56.640625
184,-54.687500
185,-52.734375
186,-50.781250
187,-50.781250
188,-48.828125
189,-44.921875
190,-44.921875
191,-42.968750
192,-41.015625
193,-39.062500
194,-37.109375
195,-35.156250
196,-33.203125
197,-31.250000
198,-29.296875
199,-27.343750
200,-25.390625
201,-23.437500
202,-21.484375
203,-19.531250
204,-17.578125
205,-15.625000
206,-15.625000
207,-11.718750
208,-9.765625
209,-7.812500
210,-5.859375
211,-3.906250
212,-1.953125
213,0.000000
214,1.953125
215,1.953125
216,5.859375
217,7.812500
218,9.765625
219,9.765625
220,13.671875
221,15.625000
222,17.578125
223,17.578125
224,19.531250
225,23.437500
226,23.437500
227,25.390625
228,27.343750
229,29.296875
230,31.250000
231,33.203125
232,35.156250
233,35.156250
234,37.109375
235,39.062500
236,41.015625
237,41.015625
238,42.968750
239,44.921875
240,46.875000
241,48.828125
242,48.828125
243,50.781250
244,52.734375
245,54.687500
246,54.687500
247,56.640625
248,56.640625
249,58.593750
250,60.546875
251,60.546875
252,62.500000
253,64.453125
254,64.453125
255,64.453125
256,66.406250
257,66.406250
258,68.359375
259,68.359375
260,70.312500
261,70.312500
262,70.312500
263,72.265625
264,72.265625
265,72.265625
266,72.265625
267,74.218750
268,74.218750
269,76.171875
270,76.171875
271,76.171875
272,76.171875
273,76.171875
274,76.171875
275,76.171875
276,78.125000
277,78.125000
278,78.125000
279,78.125000
280,78.125000
281,78.125000
282,78.125000
283,78.125000
284,78.125000
285,78.125000
286,78.125000
287,78.125000
288,78.125000
289,76.171875
290,76.171875
291,76.171875
292,76.171875
293,76.171875
294,76.171875
295,74.218750
296,74.218750
297,74.218750
298,72.265625
299,72.265625
300,72.265625
301,72.265625
302,70.312500
303,70.312500
304,68.359375
305,68.359375
306,68.359375
307,66.406250
308,64.453125
309,64.453125
310,64.453125
311,62.500000
312,60.546875
313,60.546875
314,58.593750
315,58.593750
316,56.640625
317,54.687500
318,54.687500
319,52.734375
320,52.734375
321,50.781250
322,48.828125
323,46.875000
324,46.875000
325,44.921875
326,42.968750
327,41.015625
328,39.062500
329,39.062500
330,37.109375
331,35.156250
332,33.203125
333,31.250000
334,31.250000
335,27.343750
336,25.390625
337,25.390625
338,23.437500
339,21.484375
340,19.531250
341,17.578125
342,15.625000
343,13.671875
344,11.718750
345,9.765625
346,7.812500
347,5.859375
348,3.906250
349,1.953125
350,0.000000
351,-1.953125
352,-3.906250
353,-5.859375
354,-7.812500
355,-9.765625
356,-11.718750
357,-13.671875
358,-15.625000
359,-17.578125
360,-19.531250
361,-21.484375
362,-23.437500
363,-25.390625
364,-27.343750
365,-29.296875
366,-31.250000
367,-33.203125
368,-35.156250
369,-37.109375
370,-39.062500
371,-42.968750
372,-42.968750
373,-44.921875
374,-46.875000
375,-48.828125
376,-48.828125
377,-50.781250
378,-54.687500
379,-54.687500
380,-56.640625
381,-58.593750
382,-60.546875
383,-62.500000
384,-64.453125
385,-64.453125
386,-66.406250
387,-68.359375
388,-70.312500
389,-70.312500
390,-72.265625
391,-74.218750
392,-74.218750
393,-76.171875
394,-78.125000
395,-78.125000
396,-80.078125
397,-82.031250
398,-82.031250
399,-83.984375
400,-83.984375
401,-85.937500
402,-87.890625
403,-87.890625
404,-87.890625
405,-89.843750
406,-89.843750
407,-91.796875
408,-91.796875
409,-91.796875
410,-91.796875
411,-93.750000
412,-93.750000
413,-93.750000
414,-95.703125
415,-95.703125
416,-95.703125
417,-95.703125
418,-95.703125
419,-95.703125
420,-95.703125
421,-97.656250
422,-97.656250
423,-95.703125
424,-97.656250
425,-97.656250
426,-97.656250
427,-95.703125
428,-95.703125
429,-95.703125
430,-95.703125
431,-95.703125
432,-93.750000
433,-93.750000
434,-93.750000
435,-93.750000
436,-91.796875
437,-91.796875
438,-91.796875
439,-89.843750
440,-89.843750
441,-87.890625
442,-87.890625
443,-87.890625
444,-85.937500
445,-83.984375
446,-83.984375
447,-82.031250
448,-82.031250
449,-80.078125
450,-78.125000
451,-78.125000
452,-76.171875
453,-76.171875
454,-74.218750
455,-72.265625
456,-72.265625
457,-70.312500
458,-68.359375
459,-66.406250
460,-66.406250
461,-64.453125
462,-62.500000
463,-60.546875
464,-58.593750
465,-56.640625
466,-56.640625
467,-54.687500
468,-52.734375
469,-50.781250
470,-48.828125
471,-46.875000
472,-44.921875
473,-42.968750
474,-41.015625
475,-39.062500
476,-37.109375
477,-35.156250
478,-33.203125
479,-33.203125
480,-31.250000
481,-29.296875
482,-25.390625
483,-25.390625
484,-23.437500
485,-21.484375
486,-17.578125
487,-17.578125
488,-15.625000
489,-13.671875
490,-9.765625
491,-7.812500
492,-7.812500
493,-5.859375
494,-1.953125
495,0.000000
496,0.000000
497,1.953125
498,3.906250
499,5.859375
500,9.765625
501,9.765625
502,11.718750
503,15.625000
504,17.578125
505,17.578125
506,19.531250
507,21.484375
508,25.390625
509,25.390625
510,27.343750
511,29.296875
512,31.250000
513,33.203125
514,33.203125
515,35.156250
516,37.109375
517,39.062500
518,41.015625
519,42.968750
520,42.968750
521,44.921875
522,46.875000
523,46.875000
524,48.828125
525,50.781250
526,52.734375
527,52.734375
528,54.687500
529,56.640625
530,56.640625
531,58.593750
532,58.593750
533,60.546875
534,62.500000
535,62.500000
536,64.453125
537,64.453125
538,66.406250
539,66.406250
540,68.359375
541,68.359375
542,68.359375
543,70.312500
544,70.312500
545,72.265625
546,72.265625
547,72.265625
548,72.265625
549,74.218750
550,74.218750
551,74.218750
552,76.171875
553,76.171875
554,76.171875
555,78.125000
556,78.125000
557,76.171875
558,78.125000
559,78.125000
560,78.125000
561,78.125000
562,78.125000
563,78.125000
564,78.125000
565,78.125000
566,78.125000
567,78.125000
568,78.125000
569,78.125000
570,78.125000
571,78.125000
572,78.125000
573,76.171875
574,76.171875
575,76.171875
576,76.171875
577,76.171875
578,74.218750
579,74.218750
580,74.218750
581,72.265625
582,72.265625
583,72.265625
584,70.312500
585,70.312500
586,70.312500
587,68.359375
588,68.359375
589,66.406250
590,66.406250
591,64.453125
592,64.453125
593,62.500000
594,62.500000
595,60.546875
596,58.593750
597,58.593750
598,56.640625
599,56.640625
600,54.687500
601,52.734375
602,50.781250
603,50.781250
604,46.875000
605,46.875000
606,46.875000
607,44.921875
608,42.968750
609,41.015625
610,39.062500
611,39.062500
612,37.109375
613,35.156250
614,33.203125
615,31.250000
616,29.296875
617,29.296875
618,27.343750
619,25.390625
620,23.437500
621,21.484375
622,19.531250
623,17.578125
624,15.625000
625,13.671875
626,11.718750
627,9.765625
628,7.812500
629,5.859375
630,5.859375
631,1.953125
632,1.953125
633,-1.953125
634,-3.906250
635,-5.859375
636,-5.859375
637,-9.765625
638,-11.718750
639,-11.718750
640,-13.671875
641,-15.625000
642,-19.531250
643,-21.484375
644,-21.484375
645,-25.390625
646,-27.343750
647,-27.343750
648,-29.296875
649,-33.203125
650,-35.156250
651,-37.109375
652,-37.109375
653,-41.015625
654,-41.015625
655,-44.921875
656,-44.921875
657,-46.875000
658,-48.828125
659,-50.781250
660,-52.734375
661,-54.687500
662,-56.640625
663,-58.593750
664,-60.546875
665,-60.546875
666,-62.500000
667,-64.453125
668,-66.406250
669,-68.359375
670,-68.359375
671,-70.312500
672,-72.265625
673,-72.265625
674,-74.218750
675,-76.171875
676,-76.171875
677,-78.125000
678,-80.078125
679,-82.031250
680,-82.031250
681,-83.984375
682,-83.984375
683,-85.937500
684,-85.937500
685,-87.890625
686,-87.890625
687,-87.890625
688,-89.843750
689,-89.843750
690,-91.796875
691,-91.796875
692,-91.796875
693,-93.750000
694,-93.750000
695,-93.750000
696,-93.750000
697,-95.703125
698,-95.703125
699,-95.703125
700,-95.703125
701,-95.703125
702,-95.703125
703,-95.703125
704,-95.703125
705,-95.703125
706,-95.703125
707,-95.703125
708,-93.750000
709,-95.703125
710,-95.703125
711,-95.703125
712,-95.703125
713,-95.703125
714,-93.750000
715,-93.750000
716,-93.750000
717,-91.796875
718,-91.796875
719,-91.796875
720,-91.796875
721,-89.843750
722,-89.843750
723,-87.890625
724,-87.890625
725,-87.890625
726,-85.937500
727,-85.937500
728,-83.984375
729,-82.031250
730,-82.031250
731,-82.031250
732,-80.078125
733,-78.125000
734,-78.125000
735,-76.171875
736,-74.218750
737,-74.218750
738,-72.265625
739,-70.312500
740,-68.359375
741,-66.406250
742,-66.406250
743,-64.453125
744,-62.500000
745,-60.546875
746,-58.593750
747,-58.593750
748,-56.640625
749,-54.687500
750,-52.734375
751,-50.781250
752,-48.828125
753,-46.875000
754,-46.875000
755,-44.921875
756,-42.968750
757,-39.062500
758,-39.062500
759,-37.109375
760,-35.156250
761,-33.203125
762,-31.250000
763,-29.296875
764,-27.343750
765,-25.390625
766,-23.437500
767,-19.531250
768,-19.531250
769,-19.531250
770,-15.625000
771,-13.671875
772,-9.765625
773,-9.765625
774,-5.859375
775,-3.906250
776,-3.906250
777,-1.953125
778,0.000000
779,3.906250
780,3.906250
781,5.859375
782,7.812500
783,9.765625
784,11.718750
785,13.671875
786,15.625000
787,17.578125
788,19.531250
789,21.484375
790,23.437500
791,25.390625
792,25.390625
793,27.343750
794,29.296875
795,31.250000
796,33.203125
797,35.156250
798,37.109375
799,37.109375
800,39.062500
801,41.015625
802,42.968750
803,44.921875
804,44.921875
805,46.875000
806,48.828125
807,48.828125
808,50.781250
809,52.734375
810,52.734375
811,54.687500
812,56.640625
813,58.593750
814,58.593750
815,60.546875
816,62.500000
817,62.500000
818,62.500000
819,64.453125
820,64.453125
821,66.406250
822,66.406250
823,68.359375
824,70.312500
825,70.312500
826,70.312500
827,72.265625
828,72.265625
829,72.265625
830,74.218750
831,74.218750
832,74.218750
833,74.218750
834,76.171875
835,76.171875
836,76.171875
837,76.171875
838,78.125000
839,78.125000
840,78.125000
841,78.125000
842,78.125000
843,78.125000
844,78.125000
845,78.125000
846,78.125000
847,78.125000
848,78.125000
849,78.125000
850,78.125000
851,78.125000
852,78.125000
853,78.125000
854,78.125000
855,76.171875
856,76.171875
857,76.171875
858,76.171875
859,74.218750
860,74.218750
861,74.218750
862,72.265625
863,72.265625
864,72.265625
865,72.265625
866,70.312500
867,70.312500
868,68.359375
869,68.359375
870,66.406250
871,66.406250
872,66.406250
873,64.453125
874,64.453125
875,62.500000
876,62.500000
877,60.546875
878,60.546875
879,58.593750
880,56.640625
881,56.640625
882,54.687500
883,52.734375
884,50.781250
885,50.781250
886,48.828125
887,48.828125
888,46.875000
889,44.921875
890,44.921875
891,42.968750
892,41.015625
893,39.062500
894,37.109375
895,35.156250
896,35.156250
897,33.203125
898,31.250000
899,29.296875
900,27.343750
901,25.390625
902,23.437500
903,21.484375
904,21.484375
905,19.531250
906,15.625000
907,15.625000
908,13.671875
909,11.718750
910,9.765625
911,7.812500
912,5.859375
913,3.906250
914,0.000000
915,0.000000
916,-1.953125
917,-3.906250
918,-5.859375
919,-9.765625
920,-9.765625
921,-13.671875
922,-13.671875
923,-15.625000
924,-17.578125
925,-21.484375
926,-21.484375
927,-23.437500
928,-27.343750
929,-29.296875
930,-29.296875
931,-31.250000
932,-35.156250
933,-37.109375
934,-37.109375
935,-39.062500
936,-42.968750
937,-42.968750
938,-44.921875
939,-46.875000
940,-48.828125
941,-50.781250
942,-52.734375
943,-54.687500
944,-56.640625
945,-56.640625
946,-58.593750
947,-60.546875
948,-62.500000
949,-64.453125
950,-64.453125
951,-66.406250
952,-68.359375
953,-70.312500
954,-72.265625
955,-72.265625
956,-74.218750
957,-76.171875
958,-76.171875
959,-78.125000
960,-78.125000
961,-80.078125
962,-82.031250
963,-82.031250
964,-83.984375
965,-85.937500
966,-85.937500
967,-85.937500
968,-87.890625
969,-89.843750
970,-89.843750
971,-89.843750
972,-91.796875
973,-91.796875
974,-91.796875
975,-91.796875
976,-93.750000
977,-93.750000
978,-93.750000
979,-95.703125
980,-95.703125
981,-93.750000
982,-95.703125
983,-95.703125
984,-95.703125
985,-95.703125
986,-97.656250
987,-95.703125
988,-95.703125
989,-97.656250
990,-97.656250
991,-95.703125
992,-95.703125
993,-95.703125
994,-95.703125
995,-95.703125
996,-93.750000
997,-93.750000
998,-93.750000
999,-93.750000
1000,-93.750000
1001,-93.750000
1002,-91.796875
1003,-91.796875
1004,-89.843750
1005,-89.843750
1006,-87.890625
1007,-87.890625
1008,-85.937500
1009,-85.937500
1010,-85.937500
1011,-83.984375
1012,-82.031250
1013,-82.031250
1014,-80.078125
1015,-78.125000
1016,-78.125000
1017,-76.171875
1018,-74.218750
1019,-74.218750
1020,-72.265625
1021,-70.312500
1022,-68.359375
1023,-68.359375
1024,-66.406250
1025,-64.453125
1026,-62.500000
1027,-62.500000
1028,-60.546875
1029,-56.640625
1030,-56.640625
1031,-56.640625
1032,-52.734375
1033,-50.781250
1034,-48.828125
1035,-48.828125
1036,-44.921875
1037,-44.921875
1038,-42.968750
1039,-41.015625
1040,-39.062500
1041,-37.109375
1042,-35.156250
1043,-33.203125
1044,-31.250000
1045,-29.296875
1046,-27.343750
1047,-25.390625
1048,-23.437500
1049,-21.484375
1050,-19.531250
1051,-17.578125
1052,-15.625000
1053,-13.671875
1054,-11.718750
1055,-9.765625
1056,-7.812500
1057,-5.859375
1058,-3.906250
1059,-1.953125
1060,-1.953125
1061,1.953125
1062,3.906250
1063,5.859375
1064,7.812500
1065,9.765625
1066,11.718750
1067,13.671875
1068,13.671875
1069,17.578125
1070,17.578125
1071,19.531250
1072,23.437500
1073,23.437500
1074,25.390625
1075,27.343750
1076,29.296875
1077,31.250000
1078,33.203125
1079,35.156250
1080,37.109375
1081,37.109375
1082,39.062500
1083,41.015625
1084,42.968750
1085,42.968750
1086,44.921875
1087,46.875000
1088,48.828125
1089,50.781250
1090,50.781250
1091,52.734375
1092,54.687500
1093,54.687500
1094,56.640625
1095,58.593750
1096,58.593750
1097,60.546875
1098,60.546875
1099,62.500000
1100,62.500000
1101,64.453125
1102,66.406250
1103,66.406250
1104,68.359375
1105,68.359375
1106,68.359375
1107,70.312500
1108,70.312500
1109,70.312500
1110,72.265625
1111,72.265625
1112,74.218750
1113,74.218750
1114,74.218750
1115,76.171875
1116,76.171875
1117,76.171875
1118,76.171875
1119,76.171875
1120,78.125000
1121,76.171875
1122,78.125000
1123,78.125000
1124,78.125000
1125,78.125000
1126,78.125000
1127,78.125000
1128,78.125000
1129,78.125000
1130,78.125000
1131,78.125000
1132,78.125000
1133,78.125000
1134,78.125000
1135,78.125000
1136,78.125000
1137,76.171875
1138,76.171875
1139,76.171875
1140,76.171875
1141,76.171875
1142,74.218750
1143,74.218750
1144,74.218750
1145,74.218750
1146,72.265625
1147,72.265625
1148,72.265625
1149,70.312500
1150,70.312500
1151,70.312500
1152,68.359375
1153,68.359375
1154,66.406250
1155,66.406250
1156,64.453125
1157,64.453125
1158,62.500000
1159,60.546875
1160,60.546875
1161,58.593750
1162,58.593750
1163,56.640625
1164,54.687500
1165,54.687500
1166,52.734375
1167,50.781250
1168,48.828125
1169,48.828125
1170,46.875000
1171,46.875000
1172,44.921875
1173,42.968750
1174,41.015625
1175,39.062500
1176,37.109375
1177,37.109375
1178,35.156250
1179,33.203125
1180,35.156250
1181,29.296875
1182,27.343750
1183,25.390625
1184,25.390625
1185,23.437500
1186,19.531250
1187,19.531250
1188,17.578125
1189,15.625000
1190,13.671875
1191,11.718750
1192,9.765625
1193,7.812500
1194,5.859375
1195,3.906250
1196,1.953125
1197,0.000000
1198,-1.953125
1199,-3.906250
1200,-5.859375
1201,-7.812500
1202,-9.765625
1203,-11.718750
1204,-13.671875
1205,-15.625000
1206,-17.578125
1207,-19.531250
1208,-21.484375
1209,-23.437500
1210,-25.390625
1211,-27.343750
1212,-29.296875
1213,-31.250000
1214,-33.203125
1215,-35.156250
1216,-37.109375
1217,-39.062500
1218,-41.015625
1219,-42.968750
1220,-42.968750
1221,-46.875000
1222,-48.828125
1223,-50.781250
1224,-50.781250
1225,-52.734375
1226,-54.687500
1227,-56.640625
1228,-58.593750
1229,-60.546875
1230,-62.500000
1231,-62.500000
1232,-64.453125
1233,-66.406250
1234,-68.359375
1235,-68.359375
1236,-70.312500
1237,-72.265625
1238,-74.218750
1239,-74.218750
1240,-76.171875
1241,-78.125000
1242,-78.125000
1243,-80.078125
1244,-82.031250
1245,-82.031250
1246,-83.984375
1247,-85.937500
1248,-85.937500
1249,-85.937500
1250,-87.890625
1251,-89.843750
1252,-87.890625
1253,-89.843750
1254,-91.796875
1255,-91.796875
1256,-91.796875
1257,-91.796875
1258,-93.750000
1259,-93.750000
1260,-93.750000
1261,-95.703125
1262,-95.703125
1263,-95.703125
1264,-95.703125
1265,-95.703125
1266,-95.703125
1267,-95.703125
1268,-97.656250
1269,-95.703125
1270,-95.703125
1271,-95.703125
1272,-95.703125
1273,-95.703125
1274,-95.703125
1275,-95.703125
1276,-95.703125
1277,-93.750000
1278,-95.703125
1279,-93.750000
1280,-93.750000
1281,-93.750000
1282,-91.796875
1283,-91.796875
1284,-91.796875
1285,-89.843750
1286,-89.843750
1287,-89.843750
1288,-87.890625
1289,-87.890625
1290,-85.937500
1291,-85.937500
1292,-83.984375
1293,-83.984375
1294,-82.031250
1295,-82.031250
1296,-80.078125
1297,-78.125000
1298,-78.125000
1299,-74.218750
1300,-74.218750
1301,-74.218750
1302,-72.265625
1303,-72.265625
1304,-70.312500
1305,-68.359375
1306,-66.406250
1307,-66.406250
1308,-64.453125
1309,-62.500000
1310,-60.546875
1311,-58.593750
1312,-58.593750
1313,-56.640625
1314,-52.734375
1315,-50.781250
1316,-50.781250
1317,-48.828125
1318,-46.875000
1319,-44.921875
1320,-44.921875
1321,-41.015625
1322,-39.062500
1323,-37.109375
1324,-35.156250
1325,-33.203125
1326,-31.250000
1327,-29.296875
1328,-29.296875
1329,-25.390625
1330,-25.390625
1331,-23.437500
1332,-19.531250
1333,-19.531250
1334,-15.625000
1335,-15.625000
1336,-11.718750
1337,-9.765625
1338,-9.765625
1339,-5.859375
1340,-3.906250
1341,-1.953125
1342,0.000000
1343,0.000000
1344,3.906250
1345,5.859375
1346,7.812500
1347,9.765625
1348,11.718750
1349,11.718750
1350,15.625000
1351,15.625000
1352,19.531250
1353,19.531250
1354,21.484375
1355,23.437500
1356,25.390625
1357,27.343750
1358,29.296875
1359,31.250000
1360,33.203125
1361,33.203125
1362,35.156250
1363,37.109375
1364,39.062500
1365,39.062500
1366,42.968750
1367,42.968750
1368,44.921875
1369,46.875000
1370,46.875000
1371,48.828125
1372,50.781250
1373,52.734375
1374,54.687500
1375,54.687500
1376,56.640625
1377,56.640625
1378,58.593750
1379,58.593750
1380,60.546875
1381,62.500000
1382,62.500000
1383,64.453125
1384,68.359375
1385,64.453125
1386,66.406250
1387,68.359375
1388,68.359375
1389,68.359375
1390,70.312500
1391,70.312500
1392,72.265625
1393,72.265625
1394,72.265625
1395,74.218750
1396,74.218750
1397,74.218750
1398,74.218750
1399,76.171875
1400,76.171875
1401,76.171875
1402,76.171875
1403,78.125000
1404,78.125000
1405,78.125000
1406,78.125000
1407,78.125000
1408,78.125000
1409,78.125000
1410,78.125000
1411,78.125000
1412,78.125000
1413,78.125000
1414,78.125000
1415,78.125000
1416,78.125000
1417,78.125000
1418,78.125000
1419,78.125000
1420,76.171875
1421,76.171875
1422,78.125000
1423,76.171875
1424,76.171875
1425,74.218750
1426,74.218750
1427,74.218750
1428,72.265625
1429,72.265625
1430,72.265625
1431,70.312500
1432,70.312500
1433,68.359375
1434,68.359375
1435,68.359375
1436,66.406250
1437,66.406250
1438,64.453125
1439,62.500000
1440,62.500000
1441,62.500000
1442,60.546875
1443,58.593750
1444,58.593750
1445,56.640625
1446,56.640625
1447,54.687500
1448,52.734375
1449,50.781250
1450,50.781250
1451,48.828125
1452,48.828125
1453,44.921875
1454,44.921875
1455,42.968750
1456,41.015625
1457,39.062500
1458,39.062500
1459,35.156250
1460,35.156250
1461,35.156250
1462,33.203125
1463,29.296875
1464,29.296875
1465,27.343750
1466,25.390625
1467,23.437500
1468,21.484375
1469,19.531250
1470,17.578125
1471,15.625000
1472,13.671875
1473,11.718750
1474,9.765625
1475,9.765625
1476,5.859375
1477,3.906250
1478,3.906250
1479,1.953125
1480,0.000000
1481,-1.953125
1482,-5.859375
1483,-7.812500
1484,-7.812500
1485,-9.765625
1486,-13.671875
1487,-15.625000
1488,-15.625000
1489,-17.578125
1490,-21.484375
1491,-21.484375
1492,-23.437500
1493,-25.390625
1494,-27.343750
1495,-29.296875
1496,-31.250000
1497,-35.156250
1498,-37.109375
1499,-37.109375
1500,-39.062500
1501,-42.968750
1502,-42.968750
1503,-44.921875
1504,-46.875000
1505,-48.828125
1506,-50.781250
1507,-52.734375
1508,-54.687500
1509,-56.640625
1510,-58.593750
1511,-60.546875
1512,-60.546875
1513,-62.500000
1514,-64.453125
1515,-66.406250
1516,-68.359375
1517,-68.359375
1518,-70.312500
1519,-72.265625
1520,-72.265625
1521,-74.218750
1522,-76.171875
1523,-78.125000
1524,-78.125000
1525,-80.078125
1526,-82.031250
1527,-82.031250
1528,-82.031250
1529,-83.984375
1530,-85.937500
1531,-85.937500
1532,-87.890625
1533,-91.796875
1534,-89.843750
1535,-89.843750
1536,-89.843750
1537,-91.796875
1538,-91.796875
1539,-91.796875
1540,-91.796875
1541,-93.750000
1542,-93.750000
1543,-93.750000
1544,-93.750000
1545,-95.703125
1546,-95.703125
1547,-95.703125
1548,-95.703125
1549,-95.703125
1550,-95.703125
1551,-95.703125
1552,-95.703125
1553,-97.656250
1554,-95.703125
1555,-95.703125
1556,-95.703125
1557,-95.703125
1558,-95.703125
1559,-95.703125
1560,-93.750000
1561,-93.750000
1562,-93.750000
1563,-93.750000
1564,-91.796875
1565,-91.796875
1566,-91.796875
1567,-91.796875
1568,-91.796875
1569,-89.843750
1570,-87.890625
1571,-87.890625
1572,-85.937500
1573,-85.937500
1574,-85.937500
1575,-83.984375
1576,-82.031250
1577,-82.031250
1578,-80.078125
1579,-80.078125
1580,-78.125000
1581,-76.171875
1582,-76.171875
1583,-74.218750
1584,-74.218750
1585,-72.265625
1586,-70.312500
1587,-68.359375
1588,-68.359375
1589,-66.406250
1590,-64.453125
1591,-62.500000
1592,-62.500000
1593,-60.546875
1594,-58.593750
1595,-56.640625
1596,-54.687500
1597,-52.734375
1598,-50.781250
1599,-48.828125
1600,-46.875000
1601,-44.921875
1602,-42.968750
1603,-41.015625
1604,-39.062500
1605,-37.109375
1606,-35.156250
1607,-35.156250
1608,-33.203125
1609,-31.250000
1610,-27.343750
1611,-25.390625
1612,-25.390625
1613,-23.437500
1614,-19.531250
1615,-17.578125
1616,-15.625000
1617,-15.625000
1618,-13.671875
1619,-11.718750
1620,-7.812500
1621,-7.812500
1622,-5.859375
1623,-3.906250
1624,0.000000
1625,1.953125
1626,1.953125
1627,3.906250
1628,5.859375
1629,7.812500
1630,11.718750
1631,11.718750
1632,13.671875
1633,15.625000
1634,17.578125
1635,19.531250
1636,21.484375
1637,23.437500
1638,25.390625
1639,27.343750
1640,27.343750
1641,29.296875
1642,31.250000
1643,33.203125
1644,35.156250
1645,37.109375
1646,37.109375
1647,39.062500
1648,41.015625
1649,42.968750
1650,42.968750
1651,44.921875
1652,46.875000
1653,48.828125
1654,50.781250
1655,50.781250
1656,52.734375
1657,54.687500
1658,54.687500
1659,56.640625
1660,58.593750
1661,58.593750
1662,60.546875
1663,60.546875
1664,62.500000
1665,64.453125
1666,64.453125
1667,64.453125
1668,66.406250
1669,68.359375
1670,68.359375
1671,70.312500
1672,70.312500
1673,70.312500
1674,72.265625
1675,72.265625
1676,72.265625
1677,74.218750
1678,74.218750
1679,76.171875
1680,76.171875
1681,76.171875
1682,76.171875
1683,78.125000
1684,78.125000
1685,78.125000
1686,78.125000
1687,78.125000
1688,78.125000
1689,78.125000
1690,78.125000
1691,80.078125
1692,78.125000
1693,78.125000
1694,80.078125
1695,80.078125
1696,78.125000
1697,78.125000
1698,78.125000
1699,78.125000
1700,78.125000
1701,76.171875
1702,78.125000
1703,78.125000
1704,76.171875
1705,76.171875
1706,74.218750
1707,74.218750
1708,74.218750
1709,74.218750
1710,74.218750
1711,72.265625
1712,72.265625
1713,70.312500
1714,70.312500
1715,70.312500
1716,70.312500
1717,68.359375
1718,66.406250
1719,68.359375
1720,66.406250
1721,64.453125
1722,62.500000
1723,62.500000
1724,60.546875
1725,60.546875
1726,58.593750
1727,58.593750
1728,56.640625
1729,54.687500
1730,54.687500
1731,52.734375
1732,52.734375
1733,48.828125
1734,48.828125
1735,46.875000
1736,44.921875
1737,44.921875
1738,42.968750
1739,41.015625
1740,39.062500
1741,37.109375
1742,35.156250
1743,35.156250
1744,33.203125
1745,31.250000
1746,29.296875
1747,27.343750
1748,25.390625
1749,25.390625
1750,23.437500
1751,19.531250
1752,17.578125
1753,17.578125
1754,15.625000
1755,13.671875
1756,11.718750
1757,9.765625
1758,7.812500
1759,5.859375
1760,3.906250
1761,1.953125
1762,0.000000
1763,-1.953125
1764,-3.906250
1765,-5.859375
1766,-7.812500
1767,-9.765625
1768,-11.718750
1769,-13.671875
1770,-17.578125
1771,-17.578125
1772,-19.531250
1773,-21.484375
1774,-23.437500
1775,-25.390625
1776,-27.343750
1777,-31.250000
1778,-31.250000
1779,-33.203125
1780,-35.156250
1781,-37.109375
1782,-39.062500
1783,-41.015625
1784,-42.968750
1785,-44.921875
1786,-46.875000
1787,-48.828125
1788,-50.781250
1789,-50.781250
1790,-52.734375
1791,-56.640625
1792,-56.640625
1793,-58.593750
1794,-60.546875
1795,-62.500000
1796,-62.500000
1797,-64.453125
1798,-66.406250
1799,-68.359375
1800,-68.359375
1801,-70.312500
1802,-72.265625
1803,-72.265625
1804,-76.171875
1805,-76.171875
1806,-78.125000
1807,-78.125000
1808,-80.078125
1809,-80.078125
1810,-82.031250
1811,-83.984375
1812,-83.984375
1813,-83.984375
1814,-85.937500
1815,-87.890625
1816,-87.890625
1817,-89.843750
1818,-89.843750
1819,-89.843750
1820,-91.796875
1821,-91.796875
1822,-91.796875
1823,-91.796875
1824,-93.750000
1825,-93.750000
1826,-93.750000
1827,-95.703125
1828,-95.703125
1829,-95.703125
1830,-95.703125
1831,-95.703125
1832,-95.703125
1833,-95.703125
1834,-97.656250
1835,-95.703125
1836,-95.703125
1837,-95.703125
1838,-95.703125
1839,-95.703125
1840,-95.703125
1841,-95.703125
1842,-95.703125
1843,-93.750000
1844,-93.750000
1845,-93.750000
1846,-91.796875
1847,-91.796875
1848,-91.796875
1849,-91.796875
1850,-89.843750
1851,-89.843750
1852,-87.890625
1853,-87.890625
1854,-87.890625
1855,-85.937500
1856,-85.937500
1857,-83.984375
1858,-82.031250
1859,-82.031250
1860,-82.031250
1861,-80.078125
1862,-78.125000
1863,-76.171875
1864,-76.171875
1865,-74.218750
1866,-72.265625
1867,-72.265625
1868,-70.312500
1869,-68.359375
1870,-68.359375
1871,-66.406250
1872,-64.453125
1873,-62.500000
1874,-60.546875
1875,-58.593750
1876,-58.593750
1877,-56.640625
1878,-54.687500
1879,-52.734375
1880,-50.781250
1881,-48.828125
1882,-48.828125
1883,-44.921875
1884,-44.921875
1885,-42.968750
1886,-42.968750
1887,-39.062500
1888,-37.109375
1889,-35.156250
1890,-33.203125
1891,-31.250000
1892,-29.296875
1893,-27.343750
1894,-25.390625
1895,-23.437500
1896,-21.484375
1897,-19.531250
1898,-17.578125
1899,-15.625000
1900,-13.671875
1901,-11.718750
1902,-9.765625
1903,-7.812500
1904,-5.859375
1905,-3.906250
1906,-1.953125
1907,0.000000
1908,1.953125
1909,3.906250
1910,5.859375
1911,7.812500
1912,9.765625
1913,11.718750
1914,13.671875
1915,15.625000
1916,17.578125
1917,19.531250
1918,21.484375
1919,21.484375
1920,25.390625
1921,27.343750
1922,27.343750
1923,29.296875
1924,31.250000
1925,33.203125
1926,35.156250
1927,37.109375
1928,37.109375
1929,39.062500
1930,42.968750
1931,42.968750
1932,42.968750
1933,46.875000
1934,46.875000
1935,48.828125
1936,50.781250
1937,50.781250
1938,52.734375
1939,54.687500
1940,56.640625
1941,56.640625
1942,58.593750
1943,58.593750
1944,60.546875
1945,60.546875
1946,62.500000
1947,62.500000
1948,64.453125
1949,66.406250
1950,66.406250
1951,66.406250
1952,68.359375
1953,68.359375
1954,70.312500
1955,66.406250
1956,70.312500
1957,72.265625
1958,72.265625
1959,72.265625
1960,74.218750
1961,74.218750
1962,74.218750
1963,74.218750
1964,76.171875
1965,76.171875
1966,76.171875
1967,78.125000
1968,78.125000
1969,78.125000
1970,78.125000
1971,78.125000
1972,76.171875
1973,78.125000
1974,78.125000
1975,78.125000
1976,78.125000
1977,78.125000
1978,78.125000
1979,78.125000
1980,78.125000
1981,78.125000
1982,78.125000
1983,78.125000
1984,76.171875
1985,76.171875
1986,76.171875
1987,76.171875
1988,76.171875
1989,76.171875
1990,74.218750
1991,74.218750
1992,74.218750
1993,72.265625
1994,72.265625
1995,70.312500
1996,70.312500
1997,70.312500
1998,70.312500
1999,68.359375
2000,68.359375
2001,66.406250
2002,64.453125
2003,64.453125
2004,64.453125
2005,60.546875
2006,62.500000
2007,60.546875
2008,58.593750
2009,58.593750
2010,56.640625
2011,56.640625
2012,54.687500
2013,52.734375
2014,52.734375
2015,48.828125
2016,48.828125
2017,46.875000
2018,44.921875
2019,42.968750
2020,42.968750
2021,41.015625
2022,41.015625
2023,39.062500
2024,37.109375
2025,35.156250
2026,33.203125
2027,31.250000
2028,29.296875
2029,29.296875
2030,25.390625
2031,23.437500
2032,23.437500
2033,21.484375
2034,19.531250
2035,17.578125
2036,15.625000
2037,13.671875
2038,11.718750
2039,9.765625
2040,7.812500
2041,5.859375
2042,3.906250
2043,1.953125
2044,0.000000
2045,-1.953125
2046,-3.906250
2047,-5.859375
2048,-7.812500
2049,-9.765625
2050,-11.718750
2051,-13.671875
2052,-15.625000
2053,-17.578125
2054,-19.531250
2055,-19.531250
2056,-23.437500
2057,-25.390625
2058,-27.343750
2059,-29.296875
2060,-31.250000
2061,-31.250000
2062,-35.156250
2063,-37.109375
2064,-37.109375
2065,-41.015625
2066,-42.968750
2067,-42.968750
2068,-44.921875
2069,-46.875000
2070,-50.781250
2071,-50.781250
2072,-52.734375
2073,-54.687500
2074,-56.640625
2075,-58.593750
2076,-60.546875
2077,-60.546875
2078,-62.500000
2079,-64.453125
2080,-66.406250
2081,-68.359375
2082,-70.312500
2083,-70.312500
2084,-72.265625
2085,-74.218750
2086,-74.218750
2087,-76.171875
2088,-78.125000
2089,-78.125000
2090,-80.078125
2091,-82.031250
2092,-82.031250
2093,-83.984375
2094,-83.984375
2095,-85.937500
2096,-85.937500
2097,-85.937500
2098,-87.890625
2099,-89.843750
2100,-89.843750
2101,-89.843750
2102,-91.796875
2103,-91.796875
2104,-91.796875
2105,-93.750000
2106,-93.750000
2107,-93.750000
2108,-93.750000
2109,-95.703125
2110,-95.703125
2111,-95.703125
2112,-95.703125
2113,-95.703125
2114,-95.703125
2115,-95.703125
2116,-95.703125
2117,-95.703125
2118,-95.703125
2119,-95.703125
2120,-95.703125
2121,-95.703125
2122,-95.703125
2123,-95.703125
2124,-95.703125
2125,-93.750000
2126,-95.703125
2127,-93.750000
2128,-93.750000
2129,-91.796875
2130,-91.796875
2131,-91.796875
2132,-89.843750
2133,-89.843750
2134,-87.890625
2135,-87.890625
2136,-87.890625
2137,-85.937500
2138,-83.984375
2139,-85.937500
2140,-83.984375
2141,-82.031250
2142,-80.078125
2143,-80.078125
2144,-78.125000
2145,-78.125000
2146,-76.171875
2147,-76.171875
2148,-74.218750
2149,-72.265625
2150,-70.312500
2151,-70.312500
2152,-68.359375
2153,-66.406250
2154,-66.406250
2155,-64.453125
2156,-62.500000
2157,-60.546875
2158,-58.593750
2159,-56.640625
2160,-54.687500
2161,-54.687500
2162,-52.734375
2163,-50.781250
2164,-48.828125
2165,-46.875000
2166,-46.875000
2167,-42.968750
2168,-41.015625
2169,-41.015625
2170,-39.062500
2171,-35.156250
2172,-33.203125
2173,-31.250000
2174,-29.296875
2175,-27.343750
2176,-25.390625
2177,-25.390625
2178,-21.484375
2179,-19.531250
2180,-17.578125
2181,-15.625000
2182,-13.671875
2183,-11.718750
2184,-11.718750
2185,-7.812500
2186,-5.859375
2187,-3.906250
2188,-1.953125
2189,0.000000
2190,1.953125
2191,3.906250
2192,5.859375
2193,7.812500
2194,9.765625
2195,11.718750
2196,13.671875
2197,15.625000
2198,17.578125
2199,17.578125
2200,19.531250
2201,21.484375
2202,23.437500
2203,25.390625
2204,27.343750
2205,29.296875
2206,31.250000
2207,31.250000
2208,35.156250
2209,35.156250
2210,37.109375
2211,39.062500
2212,41.015625
2213,41.015625
2214,42.968750
2215,44.921875
2216,46.875000
2217,48.828125
2218,48.828125
2219,50.781250
2220,52.734375
2221,52.734375
2222,54.687500
2223,54.687500
2224,56.640625
2225,58.593750
2226,58.593750
2227,60.546875
2228,62.500000
2229,62.500000
2230,64.453125
2231,64.453125
2232,64.453125
2233,66.406250
2234,68.359375
2235,68.359375
2236,68.359375
2237,70.312500
2238,70.312500
2239,72.265625
2240,72.265625
2241,72.265625
2242,74.218750
2243,74.218750
2244,74.218750
2245,74.218750
2246,76.171875
2247,76.171875
2248,76.171875
2249,76.171875
2250,76.171875
2251,78.125000
2252,78.125000
2253,78.125000
2254,78.125000
2255,78.125000
2256,78.125000
2257,78.125000
2258,78.125000
2259,78.125000
2260,80.078125
2261,78.125000
2262,78.125000
2263,78.125000
2264,78.125000
2265,76.171875
2266,78.125000
2267,76.171875
2268,78.125000
2269,76.171875
2270,76.171875
2271,74.218750
2272,74.218750
2273,74.218750
2274,72.265625
2275,72.265625
2276,72.265625
2277,72.265625
2278,70.312500
2279,70.312500
2280,70.312500
2281,68.359375
2282,68.359375
2283,66.406250
2284,64.453125
2285,64.453125
2286,64.453125
2287,62.500000
2288,62.500000
2289,60.546875
2290,60.546875
2291,58.593750
2292,56.640625
2293,56.640625
2294,54.687500
2295,54.687500
2296,50.781250
2297,50.781250
2298,48.828125
2299,48.828125
2300,42.968750
2301,44.921875
2302,42.968750
2303,41.015625
2304,41.015625
2305,39.062500
2306,37.109375
2307,35.156250
2308,33.203125
2309,33.203125
2310,31.250000
2311,29.296875
2312,27.343750
2313,25.390625
2314,27.343750
2315,21.484375
2316,19.531250
2317,19.531250
2318,17.578125
2319,13.671875
2320,13.671875
2321,9.765625
2322,7.812500
2323,5.859375
2324,5.859375
2325,1.953125
2326,1.953125
2327,0.000000
2328,-1.953125
2329,-5.859375
2330,-7.812500
2331,-7.812500
2332,-9.765625
2333,-11.718750
2334,-15.625000
2335,-15.625000
2336,-19.531250
2337,-19.531250
2338,-21.484375
2339,-25.390625
2340,-27.343750
2341,-27.343750
2342,-29.296875
2343,-31.250000
2344,-35.156250
2345,-37.109375
2346,-39.062500
2347,-39.062500
2348,-41.015625
2349,-44.921875
2350,-44.921875
2351,-46.875000
2352,-48.828125
2353,-50.781250
2354,-52.734375
2355,-54.687500
2356,-52.734375
2357,-58.593750
2358,-62.500000
2359,-60.546875
2360,-62.500000
2361,-64.453125
2362,-66.406250
2363,-66.406250
2364,-68.359375
2365,-70.312500
2366,-72.265625
2367,-72.265625
2368,-74.218750
2369,-76.171875
2370,-76.171875
2371,-78.125000
2372,-80.078125
2373,-80.078125
2374,-82.031250
2375,-82.031250
2376,-83.984375
2377,-85.937500
2378,-85.937500
2379,-85.937500
2380,-87.890625
2381,-87.890625
2382,-89.843750
2383,-89.843750
2384,-89.843750
2385,-91.796875
2386,-91.796875
2387,-93.750000
2388,-93.750000
2389,-93.750000
2390,-93.750000
2391,-93.750000
2392,-95.703125
2393,-95.703125
2394,-95.703125
2395,-95.703125
2396,-95.703125
2397,-95.703125
2398,-95.703125
2399,-95.703125
2400,-95.703125
2401,-95.703125
2402,-95.703125
2403,-95.703125
2404,-95.703125
2405,-95.703125
2406,-93.750000
2407,-93.750000
2408,-93.750000
2409,-93.750000
2410,-93.750000
2411,-93.750000
2412,-91.796875
2413,-91.796875
2414,-89.843750
2415,-91.796875
2416,-89.843750
2417,-87.890625
2418,-87.890625
2419,-87.890625
2420,-85.937500
2421,-85.937500
2422,-83.984375
2423,-83.984375
2424,-82.031250
2425,-80.078125
2426,-80.078125
2427,-78.125000
2428,-78.125000
2429,-76.171875
2430,-74.218750
2431,-74.218750
2432,-72.265625
2433,-70.312500
2434,-70.312500
2435,-66.406250
2436,-66.406250
2437,-64.453125
2438,-62.500000
2439,-62.500000
2440,-60.546875
2441,-58.593750
2442,-54.687500
2443,-54.687500
2444,-52.734375
2445,-50.781250
2446,-48.828125
2447,-46.875000
2448,-44.921875
2449,-42.968750
2450,-41.015625
2451,-39.062500
2452,-37.109375
2453,-35.156250
2454,-33.203125
2455,-31.250000
2456,-31.250000
2457,-29.296875
2458,-25.390625
2459,-27.343750
2460,-21.484375
2461,-19.531250
2462,-17.578125
2463,-17.578125
2464,-13.671875
2465,-13.671875
2466,-11.718750
2467,-7.812500
2468,-7.812500
2469,-3.906250
2470,-1.953125
2471,-1.953125
2472,0.000000
2473,3.906250
2474,3.906250
2475,5.859375
2476,9.765625
2477,9.765625
2478,11.718750
2479,13.671875
2480,15.625000
2481,17.578125
2482,19.531250
2483,21.484375
2484,23.437500
2485,23.437500
2486,27.343750
2487,27.343750
2488,29.296875
2489,31.250000
2490,33.203125
2491,35.156250
2492,37.109375
2493,39.062500
2494,39.062500
2495,41.015625
2496,42.968750
2497,44.921875
2498,46.875000
2499,46.875000
2500,48.828125
2501,48.828125
2502,50.781250
2503,52.734375
2504,54.687500
2505,56.640625
2506,56.640625
2507,58.593750
2508,54.687500
2509,60.546875
2510,62.500000
2511,62.500000
2512,64.453125
2513,64.453125
2514,64.453125
2515,66.406250
2516,68.359375
2517,68.359375
2518,70.312500
2519,70.312500
2520,70.312500
2521,72.265625
2522,72.265625
2523,74.218750
2524,74.218750
2525,76.171875
2526,74.218750
2527,76.171875
2528,76.171875
2529,76.171875
2530,76.171875
2531,76.171875
2532,76.171875
2533,78.125000
2534,78.125000
2535,78.125000
2536,78.125000
2537,78.125000
2538,78.125000
2539,78.125000
2540,78.125000
2541,78.125000
2542,78.125000
2543,78.125000
2544,76.171875
2545,78.125000
2546,78.125000
2547,78.125000
2548,78.125000
2549,76.171875
2550,76.171875
2551,76.171875
2552,76.171875
2553,76.171875
2554,74.218750
2555,74.218750
2556,74.218750
2557,72.265625
2558,72.265625
2559,72.265625
2560,72.265625
2561,70.312500
2562,70.312500
2563,70.312500
2564,68.359375
2565,66.406250
2566,66.406250
2567,64.453125
2568,64.453125
2569,62.500000
2570,62.500000
2571,62.500000
2572,60.546875
2573,58.593750
2574,56.640625
2575,54.687500
2576,54.687500
2577,52.734375
2578,52.734375
2579,50.781250
2580,50.781250
2581,48.828125
2582,46.875000
2583,46.875000
2584,42.968750
2585,42.968750
2586,41.015625
2587,39.062500
2588,39.062500
2589,37.109375
2590,35.156250
2591,33.203125
2592,31.250000
2593,29.296875
2594,27.343750
2595,25.390625
2596,23.437500
2597,21.484375
2598,21.484375
2599,19.531250
2600,17.578125
2601,13.671875
2602,13.671875
2603,9.765625
2604,9.765625
2605,7.812500
2606,5.859375
2607,3.906250
2608,1.953125
2609,0.000000
2610,-1.953125
2611,-3.906250
2612,-5.859375
2613,-7.812500
2614,-9.765625
2615,-11.718750
2616,-15.625000
2617,-15.625000
2618,-17.578125
2619,-19.531250
2620,-21.484375
2621,-23.437500
2622,-25.390625
2623,-27.343750
2624,-29.296875
2625,-31.250000
2626,-35.156250
2627,-37.109375
2628,-37.109375
2629,-39.062500
2630,-41.015625
2631,-42.968750
2632,-44.921875
2633,-46.875000
2634,-48.828125
2635,-50.781250
2636,-52.734375
2637,-52.734375
2638,-56.640625
2639,-56.640625
2640,-58.593750
2641,-60.546875
2642,-60.546875
2643,-62.500000
2644,-64.453125
2645,-66.406250
2646,-68.359375
2647,-70.312500
2648,-72.265625
2649,-72.265625
2650,-74.218750
2651,-76.171875
2652,-76.171875
2653,-78.125000
2654,-78.125000
2655,-80.078125
2656,-82.031250
2657,-82.031250
2658,-83.984375
2659,-83.984375
2660,-85.937500
2661,-85.937500
2662,-87.890625
2663,-87.890625
2664,-89.843750
2665,-89.843750
2666,-89.843750
2667,-91.796875
2668,-91.796875
2669,-91.796875
2670,-93.750000
2671,-93.750000
2672,-93.750000
2673,-93.750000
2674,-95.703125
2675,-95.703125
2676,-95.703125
2677,-95.703125
2678,-95.703125
2679,-95.703125
2680,-95.703125
2681,-95.703125
2682,-95.703125
2683,-95.703125
2684,-95.703125
2685,-95.703125
2686,-95.703125
2687,-95.703125
2688,-95.703125
2689,-95.703125
2690,-93.750000
2691,-93.750000
2692,-93.750000
2693,-93.750000
2694,-87.890625
2695,-91.796875
2696,-91.796875
2697,-89.843750
2698,-89.843750
2699,-87.890625
2700,-87.890625
2701,-87.890625
2702,-85.937500
2703,-85.937500
2704,-83.984375
2705,-83.984375
2706,-82.031250
2707,-80.078125
2708,-80.078125
2709,-78.125000
2710,-76.171875
2711,-76.171875
2712,-74.218750
2713,-72.265625
2714,-72.265625
2715,-70.312500
2716,-70.312500
2717,-68.359375
2718,-66.406250
2719,-64.453125
2720,-62.500000
2721,-60.546875
2722,-60.546875
2723,-58.593750
2724,-56.640625
2725,-54.687500
2726,-52.734375
2727,-50.781250
2728,-48.828125
2729,-46.875000
2730,-44.921875
2731,-44.921875
2732,-42.968750
2733,-41.015625
2734,-39.062500
2735,-37.109375
2736,-35.156250
2737,-33.203125
2738,-31.250000
2739,-29.296875
2740,-27.343750
2741,-25.390625
2742,-23.437500
2743,-21.484375
2744,-23.437500
2745,-17.578125
2746,-15.625000
2747,-13.671875
2748,-11.718750
2749,-9.765625
2750,-7.812500
2751,-5.859375
2752,-3.906250
2753,-1.953125
2754,0.000000
2755,1.953125
2756,3.906250
2757,5.859375
2758,7.812500
2759,9.765625
2760,11.718750
2761,13.671875
2762,13.671875
2763,17.578125
2764,19.531250
2765,19.531250
2766,23.437500
2767,23.437500
2768,25.390625
2769,27.343750
2770,29.296875
2771,31.250000
2772,33.203125
2773,35.156250
2774,37.109375
2775,37.109375
2776,39.062500
2777,41.015625
2778,42.968750
2779,42.968750
2780,44.921875
2781,46.875000
2782,48.828125
2783,48.828125
2784,50.781250
2785,52.734375
2786,54.687500
2787,56.640625
2788,56.640625
2789,58.593750
2790,58.593750
2791,60.546875
2792,60.546875
2793,62.500000
2794,62.500000
2795,64.453125
2796,64.453125
2797,66.406250
2798,66.406250
2799,68.359375
2800,70.312500
2801,70.312500
2802,70.312500
2803,72.265625
2804,72.265625
2805,72.265625
2806,74.218750
2807,74.218750
2808,74.218750
2809,74.218750
2810,74.218750
2811,76.171875
2812,76.171875
2813,76.171875
2814,76.171875
2815,78.125000
2816,78.125000
2817,78.125000
2818,78.125000
2819,78.125000
2820,78.125000
2821,78.125000
2822,78.125000
2823,78.125000
2824,78.125000
2825,78.125000
2826,78.125000
2827,78.125000
2828,78.125000
2829,78.125000
2830,78.125000
2831,78.125000
2832,76.171875
2833,78.125000
2834,76.171875
2835,76.171875
2836,76.171875
2837,74.218750
2838,74.218750
2839,74.218750
2840,72.265625
2841,72.265625
2842,72.265625
2843,70.312500
2844,70.312500
2845,70.312500
2846,68.359375
2847,68.359375
2848,66.406250
2849,66.406250
2850,64.453125
2851,64.453125
2852,62.500000
2853,60.546875
2854,60.546875
2855,58.593750
2856,56.640625
2857,56.640625
2858,54.687500
2859,52.734375
2860,52.734375
2861,50.781250
2862,50.781250
2863,48.828125
2864,46.875000
2865,46.875000
2866,44.921875
2867,42.968750
2868,41.015625
2869,41.015625
2870,37.109375
2871,37.109375
2872,35.156250
2873,33.203125
2874,31.250000
2875,29.296875
2876,29.296875
2877,27.343750
2878,25.390625
2879,23.437500
2880,23.437500
2881,19.531250
2882,17.578125
2883,15.625000
2884,13.671875
2885,11.718750
2886,9.765625
2887,7.812500
2888,5.859375
2889,3.906250
2890,1.953125
2891,0.000000
2892,-1.953125
2893,-3.906250
2894,-5.859375
2895,-5.859375
2896,-9.765625
2897,-11.718750
2898,-13.671875
2899,-15.625000
2900,-17.578125
2901,-19.531250
2902,-21.484375
2903,-23.437500
2904,-25.390625
2905,-27.343750
2906,-29.296875
2907,-31.250000
2908,-31.250000
2909,-33.203125
2910,-37.109375
2911,-39.062500
2912,-41.015625
2913,-42.968750
2914,-44.921875
2915,-44.921875
2916,-46.875000
2917,-48.828125
2918,-50.781250
2919,-52.734375
2920,-54.687500
2921,-56.640625
2922,-58.593750
2923,-60.546875
2924,-62.500000
2925,-62.500000
2926,-64.453125
2927,-64.453125
2928,-66.406250
2929,-68.359375
2930,-74.218750
2931,-72.265625
2932,-74.218750
2933,-74.218750
2934,-76.171875
2935,-78.125000
2936,-78.125000
2937,-80.078125
2938,-80.078125
2939,-82.031250
2940,-83.984375
2941,-83.984375
2942,-83.984375
2943,-85.937500
2944,-87.890625
2945,-87.890625
2946,-89.843750
2947,-89.843750
2948,-89.843750
2949,-89.843750
2950,-91.796875
2951,-91.796875
2952,-93.750000
2953,-93.750000
2954,-93.750000
2955,-95.703125
2956,-95.703125
2957,-95.703125
2958,-95.703125
2959,-95.703125
2960,-95.703125
2961,-95.703125
2962,-95.703125
2963,-95.703125
2964,-95.703125
2965,-95.703125
2966,-95.703125
2967,-95.703125
2968,-95.703125
2969,-93.750000
2970,-95.703125
2971,-93.750000
2972,-93.750000
2973,-93.750000
2974,-93.750000
2975,-93.750000
2976,-91.796875
2977,-91.796875
2978,-89.843750
2979,-89.843750
2980,-89.843750
2981,-89.843750
2982,-87.890625
2983,-87.890625
2984,-85.937500
2985,-85.937500
2986,-83.984375
2987,-83.984375
2988,-82.031250
2989,-82.031250
2990,-80.078125
2991,-80.078125
2992,-78.125000
2993,-76.171875
2994,-76.171875
2995,-74.218750
2996,-72.265625
2997,-72.265625
2998,-70.312500
2999,-68.359375
3000,-66.406250
3001,-66.406250
3002,-64.453125
3003,-62.500000
3004,-60.546875
3005,-58.593750
3006,-56.640625
3007,-56.640625
3008,-54.687500
3009,-52.734375
3010,-50.781250
3011,-48.828125
3012,-46.875000
3013,-44.921875
3014,-42.968750
3015,-41.015625
3016,-41.015625
3017,-37.109375
3018,-35.156250
3019,-33.203125
3020,-31.250000
3021,-29.296875
3022,-27.343750
3023,-25.390625
3024,-23.437500
3025,-23.437500
3026,-21.484375
3027,-17.578125
3028,-15.625000
3029,-15.625000
3030,-11.718750
3031,-9.765625
3032,-7.812500
3033,-5.859375
3034,-3.906250
3035,-1.953125
3036,0.000000
3037,1.953125
3038,3.906250
3039,5.859375
3040,7.812500
3041,9.765625
3042,11.718750
3043,13.671875
3044,15.625000
3045,15.625000
3046,17.578125
3047,19.531250
3048,21.484375
3049,23.437500
3050,25.390625
3051,27.343750
3052,29.296875
3053,29.296875
3054,31.250000
3055,35.156250
3056,35.156250
3057,37.109375
3058,39.062500
3059,41.015625
3060,41.015625
3061,42.968750
3062,44.921875
3063,44.921875
3064,48.828125
3065,48.828125
3066,50.781250
3067,50.781250
3068,52.734375
3069,54.687500
3070,56.640625
3071,56.640625
3072,58.593750
3073,58.593750
3074,60.546875
3075,60.546875
3076,62.500000
3077,64.453125
3078,64.453125
3079,66.406250
3080,62.500000
3081,68.359375
3082,68.359375
3083,68.359375
3084,70.312500
3085,70.312500
3086,70.312500
3087,72.265625
3088,72.265625
3089,72.265625
3090,74.218750
3091,74.218750
3092,74.218750
3093,76.171875
3094,76.171875
3095,76.171875
3096,78.125000
3097,78.125000
3098,78.125000
3099,78.125000
3100,78.125000
3101,78.125000
3102,80.078125
3103,78.125000
3104,78.125000
3105,78.125000
3106,78.125000
3107,78.125000
3108,78.125000
3109,78.125000
3110,78.125000
3111,78.125000
3112,78.125000
3113,78.125000
3114,76.171875
3115,78.125000
3116,76.171875
3117,76.171875
3118,76.171875
3119,74.218750
3120,74.218750
3121,74.218750
3122,72.265625
3123,72.265625
3124,72.265625
3125,72.265625
3126,70.312500
3127,70.312500
3128,68.359375
3129,68.359375
3130,66.406250
3131,66.406250
3132,62.500000
3133,62.500000
3134,62.500000
3135,60.546875
3136,60.546875
3137,58.593750
3138,56.640625
3139,56.640625
3140,54.687500
3141,54.687500
3142,52.734375
3143,52.734375
3144,50.781250
3145,48.828125
3146,46.875000
3147,46.875000
3148,44.921875
3149,44.921875
3150,41.015625
3151,39.062500
3152,39.062500
3153,37.109375
3154,35.156250
3155,33.203125
3156,31.250000
3157,29.296875
3158,29.296875
3159,27.343750
3160,25.390625
3161,23.437500
3162,21.484375
3163,19.531250
3164,17.578125
3165,15.625000
3166,13.671875
3167,13.671875
3168,11.718750
3169,9.765625
3170,5.859375
3171,5.859375
3172,3.906250
3173,1.953125
3174,0.000000
3175,-3.906250
3176,-5.859375
3177,-7.812500
3178,-7.812500
3179,-9.765625
3180,-13.671875
3181,-15.625000
3182,-17.578125
3183,-19.531250
3184,-19.531250
3185,-21.484375
3186,-25.390625
3187,-27.343750
3188,-29.296875
3189,-31.250000
3190,-33.203125
3191,-35.156250
3192,-37.109375
3193,-37.109375
3194,-39.062500
3195,-42.968750
3196,-42.968750
3197,-46.875000
3198,-46.875000
3199,-48.828125
3200,-50.781250
3201,-52.734375
3202,-54.687500
3203,-56.640625
3204,-56.640625
3205,-58.593750
3206,-60.546875
3207,-62.500000
3208,-64.453125
3209,-64.453125
3210,-66.406250
3211,-68.359375
3212,-70.312500
3213,-72.265625
3214,-72.265625
3215,-74.218750
3216,-76.171875
3217,-78.125000
3218,-78.125000
3219,-78.125000
3220,-80.078125
3221,-82.031250
3222,-82.031250
3223,-83.984375
3224,-83.984375
3225,-85.937500
3226,-87.890625
3227,-87.890625
3228,-87.890625
3229,-89.843750
3230,-89.843750
3231,-89.843750
3232,-91.796875
3233,-91.796875
3234,-91.796875
3235,-93.750000
3236,-93.750000
3237,-93.750000
3238,-93.750000
3239,-93.750000
3240,-93.750000
3241,-95.703125
3242,-95.703125
3243,-97.656250
3244,-95.703125
3245,-95.703125
3246,-93.750000
3247,-93.750000
3248,-95.703125
3249,-95.703125
3250,-95.703125
3251,-95.703125
3252,-95.703125
3253,-93.750000
3254,-95.703125
3255,-93.750000
3256,-93.750000
3257,-93.750000
3258,-91.796875
3259,-91.796875
3260,-91.796875
3261,-91.796875
3262,-89.843750
3263,-89.843750
3264,-89.843750
3265,-87.890625
3266,-87.890625
3267,-85.937500
3268,-85.937500
3269,-83.984375
3270,-82.031250
3271,-82.031250
3272,-80.078125
3273,-80.078125
3274,-78.125000
3275,-76.171875
3276,-76.171875
3277,-74.218750
3278,-74.218750
3279,-72.265625
3280,-70.312500
3281,-68.359375
3282,-70.312500
3283,-66.406250
3284,-64.453125
3285,-62.500000
3286,-60.546875
3287,-60.546875
3288,-56.640625
3289,-56.640625
3290,-54.687500
3291,-52.734375
3292,-50.781250
3293,-48.828125
3294,-46.875000
3295,-44.921875
3296,-44.921875
3297,-41.015625
3298,-39.062500
3299,-37.109375
3300,-35.156250
3301,-35.156250
3302,-33.203125
3303,-31.250000
3304,-29.296875
3305,-27.343750
3306,-25.390625
3307,-23.437500
3308,-21.484375
3309,-19.531250
3310,-15.625000
3311,-15.625000
3312,-13.671875
3313,-11.718750
3314,-9.765625
3315,-7.812500
3316,-5.859375
3317,-3.906250
3318,-1.953125
3319,0.000000
3320,1.953125
3321,3.906250
3322,5.859375
3323,7.812500
3324,9.765625
3325,11.718750
3326,13.671875
3327,15.625000
3328,17.578125
3329,19.531250
3330,21.484375
3331,23.437500
3332,27.343750
3333,23.437500
3334,27.343750
3335,31.250000
3336,31.250000
3337,33.203125
3338,35.156250
3339,37.109375
3340,39.062500
3341,39.062500
3342,41.015625
3343,42.968750
3344,44.921875
3345,46.875000
3346,46.875000
3347,48.828125
3348,50.781250
3349,50.781250
3350,52.734375
3351,52.734375
3352,56.640625
3353,56.640625
3354,58.593750
3355,58.593750
3356,60.546875
3357,62.500000
3358,62.500000
3359,64.453125
3360,64.453125
3361,66.406250
3362,66.406250
3363,68.359375
3364,68.359375
3365,70.312500
3366,70.312500
3367,70.312500
3368,72.265625
3369,72.265625
3370,72.265625
3371,74.218750
3372,74.218750
3373,74.218750
3374,76.171875
3375,76.171875
3376,76.171875
3377,76.171875
3378,76.171875
3379,78.125000
3380,78.125000
3381,78.125000
3382,78.125000
3383,78.125000
3384,78.125000
3385,78.125000
3386,78.125000
3387,78.125000
3388,78.125000
3389,78.125000
3390,78.125000
3391,78.125000
3392,78.125000
3393,78.125000
3394,78.125000
3395,76.171875
3396,76.171875
3397,76.171875
3398,76.171875
3399,76.171875
3400,76.171875
3401,74.218750
3402,74.218750
3403,74.218750
3404,72.265625
3405,72.265625
3406,72.265625
3407,72.265625
3408,70.312500
3409,70.312500
3410,68.359375
3411,68.359375
3412,66.406250
3413,66.406250
3414,64.453125
3415,64.453125
3416,62.500000
3417,62.500000
3418,60.546875
3419,60.546875
3420,58.593750
3421,58.593750
3422,56.640625
3423,54.687500
3424,52.734375
3425,52.734375
3426,50.781250
3427,50.781250
3428,48.828125
3429,46.875000
3430,46.875000
3431,44.921875
3432,42.968750
3433,42.968750
3434,39.062500
3435,37.109375
3436,37.109375
3437,33.203125
3438,33.203125
3439,31.250000
3440,31.250000
3441,27.343750
3442,25.390625
3443,23.437500
3444,21.484375
3445,19.531250
3446,17.578125
3447,15.625000
3448,13.671875
3449,11.718750
3450,9.765625
3451,7.812500
3452,7.812500
3453,5.859375
3454,3.906250
3455,1.953125
3456,0.000000
3457,-1.953125
3458,-3.906250
3459,-5.859375
3460,-7.812500
3461,-11.718750
3462,-11.718750
3463,-13.671875
3464,-15.625000
3465,-17.578125
3466,-21.484375
3467,-21.484375
3468,-23.437500
3469,-25.390625
3470,-27.343750
3471,-31.250000
3472,-31.250000
3473,-33.203125
3474,-35.156250
3475,-37.109375
3476,-39.062500
3477,-41.015625
3478,-42.968750
3479,-44.921875
3480,-46.875000
3481,-48.828125
3482,-50.781250
3483,-54.687500
3484,-54.687500
3485,-54.687500
3486,-56.640625
3487,-58.593750
3488,-60.546875
3489,-62.500000
3490,-64.453125
3491,-64.453125
3492,-66.406250
3493,-68.359375
3494,-70.312500
3495,-70.312500
3496,-72.265625
3497,-74.218750
3498,-74.218750
3499,-76.171875
3500,-78.125000
3501,-76.171875
3502,-80.078125
3503,-82.031250
3504,-83.984375
3505,-83.984375
3506,-85.937500
3507,-85.937500
3508,-85.937500
3509,-87.890625
3510,-87.890625
3511,-89.843750
3512,-89.843750
3513,-91.796875
3514,-91.796875
3515,-91.796875
3516,-93.750000
3517,-93.750000
3518,-95.703125
3519,-95.703125
3520,-95.703125
3521,-95.703125
3522,-95.703125
3523,-95.703125
3524,-95.703125
3525,-95.703125
3526,-95.703125
3527,-97.656250
3528,-97.656250
3529,-95.703125
3530,-95.703125
3531,-95.703125
3532,-97.656250
3533,-95.703125
3534,-95.703125
3535,-95.703125
3536,-95.703125
3537,-95.703125
3538,-93.750000
3539,-93.750000
3540,-93.750000
3541,-91.796875
3542,-91.796875
3543,-91.796875
3544,-89.843750
3545,-89.843750
3546,-89.843750
3547,-87.890625
3548,-87.890625
3549,-85.937500
3550,-85.937500
3551,-85.937500
3552,-83.984375
3553,-82.031250
3554,-80.078125
3555,-80.078125
3556,-78.125000
3557,-78.125000
3558,-76.171875
3559,-74.218750
3560,-74.218750
3561,-72.265625
3562,-70.312500
3563,-68.359375
3564,-68.359375
3565,-66.406250
3566,-64.453125
3567,-62.500000
3568,-60.546875
3569,-60.546875
3570,-58.593750
3571,-56.640625
3572,-54.687500
3573,-52.734375
3574,-50.781250
3575,-50.781250
3576,-48.828125
3577,-46.875000
3578,-44.921875
3579,-42.968750
3580,-41.015625
3581,-39.062500
3582,-37.109375
3583,-35.156250
3584,-33.203125
3585,-31.250000
3586,-29.296875
3587,-27.343750
3588,-25.390625
3589,-23.437500
3590,-21.484375
3591,-19.531250
3592,-17.578125
3593,-15.625000
3594,-13.671875
3595,-11.718750
3596,-9.765625
3597,-7.812500
3598,-5.859375
3599,-3.906250
3600,-1.953125
3601,-1.953125
3602,1.953125
3603,3.906250
3604,5.859375
3605,7.812500
3606,9.765625
3607,11.718750
3608,13.671875
3609,15.625000
3610,17.578125
3611,19.531250
3612,21.484375
3613,23.437500
3614,23.437500
3615,27.343750
3616,27.343750
3617,29.296875
3618,31.250000
3619,33.203125
3620,35.156250
3621,35.156250
3622,39.062500
3623,39.062500
3624,41.015625
3625,41.015625
3626,42.968750
3627,46.875000
3628,46.875000
3629,48.828125
3630,48.828125
3631,50.781250
3632,52.734375
3633,54.687500
3634,54.687500
3635,56.640625
3636,58.593750
3637,58.593750
3638,60.546875
3639,60.546875
3640,60.546875
3641,62.500000
3642,64.453125
3643,64.453125
3644,66.406250
3645,66.406250
3646,68.359375
3647,68.359375
3648,68.359375
3649,70.312500
3650,70.312500
3651,72.265625
3652,74.218750
3653,74.218750
3654,74.218750
3655,74.218750
3656,74.218750
3657,76.171875
3658,76.171875
3659,76.171875
3660,76.171875
3661,78.125000
3662,78.125000
3663,76.171875
3664,78.125000
3665,78.125000
3666,78.125000
3667,78.125000
3668,78.125000
3669,78.125000
3670,76.171875
3671,78.125000
3672,78.125000
3673,78.125000
3674,78.125000
3675,78.125000
3676,78.125000
3677,78.125000
3678,78.125000
3679,76.171875
3680,78.125000
3681,76.171875
3682,76.171875
3683,76.171875
3684,74.218750
3685,74.218750
3686,74.218750
3687,72.265625
3688,72.265625
3689,70.312500
3690,70.312500
3691,70.312500
3692,70.312500
3693,68.359375
3694,66.406250
3695,66.406250
3696,64.453125
3697,64.453125
3698,62.500000
3699,62.500000
3700,60.546875
3701,60.546875
3702,58.593750
3703,58.593750
3704,58.593750
3705,54.687500
3706,54.687500
3707,52.734375
3708,50.781250
3709,50.781250
3710,48.828125
3711,46.875000
3712,46.875000
3713,42.968750
3714,42.968750
3715,41.015625
3716,39.062500
3717,39.062500
3718,37.109375
3719,35.156250
3720,35.156250
3721,31.250000
3722,29.296875
3723,27.343750
3724,25.390625
3725,23.437500
3726,23.437500
3727,21.484375
3728,17.578125
3729,17.578125
3730,15.625000
3731,13.671875
3732,11.718750
3733,9.765625
3734,7.812500
3735,5.859375
3736,3.906250
3737,3.906250
3738,0.000000
3739,-1.953125
3740,-3.906250
3741,-5.859375
3742,-5.859375
3743,-9.765625
3744,-11.718750
3745,-13.671875
3746,-15.625000
3747,-17.578125
3748,-19.531250
3749,-21.484375
3750,-23.437500
3751,-25.390625
3752,-27.343750
3753,-29.296875
3754,-31.250000
3755,-33.203125
3756,-35.156250
3757,-37.109375
3758,-39.062500
3759,-41.015625
3760,-41.015625
3761,-42.968750
3762,-46.875000
3763,-48.828125
3764,-50.781250
3765,-50.781250
3766,-52.734375
3767,-54.687500
3768,-56.640625
3769,-58.593750
3770,-58.593750
3771,-60.546875
3772,-62.500000
3773,-64.453125
3774,-66.406250
3775,-68.359375
3776,-68.359375
3777,-70.312500
3778,-72.265625
3779,-74.218750
3780,-76.171875
3781,-76.171875
3782,-76.171875
3783,-78.125000
3784,-80.078125
3785,-82.031250
3786,-80.078125
3787,-83.984375
3788,-83.984375
3789,-85.937500
3790,-85.937500
3791,-85.937500
3792,-87.890625
3793,-89.843750
3794,-89.843750
3795,-89.843750
3796,-89.843750
3797,-91.796875
3798,-91.796875
3799,-91.796875
3800,-93.750000
3801,-93.750000
3802,-95.703125
3803,-95.703125
3804,-95.703125
3805,-95.703125
3806,-93.750000
3807,-95.703125
3808,-95.703125
3809,-95.703125
3810,-95.703125
3811,-95.703125
3812,-95.703125
3813,-95.703125
3814,-95.703125
3815,-95.703125
3816,-93.750000
3817,-95.703125
3818,-95.703125
3819,-93.750000
3820,-91.796875
3821,-93.750000
3822,-93.750000
3823,-91.796875
3824,-91.796875
3825,-89.843750
3826,-89.843750
3827,-89.843750
3828,-89.843750
3829,-87.890625
3830,-87.890625
3831,-83.984375
3832,-85.937500
3833,-83.984375
3834,-83.984375
3835,-82.031250
3836,-80.078125
3837,-80.078125
3838,-78.125000
3839,-78.125000
3840,-76.171875
3841,-74.218750
3842,-74.218750
3843,-72.265625
3844,-70.312500
3845,-70.312500
3846,-68.359375
3847,-66.406250
3848,-66.406250
3849,-64.453125
3850,-62.500000
3851,-60.546875
3852,-58.593750
3853,-56.640625
3854,-54.687500
3855,-52.734375
3856,-52.734375
3857,-50.781250
3858,-48.828125
3859,-46.875000
3860,-44.921875
3861,-42.968750
3862,-41.015625
3863,-39.062500
3864,-37.109375
3865,-35.156250
3866,-33.203125
3867,-31.250000
3868,-29.296875
3869,-27.343750
3870,-25.390625
3871,-23.437500
3872,-23.437500
3873,-19.531250
3874,-17.578125
3875,-15.625000
3876,-13.671875
3877,-13.671875
3878,-9.765625
3879,-7.812500
3880,-5.859375
3881,-3.906250
3882,-1.953125
3883,0.000000
3884,1.953125
3885,3.906250
3886,5.859375
3887,5.859375
3888,9.765625
3889,11.718750
3890,11.718750
3891,13.671875
3892,15.625000
3893,17.578125
3894,19.531250
3895,21.484375
3896,23.437500
3897,25.390625
3898,27.343750
3899,29.296875
3900,31.250000
3901,31.250000
3902,31.250000
3903,35.156250
3904,37.109375
3905,39.062500
3906,39.062500
3907,41.015625
3908,42.968750
3909,44.921875
3910,46.875000
3911,46.875000
3912,48.828125
3913,50.781250
3914,52.734375
3915,52.734375
3916,54.687500
3917,56.640625
3918,56.640625
3919,58.593750
3920,58.593750
3921,60.546875
3922,62.500000
3923,62.500000
3924,64.453125
3925,64.453125
3926,64.453125
3927,66.406250
3928,68.359375
3929,68.359375
3930,70.312500
3931,70.312500
3932,70.312500
3933,72.265625
3934,72.265625
3935,72.265625
3936,74.218750
3937,74.218750
3938,76.171875
3939,76.171875
3940,76.171875
3941,76.171875
3942,76.171875
3943,78.125000
3944,78.125000
3945,78.125000
3946,78.125000
3947,78.125000
3948,78.125000
3949,80.078125
3950,78.125000
3951,78.125000
3952,78.125000
3953,78.125000
3954,78.125000
3955,80.078125
3956,78.125000
3957,78.125000
3958,78.125000
3959,76.171875
3960,76.171875
3961,76.171875
3962,78.125000
3963,76.171875
3964,76.171875
3965,76.171875
3966,74.218750
3967,74.218750
3968,74.218750
3969,72.265625
3970,72.265625
3971,72.265625
3972,70.312500
3973,70.312500
3974,68.359375
3975,68.359375
3976,68.359375
3977,66.406250
3978,66.406250
3979,64.453125
3980,62.500000
3981,62.500000
3982,62.500000
3983,58.593750
3984,58.593750
3985,58.593750
3986,56.640625
3987,54.687500
3988,54.687500
3989,54.687500
3990,50.781250
3991,50.781250
3992,48.828125
3993,46.875000
3994,46.875000
3995,44.921875
3996,44.921875
3997,42.968750
3998,41.015625
3999,39.062500
4000,37.109375
4001,35.156250
4002,33.203125
4003,31.250000
4004,31.250000
4005,29.296875
4006,27.343750
4007,25.390625
4008,23.437500
4009,21.484375
4010,21.484375
4011,19.531250
4012,17.578125
4013,13.671875
4014,13.671875
4015,11.718750
4016,7.812500
4017,7.812500
4018,3.906250
4019,3.906250
4020,1.953125
4021,-1.953125
4022,-3.906250
4023,-3.906250
4024,-5.859375
4025,-7.812500
4026,-9.765625
4027,-13.671875
4028,-13.671875
4029,-17.578125
4030,-17.578125
4031,-21.484375
4032,-23.437500
4033,-25.390625
4034,-25.390625
4035,-29.296875
4036,-31.250000
4037,-33.203125
4038,-33.203125
4039,-35.156250
4040,-39.062500
4041,-41.015625
4042,-41.015625
4043,-42.968750
4044,-44.921875
4045,-46.875000
4046,-48.828125
4047,-50.781250
4048,-52.734375
4049,-54.687500
4050,-56.640625
4051,-54.687500
4052,-58.593750
4053,-62.500000
4054,-62.500000
4055,-64.453125
4056,-66.406250
4057,-64.453125
4058,-68.359375
4059,-70.312500
4060,-72.265625
4061,-72.265625
4062,-74.218750
4063,-76.171875
4064,-76.171875
4065,-78.125000
4066,-80.078125
4067,-80.078125
4068,-82.031250
4069,-83.984375
4070,-83.984375
4071,-83.984375
4072,-85.937500
4073,-85.937500
4074,-87.890625
4075,-87.890625
4076,-87.890625
4077,-89.843750
4078,-91.796875
4079,-91.796875
4080,-91.796875
4081,-91.796875
4082,-93.750000
4083,-93.750000
4084,-93.750000
4085,-93.750000
4086,-95.703125
4087,-95.703125
4088,-95.703125
4089,-95.703125
4090,-95.703125
4091,-95.703125
4092,-95.703125
4093,-95.703125
4094,-95.703125
4095,-95.703125
4096,-95.703125
4097,-95.703125
4098,-95.703125
4099,-95.703125
4100,-95.703125
4101,-95.703125
4102,-93.750000
4103,-93.750000
4104,-93.750000
4105,-93.750000
4106,-93.750000
4107,-91.796875
4108,-91.796875
4109,-89.843750
4110,-89.843750
4111,-89.843750
4112,-87.890625
4113,-87.890625
4114,-85.937500
4115,-85.937500
4116,-83.984375
4117,-82.031250
4118,-82.031250
4119,-82.031250
4120,-80.078125
4121,-78.125000
4122,-78.125000
4123,-76.171875
4124,-74.218750
4125,-72.265625
4126,-72.265625
4127,-70.312500
4128,-68.359375
4129,-66.406250
4130,-66.406250
4131,-64.453125
4132,-62.500000
4133,-60.546875
4134,-58.593750
4135,-58.593750
4136,-56.640625
4137,-54.687500
4138,-52.734375
4139,-50.781250
4140,-48.828125
4141,-46.875000
4142,-44.921875
4143,-42.968750
4144,-41.015625
4145,-41.015625
4146,-37.109375
4147,-35.156250
4148,-35.156250
4149,-33.203125
4150,-31.250000
4151,-29.296875
4152,-25.390625
4153,-23.437500
4154,-23.437500
4155,-21.484375
4156,-19.531250
4157,-17.578125
4158,-15.625000
4159,-13.671875
4160,-11.718750
4161,-9.765625
4162,-7.812500
4163,-5.859375
4164,-3.906250
4165,0.000000
4166,1.953125
4167,1.953125
4168,3.906250
4169,5.859375
4170,7.812500
4171,9.765625
4172,11.718750
4173,13.671875
4174,15.625000
4175,17.578125
4176,19.531250
4177,21.484375
4178,23.437500
4179,25.390625
4180,25.390625
4181,29.296875
4182,29.296875
4183,31.250000
4184,33.203125
4185,35.156250
4186,37.109375
4187,39.062500
4188,41.015625
4189,41.015625
4190,42.968750
4191,44.921875
4192,46.875000
4193,46.875000
4194,48.828125
4195,50.781250
4196,52.734375
4197,52.734375
4198,54.687500
4199,54.687500
4200,56.640625
4201,58.593750
4202,58.593750
4203,60.546875
4204,60.546875
4205,62.500000
4206,64.453125
4207,64.453125
4208,66.406250
4209,66.406250
4210,68.359375
4211,68.359375
4212,68.359375
4213,70.312500
4214,70.312500
4215,72.265625
4216,72.265625
4217,72.265625
4218,72.265625
4219,74.218750
4220,74.218750
4221,76.171875
4222,74.218750
4223,76.171875
4224,78.125000
4225,78.125000
4226,76.171875
4227,78.125000
4228,78.125000
4229,78.125000
4230,78.125000
4231,78.125000
4232,78.125000
4233,78.125000
4234,78.125000
4235,78.125000
4236,78.125000
4237,78.125000
4238,78.125000
4239,78.125000
4240,78.125000
4241,78.125000
4242,78.125000
4243,76.171875
4244,76.171875
4245,76.171875
4246,76.171875
4247,76.171875
4248,74.218750
4249,74.218750
4250,74.218750
4251,72.265625
4252,72.265625
4253,72.265625
4254,72.265625
4255,70.312500
4256,68.359375
4257,68.359375
4258,68.359375
4259,68.359375
4260,66.406250
4261,64.453125
4262,64.453125
4263,64.453125
4264,62.500000
4265,60.546875
4266,60.546875
4267,58.593750
4268,56.640625
4269,56.640625
4270,54.687500
4271,54.687500
4272,52.734375
4273,50.781250
4274,50.781250
4275,48.828125
4276,48.828125
4277,44.921875
4278,44.921875
4279,42.968750
4280,41.015625
4281,39.062500
4282,37.109375
4283,37.109375
4284,35.156250
4285,33.203125
4286,31.250000
4287,29.296875
4288,27.343750
4289,25.390625
4290,23.437500
4291,21.484375
4292,19.531250
4293,17.578125
4294,17.578125
4295,15.625000
4296,13.671875
4297,11.718750
4298,9.765625
4299,7.812500
4300,5.859375
4301,3.906250
4302,1.953125
4303,0.000000
4304,-1.953125
4305,-5.859375
4306,-5.859375
4307,-7.812500
4308,-9.765625
4309,-11.718750
4310,-13.671875
4311,-15.625000
4312,-17.578125
4313,-19.531250
4314,-21.484375
4315,-23.437500
4316,-25.390625
4317,-27.343750
4318,-29.296875
4319,-31.250000
4320,-33.203125
4321,-35.156250
4322,-37.109375
4323,-39.062500
4324,-41.015625
4325,-42.968750
4326,-44.921875
4327,-46.875000
4328,-48.828125
4329,-50.781250
4330,-50.781250
4331,-52.734375
4332,-54.687500
4333,-56.640625
4334,-58.593750
4335,-60.546875
4336,-60.546875
4337,-64.453125
4338,-64.453125
4339,-66.406250
4340,-68.359375
4341,-70.312500
4342,-70.312500
4343,-72.265625
4344,-74.218750
4345,-76.171875
4346,-76.171875
4347,-78.125000
4348,-80.078125
4349,-80.078125
4350,-82.031250
4351,-82.031250
4352,-83.984375
4353,-85.937500
4354,-85.937500
4355,-85.937500
4356,-87.890625
4357,-89.843750
4358,-89.843750
4359,-89.843750
4360,-89.843750
4361,-91.796875
4362,-91.796875
4363,-91.796875
4364,-93.750000
4365,-93.750000
4366,-93.750000
4367,-93.750000
4368,-93.750000
4369,-95.703125
4370,-95.703125
4371,-95.703125
4372,-95.703125
4373,-95.703125
4374,-95.703125
4375,-95.703125
4376,-95.703125
4377,-97.656250
4378,-95.703125
4379,-95.703125
4380,-95.703125
4381,-95.703125
4382,-93.750000
4383,-93.750000
4384,-93.750000
4385,-93.750000
4386,-93.750000
4387,-91.796875
4388,-91.796875
4389,-91.796875
4390,-89.843750
4391,-89.843750
4392,-89.843750
4393,-89.843750
4394,-87.890625
4395,-85.937500
4396,-85.937500
4397,-85.937500
4398,-83.984375
4399,-82.031250
4400,-82.031250
4401,-80.078125
4402,-80.078125
4403,-78.125000
4404,-76.171875
4405,-76.171875
4406,-74.218750
4407,-72.265625
4408,-72.265625
4409,-70.312500
4410,-68.359375
4411,-68.359375
4412,-66.406250
4413,-64.453125
4414,-62.500000
4415,-62.500000
4416,-60.546875
4417,-58.593750
4418,-56.640625
4419,-54.687500
4420,-52.734375
4421,-50.781250
4422,-50.781250
4423,-46.875000
4424,-46.875000
4425,-44.921875
4426,-42.968750
4427,-41.015625
4428,-39.062500
4429,-37.109375
4430,-35.156250
4431,-33.203125
4432,-31.250000
4433,-29.296875
4434,-25.390625
4435,-25.390625
4436,-23.437500
4437,-19.531250
4438,-19.531250
4439,-17.578125
4440,-15.625000
4441,-13.671875
4442,-11.718750
4443,-9.765625
4444,-7.812500
4445,-5.859375
4446,-3.906250
4447,-1.953125
4448,0.000000
4449,1.953125
4450,3.906250
4451,5.859375
4452,7.812500
4453,9.765625
4454,11.718750
4455,13.671875
4456,15.625000
4457,17.578125
4458,19.531250
4459,21.484375
4460,23.437500
4461,23.437500
4462,25.390625
4463,27.343750
4464,29.296875
4465,31.250000
4466,33.203125
4467,35.156250
4468,37.109375
4469,39.062500
4470,39.062500
4471,41.015625
4472,42.968750
4473,44.921875
4474,44.921875
4475,46.875000
4476,46.875000
4477,48.828125
4478,50.781250
4479,52.734375
4480,54.687500
4481,54.687500
4482,56.640625
4483,58.593750
4484,58.593750
4485,60.546875
4486,60.546875
4487,62.500000
4488,62.500000
4489,64.453125
4490,64.453125
4491,66.406250
4492,66.406250
4493,68.359375
4494,68.359375
4495,68.359375
4496,70.312500
4497,72.265625
4498,72.265625
4499,72.265625
4500,72.265625
4501,74.218750
4502,74.218750
4503,74.218750
4504,74.218750
4505,76.171875
4506,76.171875
4507,76.171875
4508,78.125000
4509,78.125000
4510,78.125000
4511,78.125000
4512,78.125000
4513,78.125000
4514,78.125000
4515,78.125000
4516,78.125000
4517,78.125000
4518,78.125000
4519,78.125000
4520,78.125000
4521,78.125000
4522,78.125000
4523,78.125000
4524,78.125000
4525,78.125000
4526,76.171875
4527,76.171875
4528,76.171875
4529,76.171875
4530,74.218750
4531,74.218750
4532,74.218750
4533,74.218750
4534,72.265625
4535,72.265625
4536,72.265625
4537,72.265625
4538,70.312500
4539,68.359375
4540,68.359375
4541,68.359375
4542,68.359375
4543,66.406250
4544,64.453125
4545,64.453125
4546,62.500000
4547,60.546875
4548,60.546875
4549,58.593750
4550,58.593750
4551,56.640625
4552,54.687500
4553,54.687500
4554,52.734375
4555,52.734375
4556,50.781250
4557,48.828125
4558,46.875000
4559,46.875000
4560,44.921875
4561,42.968750
4562,41.015625
4563,41.015625
4564,39.062500
4565,37.109375
4566,35.156250
4567,33.203125
4568,33.203125
4569,29.296875
4570,27.343750
4571,27.343750
4572,25.390625
4573,23.437500
4574,21.484375
4575,19.531250
4576,17.578125
4577,15.625000
4578,13.671875
4579,11.718750
4580,9.765625
4581,9.765625
4582,5.859375
4583,3.906250
4584,1.953125
4585,0.000000
4586,-1.953125
4587,-1.953125
4588,-5.859375
4589,-7.812500
4590,-9.765625
4591,-11.718750
4592,-13.671875
4593,-15.625000
4594,-17.578125
4595,-17.578125
4596,-21.484375
4597,-23.437500
4598,-25.390625
4599,-27.343750
4600,-29.296875
4601,-31.250000
4602,-33.203125
4603,-35.156250
4604,-37.109375
4605,-37.109375
4606,-41.015625
4607,-42.968750
4608,-44.921875
4609,-46.875000
4610,-46.875000
4611,-48.828125
4612,-52.734375
4613,-52.734375
4614,-54.687500
4615,-56.640625
4616,-58.593750
4617,-60.546875
4618,-62.500000
4619,-62.500000
4620,-64.453125
4621,-66.406250
4622,-68.359375
4623,-70.312500
4624,-70.312500
4625,-72.265625
4626,-74.218750
4627,-76.171875
4628,-76.171875
4629,-78.125000
4630,-78.125000
4631,-80.078125
4632,-80.078125
4633,-82.031250
4634,-83.984375
4635,-83.984375
4636,-85.937500
4637,-85.937500
4638,-87.890625
4639,-87.890625
4640,-87.890625
4641,-89.843750
4642,-89.843750
4643,-89.843750
4644,-91.796875
4645,-91.796875
4646,-93.750000
4647,-93.750000
4648,-93.750000
4649,-93.750000
4650,-93.750000
4651,-95.703125
4652,-93.750000
4653,-95.703125
4654,-95.703125
4655,-95.703125
4656,-95.703125
4657,-95.703125
4658,-95.703125
4659,-95.703125
4660,-95.703125
4661,-95.703125
4662,-95.703125
4663,-95.703125
4664,-95.703125
4665,-93.750000
4666,-93.750000
4667,-93.750000
4668,-93.750000
4669,-93.750000
4670,-91.796875
4671,-91.796875
4672,-91.796875
4673,-89.843750
4674,-89.843750
4675,-89.843750
4676,-87.890625
4677,-85.937500
4678,-85.937500
4679,-85.937500
4680,-85.937500
4681,-83.984375
4682,-82.031250
4683,-82.031250
4684,-80.078125
4685,-82.031250
4686,-78.125000
4687,-78.125000
4688,-76.171875
4689,-74.218750
4690,-72.265625
4691,-72.265625
4692,-70.312500
4693,-68.359375
4694,-66.406250
4695,-64.453125
4696,-64.453125
4697,-62.500000
4698,-60.546875
4699,-58.593750
4700,-56.640625
4701,-54.687500
4702,-54.687500
4703,-52.734375
4704,-50.781250
4705,-48.828125
4706,-46.875000
4707,-44.921875
4708,-42.968750
4709,-41.015625
4710,-39.062500
4711,-37.109375
4712,-35.156250
4713,-33.203125
4714,-31.250000
4715,-31.250000
4716,-27.343750
4717,-25.390625
4718,-23.437500
4719,-23.437500
4720,-19.531250
4721,-17.578125
4722,-15.625000
4723,-13.671875
4724,-13.671875
4725,-9.765625
4726,-7.812500
4727,-5.859375
4728,-3.906250
4729,-1.953125
4730,-1.953125
4731,1.953125
4732,3.906250
4733,3.906250
4734,5.859375
4735,9.765625
4736,11.718750
4737,13.671875
4738,13.671875
4739,17.578125
4740,17.578125
4741,21.484375
4742,21.484375
4743,23.437500
4744,25.390625
4745,27.343750
4746,29.296875
4747,29.296875
4748,31.250000
4749,35.156250
4750,35.156250
4751,37.109375
4752,39.062500
4753,39.062500
4754,41.015625
4755,42.968750
4756,44.921875
4757,46.875000
4758,48.828125
4759,48.828125
4760,50.781250
4761,50.781250
4762,52.734375
4763,54.687500
4764,56.640625
4765,56.640625
4766,58.593750
4767,60.546875
4768,60.546875
4769,62.500000
4770,62.500000
4771,64.453125
4772,66.406250
4773,64.453125
4774,68.359375
4775,68.359375
4776,68.359375
4777,68.359375
4778,70.312500
4779,72.265625
4780,72.265625
4781,72.265625
4782,74.218750
4783,74.218750
4784,74.218750
4785,76.171875
4786,76.171875
4787,76.171875
4788,76.171875
4789,78.125000
4790,78.125000
4791,76.171875
4792,78.125000
4793,78.125000
4794,78.125000
4795,78.125000
4796,78.125000
4797,78.125000
4798,78.125000
4799,78.125000
4800,78.125000
4801,78.125000
4802,78.125000
4803,78.125000
4804,78.125000
4805,78.125000
4806,78.125000
4807,78.125000
4808,76.171875
4809,76.171875
4810,76.171875
4811,76.171875
4812,76.171875
4813,74.218750
4814,74.218750
4815,74.218750
4816,74.218750
4817,72.265625
4818,72.265625
4819,70.312500
4820,70.312500
4821,68.359375
4822,68.359375
4823,68.359375
4824,66.406250
4825,66.406250
4826,64.453125
4827,64.453125
4828,62.500000
4829,62.500000
4830,60.546875
4831,60.546875
4832,58.593750
4833,56.640625
4834,56.640625
4835,54.687500
4836,54.687500
4837,52.734375
4838,50.781250
4839,48.828125
4840,44.921875
4841,46.875000
4842,44.921875
4843,42.968750
4844,42.968750
4845,41.015625
4846,39.062500
4847,37.109375
4848,35.156250
4849,35.156250
4850,31.250000
4851,31.250000
4852,29.296875
4853,27.343750
4854,25.390625
4855,23.437500
4856,21.484375
4857,19.531250
4858,17.578125
4859,15.625000
4860,13.671875
4861,13.671875
4862,11.718750
4863,9.765625
4864,5.859375
4865,5.859375
4866,3.906250
4867,1.953125
4868,-1.953125
4869,-3.906250
4870,-3.906250
4871,-5.859375
4872,-9.765625
4873,-9.765625
4874,-13.671875
4875,-13.671875
4876,-19.531250
4877,-19.531250
4878,-21.484375
4879,-23.437500
4880,-25.390625
4881,-27.343750
4882,-29.296875
4883,-29.296875
4884,-33.203125
4885,-35.156250
4886,-37.109375
4887,-37.109375
4888,-39.062500
4889,-41.015625
4890,-42.968750
4891,-46.875000
4892,-46.875000
4893,-48.828125
4894,-50.781250
4895,-52.734375
4896,-54.687500
4897,-56.640625
4898,-58.593750
4899,-58.593750
4900,-60.546875
4901,-62.500000
4902,-64.453125
4903,-64.453125
4904,-66.406250
4905,-68.359375
4906,-70.312500
4907,-72.265625
4908,-72.265625
4909,-74.218750
4910,-74.218750
4911,-76.171875
4912,-78.125000
4913,-78.125000
4914,-80.078125
4915,-82.031250
4916,-82.031250
4917,-83.984375
4918,-83.984375
4919,-85.937500
4920,-87.890625
4921,-87.890625
4922,-87.890625
4923,-87.890625
4924,-89.843750
4925,-91.796875
4926,-91.796875
4927,-91.796875
4928,-93.750000
4929,-93.750000
4930,-93.750000
4931,-93.750000
4932,-95.703125
4933,-95.703125
4934,-95.703125
4935,-95.703125
4936,-95.703125
4937,-95.703125
4938,-95.703125
4939,-97.656250
4940,-95.703125
4941,-95.703125
4942,-95.703125
4943,-95.703125
4944,-95.703125
4945,-95.703125
4946,-95.703125
4947,-95.703125
4948,-93.750000
4949,-93.750000
4950,-93.750000
4951,-93.750000
4952,-93.750000
4953,-91.796875
4954,-91.796875
4955,-91.796875
4956,-89.843750
4957,-87.890625
4958,-87.890625
4959,-87.890625
4960,-85.937500
4961,-85.937500
4962,-83.984375
4963,-83.984375
4964,-83.984375
4965,-82.031250
4966,-80.078125
4967,-80.078125
4968,-78.125000
4969,-78.125000
4970,-76.171875
4971,-74.218750
4972,-72.265625
4973,-72.265625
4974,-70.312500
4975,-68.359375
4976,-66.406250
4977,-66.406250
4978,-64.453125
4979,-62.500000
4980,-60.546875
4981,-58.593750
4982,-58.593750
4983,-56.640625
4984,-54.687500
4985,-52.734375
4986,-50.781250
4987,-48.828125
4988,-46.875000
4989,-44.921875
4990,-42.968750
4991,-42.968750
4992,-41.015625
4993,-37.109375
4994,-35.156250
4995,-35.156250
4996,-33.203125
4997,-31.250000
4998,-29.296875
4999,-27.343750
5000,-25.390625
5001,-23.437500
5002,-21.484375
5003,-19.531250
5004,-17.578125
5005,-15.625000
5006,-13.671875
5007,-11.718750
5008,-9.765625
5009,-7.812500
5010,-5.859375
5011,-3.906250
5012,-1.953125
5013,0.000000
5014,1.953125
5015,3.906250
5016,5.859375
5017,7.812500
5018,9.765625
5019,11.718750
5020,13.671875
5021,15.625000
5022,17.578125
5023,19.531250
5024,21.484375
5025,21.484375
5026,25.390625
5027,27.343750
5028,29.296875
5029,29.296875
5030,31.250000
5031,33.203125
5032,35.156250
5033,37.109375
5034,37.109375
5035,41.015625
5036,41.015625
5037,42.968750
5038,44.921875
5039,44.921875
5040,46.875000
5041,48.828125
5042,50.781250
5043,52.734375
5044,52.734375
5045,54.687500
5046,56.640625
5047,56.640625
5048,58.593750
5049,58.593750
5050,60.546875
5051,60.546875
5052,62.500000
5053,64.453125
5054,64.453125
5055,64.453125
5056,66.406250
5057,68.359375
5058,68.359375
5059,68.359375
5060,70.312500
5061,70.312500
5062,72.265625
5063,72.265625
5064,72.265625
5065,72.265625
5066,74.218750
5067,74.218750
5068,76.171875
5069,74.218750
5070,76.171875
5071,76.171875
5072,76.171875
5073,78.125000
5074,78.125000
5075,78.125000
5076,78.125000
5077,78.125000
5078,78.125000
5079,78.125000
5080,78.125000
5081,78.125000
5082,78.125000
5083,78.125000
5084,78.125000
5085,78.125000
5086,78.125000
5087,78.125000
5088,78.125000
5089,78.125000
5090,76.171875
5091,76.171875
5092,76.171875
5093,76.171875
5094,76.171875
5095,76.171875
5096,74.218750
5097,74.218750
5098,74.218750
5099,72.265625
5100,72.265625
5101,72.265625
5102,70.312500
5103,70.312500
5104,68.359375
5105,68.359375
5106,68.359375
5107,66.406250
5108,64.453125
5109,64.453125
5110,64.453125
5111,62.500000
5112,60.546875
5113,60.546875
5114,58.593750
5115,58.593750
5116,56.640625
5117,56.640625
5118,54.687500
5119,52.734375
5120,50.781250
5121,48.828125
5122,48.828125
5123,46.875000
5124,46.875000
5125,44.921875
5126,42.968750
5127,41.015625
5128,39.062500
5129,37.109375
5130,35.156250
5131,35.156250
5132,33.203125
5133,31.250000
5134,29.296875
5135,27.343750
5136,25.390625
5137,23.437500
5138,21.484375
5139,19.531250
5140,19.531250
5141,17.578125
5142,15.625000
5143,11.718750
5144,11.718750
5145,9.765625
5146,7.812500
5147,5.859375
5148,3.906250
5149,1.953125
5150,0.000000
5151,-1.953125
5152,-3.906250
5153,-5.859375
5154,-7.812500
5155,-9.765625
5156,-11.718750
5157,-13.671875
5158,-15.625000
5159,-17.578125
5160,-19.531250
5161,-21.484375
5162,-23.437500
5163,-25.390625
5164,-27.343750
5165,-29.296875
5166,-31.250000
5167,-33.203125
5168,-35.156250
5169,-37.109375
5170,-39.062500
5171,-41.015625
5172,-41.015625
5173,-44.921875
5174,-44.921875
5175,-48.828125
5176,-50.781250
5177,-50.781250
5178,-52.734375
5179,-54.687500
5180,-56.640625
5181,-58.593750
5182,-60.546875
5183,-62.500000
5184,-64.453125
5185,-64.453125
5186,-66.406250
5187,-68.359375
5188,-70.312500
5189,-72.265625
5190,-72.265625
5191,-74.218750
5192,-74.218750
5193,-76.171875
5194,-78.125000
5195,-80.078125
5196,-80.078125
5197,-82.031250
5198,-82.031250
5199,-83.984375
5200,-83.984375
5201,-85.937500
5202,-87.890625
5203,-87.890625
5204,-87.890625
5205,-89.843750
5206,-89.843750
5207,-89.843750
5208,-91.796875
5209,-91.796875
5210,-91.796875
5211,-93.750000
5212,-93.750000
5213,-93.750000
5214,-93.750000
5215,-95.703125
5216,-95.703125
5217,-97.656250
5218,-95.703125
5219,-95.703125
5220,-95.703125
5221,-95.703125
5222,-95.703125
5223,-95.703125
5224,-95.703125
5225,-95.703125
5226,-95.703125
5227,-95.703125
5228,-95.703125
5229,-95.703125
5230,-93.750000
5231,-93.750000
5232,-93.750000
5233,-93.750000
5234,-93.750000
5235,-91.796875
5236,-91.796875
5237,-91.796875
5238,-89.843750
5239,-89.843750
5240,-87.890625
5241,-87.890625
5242,-87.890625
5243,-85.937500
5244,-85.937500
5245,-83.984375
5246,-83.984375
5247,-83.984375
5248,-80.078125
5249,-80.078125
5250,-80.078125
5251,-78.125000
5252,-76.171875
5253,-74.218750
5254,-74.218750
5255,-72.265625
5256,-72.265625
5257,-70.312500
5258,-68.359375
5259,-66.406250
5260,-64.453125
5261,-62.500000
5262,-60.546875
5263,-60.546875
5264,-58.593750
5265,-56.640625
5266,-54.687500
5267,-52.734375
5268,-50.781250
5269,-48.828125
5270,-48.828125
5271,-46.875000
5272,-44.921875
5273,-42.968750
5274,-41.015625
5275,-39.062500
5276,-37.109375
5277,-35.156250
5278,-33.203125
5279,-31.250000
5280,-29.296875
5281,-27.343750
5282,-25.390625
5283,-23.437500
5284,-21.484375
5285,-19.531250
5286,-17.578125
5287,-15.625000
5288,-13.671875
5289,-11.718750
5290,-9.765625
5291,-7.812500
5292,-5.859375
5293,-3.906250
5294,-1.953125
5295,0.000000
5296,1.953125
5297,3.906250
5298,5.859375
5299,7.812500
5300,9.765625
5301,11.718750
5302,13.671875
5303,15.625000
5304,17.578125
5305,17.578125
5306,19.531250
5307,21.484375
5308,25.390625
5309,27.343750
5310,29.296875
5311,29.296875
5312,31.250000
5313,33.203125
5314,35.156250
5315,37.109375
5316,39.062500
5317,39.062500
5318,41.015625
5319,42.968750
5320,44.921875
5321,44.921875
5322,46.875000
5323,48.828125
5324,48.828125
5325,50.781250
5326,52.734375
5327,54.687500
5328,54.687500
5329,56.640625
5330,56.640625
5331,58.593750
5332,60.546875
5333,60.546875
5334,62.500000
5335,62.500000
5336,64.453125
5337,64.453125
5338,66.406250
5339,66.406250
5340,68.359375
5341,68.359375
5342,70.312500
5343,70.312500
5344,70.312500
5345,72.265625
5346,72.265625
5347,74.218750
5348,74.218750
5349,74.218750
5350,74.218750
5351,76.171875
5352,76.171875
5353,76.171875
5354,76.171875
5355,76.171875
5356,78.125000
5357,78.125000
5358,78.125000
5359,78.125000
5360,78.125000
5361,78.125000
5362,78.125000
5363,78.125000
5364,78.125000
5365,78.125000
5366,78.125000
5367,78.125000
5368,78.125000
5369,78.125000
5370,78.125000
5371,78.125000
5372,78.125000
5373,76.171875
5374,76.171875
5375,76.171875
5376,76.171875
5377,76.171875
5378,74.218750
5379,74.218750
5380,72.265625
5381,72.265625
5382,72.265625
5383,72.265625
5384,70.312500
5385,70.312500
5386,68.359375
5387,68.359375
5388,68.359375
5389,66.406250
5390,64.453125
5391,64.453125
5392,62.500000
5393,62.500000
5394,62.500000
5395,60.546875
5396,58.593750
5397,56.640625
5398,56.640625
5399,56.640625
5400,54.687500
5401,52.734375
5402,50.781250
5403,50.781250
5404,48.828125
5405,46.875000
5406,46.875000
5407,44.921875
5408,42.968750
5409,41.015625
5410,41.015625
5411,39.062500
5412,35.156250
5413,35.156250
5414,33.203125
5415,31.250000
5416,29.296875
5417,29.296875
5418,27.343750
5419,23.437500
5420,23.437500
5421,21.484375
5422,19.531250
5423,17.578125
5424,15.625000
5425,13.671875
5426,11.718750
5427,9.765625
5428,7.812500
5429,5.859375
5430,3.906250
5431,1.953125
5432,0.000000
5433,-1.953125
5434,-3.906250
5435,-5.859375
5436,-7.812500
5437,-9.765625
5438,-11.718750
5439,-13.671875
5440,-15.625000
5441,-17.578125
5442,-19.531250
5443,-21.484375
5444,-23.437500
5445,-25.390625
5446,-25.390625
5447,-29.296875
5448,-31.250000
5449,-33.203125
5450,-35.156250
5451,-37.109375
5452,-39.062500
5453,-41.015625
5454,-42.968750
5455,-44.921875
5456,-46.875000
5457,-46.875000
5458,-50.781250
5459,-52.734375
5460,-52.734375
5461,-54.687500
5462,-56.640625
5463,-58.593750
5464,-58.593750
5465,-62.500000
5466,-62.500000
5467,-64.453125
5468,-66.406250
5469,-68.359375
5470,-68.359375
5471,-70.312500
5472,-72.265625
5473,-74.218750
5474,-76.171875
5475,-76.171875
5476,-78.125000
5477,-78.125000
5478,-80.078125
5479,-80.078125
5480,-82.031250
5481,-83.984375
5482,-83.984375
5483,-85.937500
5484,-85.937500
5485,-87.890625
5486,-87.890625
5487,-89.843750
5488,-89.843750
5489,-89.843750
5490,-91.796875
5491,-91.796875
5492,-93.750000
5493,-91.796875
5494,-93.750000
5495,-93.750000
5496,-93.750000
5497,-93.750000
5498,-95.703125
5499,-95.703125
5500,-95.703125
5501,-95.703125
5502,-95.703125
5503,-95.703125
5504,-95.703125
5505,-95.703125
5506,-95.703125
5507,-95.703125
5508,-95.703125
5509,-95.703125
5510,-95.703125
5511,-95.703125
5512,-93.750000
5513,-95.703125
5514,-93.750000
5515,-93.750000
5516,-93.750000
5517,-93.750000
5518,-91.796875
5519,-91.796875
5520,-89.843750
5521,-89.843750
5522,-89.843750
5523,-87.890625
5524,-87.890625
5525,-87.890625
5526,-85.937500
5527,-85.937500
5528,-83.984375
5529,-82.031250
5530,-82.031250
5531,-80.078125
5532,-78.125000
5533,-78.125000
5534,-76.171875
5535,-76.171875
5536,-74.218750
5537,-74.218750
5538,-72.265625
5539,-70.312500
5540,-68.359375
5541,-66.406250
5542,-66.406250
5543,-64.453125
5544,-62.500000
5545,-60.546875
5546,-58.593750
5547,-56.640625
5548,-54.687500
5549,-54.687500
5550,-52.734375
5551,-50.781250
5552,-46.875000
5553,-46.875000
5554,-44.921875
5555,-42.968750
5556,-41.015625
5557,-39.062500
5558,-37.109375
5559,-35.156250
5560,-33.203125
5561,-31.250000
5562,-31.250000
5563,-27.343750
5564,-25.390625
5565,-23.437500
5566,-21.484375
5567,-19.531250
5568,-17.578125
5569,-15.625000
5570,-15.625000
5571,-11.718750
5572,-9.765625
5573,-7.812500
5574,-5.859375
5575,-3.906250
5576,-1.953125
5577,0.000000
5578,0.000000
5579,3.906250
5580,5.859375
5581,5.859375
5582,7.812500
5583,11.718750
5584,13.671875
5585,13.671875
5586,15.625000
5587,17.578125
5588,19.531250
5589,21.484375
5590,23.437500
5591,25.390625
5592,27.343750
5593,29.296875
5594,31.250000
5595,33.203125
5596,33.203125
5597,35.156250
5598,37.109375
5599,39.062500
5600,41.015625
5601,42.968750
5602,42.968750
5603,44.921875
5604,46.875000
5605,46.875000
5606,48.828125
5607,50.781250
5608,50.781250
5609,52.734375
5610,54.687500
5611,56.640625
5612,56.640625
5613,58.593750
5614,60.546875
5615,60.546875
5616,60.546875
5617,62.500000
5618,64.453125
5619,64.453125
5620,64.453125
5621,66.406250
5622,68.359375
5623,68.359375
5624,68.359375
5625,70.312500
5626,70.312500
5627,72.265625
5628,72.265625
5629,74.218750
5630,74.218750
5631,74.218750
5632,74.218750
5633,76.171875
5634,76.171875
5635,76.171875
5636,76.171875
5637,78.125000
5638,76.171875
5639,76.171875
5640,78.125000
5641,78.125000
5642,78.125000
5643,78.125000
5644,78.125000
5645,76.171875
5646,78.125000
5647,78.125000
5648,78.125000
5649,78.125000
5650,78.125000
5651,78.125000
5652,78.125000
5653,76.171875
5654,76.171875
5655,76.171875
5656,76.171875
5657,76.171875
5658,74.218750
5659,76.171875
5660,74.218750
5661,74.218750
5662,74.218750
5663,74.218750
5664,72.265625
5665,70.312500
5666,70.312500
5667,70.312500
5668,68.359375
5669,68.359375
5670,68.359375
5671,68.359375
5672,66.406250
5673,64.453125
5674,64.453125
5675,62.500000
5676,62.500000
5677,60.546875
5678,58.593750
5679,58.593750
5680,56.640625
5681,56.640625
5682,54.687500
5683,52.734375
5684,50.781250
5685,50.781250
5686,48.828125
5687,48.828125
5688,44.921875
5689,44.921875
5690,42.968750
5691,41.015625
5692,39.062500
5693,39.062500
5694,37.109375
5695,35.156250
5696,35.156250
5697,31.250000
5698,29.296875
5699,27.343750
5700,27.343750
5701,25.390625
5702,23.437500
5703,21.484375
5704,19.531250
5705,19.531250
5706,15.625000
5707,13.671875
5708,13.671875
5709,9.765625
5710,7.812500
5711,7.812500
5712,3.906250
5713,1.953125
5714,0.000000
5715,0.000000
5716,-1.953125
5717,-5.859375
5718,-7.812500
5719,-7.812500
5720,-11.718750
5721,-13.671875
5722,-15.625000
5723,-15.625000
5724,-19.531250
5725,-21.484375
5726,-23.437500
5727,-23.437500
5728,-25.390625
5729,-29.296875
5730,-31.250000
5731,-31.250000
5732,-35.156250
5733,-37.109375
5734,-37.109375
5735,-39.062500
5736,-42.968750
5737,-42.968750
5738,-44.921875
5739,-46.875000
5740,-48.828125
5741,-50.781250
5742,-52.734375
5743,-54.687500
5744,-54.687500
5745,-56.640625
5746,-58.593750
5747,-60.546875
5748,-62.500000
5749,-62.500000
5750,-66.406250
5751,-66.406250
5752,-68.359375
5753,-70.312500
5754,-70.312500
5755,-72.265625
5756,-74.218750
5757,-74.218750
5758,-76.171875
5759,-78.125000
5760,-80.078125
5761,-80.078125
5762,-82.031250
5763,-82.031250
5764,-83.984375
5765,-83.984375
5766,-85.937500
5767,-87.890625
5768,-87.890625
5769,-87.890625
5770,-89.843750
5771,-89.843750
5772,-91.796875
5773,-91.796875
5774,-91.796875
5775,-91.796875
5776,-93.750000
5777,-93.750000
5778,-93.750000
5779,-95.703125
5780,-95.703125
5781,-95.703125
5782,-97.656250
5783,-95.703125
5784,-95.703125
5785,-95.703125
5786,-97.656250
5787,-97.656250
5788,-95.703125
5789,-95.703125
5790,-95.703125
5791,-95.703125
5792,-95.703125
5793,-95.703125
5794,-95.703125
5795,-95.703125
5796,-93.750000
5797,-93.750000
5798,-93.750000
5799,-91.796875
5800,-91.796875
5801,-91.796875
5802,-91.796875
5803,-89.843750
5804,-89.843750
5805,-87.890625
5806,-87.890625
5807,-87.890625
5808,-85.937500
5809,-83.984375
5810,-83.984375
5811,-83.984375
5812,-82.031250
5813,-80.078125
5814,-80.078125
5815,-78.125000
5816,-76.171875
5817,-74.218750
5818,-74.218750
5819,-74.218750
5820,-72.265625
5821,-70.312500
5822,-68.359375
5823,-68.359375
5824,-66.406250
5825,-64.453125
5826,-62.500000
5827,-60.546875
5828,-58.593750
5829,-56.640625
5830,-56.640625
5831,-54.687500
5832,-52.734375
5833,-50.781250
5834,-48.828125
5835,-46.875000
5836,-46.875000
5837,-44.921875
5838,-42.968750
5839,-41.015625
5840,-39.062500
5841,-37.109375
5842,-35.156250
5843,-33.203125
5844,-31.250000
5845,-29.296875
5846,-27.343750
5847,-25.390625
5848,-23.437500
5849,-21.484375
5850,-19.531250
5851,-17.578125
5852,-15.625000
5853,-13.671875
5854,-11.718750
5855,-9.765625
5856,-7.812500
5857,-5.859375
5858,-3.906250
5859,-1.953125
5860,0.000000
5861,1.953125
5862,3.906250
5863,7.812500
5864,7.812500
5865,9.765625
5866,11.718750
5867,13.671875
5868,15.625000
5869,17.578125
5870,19.531250
5871,21.484375
5872,23.437500
5873,25.390625
5874,25.390625
5875,27.343750
5876,31.250000
5877,31.250000
5878,33.203125
5879,35.156250
5880,37.109375
5881,39.062500
5882,41.015625
5883,41.015625
5884,42.968750
5885,44.921875
5886,46.875000
5887,46.875000
5888,48.828125
5889,48.828125
5890,52.734375
5891,52.734375
5892,54.687500
5893,54.687500
5894,56.640625
5895,58.593750
5896,58.593750
5897,60.546875
5898,60.546875
5899,64.453125
5900,64.453125
5901,64.453125
5902,64.453125
5903,66.406250
5904,68.359375
5905,68.359375
5906,68.359375
5907,70.312500
5908,70.312500
5909,72.265625
5910,72.265625
5911,72.265625
5912,74.218750
5913,74.218750
5914,74.218750
5915,74.218750
5916,74.218750
5917,76.171875
5918,76.171875
5919,78.125000
5920,78.125000
5921,76.171875
5922,78.125000
5923,78.125000
5924,78.125000
5925,78.125000
5926,78.125000
5927,78.125000
5928,78.125000
5929,78.125000
5930,78.125000
5931,78.125000
5932,78.125000
5933,78.125000
5934,78.125000
5935,78.125000
5936,78.125000
5937,76.171875
5938,78.125000
5939,76.171875
5940,76.171875
5941,76.171875
5942,74.218750
5943,74.218750
5944,74.218750
5945,74.218750
5946,72.265625
5947,72.265625
5948,72.265625
5949,72.265625
5950,70.312500
5951,68.359375
5952,68.359375
5953,68.359375
5954,66.406250
5955,64.453125
5956,64.453125
5957,64.453125
5958,62.500000
5959,60.546875
5960,60.546875
5961,58.593750
5962,56.640625
5963,56.640625
5964,56.640625
5965,52.734375
5966,54.687500
5967,50.781250
5968,50.781250
5969,48.828125
5970,46.875000
5971,44.921875
5972,42.968750
5973,42.968750
5974,41.015625
5975,39.062500
5976,37.109375
5977,35.156250
5978,33.203125
5979,33.203125
5980,31.250000
5981,29.296875
5982,27.343750
5983,27.343750
5984,23.437500
5985,21.484375
5986,19.531250
5987,17.578125
5988,15.625000
5989,15.625000
5990,13.671875
5991,11.718750
5992,9.765625
5993,7.812500
5994,5.859375
5995,3.906250
5996,0.000000
5997,0.000000
5998,-1.953125
5999,-5.859375
6000,-5.859375
6001,-7.812500
6002,-9.765625
6003,-11.718750
6004,-13.671875
6005,-15.625000
6006,-17.578125
6007,-19.531250
6008,-21.484375
6009,-23.437500
6010,-25.390625
6011,-27.343750
6012,-29.296875
6013,-31.250000
6014,-33.203125
6015,-33.203125
6016,-37.109375
6017,-39.062500
6018,-41.015625
6019,-42.968750
6020,-44.921875
6021,-46.875000
6022,-46.875000
6023,-50.781250
6024,-52.734375
6025,-52.734375
6026,-56.640625
6027,-56.640625
6028,-58.593750
6029,-60.546875
6030,-62.500000
6031,-64.453125
6032,-64.453125
6033,-68.359375
6034,-68.359375
6035,-70.312500
6036,-72.265625
6037,-72.265625
6038,-74.218750
6039,-76.171875
6040,-76.171875
6041,-78.125000
6042,-80.078125
6043,-80.078125
6044,-82.031250
6045,-82.031250
6046,-83.984375
6047,-83.984375
6048,-87.890625
6049,-85.937500
6050,-87.890625
6051,-87.890625
6052,-89.843750
6053,-89.843750
6054,-91.796875
6055,-91.796875
6056,-91.796875
6057,-91.796875
6058,-93.750000
6059,-93.750000
6060,-93.750000
6061,-95.703125
6062,-93.750000
6063,-93.750000
6064,-95.703125
6065,-95.703125
6066,-95.703125
6067,-97.656250
6068,-95.703125
6069,-95.703125
6070,-95.703125
6071,-95.703125
6072,-95.703125
6073,-95.703125
6074,-95.703125
6075,-95.703125
6076,-95.703125
6077,-93.750000
6078,-93.750000
6079,-93.750000
6080,-93.750000
6081,-93.750000
6082,-91.796875
6083,-91.796875
6084,-91.796875
6085,-89.843750
6086,-89.843750
6087,-87.890625
6088,-87.890625
6089,-85.937500
6090,-85.937500
6091,-85.937500
6092,-85.937500
6093,-83.984375
6094,-82.031250
6095,-80.078125
6096,-80.078125
6097,-78.125000
6098,-78.125000
6099,-76.171875
6100,-74.218750
6101,-74.218750
6102,-72.265625
6103,-70.312500
6104,-70.312500
6105,-68.359375
6106,-66.406250
6107,-64.453125
6108,-62.500000
6109,-62.500000
6110,-60.546875
6111,-58.593750
6112,-56.640625
6113,-54.687500
6114,-52.734375
6115,-50.781250
6116,-50.781250
6117,-48.828125
6118,-46.875000
6119,-44.921875
6120,-42.968750
6121,-41.015625
6122,-39.062500
6123,-37.109375
6124,-35.156250
6125,-33.203125
6126,-31.250000
6127,-29.296875
6128,-27.343750
6129,-25.390625
6130,-23.437500
6131,-21.484375
6132,-19.531250
6133,-17.578125
6134,-15.625000
6135,-13.671875
6136,-11.718750
6137,-9.765625
6138,-7.812500
6139,-5.859375
6140,-3.906250
6141,-1.953125
6142,0.000000
6143,1.953125
6144,3.906250
6145,5.859375
6146,7.812500
6147,9.765625
6148,11.718750
6149,13.671875
6150,15.625000
6151,17.578125
6152,19.531250
6153,19.531250
6154,21.484375
6155,23.437500
6156,25.390625
6157,27.343750
6158,29.296875
6159,31.250000
6160,33.203125
6161,33.203125
6162,35.156250
6163,37.109375
6164,39.062500
6165,41.015625
6166,42.968750
6167,42.968750
6168,44.921875
6169,46.875000
6170,46.875000
6171,50.781250
6172,50.781250
6173,52.734375
6174,54.687500
6175,54.687500
6176,56.640625
6177,56.640625
6178,58.593750
6179,60.546875
6180,60.546875
6181,62.500000
6182,62.500000
6183,64.453125
6184,64.453125
6185,66.406250
6186,66.406250
6187,68.359375
6188,68.359375
6189,70.312500
6190,70.312500
6191,70.312500
6192,72.265625
6193,72.265625
6194,74.218750
6195,74.218750
6196,74.218750
6197,74.218750
6198,76.171875
6199,76.171875
6200,76.171875
6201,76.171875
6202,76.171875
6203,78.125000
6204,78.125000
6205,78.125000
6206,78.125000
6207,78.125000
6208,78.125000
6209,78.125000
6210,80.078125
6211,78.125000
6212,78.125000
6213,78.125000
6214,78.125000
6215,78.125000
6216,78.125000
6217,78.125000
6218,78.125000
6219,76.171875
6220,76.171875
6221,76.171875
6222,76.171875
6223,76.171875
6224,74.218750
6225,74.218750
6226,74.218750
6227,74.218750
6228,72.265625
6229,72.265625
6230,70.312500
6231,70.312500
6232,68.359375
6233,68.359375
6234,68.359375
6235,66.406250
6236,66.406250
6237,64.453125
6238,64.453125
6239,62.500000
6240,62.500000
6241,60.546875
6242,60.546875
6243,58.593750
6244,56.640625
6245,56.640625
6246,54.687500
6247,52.734375
6248,52.734375
6249,50.781250
6250,50.781250
6251,48.828125
6252,46.875000
6253,44.921875
6254,44.921875
6255,42.968750
6256,41.015625
6257,39.062500
6258,37.109375
6259,37.109375
6260,35.156250
6261,33.203125
6262,31.250000
6263,29.296875
6264,27.343750
6265,25.390625
6266,25.390625
6267,23.437500
6268,21.484375
6269,19.531250
6270,17.578125
6271,15.625000
6272,13.671875
6273,11.718750
6274,9.765625
6275,7.812500
6276,5.859375
6277,5.859375
6278,3.906250
6279,1.953125
6280,-1.953125
6281,-3.906250
6282,-5.859375
6283,-7.812500
6284,-9.765625
6285,-11.718750
6286,-13.671875
6287,-15.625000
6288,-17.578125
6289,-19.531250
6290,-21.484375
6291,-23.437500
6292,-25.390625
6293,-27.343750
6294,-29.296875
6295,-31.250000
6296,-33.203125
6297,-35.156250
6298,-37.109375
6299,-39.062500
6300,-41.015625
6301,-42.968750
6302,-42.968750
6303,-46.875000
6304,-46.875000
6305,-48.828125
6306,-50.781250
6307,-52.734375
6308,-54.687500
6309,-56.640625
6310,-58.593750
6311,-60.546875
6312,-60.546875
6313,-64.453125
6314,-64.453125
6315,-66.406250
6316,-68.359375
6317,-68.359375
6318,-70.312500
6319,-72.265625
6320,-74.218750
6321,-74.218750
6322,-76.171875
6323,-76.171875
6324,-78.125000
6325,-80.078125
6326,-80.078125
6327,-82.031250
6328,-83.984375
6329,-83.984375
6330,-85.937500
6331,-85.937500
6332,-87.890625
6333,-87.890625
6334,-87.890625
6335,-89.843750
6336,-89.843750
6337,-89.843750
6338,-91.796875
6339,-91.796875
6340,-93.750000
6341,-93.750000
6342,-93.750000
6343,-93.750000
6344,-93.750000
6345,-93.750000
6346,-95.703125
6347,-95.703125
6348,-95.703125
6349,-95.703125
6350,-95.703125
6351,-95.703125
6352,-95.703125
6353,-95.703125
6354,-95.703125
6355,-95.703125
6356,-95.703125
6357,-95.703125
6358,-95.703125
6359,-95.703125
6360,-95.703125
6361,-95.703125
6362,-93.750000
6363,-93.750000
6364,-91.796875
6365,-91.796875
6366,-91.796875
6367,-89.843750
6368,-89.843750
6369,-89.843750
6370,-87.890625
6371,-87.890625
6372,-87.890625
6373,-85.937500
6374,-83.984375
6375,-83.984375
6376,-82.031250
6377,-82.031250
6378,-80.078125
6379,-80.078125
6380,-78.125000
6381,-78.125000
6382,-76.171875
6383,-74.218750
6384,-72.265625
6385,-72.265625
6386,-70.312500
6387,-68.359375
6388,-66.406250
6389,-64.453125
6390,-64.453125
6391,-62.500000
6392,-60.546875
6393,-58.593750
6394,-58.593750
6395,-54.687500
6396,-54.687500
6397,-52.734375
6398,-50.781250
6399,-48.828125
6400,-46.875000
6401,-44.921875
6402,-42.968750
6403,-41.015625
6404,-39.062500
6405,-37.109375
6406,-35.156250
6407,-33.203125
6408,-31.250000
6409,-29.296875
6410,-29.296875
6411,-25.390625
6412,-25.390625
6413,-23.437500
6414,-21.484375
6415,-17.578125
6416,-17.578125
6417,-13.671875
6418,-11.718750
6419,-9.765625
6420,-7.812500
6421,-7.812500
6422,-5.859375
6423,-1.953125
6424,-1.953125
6425,0.000000
6426,1.953125
6427,3.906250
6428,7.812500
6429,7.812500
6430,9.765625
6431,11.718750
6432,13.671875
6433,15.625000
6434,17.578125
6435,19.531250
6436,21.484375
6437,23.437500
6438,25.390625
6439,27.343750
6440,29.296875
6441,31.250000
6442,31.250000
6443,33.203125
6444,35.156250
6445,35.156250
6446,39.062500
6447,39.062500
6448,41.015625
6449,42.968750
6450,44.921875
6451,46.875000
6452,46.875000
6453,48.828125
6454,50.781250
6455,50.781250
6456,52.734375
6457,54.687500
6458,54.687500
6459,56.640625
6460,58.593750
6461,58.593750
6462,60.546875
6463,60.546875
6464,62.500000
6465,64.453125
6466,64.453125
6467,66.406250
6468,66.406250
6469,68.359375
6470,68.359375
6471,70.312500
6472,70.312500
6473,70.312500
6474,72.265625
6475,72.265625
6476,72.265625
6477,74.218750
6478,74.218750
6479,74.218750
6480,76.171875
6481,76.171875
6482,76.171875
6483,76.171875
6484,76.171875
6485,76.171875
6486,78.125000
6487,78.125000
6488,78.125000
6489,78.125000
6490,78.125000
6491,78.125000
6492,78.125000
6493,78.125000
6494,78.125000
6495,78.125000
6496,78.125000
6497,78.125000
6498,78.125000
6499,78.125000
6500,78.125000
6501,78.125000
6502,76.171875
6503,76.171875
6504,76.171875
6505,74.218750
6506,74.218750
6507,74.218750
6508,74.218750
6509,74.218750
6510,72.265625
6511,72.265625
6512,72.265625
6513,70.312500
6514,70.312500
6515,68.359375
6516,68.359375
6517,68.359375
6518,66.406250
6519,66.406250
6520,64.453125
6521,64.453125
6522,62.500000
6523,62.500000
6524,60.546875
6525,60.546875
6526,58.593750
6527,56.640625
6528,56.640625
6529,54.687500
6530,52.734375
6531,52.734375
6532,50.781250
6533,48.828125
6534,48.828125
6535,44.921875
6536,44.921875
6537,42.968750
6538,42.968750
6539,41.015625
6540,39.062500
6541,37.109375
6542,35.156250
6543,35.156250
6544,33.203125
6545,31.250000
6546,29.296875
6547,27.343750
6548,25.390625
6549,23.437500
6550,21.484375
6551,19.531250
6552,19.531250
6553,15.625000
6554,15.625000
6555,11.718750
6556,9.765625
6557,7.812500
6558,5.859375
6559,5.859375
6560,1.953125
6561,1.953125
6562,0.000000
6563,-1.953125
6564,-5.859375
6565,-7.812500
6566,-9.765625
6567,-11.718750
6568,-13.671875
6569,-13.671875
6570,-17.578125
6571,-17.578125
6572,-21.484375
6573,-23.437500
6574,-23.437500
6575,-27.343750
6576,-29.296875
6577,-31.250000
6578,-33.203125
6579,-33.203125
6580,-37.109375
6581,-37.109375
6582,-39.062500
6583,-41.015625
6584,-41.015625
6585,-44.921875
6586,-46.875000
6587,-48.828125
6588,-50.781250
6589,-52.734375
6590,-52.734375
6591,-54.687500
6592,-56.640625
6593,-58.593750
6594,-60.546875
6595,-62.500000
6596,-64.453125
6597,-64.453125
6598,-66.406250
6599,-68.359375
6600,-68.359375
6601,-70.312500
6602,-74.218750
6603,-74.218750
6604,-76.171875
6605,-76.171875
6606,-78.125000
6607,-78.125000
6608,-80.078125
6609,-82.031250
6610,-82.031250
6611,-83.984375
6612,-85.937500
6613,-85.937500
6614,-85.937500
6615,-87.890625
6616,-87.890625
6617,-89.843750
6618,-89.843750
6619,-87.890625
6620,-91.796875
6621,-93.750000
6622,-91.796875
6623,-93.750000
6624,-93.750000
6625,-93.750000
6626,-95.703125
6627,-95.703125
6628,-95.703125
6629,-95.703125
6630,-95.703125
6631,-95.703125
6632,-95.703125
6633,-95.703125
6634,-95.703125
6635,-95.703125
6636,-97.656250
6637,-95.703125
6638,-95.703125
6639,-95.703125
6640,-95.703125
6641,-95.703125
6642,-95.703125
6643,-93.750000
6644,-93.750000
6645,-93.750000
6646,-91.796875
6647,-91.796875
6648,-91.796875
6649,-89.843750
6650,-91.796875
6651,-89.843750
6652,-87.890625
6653,-89.843750
6654,-85.937500
6655,-85.937500
6656,-83.984375
6657,-83.984375
6658,-83.984375
6659,-82.031250
6660,-82.031250
6661,-80.078125
6662,-78.125000
6663,-76.171875
6664,-76.171875
6665,-74.218750
6666,-74.218750
6667,-72.265625
6668,-70.312500
6669,-68.359375
6670,-66.406250
6671,-66.406250
6672,-64.453125
6673,-62.500000
6674,-62.500000
6675,-60.546875
6676,-58.593750
6677,-56.640625
6678,-54.687500
6679,-52.734375
6680,-50.781250
6681,-48.828125
6682,-48.828125
6683,-44.921875
6684,-42.968750
6685,-42.968750
6686,-39.062500
6687,-39.062500
6688,-37.109375
6689,-35.156250
6690,-33.203125
6691,-31.250000
6692,-29.296875
6693,-27.343750
6694,-25.390625
6695,-23.437500
6696,-21.484375
6697,-19.531250
6698,-17.578125
6699,-15.625000
6700,-13.671875
6701,-11.718750
6702,-9.765625
6703,-7.812500
6704,-5.859375
6705,-3.906250
6706,-1.953125
6707,0.000000
6708,1.953125
6709,3.906250
6710,5.859375
6711,7.812500
6712,11.718750
6713,11.718750
6714,13.671875
6715,15.625000
6716,17.578125
6717,19.531250
6718,21.484375
6719,23.437500
6720,25.390625
6721,25.390625
6722,27.343750
6723,29.296875
6724,31.250000
6725,33.203125
6726,35.156250
6727,37.109375
6728,39.062500
6729,39.062500
6730,41.015625
6731,42.968750
6732,44.921875
6733,44.921875
6734,46.875000
6735,48.828125
6736,50.781250
6737,52.734375
6738,52.734375
6739,54.687500
6740,54.687500
6741,56.640625
6742,58.593750
6743,58.593750
6744,60.546875
6745,60.546875
6746,62.500000
6747,64.453125
6748,64.453125
6749,64.453125
6750,66.406250
6751,66.406250
6752,68.359375
6753,68.359375
6754,70.312500
6755,70.312500
6756,70.312500
6757,72.265625
6758,72.265625
6759,74.218750
6760,74.218750
6761,74.218750
6762,74.218750
6763,74.218750
6764,76.171875
6765,76.171875
6766,76.171875
6767,76.171875
6768,76.171875
6769,78.125000
6770,78.125000
6771,78.125000
6772,78.125000
6773,78.125000
6774,78.125000
6775,78.125000
6776,78.125000
6777,78.125000
6778,78.125000
6779,78.125000
6780,78.125000
6781,78.125000
6782,78.125000
6783,78.125000
6784,76.171875
6785,76.171875
6786,76.171875
6787,76.171875
6788,76.171875
6789,74.218750
6790,74.218750
6791,74.218750
6792,72.265625
6793,72.265625
6794,70.312500
6795,72.265625
6796,70.312500
6797,70.312500
6798,68.359375
6799,68.359375
6800,66.406250
6801,66.406250
6802,64.453125
6803,64.453125
6804,62.500000
6805,62.500000
6806,60.546875
6807,60.546875
6808,58.593750
6809,58.593750
6810,54.687500
6811,54.687500
6812,52.734375
6813,52.734375
6814,50.781250
6815,48.828125
6816,48.828125
6817,46.875000
6818,44.921875
6819,42.968750
6820,41.015625
6821,41.015625
6822,39.062500
6823,37.109375
6824,35.156250
6825,33.203125
6826,33.203125
6827,31.250000
6828,29.296875
6829,27.343750
6830,25.390625
6831,23.437500
6832,21.484375
6833,19.531250
6834,17.578125
6835,15.625000
6836,15.625000
6837,13.671875
6838,9.765625
6839,9.765625
6840,7.812500
6841,5.859375
6842,3.906250
6843,1.953125
6844,0.000000
6845,-1.953125
6846,-3.906250
6847,-5.859375
6848,-7.812500
6849,-9.765625
6850,-11.718750
6851,-13.671875
6852,-15.625000
6853,-17.578125
6854,-19.531250
6855,-21.484375
6856,-23.437500
6857,-25.390625
6858,-29.296875
6859,-29.296875
6860,-31.250000
6861,-33.203125
6862,-35.156250
6863,-37.109375
6864,-39.062500
6865,-41.015625
6866,-42.968750
6867,-44.921875
6868,-46.875000
6869,-46.875000
6870,-50.781250
6871,-52.734375
6872,-52.734375
6873,-54.687500
6874,-56.640625
6875,-58.593750
6876,-60.546875
6877,-62.500000
6878,-62.500000
6879,-64.453125
6880,-66.406250
6881,-68.359375
6882,-70.312500
6883,-70.312500
6884,-72.265625
6885,-74.218750
6886,-76.171875
6887,-76.171875
6888,-78.125000
6889,-80.078125
6890,-80.078125
6891,-82.031250
6892,-82.031250
6893,-83.984375
6894,-83.984375
6895,-85.937500
6896,-85.937500
6897,-87.890625
6898,-87.890625
6899,-87.890625
6900,-89.843750
6901,-89.843750
6902,-91.796875
6903,-91.796875
6904,-91.796875
6905,-93.750000
6906,-93.750000
6907,-93.750000
6908,-93.750000
6909,-95.703125
6910,-95.703125
6911,-95.703125
6912,-95.703125
6913,-95.703125
6914,-95.703125
6915,-95.703125
6916,-95.703125
6917,-95.703125
6918,-95.703125
6919,-95.703125
6920,-95.703125
6921,-95.703125
6922,-95.703125
6923,-95.703125
6924,-95.703125
6925,-93.750000
6926,-93.750000
6927,-93.750000
6928,-91.796875
6929,-91.796875
6930,-91.796875
6931,-91.796875
6932,-89.843750
6933,-89.843750
6934,-87.890625
6935,-87.890625
6936,-87.890625
6937,-85.937500
6938,-83.984375
6939,-83.984375
6940,-83.984375
6941,-82.031250
6942,-82.031250
6943,-80.078125
6944,-78.125000
6945,-78.125000
6946,-76.171875
6947,-76.171875
6948,-74.218750
6949,-72.265625
6950,-70.312500
6951,-70.312500
6952,-68.359375
6953,-66.406250
6954,-64.453125
6955,-64.453125
6956,-62.500000
6957,-60.546875
6958,-58.593750
6959,-56.640625
6960,-56.640625
6961,-54.687500
6962,-50.781250
6963,-50.781250
6964,-48.828125
6965,-46.875000
6966,-44.921875
6967,-42.968750
6968,-41.015625
6969,-39.062500
6970,-37.109375
6971,-35.156250
6972,-33.203125
6973,-31.250000
6974,-29.296875
6975,-27.343750
6976,-25.390625
6977,-23.437500
6978,-21.484375
6979,-19.531250
6980,-17.578125
6981,-15.625000
6982,-13.671875
6983,-11.718750
6984,-9.765625
6985,-7.812500
6986,-5.859375
6987,-3.906250
6988,-1.953125
6989,0.000000
6990,1.953125
6991,3.906250
6992,5.859375
6993,7.812500
6994,9.765625
6995,11.718750
6996,11.718750
6997,15.625000
6998,17.578125
6999,17.578125
7000,19.531250
7001,21.484375
7002,23.437500
7003,25.390625
7004,27.343750
7005,29.296875
7006,31.250000
7007,31.250000
7008,33.203125
7009,35.156250
7010,37.109375
7011,39.062500
7012,41.015625
7013,42.968750
7014,42.968750
7015,44.921875
7016,46.875000
7017,46.875000
7018,48.828125
7019,50.781250
7020,52.734375
7021,52.734375
7022,54.687500
7023,56.640625
7024,56.640625
7025,58.593750
7026,60.546875
7027,60.546875
7028,62.500000
7029,62.500000
7030,62.500000
7031,64.453125
7032,66.406250
7033,66.406250
7034,68.359375
7035,68.359375
7036,70.312500
7037,70.312500
7038,70.312500
7039,72.265625
7040,72.265625
7041,72.265625
7042,74.218750
7043,74.218750
7044,76.171875
7045,76.171875
7046,76.171875
7047,76.171875
7048,76.171875
7049,78.125000
7050,78.125000
7051,78.125000
7052,78.125000
7053,78.125000
7054,78.125000
7055,78.125000
7056,78.125000
7057,78.125000
7058,78.125000
7059,78.125000
7060,78.125000
7061,78.125000
7062,78.125000
7063,78.125000
7064,78.125000
7065,76.171875
7066,76.171875
7067,76.171875
7068,76.171875
7069,76.171875
7070,76.171875
7071,74.218750
7072,74.218750
7073,74.218750
7074,72.265625
7075,72.265625
7076,72.265625
7077,70.312500
7078,70.312500
7079,68.359375
7080,70.312500
7081,68.359375
7082,66.406250
7083,66.406250
7084,66.406250
7085,64.453125
7086,62.500000
7087,62.500000
7088,60.546875
7089,60.546875
7090,58.593750
7091,56.640625
7092,56.640625
7093,54.687500
7094,54.687500
7095,52.734375
7096,52.734375
7097,48.828125
7098,48.828125
7099,46.875000
7100,46.875000
7101,44.921875
7102,42.968750
7103,42.968750
7104,41.015625
7105,37.109375
7106,37.109375
7107,35.156250
7108,35.156250
7109,31.250000
7110,29.296875
7111,29.296875
7112,27.343750
7113,25.390625
7114,23.437500
7115,21.484375
7116,19.531250
7117,17.578125
7118,15.625000
7119,13.671875
7120,11.718750
7121,9.765625
7122,7.812500
7123,5.859375
7124,3.906250
7125,1.953125
7126,0.000000
7127,-1.953125
7128,-3.906250
7129,-5.859375
7130,-7.812500
7131,-9.765625
7132,-11.718750
7133,-13.671875
7134,-15.625000
7135,-17.578125
7136,-19.531250
7137,-21.484375
7138,-23.437500
7139,-25.390625
7140,-27.343750
7141,-29.296875
7142,-31.250000
7143,-33.203125
7144,-35.156250
7145,-37.109375
7146,-39.062500
7147,-41.015625
7148,-41.015625
7149,-44.921875
7150,-46.875000
7151,-46.875000
7152,-48.828125
7153,-50.781250
7154,-52.734375
7155,-54.687500
7156,-56.640625
7157,-58.593750
7158,-60.546875
7159,-60.546875
7160,-62.500000
7161,-64.453125
7162,-66.406250
7163,-66.406250
7164,-68.359375
7165,-70.312500
7166,-72.265625
7167,-72.265625
7168,-74.218750
7169,-76.171875
7170,-78.125000
7171,-78.125000
7172,-80.078125
7173,-80.078125
7174,-82.031250
7175,-83.984375
7176,-83.984375
7177,-83.984375
7178,-85.937500
7179,-87.890625
7180,-87.890625
7181,-87.890625
7182,-89.843750
7183,-89.843750
7184,-89.843750
7185,-91.796875
7186,-91.796875
7187,-93.750000
7188,-93.750000
7189,-93.750000
7190,-95.703125
7191,-93.750000
7192,-95.703125
7193,-95.703125
7194,-95.703125
7195,-95.703125
7196,-95.703125
7197,-95.703125
7198,-97.656250
7199,-97.656250
7200,-95.703125
7201,-95.703125
7202,-97.656250
7203,-95.703125
7204,-95.703125
7205,-95.703125
7206,-95.703125
7207,-95.703125
7208,-93.750000
7209,-93.750000
7210,-93.750000
7211,-91.796875
7212,-91.796875
7213,-91.796875
7214,-91.796875
7215,-91.796875
7216,-89.843750
7217,-87.890625
7218,-87.890625
7219,-87.890625
7220,-85.937500
7221,-83.984375
7222,-83.984375
7223,-82.031250
7224,-82.031250
7225,-80.078125
7226,-80.078125
7227,-78.125000
7228,-78.125000
7229,-76.171875
7230,-74.218750
7231,-72.265625
7232,-72.265625
7233,-70.312500
7234,-68.359375
7235,-68.359375
7236,-66.406250
7237,-64.453125
7238,-62.500000
7239,-60.546875
7240,-58.593750
7241,-56.640625
7242,-54.687500
7243,-54.687500
7244,-52.734375
7245,-50.781250
7246,-48.828125
7247,-46.875000
7248,-44.921875
7249,-42.968750
7250,-41.015625
7251,-39.062500
7252,-39.062500
7253,-35.156250
7254,-33.203125
7255,-33.203125
7256,-29.296875
7257,-29.296875
7258,-27.343750
7259,-23.437500
7260,-23.437500
7261,-21.484375
7262,-17.578125
7263,-17.578125
7264,-13.671875
7265,-13.671875
7266,-11.718750
7267,-9.765625
7268,-7.812500
7269,-5.859375
7270,-1.953125
7271,-1.953125
7272,0.000000
7273,1.953125
7274,3.906250
7275,7.812500
7276,7.812500
7277,9.765625
7278,11.718750
7279,13.671875
7280,15.625000
7281,17.578125
7282,19.531250
7283,21.484375
7284,23.437500
7285,25.390625
7286,27.343750
7287,29.296875
7288,31.250000
7289,33.203125
7290,33.203125
7291,35.156250
7292,37.109375
7293,39.062500
7294,41.015625
7295,41.015625
7296,42.968750
7297,44.921875
7298,46.875000
7299,46.875000
7300,48.828125
7301,50.781250
7302,52.734375
7303,52.734375
7304,54.687500
7305,56.640625
7306,56.640625
7307,58.593750
7308,58.593750
7309,60.546875
7310,62.500000
7311,62.500000
7312,64.453125
7313,64.453125
7314,64.453125
7315,66.406250
7316,68.359375
7317,68.359375
7318,70.312500
7319,70.312500
7320,70.312500
7321,70.312500
7322,72.265625
7323,72.265625
7324,74.218750
7325,74.218750
7326,74.218750
7327,74.218750
7328,76.171875
7329,76.171875
7330,76.171875
7331,76.171875
7332,78.125000
7333,78.125000
7334,78.125000
7335,78.125000
7336,78.125000
7337,80.078125
7338,78.125000
7339,78.125000
7340,78.125000
7341,78.125000
7342,78.125000
7343,78.125000
7344,78.125000
7345,78.125000
7346,78.125000
7347,78.125000
7348,76.171875
7349,78.125000
7350,78.125000
7351,76.171875
7352,76.171875
7353,76.171875
7354,74.218750
7355,74.218750
7356,74.218750
7357,72.265625
7358,72.265625
7359,72.265625
7360,70.312500
7361,70.312500
7362,70.312500
7363,68.359375
7364,68.359375
7365,66.406250
7366,64.453125
7367,66.406250
7368,64.453125
7369,62.500000
7370,62.500000
7371,60.546875
7372,60.546875
7373,58.593750
7374,56.640625
7375,56.640625
7376,54.687500
7377,52.734375
7378,50.781250
7379,50.781250
7380,48.828125
7381,48.828125
7382,46.875000
7383,44.921875
7384,42.968750
7385,42.968750
7386,39.062500
7387,39.062500
7388,37.109375
7389,35.156250
7390,33.203125
7391,31.250000
7392,29.296875
7393,29.296875
7394,27.343750
7395,25.390625
7396,23.437500
7397,21.484375
7398,19.531250
7399,17.578125
7400,15.625000
7401,13.671875
7402,11.718750
7403,9.765625
7404,9.765625
7405,5.859375
7406,3.906250
7407,3.906250
7408,0.000000
7409,-1.953125
7410,-1.953125
7411,-5.859375
7412,-7.812500
7413,-9.765625
7414,-9.765625
7415,-13.671875
7416,-13.671875
7417,-17.578125
7418,-19.531250
7419,-19.531250
7420,-21.484375
7421,-25.390625
7422,-27.343750
7423,-27.343750
7424,-31.250000
7425,-31.250000
7426,-33.203125
7427,-35.156250
7428,-37.109375
7429,-39.062500
7430,-41.015625
7431,-42.968750
7432,-44.921875
7433,-46.875000
7434,-48.828125
7435,-50.781250
7436,-52.734375
7437,-54.687500
7438,-54.687500
7439,-58.593750
7440,-60.546875
7441,-60.546875
7442,-62.500000
7443,-64.453125
7444,-66.406250
7445,-66.406250
7446,-68.359375
7447,-70.312500
7448,-72.265625
7449,-72.265625
7450,-74.218750
7451,-76.171875
7452,-76.171875
7453,-78.125000
7454,-80.078125
7455,-80.078125
7456,-82.031250
7457,-83.984375
7458,-83.984375
7459,-83.984375
7460,-85.937500
7461,-87.890625
7462,-87.890625
7463,-87.890625
7464,-89.843750
7465,-89.843750
7466,-91.796875
7467,-91.796875
7468,-91.796875
7469,-93.750000
7470,-93.750000
7471,-93.750000
7472,-95.703125
7473,-93.750000
7474,-95.703125
7475,-95.703125
7476,-95.703125
7477,-95.703125
7478,-95.703125
7479,-97.656250
7480,-95.703125
7481,-95.703125
7482,-95.703125
7483,-95.703125
7484,-95.703125
7485,-95.703125
7486,-95.703125
7487,-95.703125
7488,-95.703125
7489,-93.750000
7490,-93.750000
7491,-93.750000
7492,-93.750000
7493,-93.750000
7494,-91.796875
7495,-91.796875
7496,-91.796875
7497,-89.843750
7498,-89.843750
7499,-87.890625
7500,-87.890625
7501,-87.890625
7502,-85.937500
7503,-83.984375
7504,-83.984375
7505,-82.031250
7506,-82.031250
7507,-80.078125
7508,-80.078125
7509,-78.125000
7510,-76.171875
7511,-76.171875
7512,-74.218750
7513,-72.265625
7514,-72.265625
7515,-70.312500
7516,-68.359375
7517,-68.359375
7518,-66.406250
7519,-64.453125
7520,-62.500000
7521,-60.546875
7522,-60.546875
7523,-58.593750
7524,-56.640625
7525,-54.687500
7526,-52.734375
7527,-50.781250
7528,-50.781250
7529,-46.875000
7530,-44.921875
7531,-44.921875
7532,-42.968750
7533,-41.015625
7534,-39.062500
7535,-37.109375
7536,-35.156250
7537,-33.203125
7538,-31.250000
7539,-29.296875
7540,-27.343750
7541,-25.390625
7542,-23.437500
7543,-21.484375
7544,-19.531250
7545,-17.578125
7546,-15.625000
7547,-13.671875
7548,-11.718750
7549,-9.765625
7550,-7.812500
7551,-5.859375
7552,-3.906250
7553,-1.953125
7554,0.000000
7555,1.953125
7556,3.906250
7557,5.859375
7558,7.812500
7559,9.765625
7560,11.718750
7561,13.671875
7562,15.625000
7563,17.578125
7564,19.531250
7565,21.484375
7566,23.437500
7567,25.390625
7568,27.343750
7569,27.343750
7570,29.296875
7571,31.250000
7572,33.203125
7573,35.156250
7574,37.109375
7575,37.109375
7576,39.062500
7577,41.015625
7578,42.968750
7579,44.921875
7580,44.921875
7581,46.875000
7582,48.828125
7583,48.828125
7584,50.781250
7585,52.734375
7586,52.734375
7587,54.687500
7588,56.640625
7589,58.593750
7590,58.593750
7591,58.593750
7592,60.546875
7593,62.500000
7594,62.500000
7595,64.453125
7596,64.453125
7597,66.406250
7598,66.406250
7599,68.359375
7600,68.359375
7601,68.359375
7602,70.312500
7603,72.265625
7604,72.265625
7605,72.265625
7606,74.218750
7607,74.218750
7608,74.218750
7609,74.218750
7610,74.218750
7611,76.171875
7612,76.171875
7613,76.171875
7614,76.171875
7615,78.125000
7616,78.125000
7617,78.125000
7618,78.125000
7619,78.125000
7620,78.125000
7621,78.125000
7622,78.125000
7623,78.125000
7624,78.125000
7625,78.125000
7626,78.125000
7627,78.125000
7628,78.125000
7629,78.125000
7630,78.125000
7631,76.171875
7632,76.171875
7633,76.171875
7634,76.171875
7635,74.218750
7636,74.218750
7637,74.218750
7638,74.218750
7639,72.265625
7640,72.265625
7641,72.265625
7642,72.265625
7643,70.312500
7644,70.312500
7645,70.312500
7646,68.359375
7647,66.406250
7648,66.406250
7649,64.453125
7650,64.453125
7651,64.453125
7652,62.500000
7653,60.546875
7654,60.546875
7655,58.593750
7656,56.640625
7657,54.687500
7658,54.687500
7659,54.687500
7660,52.734375
7661,50.781250
7662,48.828125
7663,48.828125
7664,46.875000
7665,44.921875
7666,42.968750
7667,42.968750
7668,42.968750
7669,39.062500
7670,37.109375
7671,37.109375
7672,35.156250
7673,33.203125
7674,31.250000
7675,29.296875
7676,27.343750
7677,25.390625
7678,23.437500
7679,21.484375
7680,19.531250
7681,19.531250
7682,17.578125
7683,15.625000
7684,13.671875
7685,11.718750
7686,9.765625
7687,7.812500
7688,5.859375
7689,3.906250
7690,1.953125
7691,0.000000
7692,-1.953125
7693,-3.906250
7694,-3.906250
7695,-7.812500
7696,-9.765625
7697,-11.718750
7698,-13.671875
7699,-15.625000
7700,-17.578125
7701,-19.531250
7702,-21.484375
7703,-23.437500
7704,-25.390625
7705,-27.343750
7706,-29.296875
7707,-31.250000
7708,-33.203125
7709,-35.156250
7710,-37.109375
7711,-39.062500
7712,-41.015625
7713,-42.968750
7714,-44.921875
7715,-46.875000
7716,-48.828125
7717,-50.781250
7718,-50.781250
7719,-54.687500
7720,-54.687500
7721,-56.640625
7722,-58.593750
7723,-60.546875
7724,-62.500000
7725,-64.453125
7726,-64.453125
7727,-66.406250
7728,-68.359375
7729,-68.359375
7730,-72.265625
7731,-72.265625
7732,-72.265625
7733,-74.218750
7734,-76.171875
7735,-78.125000
7736,-74.218750
7737,-80.078125
7738,-82.031250
7739,-82.031250
7740,-83.984375
7741,-83.984375
7742,-85.937500
7743,-85.937500
7744,-87.890625
7745,-87.890625
7746,-87.890625
7747,-89.843750
7748,-89.843750
7749,-89.843750
7750,-91.796875
7751,-93.750000
7752,-93.750000
7753,-89.843750
7754,-93.750000
7755,-93.750000
7756,-95.703125
7757,-95.703125
7758,-95.703125
7759,-95.703125
7760,-95.703125
7761,-95.703125
7762,-95.703125
7763,-95.703125
7764,-95.703125
7765,-95.703125
7766,-95.703125
7767,-95.703125
7768,-95.703125
7769,-95.703125
7770,-93.750000
7771,-93.750000
7772,-95.703125
7773,-93.750000
7774,-93.750000
7775,-91.796875
7776,-91.796875
7777,-91.796875
7778,-89.843750
7779,-89.843750
7780,-89.843750
7781,-89.843750
7782,-87.890625
7783,-87.890625
7784,-85.937500
7785,-85.937500
7786,-85.937500
7787,-83.984375
7788,-82.031250
7789,-82.031250
7790,-80.078125
7791,-80.078125
7792,-78.125000
7793,-76.171875
7794,-76.171875
7795,-74.218750
7796,-72.265625
7797,-70.312500
7798,-70.312500
7799,-68.359375
7800,-66.406250
7801,-64.453125
7802,-62.500000
7803,-64.453125
7804,-60.546875
7805,-58.593750
7806,-56.640625
7807,-54.687500
7808,-54.687500
7809,-52.734375
7810,-50.781250
7811,-48.828125
7812,-46.875000
7813,-44.921875
7814,-42.968750
7815,-41.015625
7816,-39.062500
7817,-37.109375
7818,-35.156250
7819,-33.203125
7820,-31.250000
7821,-29.296875
7822,-27.343750
7823,-25.390625
7824,-23.437500
7825,-21.484375
7826,-19.531250
7827,-17.578125
7828,-15.625000
7829,-13.671875
7830,-13.671875
7831,-9.765625
7832,-5.859375
7833,-5.859375
7834,-3.906250
7835,-1.953125
7836,0.000000
7837,1.953125
7838,3.906250
7839,5.859375
7840,7.812500
7841,9.765625
7842,11.718750
7843,13.671875
7844,13.671875
7845,17.578125
7846,19.531250
7847,19.531250
7848,21.484375
7849,23.437500
7850,25.390625
7851,27.343750
7852,29.296875
7853,31.250000
7854,33.203125
7855,33.203125
7856,35.156250
7857,37.109375
7858,39.062500
7859,41.015625
7860,41.015625
7861,42.968750
7862,44.921875
7863,46.875000
7864,48.828125
7865,48.828125
7866,50.781250
7867,52.734375
7868,52.734375
7869,54.687500
7870,56.640625
7871,58.593750
7872,58.593750
7873,58.593750
7874,60.546875
7875,62.500000
7876,62.500000
7877,64.453125
7878,64.453125
7879,66.406250
7880,68.359375
7881,68.359375
7882,68.359375
7883,70.312500
7884,70.312500
7885,72.265625
7886,72.265625
7887,72.265625
7888,72.265625
7889,74.218750
7890,74.218750
7891,74.218750
7892,76.171875
7893,76.171875
7894,76.171875
7895,78.125000
7896,78.125000
7897,76.171875
7898,76.171875
7899,78.125000
7900,78.125000
7901,78.125000
7902,80.078125
7903,78.125000
7904,78.125000
7905,78.125000
7906,78.125000
7907,78.125000
7908,78.125000
7909,78.125000
7910,78.125000
7911,78.125000
7912,78.125000
7913,78.125000
7914,76.171875
7915,76.171875
7916,76.171875
7917,76.171875
7918,76.171875
7919,74.218750
7920,74.218750
7921,74.218750
7922,74.218750
7923,72.265625
7924,72.265625
7925,70.312500
7926,70.312500
7927,68.359375
7928,68.359375
7929,68.359375
7930,66.406250
7931,66.406250
7932,64.453125
7933,64.453125
7934,62.500000
7935,60.546875
7936,62.500000
7937,58.593750
7938,58.593750
7939,56.640625
7940,54.687500
7941,52.734375
7942,52.734375
7943,52.734375
7944,50.781250
7945,48.828125
7946,46.875000
7947,46.875000
7948,44.921875
7949,42.968750
7950,42.968750
7951,41.015625
7952,39.062500
7953,37.109375
7954,35.156250
7955,33.203125
7956,31.250000
7957,31.250000
7958,29.296875
7959,25.390625
7960,25.390625
7961,23.437500
7962,21.484375
7963,19.531250
7964,17.578125
7965,15.625000
7966,13.671875
7967,11.718750
7968,9.765625
7969,7.812500
7970,5.859375
7971,3.906250
7972,1.953125
7973,0.000000
7974,-3.906250
7975,-3.906250
7976,-5.859375
7977,-7.812500
7978,-9.765625
7979,-9.765625
7980,-13.671875
7981,-15.625000
7982,-17.578125
7983,-19.531250
7984,-21.484375
7985,-23.437500
7986,-25.390625
7987,-27.343750
7988,-31.250000
7989,-31.250000
7990,-33.203125
7991,-35.156250
7992,-37.109375
7993,-39.062500
7994,-41.015625
7995,-42.968750
7996,-44.921875
7997,-46.875000
7998,-46.875000
7999,-48.828125
8000,-50.781250
8001,-52.734375
8002,-54.687500
8003,-56.640625
8004,-58.593750
8005,-60.546875
8006,-60.546875
8007,-62.500000
8008,-64.453125
8009,-66.406250
8010,-68.359375
8011,-70.312500
8012,-70.312500
8013,-72.265625
8014,-72.265625
8015,-76.171875
8016,-76.171875
8017,-76.171875
8018,-78.125000
8019,-80.078125
8020,-80.078125
8021,-82.031250
8022,-82.031250
8023,-83.984375
8024,-83.984375
8025,-85.937500
8026,-85.937500
8027,-87.890625
8028,-87.890625
8029,-89.843750
8030,-89.843750
8031,-91.796875
8032,-91.796875
8033,-91.796875
8034,-93.750000
8035,-93.750000
8036,-93.750000
8037,-95.703125
8038,-95.703125
8039,-93.750000
8040,-95.703125
8041,-95.703125
8042,-95.703125
8043,-95.703125
8044,-95.703125
8045,-95.703125
8046,-95.703125
8047,-95.703125
8048,-95.703125
8049,-95.703125
8050,-95.703125
8051,-95.703125
8052,-95.703125
8053,-93.750000
8054,-93.750000
8055,-93.750000
8056,-93.750000
8057,-93.750000
8058,-93.750000
8059,-91.796875
8060,-91.796875
8061,-91.796875
8062,-89.843750
8063,-89.843750
8064,-87.890625
8065,-87.890625
8066,-87.890625
8067,-85.937500
8068,-83.984375
8069,-82.031250
8070,-82.031250
8071,-82.031250
8072,-80.078125
8073,-78.125000
8074,-78.125000
8075,-76.171875
8076,-76.171875
8077,-74.218750
8078,-72.265625
8079,-70.312500
8080,-70.312500
8081,-68.359375
8082,-66.406250
8083,-64.453125
8084,-64.453125
8085,-62.500000
8086,-60.546875
8087,-58.593750
8088,-56.640625
8089,-54.687500
8090,-54.687500
8091,-52.734375
8092,-48.828125
8093,-48.828125
8094,-46.875000
8095,-44.921875
8096,-42.968750
8097,-41.015625
8098,-39.062500
8099,-37.109375
8100,-37.109375
8101,-33.203125
8102,-31.250000
8103,-31.250000
8104,-29.296875
8105,-27.343750
8106,-25.390625
8107,-21.484375
8108,-19.531250
8109,-19.531250
8110,-15.625000
8111,-13.671875
8112,-11.718750
8113,-11.718750
8114,-9.765625
8115,-7.812500
8116,-3.906250
8117,-3.906250
8118,-1.953125
8119,0.000000
8120,1.953125
8121,5.859375
8122,5.859375
8123,7.812500
8124,9.765625
8125,11.718750
8126,13.671875
8127,15.625000
8128,17.578125
8129,19.531250
8130,21.484375
8131,23.437500
8132,25.390625
8133,27.343750
8134,29.296875
8135,31.250000
8136,33.203125
8137,33.203125
8138,35.156250
8139,37.109375
8140,39.062500
8141,41.015625
8142,42.968750
8143,42.968750
8144,44.921875
8145,46.875000
8146,48.828125
8147,48.828125
8148,50.781250
8149,52.734375
8150,52.734375
8151,54.687500
8152,56.640625
8153,56.640625
8154,58.593750
8155,60.546875
8156,60.546875
8157,62.500000
8158,62.500000
8159,64.453125
8160,64.453125
8161,66.406250
8162,66.406250
8163,66.406250
8164,68.359375
8165,68.359375
8166,70.312500
8167,70.312500
8168,70.312500
8169,72.265625
8170,72.265625
8171,72.265625
8172,74.218750
8173,74.218750
8174,74.218750
8175,76.171875
8176,76.171875
8177,76.171875
8178,76.171875
8179,76.171875
8180,76.171875
8181,78.125000
8182,78.125000
8183,78.125000
8184,78.125000
8185,78.125000
8186,78.125000
8187,78.125000
8188,78.125000
8189,78.125000
8190,78.125000
8191,78.125000
8192,78.125000
8193,76.171875
8194,76.171875
8195,78.125000
8196,78.125000
8197,76.171875
8198,76.171875
8199,76.171875
8200,74.218750
8201,74.218750
8202,74.218750
8203,74.218750
8204,72.265625
8205,70.312500
8206,72.265625
8207,72.265625
8208,70.312500
8209,70.312500
8210,68.359375
8211,68.359375
8212,66.406250
8213,66.406250
8214,64.453125
8215,64.453125
8216,62.500000
8217,62.500000
8218,60.546875
8219,58.593750
8220,58.593750
8221,56.640625
8222,56.640625
8223,54.687500
8224,54.687500
8225,52.734375
8226,50.781250
8227,48.828125
8228,48.828125
8229,46.875000
8230,44.921875
8231,42.968750
8232,41.015625
8233,41.015625
8234,39.062500
8235,37.109375
8236,35.156250
8237,33.203125
8238,31.250000
8239,31.250000
8240,29.296875
8241,27.343750
8242,25.390625
8243,23.437500
8244,21.484375
8245,19.531250
8246,17.578125
8247,15.625000
8248,13.671875
8249,11.718750
8250,9.765625
8251,7.812500
8252,7.812500
8253,5.859375
8254,3.906250
8255,0.000000
8256,-1.953125
8257,-1.953125
8258,-3.906250
8259,-5.859375
8260,-7.812500
8261,-11.718750
8262,-11.718750
8263,-13.671875
8264,-15.625000
8265,-19.531250
8266,-21.484375
8267,-23.437500
8268,-25.390625
8269,-25.390625
8270,-27.343750
8271,-31.250000
8272,-33.203125
8273,-33.203125
8274,-35.156250
8275,-37.109375
8276,-39.062500
8277,-41.015625
8278,-42.968750
8279,-44.921875
8280,-46.875000
8281,-48.828125
8282,-50.781250
8283,-50.781250
8284,-54.687500
8285,-54.687500
8286,-56.640625
8287,-60.546875
8288,-60.546875
8289,-62.500000
8290,-64.453125
8291,-66.406250
8292,-66.406250
8293,-68.359375
8294,-68.359375
8295,-70.312500
8296,-72.265625
8297,-74.218750
8298,-76.171875
8299,-76.171875
8300,-78.125000
8301,-78.125000
8302,-80.078125
8303,-82.031250
8304,-82.031250
8305,-83.984375
8306,-85.937500
8307,-85.937500
8308,-87.890625
8309,-87.890625
8310,-87.890625
8311,-89.843750
8312,-91.796875
8313,-91.796875
8314,-91.796875
8315,-91.796875
8316,-93.750000
8317,-93.750000
8318,-93.750000
8319,-93.750000
8320,-95.703125
8321,-95.703125
8322,-95.703125
8323,-95.703125
8324,-95.703125
8325,-93.750000
8326,-95.703125
8327,-95.703125
8328,-95.703125
8329,-97.656250
8330,-97.656250
8331,-95.703125
8332,-95.703125
8333,-95.703125
8334,-93.750000
8335,-95.703125
8336,-95.703125
8337,-93.750000
8338,-93.750000
8339,-93.750000
8340,-91.796875
8341,-91.796875
8342,-91.796875
8343,-91.796875
8344,-89.843750
8345,-89.843750
8346,-89.843750
8347,-87.890625
8348,-87.890625
8349,-85.937500
8350,-83.984375
8351,-83.984375
8352,-83.984375
8353,-82.031250
8354,-80.078125
8355,-80.078125
8356,-78.125000
8357,-76.171875
8358,-76.171875
8359,-74.218750
8360,-74.218750
8361,-72.265625
8362,-70.312500
8363,-68.359375
8364,-68.359375
8365,-66.406250
8366,-64.453125
8367,-62.500000
8368,-62.500000
8369,-60.546875
8370,-58.593750
8371,-56.640625
8372,-54.687500
8373,-52.734375
8374,-50.781250
8375,-48.828125
8376,-46.875000
8377,-46.875000
8378,-44.921875
8379,-42.968750
8380,-41.015625
8381,-39.062500
8382,-37.109375
8383,-35.156250
8384,-33.203125
8385,-31.250000
8386,-29.296875
8387,-27.343750
8388,-25.390625
8389,-23.437500
8390,-21.484375
8391,-19.531250
8392,-17.578125
8393,-15.625000
8394,-13.671875
8395,-11.718750
8396,-9.765625
8397,-7.812500
8398,-5.859375
8399,-3.906250
8400,-1.953125
8401,0.000000
8402,1.953125
8403,3.906250
8404,5.859375
8405,7.812500
8406,9.765625
8407,11.718750
8408,13.671875
8409,15.625000
8410,17.578125
8411,19.531250
8412,21.484375
8413,23.437500
8414,25.390625
8415,27.343750
8416,27.343750
8417,29.296875
8418,31.250000
8419,33.203125
8420,35.156250
8421,35.156250
8422,39.062500
8423,39.062500
8424,41.015625
8425,42.968750
8426,44.921875
8427,44.921875
8428,46.875000
8429,48.828125
8430,50.781250
8431,50.781250
8432,52.734375
8433,54.687500
8434,54.687500
8435,56.640625
8436,56.640625
8437,58.593750
8438,60.546875
8439,60.546875
8440,62.500000
8441,62.500000
8442,64.453125
8443,64.453125
8444,66.406250
8445,66.406250
8446,68.359375
8447,68.359375
8448,70.312500
8449,70.312500
8450,70.312500
8451,72.265625
8452,72.265625
8453,74.218750
8454,74.218750
8455,74.218750
8456,74.218750
8457,74.218750
8458,76.171875
8459,76.171875
8460,76.171875
8461,78.125000
8462,78.125000
8463,78.125000
8464,78.125000
8465,78.125000
8466,78.125000
8467,78.125000
8468,78.125000
8469,78.125000
8470,78.125000
8471,78.125000
8472,78.125000
8473,78.125000
8474,78.125000
8475,78.125000
8476,78.125000
8477,76.171875
8478,78.125000
8479,76.171875
8480,76.171875
8481,76.171875
8482,74.218750
8483,74.218750
8484,74.218750
8485,74.218750
8486,74.218750
8487,72.265625
8488,72.265625
8489,70.312500
8490,70.312500
8491,70.312500
8492,68.359375
8493,68.359375
8494,68.359375
8495,66.406250
8496,64.453125
8497,64.453125
8498,62.500000
8499,62.500000
8500,62.500000
8501,60.546875
8502,58.593750
8503,56.640625
8504,56.640625
8505,54.687500
8506,52.734375
8507,52.734375
8508,50.781250
8509,48.828125
8510,48.828125
8511,46.875000
8512,44.921875
8513,44.921875
8514,42.968750
8515,41.015625
8516,39.062500
8517,37.109375
8518,37.109375
8519,35.156250
8520,33.203125
8521,31.250000
8522,29.296875
8523,27.343750
8524,25.390625
8525,25.390625
8526,23.437500
8527,19.531250
8528,17.578125
8529,15.625000
8530,15.625000
8531,13.671875
8532,11.718750
8533,9.765625
8534,7.812500
8535,5.859375
8536,3.906250
8537,1.953125
8538,0.000000
8539,-1.953125
8540,-3.906250
8541,-5.859375
8542,-7.812500
8543,-9.765625
8544,-11.718750
8545,-13.671875
8546,-15.625000
8547,-17.578125
8548,-19.531250
8549,-21.484375
8550,-23.437500
8551,-25.390625
8552,-27.343750
8553,-29.296875
8554,-31.250000
8555,-33.203125
8556,-35.156250
8557,-37.109375
8558,-39.062500
8559,-41.015625
8560,-42.968750
8561,-44.921875
8562,-46.875000
8563,-48.828125
8564,-50.781250
8565,-52.734375
8566,-54.687500
8567,-54.687500
8568,-56.640625
8569,-58.593750
8570,-60.546875
8571,-62.500000
8572,-64.453125
8573,-64.453125
8574,-66.406250
8575,-68.359375
8576,-70.312500
8577,-70.312500
8578,-72.265625
8579,-74.218750
8580,-74.218750
8581,-76.171875
8582,-78.125000
8583,-80.078125
8584,-80.078125
8585,-82.031250
8586,-82.031250
8587,-82.031250
8588,-83.984375
8589,-85.937500
8590,-85.937500
8591,-87.890625
8592,-87.890625
8593,-87.890625
8594,-89.843750
8595,-89.843750
8596,-91.796875
8597,-91.796875
8598,-91.796875
8599,-91.796875
8600,-93.750000
8601,-93.750000
8602,-93.750000
8603,-95.703125
8604,-95.703125
8605,-95.703125
8606,-95.703125
8607,-95.703125
8608,-95.703125
8609,-95.703125
8610,-95.703125
8611,-95.703125
8612,-95.703125
8613,-95.703125
8614,-95.703125
8615,-95.703125
8616,-95.703125
8617,-95.703125
8618,-95.703125
8619,-95.703125
8620,-93.750000
8621,-93.750000
8622,-91.796875
8623,-91.796875
8624,-91.796875
8625,-91.796875
8626,-91.796875
8627,-89.843750
8628,-87.890625
8629,-87.890625
8630,-87.890625
8631,-85.937500
8632,-85.937500
8633,-83.984375
8634,-83.984375
8635,-83.984375
8636,-82.031250
8637,-80.078125
8638,-78.125000
8639,-78.125000
8640,-76.171875
8641,-76.171875
8642,-74.218750
8643,-72.265625
8644,-70.312500
8645,-70.312500
8646,-68.359375
8647,-66.406250
8648,-66.406250
8649,-62.500000
8650,-62.500000
8651,-60.546875
8652,-58.593750
8653,-56.640625
8654,-54.687500
8655,-52.734375
8656,-50.781250
8657,-48.828125
8658,-48.828125
8659,-46.875000
8660,-44.921875
8661,-42.968750
8662,-41.015625
8663,-39.062500
8664,-37.109375
8665,-35.156250
8666,-33.203125
8667,-31.250000
8668,-29.296875
8669,-27.343750
8670,-25.390625
8671,-23.437500
8672,-21.484375
8673,-19.531250
8674,-17.578125
8675,-15.625000
8676,-13.671875
8677,-11.718750
8678,-9.765625
8679,-7.812500
8680,-5.859375
8681,-3.906250
8682,-1.953125
8683,0.000000
8684,1.953125
8685,3.906250
8686,5.859375
8687,5.859375
8688,9.765625
8689,11.718750
8690,13.671875
8691,13.671875
8692,15.625000
8693,17.578125
8694,19.531250
8695,23.437500
8696,23.437500
8697,25.390625
8698,27.343750
8699,29.296875
8700,31.250000
8701,33.203125
8702,35.156250
8703,35.156250
8704,37.109375
8705,39.062500
8706,41.015625
8707,41.015625
8708,42.968750
8709,44.921875
8710,46.875000
8711,48.828125
8712,48.828125
8713,50.781250
8714,52.734375
8715,52.734375
8716,54.687500
8717,56.640625
8718,58.593750
8719,58.593750
8720,58.593750
8721,60.546875
8722,62.500000
8723,64.453125
8724,64.453125
8725,64.453125
8726,66.406250
8727,66.406250
8728,68.359375
8729,68.359375
8730,70.312500
8731,70.312500
8732,70.312500
8733,72.265625
8734,72.265625
8735,74.218750
8736,74.218750
8737,74.218750
8738,74.218750
8739,74.218750
8740,76.171875
8741,76.171875
8742,76.171875
8743,78.125000
8744,76.171875
8745,78.125000
8746,78.125000
8747,78.125000
8748,78.125000
8749,78.125000
8750,78.125000
8751,78.125000
8752,78.125000
8753,78.125000
8754,78.125000
8755,78.125000
8756,78.125000
8757,78.125000
8758,78.125000
8759,76.171875
8760,76.171875
8761,76.171875
8762,76.171875
8763,76.171875
8764,76.171875
8765,74.218750
8766,74.218750
8767,74.218750
8768,74.218750
8769,72.265625
8770,72.265625
8771,72.265625
8772,70.312500
8773,70.312500
8774,68.359375
8775,68.359375
8776,66.406250
8777,66.406250
8778,64.453125
8779,64.453125
8780,62.500000
8781,62.500000
8782,62.500000
8783,60.546875
8784,58.593750
8785,58.593750
8786,56.640625
8787,54.687500
8788,54.687500
8789,52.734375
8790,52.734375
8791,50.781250
8792,48.828125
8793,46.875000
8794,46.875000
8795,44.921875
8796,42.968750
8797,41.015625
8798,39.062500
8799,39.062500
8800,37.109375
8801,35.156250
8802,33.203125
8803,31.250000
8804,29.296875
8805,27.343750
8806,27.343750
8807,25.390625
8808,23.437500
8809,21.484375
8810,19.531250
8811,17.578125
8812,15.625000
8813,13.671875
8814,11.718750
8815,9.765625
8816,7.812500
8817,5.859375
8818,3.906250
8819,1.953125
8820,1.953125
8821,-1.953125
8822,-3.906250
8823,-5.859375
8824,-7.812500
8825,-9.765625
8826,-11.718750
8827,-13.671875
8828,-15.625000
8829,-17.578125
8830,-19.531250
8831,-21.484375
8832,-23.437500
8833,-25.390625
8834,-27.343750
8835,-29.296875
8836,-31.250000
8837,-33.203125
8838,-35.156250
8839,-37.109375
8840,-37.109375
8841,-41.015625
8842,-42.968750
8843,-44.921875
8844,-44.921875
8845,-46.875000
8846,-48.828125
8847,-50.781250
8848,-52.734375
8849,-54.687500
8850,-56.640625
8851,-58.593750
8852,-60.546875
8853,-60.546875
8854,-62.500000
8855,-64.453125
8856,-66.406250
8857,-68.359375
8858,-68.359375
8859,-70.312500
8860,-72.265625
8861,-72.265625
8862,-74.218750
8863,-76.171875
8864,-76.171875
8865,-78.125000
8866,-80.078125
8867,-82.031250
8868,-82.031250
8869,-82.031250
8870,-83.984375
8871,-85.937500
8872,-85.937500
8873,-87.890625
8874,-87.890625
8875,-87.890625
8876,-89.843750
8877,-89.843750
8878,-91.796875
8879,-91.796875
8880,-93.750000
8881,-93.750000
8882,-93.750000
8883,-93.750000
8884,-93.750000
8885,-93.750000
8886,-95.703125
8887,-95.703125
8888,-95.703125
8889,-95.703125
8890,-95.703125
8891,-95.703125
8892,-95.703125
8893,-95.703125
8894,-95.703125
8895,-97.656250
8896,-95.703125
8897,-95.703125
8898,-95.703125
8899,-95.703125
8900,-95.703125
8901,-93.750000
8902,-93.750000
8903,-93.750000
8904,-93.750000
8905,-91.796875
8906,-91.796875
8907,-91.796875
8908,-89.843750
8909,-89.843750
8910,-89.843750
8911,-87.890625
8912,-87.890625
8913,-87.890625
8914,-85.937500
8915,-83.984375
8916,-83.984375
8917,-82.031250
8918,-80.078125
8919,-80.078125
8920,-80.078125
8921,-78.125000
8922,-76.171875
8923,-76.171875
8924,-74.218750
8925,-72.265625
8926,-70.312500
8927,-70.312500
8928,-68.359375
8929,-66.406250
8930,-66.406250
8931,-64.453125
8932,-62.500000
8933,-60.546875
8934,-58.593750
8935,-56.640625
8936,-54.687500
8937,-54.687500
8938,-52.734375
8939,-50.781250
8940,-48.828125
8941,-46.875000
8942,-44.921875
8943,-42.968750
8944,-41.015625
8945,-39.062500
8946,-37.109375
8947,-35.156250
8948,-35.156250
8949,-33.203125
8950,-29.296875
8951,-29.296875
8952,-27.343750
8953,-23.437500
8954,-23.437500
8955,-21.484375
8956,-19.531250
8957,-17.578125
8958,-15.625000
8959,-13.671875
8960,-11.718750
8961,-7.812500
8962,-7.812500
8963,-5.859375
8964,-3.906250
8965,-1.953125
8966,0.000000
8967,1.953125
8968,3.906250
8969,5.859375
8970,7.812500
8971,9.765625
8972,11.718750
8973,13.671875
8974,15.625000
8975,17.578125
8976,19.531250
8977,21.484375
8978,23.437500
8979,25.390625
8980,27.343750
8981,29.296875
8982,31.250000
8983,31.250000
8984,33.203125
8985,35.156250
8986,37.109375
8987,37.109375
8988,39.062500
8989,41.015625
8990,42.968750
8991,44.921875
8992,44.921875
8993,48.828125
8994,48.828125
8995,50.781250
8996,52.734375
8997,52.734375
8998,54.687500
8999,54.687500
9000,56.640625
9001,58.593750
9002,58.593750
9003,60.546875
9004,62.500000
9005,62.500000
9006,64.453125
9007,64.453125
9008,64.453125
9009,66.406250
9010,66.406250
9011,68.359375
9012,68.359375
9013,70.312500
9014,72.265625
9015,72.265625
9016,72.265625
9017,72.265625
9018,72.265625
9019,74.218750
9020,74.218750
9021,74.218750
9022,76.171875
9023,76.171875
9024,76.171875
9025,76.171875
9026,78.125000
9027,78.125000
9028,78.125000
9029,78.125000
9030,78.125000
9031,78.125000
9032,78.125000
9033,78.125000
9034,78.125000
9035,78.125000
9036,78.125000
9037,78.125000
9038,78.125000
9039,78.125000
9040,78.125000
9041,78.125000
9042,76.171875
9043,76.171875
9044,76.171875
9045,76.171875
9046,76.171875
9047,76.171875
9048,74.218750
9049,74.218750
9050,74.218750
9051,74.218750
9052,74.218750
9053,72.265625
9054,72.265625
9055,70.312500
9056,68.359375
9057,68.359375
9058,68.359375
9059,66.406250
9060,64.453125
9061,64.453125
9062,64.453125
9063,62.500000
9064,62.500000
9065,60.546875
9066,58.593750
9067,58.593750
9068,56.640625
9069,56.640625
9070,54.687500
9071,52.734375
9072,52.734375
9073,50.781250
9074,48.828125
9075,48.828125
9076,46.875000
9077,44.921875
9078,42.968750
9079,41.015625
9080,41.015625
9081,37.109375
9082,37.109375
9083,35.156250
9084,33.203125
9085,33.203125
9086,31.250000
9087,29.296875
9088,27.343750
9089,25.390625
9090,23.437500
9091,21.484375
9092,19.531250
9093,17.578125
9094,15.625000
9095,13.671875
9096,13.671875
9097,11.718750
9098,7.812500
9099,5.859375
9100,5.859375
9101,3.906250
9102,0.000000
9103,-1.953125
9104,-3.906250
9105,-3.906250
9106,-7.812500
9107,-7.812500
9108,-9.765625
9109,-13.671875
9110,-13.671875
9111,-15.625000
9112,-17.578125
9113,-19.531250
9114,-23.437500
9115,-25.390625
9116,-25.390625
9117,-29.296875
9118,-29.296875
9119,-31.250000
9120,-33.203125
9121,-35.156250
9122,-37.109375
9123,-39.062500
9124,-41.015625
9125,-42.968750
9126,-44.921875
9127,-46.875000
9128,-48.828125
9129,-50.781250
9130,-52.734375
9131,-54.687500
9132,-54.687500
9133,-56.640625
9134,-58.593750
9135,-60.546875
9136,-62.500000
9137,-64.453125
9138,-66.406250
9139,-68.359375
9140,-68.359375
9141,-70.312500
9142,-70.312500
9143,-72.265625
9144,-74.218750
9145,-76.171875
9146,-78.125000
9147,-78.125000
9148,-80.078125
9149,-82.031250
9150,-82.031250
9151,-82.031250
9152,-83.984375
9153,-83.984375
9154,-85.937500
9155,-87.890625
9156,-87.890625
9157,-89.843750
9158,-89.843750
9159,-89.843750
9160,-91.796875
9161,-91.796875
9162,-91.796875
9163,-93.750000
9164,-93.750000
9165,-93.750000
9166,-93.750000
9167,-95.703125
9168,-95.703125
9169,-95.703125
9170,-95.703125
9171,-95.703125
9172,-95.703125
9173,-95.703125
9174,-95.703125
9175,-95.703125
9176,-95.703125
9177,-95.703125
9178,-95.703125
9179,-95.703125
9180,-95.703125
9181,-95.703125
9182,-93.750000
9183,-93.750000
9184,-93.750000
9185,-93.750000
9186,-93.750000
9187,-93.750000
9188,-91.796875
9189,-91.796875
9190,-89.843750
9191,-89.843750
9192,-89.843750
9193,-89.843750
9194,-87.890625
9195,-87.890625
9196,-85.937500
9197,-85.937500
9198,-83.984375
9199,-82.031250
9200,-82.031250
9201,-80.078125
9202,-80.078125
9203,-78.125000
9204,-78.125000
9205,-76.171875
9206,-74.218750
9207,-74.218750
9208,-72.265625
9209,-70.312500
9210,-70.312500
9211,-68.359375
9212,-66.406250
9213,-64.453125
9214,-62.500000
9215,-60.546875
9216,-58.593750
9217,-58.593750
9218,-56.640625
9219,-54.687500
9220,-52.734375
9221,-50.781250
9222,-48.828125
9223,-48.828125
9224,-44.921875
9225,-42.968750
9226,-42.968750
9227,-41.015625
9228,-39.062500
9229,-37.109375
9230,-35.156250
9231,-33.203125
9232,-31.250000
9233,-29.296875
9234,-27.343750
9235,-25.390625
9236,-23.437500
9237,-21.484375
9238,-19.531250
9239,-17.578125
9240,-15.625000
9241,-13.671875
9242,-11.718750
9243,-9.765625
9244,-7.812500
9245,-5.859375
9246,-3.906250
9247,-1.953125
9248,0.000000
9249,1.953125
9250,3.906250
9251,5.859375
9252,7.812500
9253,9.765625
9254,13.671875
9255,13.671875
9256,15.625000
9257,17.578125
9258,19.531250
9259,21.484375
9260,23.437500
9261,25.390625
9262,27.343750
9263,27.343750
9264,29.296875
9265,31.250000
9266,33.203125
9267,35.156250
9268,37.109375
9269,39.062500
9270,39.062500
9271,41.015625
9272,42.968750
9273,42.968750
9274,44.921875
9275,46.875000
9276,48.828125
9277,50.781250
9278,50.781250
9279,52.734375
9280,54.687500
9281,54.687500
9282,56.640625
9283,58.593750
9284,58.593750
9285,60.546875
9286,60.546875
9287,62.500000
9288,64.453125
9289,64.453125
9290,64.453125
9291,66.406250
9292,66.406250
9293,68.359375
9294,68.359375
9295,70.312500
9296,70.312500
9297,70.312500
9298,72.265625
9299,72.265625
9300,74.218750
9301,74.218750
9302,74.218750
9303,74.218750
9304,74.218750
9305,76.171875
9306,76.171875
9307,76.171875
9308,78.125000
9309,78.125000
9310,78.125000
9311,78.125000
9312,78.125000
9313,78.125000
9314,78.125000
9315,78.125000
9316,78.125000
9317,78.125000
9318,78.125000
9319,78.125000
9320,78.125000
9321,78.125000
9322,78.125000
9323,78.125000
9324,78.125000
9325,76.171875
9326,76.171875
9327,76.171875
9328,76.171875
9329,76.171875
9330,74.218750
9331,74.218750
9332,74.218750
9333,74.218750
9334,72.265625
9335,72.265625
9336,70.312500
9337,70.312500
9338,70.312500
9339,68.359375
9340,68.359375
9341,66.406250
9342,64.453125
9343,64.453125
9344,64.453125
9345,62.500000
9346,62.500000
9347,60.546875
9348,60.546875
9349,58.593750
9350,58.593750
9351,56.640625
9352,54.687500
9353,52.734375
9354,52.734375
9355,50.781250
9356,50.781250
9357,46.875000
9358,46.875000
9359,44.921875
9360,44.921875
9361,42.968750
9362,41.015625
9363,39.062500
9364,37.109375
9365,35.156250
9366,35.156250
9367,33.203125
9368,31.250000
9369,29.296875
9370,27.343750
9371,25.390625
9372,25.390625
9373,23.437500
9374,21.484375
9375,19.531250
9376,17.578125
9377,15.625000
9378,13.671875
9379,11.718750
9380,9.765625
9381,7.812500
9382,5.859375
9383,3.906250
9384,1.953125
9385,0.000000
9386,-1.953125
9387,-3.906250
9388,-5.859375
9389,-7.812500
9390,-9.765625
9391,-11.718750
9392,-13.671875
9393,-15.625000
9394,-17.578125
9395,-19.531250
9396,-21.484375
9397,-23.437500
9398,-25.390625
9399,-27.343750
9400,-29.296875
9401,-31.250000
9402,-33.203125
9403,-35.156250
9404,-37.109375
9405,-39.062500
9406,-41.015625
9407,-42.968750
9408,-44.921875
9409,-46.875000
9410,-48.828125
9411,-50.781250
9412,-52.734375
9413,-54.687500
9414,-56.640625
9415,-56.640625
9416,-58.593750
9417,-60.546875
9418,-62.500000
9419,-64.453125
9420,-64.453125
9421,-66.406250
9422,-68.359375
9423,-70.312500
9424,-72.265625
9425,-72.265625
9426,-74.218750
9427,-76.171875
9428,-76.171875
9429,-78.125000
9430,-78.125000
9431,-80.078125
9432,-82.031250
9433,-83.984375
9434,-83.984375
9435,-83.984375
9436,-85.937500
9437,-85.937500
9438,-87.890625
9439,-87.890625
9440,-89.843750
9441,-87.890625
9442,-89.843750
9443,-91.796875
9444,-91.796875
9445,-91.796875
9446,-93.750000
9447,-93.750000
9448,-93.750000
9449,-95.703125
9450,-95.703125
9451,-95.703125
9452,-95.703125
9453,-95.703125
9454,-95.703125
9455,-95.703125
9456,-95.703125
9457,-95.703125
9458,-97.656250
9459,-95.703125
9460,-95.703125
9461,-95.703125
9462,-95.703125
9463,-95.703125
9464,-95.703125
9465,-95.703125
9466,-93.750000
9467,-93.750000
9468,-93.750000
9469,-93.750000
9470,-91.796875
9471,-91.796875
9472,-91.796875
9473,-89.843750
9474,-89.843750
9475,-89.843750
9476,-87.890625
9477,-87.890625
9478,-85.937500
9479,-85.937500
9480,-85.937500
9481,-83.984375
9482,-82.031250
9483,-82.031250
9484,-80.078125
9485,-80.078125
9486,-78.125000
9487,-74.218750
9488,-76.171875
9489,-74.218750
9490,-72.265625
9491,-70.312500
9492,-70.312500
9493,-68.359375
9494,-66.406250
9495,-64.453125
9496,-62.500000
9497,-60.546875
9498,-60.546875
9499,-58.593750
9500,-56.640625
9501,-52.734375
9502,-52.734375
9503,-50.781250
9504,-50.781250
9505,-48.828125
9506,-46.875000
9507,-44.921875
9508,-42.968750
9509,-41.015625
9510,-39.062500
9511,-37.109375
9512,-35.156250
9513,-33.203125
9514,-31.250000
9515,-29.296875
9516,-27.343750
9517,-25.390625
9518,-23.437500
9519,-21.484375
9520,-19.531250
9521,-17.578125
9522,-15.625000
9523,-13.671875
9524,-11.718750
9525,-9.765625
9526,-7.812500
9527,-5.859375
9528,-3.906250
9529,-1.953125
9530,-1.953125
9531,1.953125
9532,3.906250
9533,5.859375
9534,7.812500
9535,9.765625
9536,11.718750
9537,11.718750
9538,13.671875
9539,15.625000
9540,17.578125
9541,19.531250
9542,21.484375
9543,23.437500
9544,25.390625
9545,27.343750
9546,27.343750
9547,31.250000
9548,33.203125
9549,33.203125
9550,35.156250
9551,37.109375
9552,39.062500
9553,41.015625
9554,41.015625
9555,42.968750
9556,44.921875
9557,46.875000
9558,48.828125
9559,48.828125
9560,50.781250
9561,52.734375
9562,54.687500
9563,54.687500
9564,56.640625
9565,56.640625
9566,58.593750
9567,60.546875
9568,60.546875
9569,62.500000
9570,62.500000
9571,64.453125
9572,64.453125
9573,66.406250
9574,68.359375
9575,68.359375
9576,68.359375
9577,70.312500
9578,70.312500
9579,70.312500
9580,72.265625
9581,72.265625
9582,72.265625
9583,74.218750
9584,74.218750
9585,74.218750
9586,74.218750
9587,76.171875
9588,76.171875
9589,76.171875
9590,76.171875
9591,76.171875
9592,78.125000
9593,78.125000
9594,78.125000
9595,78.125000
9596,78.125000
9597,78.125000
9598,78.125000
9599,78.125000
9600,78.125000
9601,78.125000
9602,78.125000
9603,78.125000
9604,78.125000
9605,78.125000
9606,76.171875
9607,76.171875
9608,78.125000
9609,76.171875
9610,76.171875
9611,76.171875
9612,74.218750
9613,74.218750
9614,74.218750
9615,72.265625
9616,72.265625
9617,72.265625
9618,70.312500
9619,70.312500
9620,70.312500
9621,68.359375
9622,68.359375
9623,66.406250
9624,66.406250
9625,64.453125
9626,64.453125
9627,62.500000
9628,62.500000
9629,60.546875
9630,60.546875
9631,58.593750
9632,58.593750
9633,56.640625
9634,54.687500
9635,54.687500
9636,52.734375
9637,50.781250
9638,50.781250
9639,48.828125
9640,48.828125
9641,46.875000
9642,44.921875
9643,42.968750
9644,41.015625
9645,41.015625
9646,39.062500
9647,37.109375
9648,35.156250
9649,33.203125
9650,31.250000
9651,29.296875
9652,29.296875
9653,25.390625
9654,25.390625
9655,23.437500
9656,21.484375
9657,19.531250
9658,17.578125
9659,15.625000
9660,13.671875
9661,11.718750
9662,11.718750
9663,9.765625
9664,5.859375
9665,3.906250
9666,1.953125
9667,0.000000
9668,-1.953125
9669,-3.906250
9670,-5.859375
9671,-7.812500
9672,-9.765625
9673,-11.718750
9674,-13.671875
9675,-15.625000
9676,-17.578125
9677,-19.531250
9678,-21.484375
9679,-23.437500
9680,-25.390625
9681,-27.343750
9682,-29.296875
9683,-31.250000
9684,-33.203125
9685,-35.156250
9686,-37.109375
9687,-39.062500
9688,-41.015625
9689,-41.015625
9690,-44.921875
9691,-46.875000
9692,-46.875000
9693,-50.781250
9694,-50.781250
9695,-52.734375
9696,-54.687500
9697,-56.640625
9698,-58.593750
9699,-60.546875
9700,-60.546875
9701,-62.500000
9702,-64.453125
9703,-66.406250
9704,-68.359375
9705,-68.359375
9706,-70.312500
9707,-70.312500
9708,-74.218750
9709,-74.218750
9710,-76.171875
9711,-78.125000
9712,-78.125000
9713,-80.078125
9714,-82.031250
9715,-82.031250
9716,-83.984375
9717,-83.984375
9718,-83.984375
9719,-85.937500
9720,-85.937500
9721,-87.890625
9722,-89.843750
9723,-89.843750
9724,-89.843750
9725,-91.796875
9726,-91.796875
9727,-93.750000
9728,-93.750000
9729,-93.750000
9730,-93.750000
9731,-93.750000
9732,-95.703125
9733,-95.703125
9734,-95.703125
9735,-95.703125
9736,-95.703125
9737,-95.703125
9738,-97.656250
9739,-95.703125
9740,-95.703125
9741,-95.703125
9742,-95.703125
9743,-95.703125
9744,-95.703125
9745,-95.703125
9746,-95.703125
9747,-95.703125
9748,-93.750000
9749,-93.750000
9750,-93.750000
9751,-93.750000
9752,-93.750000
9753,-91.796875
9754,-91.796875
9755,-89.843750
9756,-89.843750
9757,-89.843750
9758,-87.890625
9759,-87.890625
9760,-87.890625
9761,-85.937500
9762,-83.984375
9763,-83.984375
9764,-82.031250
9765,-82.031250
9766,-80.078125
9767,-80.078125
9768,-78.125000
9769,-78.125000
9770,-76.171875
9771,-74.218750
9772,-72.265625
9773,-72.265625
9774,-70.312500
9775,-68.359375
9776,-66.406250
9777,-64.453125
9778,-64.453125
9779,-62.500000
9780,-60.546875
9781,-60.546875
9782,-58.593750
9783,-56.640625
9784,-52.734375
9785,-52.734375
9786,-50.781250
9787,-48.828125
9788,-46.875000
9789,-44.921875
9790,-42.968750
9791,-41.015625
9792,-41.015625
9793,-39.062500
9794,-37.109375
9795,-33.203125
9796,-31.250000
9797,-31.250000
9798,-29.296875
9799,-27.343750
9800,-25.390625
9801,-23.437500
9802,-21.484375
9803,-19.531250
9804,-17.578125
9805,-15.625000
9806,-13.671875
9807,-11.718750
9808,-7.812500
9809,-5.859375
9810,-5.859375
9811,-1.953125
9812,-1.953125
9813,0.000000
9814,1.953125
9815,3.906250
9816,7.812500
9817,7.812500
9818,9.765625
9819,11.718750
9820,13.671875
9821,15.625000
9822,17.578125
9823,19.531250
9824,21.484375
9825,23.437500
9826,25.390625
9827,27.343750
9828,29.296875
9829,31.250000
9830,31.250000
9831,33.203125
9832,35.156250
9833,37.109375
9834,39.062500
9835,41.015625
9836,42.968750
9837,42.968750
9838,42.968750
9839,46.875000
9840,48.828125
9841,48.828125
9842,50.781250
9843,50.781250
9844,52.734375
9845,54.687500
9846,56.640625
9847,56.640625
9848,58.593750
9849,58.593750
9850,60.546875
9851,60.546875
9852,62.500000
9853,64.453125
9854,64.453125
9855,66.406250
9856,66.406250
9857,68.359375
9858,68.359375
9859,70.312500
9860,70.312500
9861,70.312500
9862,72.265625
9863,72.265625
9864,72.265625
9865,72.265625
9866,74.218750
9867,74.218750
9868,76.171875
9869,76.171875
9870,76.171875
9871,76.171875
9872,78.125000
9873,76.171875
9874,78.125000
9875,78.125000
9876,78.125000
9877,78.125000
9878,78.125000
9879,78.125000
9880,78.125000
9881,78.125000
9882,78.125000
9883,78.125000
9884,78.125000
9885,78.125000
9886,78.125000
9887,78.125000
9888,78.125000
9889,78.125000
9890,78.125000
9891,76.171875
9892,76.171875
9893,76.171875
9894,76.171875
9895,74.218750
9896,76.171875
9897,74.218750
9898,72.265625
9899,72.265625
9900,72.265625
9901,72.265625
9902,70.312500
9903,68.359375
9904,68.359375
9905,68.359375
9906,66.406250
9907,66.406250
9908,64.453125
9909,64.453125
9910,62.500000
9911,60.546875
9912,60.546875
9913,58.593750
9914,58.593750
9915,56.640625
9916,56.640625
9917,54.687500
9918,52.734375
9919,52.734375
9920,50.781250
9921,48.828125
9922,48.828125
9923,46.875000
9924,44.921875
9925,42.968750
9926,41.015625
9927,41.015625
9928,39.062500
9929,35.156250
9930,35.156250
9931,33.203125
9932,31.250000
9933,29.296875
9934,29.296875
9935,27.343750
9936,25.390625
9937,23.437500
9938,21.484375
9939,19.531250
9940,17.578125
9941,15.625000
9942,15.625000
9943,13.671875
9944,11.718750
9945,9.765625
9946,5.859375
9947,3.906250
9948,1.953125
9949,1.953125
9950,0.000000
9951,-1.953125
9952,-3.906250
9953,-7.812500
9954,-9.765625
9955,-9.765625
9956,-11.718750
9957,-13.671875
9958,-15.625000
9959,-17.578125
9960,-21.484375
9961,-23.437500
9962,-23.437500
9963,-25.390625
9964,-27.343750
9965,-29.296875
9966,-31.250000
9967,-33.203125
9968,-37.109375
9969,-39.062500
9970,-39.062500
9971,-41.015625
9972,-42.968750
9973,-44.921875
9974,-46.875000
9975,-48.828125
9976,-50.781250
9977,-52.734375
9978,-54.687500
9979,-54.687500
9980,-56.640625
9981,-58.593750
9982,-60.546875
9983,-62.500000
9984,-64.453125
9985,-64.453125
9986,-66.406250
9987,-68.359375
9988,-70.312500
9989,-72.265625
9990,-74.218750
9991,-74.218750
9992,-76.171875
9993,-76.171875
9994,-78.125000
9995,-78.125000
9996,-80.078125
9997,-82.031250
9998,-82.031250
9999,-83.984375
10000,-83.984375
