Channel              :,CH1
Frequency            :,1.771kHz
Period               :,0.565ms
PK-PK                :,193.4mV
Probe attenuation    :,1X
Voltage per ADC value:,0.122070mV
Time interval        :,2.00000us

index,CH1_Voltage(mV)
1,82.031250
2,82.031250
3,82.031250
4,82.031250
5,82.031250
6,82.031250
7,82.031250
8,82.031250
9,80.078125
10,80.078125
11,80.078125
12,80.078125
13,78.125000
14,78.125000
15,78.125000
16,76.171875
17,76.171875
18,74.218750
19,74.218750
20,74.218750
21,72.265625
22,70.312500
23,70.312500
24,70.312500
25,70.312500
26,68.359375
27,66.406250
28,66.406250
29,64.453125
30,62.500000
31,62.500000
32,60.546875
33,60.546875
34,58.593750
35,56.640625
36,54.687500
37,54.687500
38,52.734375
39,50.781250
40,48.828125
41,46.875000
42,46.875000
43,44.921875
44,42.968750
45,41.015625
46,39.062500
47,37.109375
48,35.156250
49,35.156250
50,33.203125
51,31.250000
52,29.296875
53,27.343750
54,25.390625
55,23.437500
56,21.484375
57,19.531250
58,17.578125
59,15.625000
60,13.671875
61,11.718750
62,9.765625
63,5.859375
64,3.906250
65,1.953125
66,1.953125
67,0.000000
68,-3.906250
69,-5.859375
70,-7.812500
71,-9.765625
72,-11.718750
73,-13.671875
74,-15.625000
75,-17.578125
76,-19.531250
77,-21.484375
78,-25.390625
79,-27.343750
80,-29.296875
81,-31.250000
82,-33.203125
83,-35.156250
84,-37.109375
85,-39.062500
86,-41.015625
87,-42.968750
88,-46.875000
89,-48.828125
90,-48.828125
91,-50.781250
92,-52.734375
93,-56.640625
94,-58.593750
95,-58.593750
96,-60.546875
97,-62.500000
98,-64.453125
99,-66.406250
100,-68.359375
101,-70.312500
102,-72.265625
103,-74.218750
104,-76.171875
105,-76.171875
106,-76.171875
107,-80.078125
108,-82.031250
109,-82.031250
110,-83.984375
111,-83.984375
112,-85.937500
113,-87.890625
114,-89.843750
115,-89.843750
116,-91.796875
117,-91.796875
118,-93.750000
119,-95.703125
120,-95.703125
121,-97.656250
122,-97.656250
123,-99.609375
124,-99.609375
125,-99.609375
126,-101.562500
127,-101.562500
128,-101.562500
129,-103.515625
130,-103.515625
131,-103.515625
132,-105.468750
133,-105.468750
134,-105.468750
135,-105.468750
136,-105.468750
137,-105.468750
138,-105.468750
139,-105.468750
140,-105.468750
141,-105.468750
142,-105.468750
143,-105.468750
144,-105.468750
145,-105.468750
146,-105.468750
147,-103.515625
148,-103.515625
149,-105.468750
150,-103.515625
151,-101.562500
152,-101.562500
153,-101.562500
154,-99.609375
155,-99.609375
156,-97.656250
157,-97.656250
158,-97.656250
159,-95.703125
160,-95.703125
161,-93.750000
162,-91.796875
163,-91.796875
164,-91.796875
165,-89.843750
166,-87.890625
167,-85.937500
168,-85.937500
169,-83.984375
170,-82.031250
171,-80.078125
172,-78.125000
173,-78.125000
174,-76.171875
175,-74.218750
176,-74.218750
177,-72.265625
178,-70.312500
179,-68.359375
180,-66.406250
181,-64.453125
182,-62.500000
183,-60.546875
184,-58.593750
185,-56.640625
186,-54.687500
187,-52.734375
188,-50.781250
189,-48.828125
190,-46.875000
191,-44.921875
192,-42.968750
193,-41.015625
194,-39.062500
195,-37.109375
196,-35.156250
197,-33.203125
198,-31.250000
199,-29.296875
200,-27.343750
201,-25.390625
202,-23.437500
203,-21.484375
204,-17.578125
205,-15.625000
206,-13.671875
207,-11.718750
208,-9.765625
209,-7.812500
210,-5.859375
211,-1.953125
212,-1.953125
213,0.000000
214,3.906250
215,5.859375
216,7.812500
217,7.812500
218,11.718750
219,13.671875
220,15.625000
221,17.578125
222,17.578125
223,21.484375
224,23.437500
225,25.390625
226,27.343750
227,29.296875
228,31.250000
229,33.203125
230,35.156250
231,35.156250
232,37.109375
233,39.062500
234,41.015625
235,42.968750
236,44.921875
237,46.875000
238,46.875000
239,48.828125
240,50.781250
241,52.734375
242,54.687500
243,54.687500
244,56.640625
245,58.593750
246,58.593750
247,62.500000
248,62.500000
249,62.500000
250,64.453125
251,66.406250
252,66.406250
253,68.359375
254,68.359375
255,70.312500
256,72.265625
257,72.265625
258,72.265625
259,74.218750
260,74.218750
261,76.171875
262,76.171875
263,76.171875
264,78.125000
265,78.125000
266,78.125000
267,80.078125
268,80.078125
269,80.078125
270,80.078125
271,80.078125
272,82.031250
273,82.031250
274,82.031250
275,82.031250
276,82.031250
277,82.031250
278,82.031250
279,83.984375
280,82.031250
281,82.031250
282,82.031250
283,83.984375
284,83.984375
285,82.031250
286,82.031250
287,82.031250
288,82.031250
289,82.031250
290,82.031250
291,82.031250
292,80.078125
293,80.078125
294,80.078125
295,78.125000
296,78.125000
297,78.125000
298,78.125000
299,78.125000
300,76.171875
301,74.218750
302,74.218750
303,72.265625
304,72.265625
305,70.312500
306,70.312500
307,70.312500
308,68.359375
309,66.406250
310,66.406250
311,64.453125
312,64.453125
313,62.500000
314,62.500000
315,60.546875
316,58.593750
317,56.640625
318,56.640625
319,54.687500
320,52.734375
321,52.734375
322,48.828125
323,48.828125
324,46.875000
325,44.921875
326,42.968750
327,41.015625
328,41.015625
329,39.062500
330,37.109375
331,35.156250
332,33.203125
333,31.250000
334,29.296875
335,27.343750
336,25.390625
337,23.437500
338,21.484375
339,19.531250
340,17.578125
341,15.625000
342,13.671875
343,11.718750
344,9.765625
345,7.812500
346,5.859375
347,3.906250
348,1.953125
349,-1.953125
350,-3.906250
351,-3.906250
352,-7.812500
353,-9.765625
354,-11.718750
355,-13.671875
356,-15.625000
357,-17.578125
358,-19.531250
359,-21.484375
360,-23.437500
361,-27.343750
362,-29.296875
363,-31.250000
364,-31.250000
365,-35.156250
366,-37.109375
367,-39.062500
368,-41.015625
369,-42.968750
370,-44.921875
371,-46.875000
372,-48.828125
373,-50.781250
374,-52.734375
375,-54.687500
376,-56.640625
377,-58.593750
378,-60.546875
379,-62.500000
380,-64.453125
381,-66.406250
382,-68.359375
383,-70.312500
384,-72.265625
385,-72.265625
386,-74.218750
387,-76.171875
388,-78.125000
389,-80.078125
390,-80.078125
391,-82.031250
392,-83.984375
393,-85.937500
394,-85.937500
395,-87.890625
396,-87.890625
397,-89.843750
398,-91.796875
399,-91.796875
400,-93.750000
401,-95.703125
402,-95.703125
403,-95.703125
404,-97.656250
405,-97.656250
406,-99.609375
407,-99.609375
408,-101.562500
409,-101.562500
410,-101.562500
411,-101.562500
412,-103.515625
413,-103.515625
414,-103.515625
415,-105.468750
416,-105.468750
417,-105.468750
418,-105.468750
419,-105.468750
420,-105.468750
421,-105.468750
422,-105.468750
423,-105.468750
424,-105.468750
425,-105.468750
426,-105.468750
427,-105.468750
428,-103.515625
429,-105.468750
430,-103.515625
431,-103.515625
432,-103.515625
433,-101.562500
434,-101.562500
435,-101.562500
436,-99.609375
437,-99.609375
438,-97.656250
439,-97.656250
440,-97.656250
441,-95.703125
442,-95.703125
443,-93.750000
444,-93.750000
445,-91.796875
446,-89.843750
447,-89.843750
448,-87.890625
449,-85.937500
450,-85.937500
451,-83.984375
452,-82.031250
453,-80.078125
454,-80.078125
455,-78.125000
456,-76.171875
457,-74.218750
458,-74.218750
459,-72.265625
460,-70.312500
461,-68.359375
462,-66.406250
463,-64.453125
464,-62.500000
465,-60.546875
466,-58.593750
467,-56.640625
468,-56.640625
469,-54.687500
470,-50.781250
471,-50.781250
472,-48.828125
473,-44.921875
474,-42.968750
475,-41.015625
476,-39.062500
477,-37.109375
478,-35.156250
479,-33.203125
480,-31.250000
481,-29.296875
482,-27.343750
483,-25.390625
484,-23.437500
485,-19.531250
486,-17.578125
487,-15.625000
488,-13.671875
489,-11.718750
490,-9.765625
491,-7.812500
492,-5.859375
493,-3.906250
494,-1.953125
495,1.953125
496,1.953125
497,3.906250
498,5.859375
499,9.765625
500,9.765625
501,13.671875
502,13.671875
503,15.625000
504,19.531250
505,21.484375
506,21.484375
507,23.437500
508,27.343750
509,27.343750
510,31.250000
511,31.250000
512,33.203125
513,35.156250
514,37.109375
515,39.062500
516,41.015625
517,42.968750
518,44.921875
519,44.921875
520,46.875000
521,48.828125
522,50.781250
523,50.781250
524,52.734375
525,54.687500
526,56.640625
527,58.593750
528,58.593750
529,60.546875
530,62.500000
531,62.500000
532,64.453125
533,64.453125
534,66.406250
535,68.359375
536,68.359375
537,68.359375
538,70.312500
539,70.312500
540,72.265625
541,72.265625
542,74.218750
543,74.218750
544,76.171875
545,76.171875
546,78.125000
547,78.125000
548,78.125000
549,78.125000
550,80.078125
551,80.078125
552,80.078125
553,80.078125
554,82.031250
555,80.078125
556,82.031250
557,82.031250
558,82.031250
559,82.031250
560,83.984375
561,83.984375
562,83.984375
563,83.984375
564,83.984375
565,82.031250
566,82.031250
567,82.031250
568,83.984375
569,82.031250
570,82.031250
571,82.031250
572,80.078125
573,82.031250
574,82.031250
575,80.078125
576,80.078125
577,80.078125
578,80.078125
579,78.125000
580,76.171875
581,76.171875
582,76.171875
583,76.171875
584,74.218750
585,72.265625
586,72.265625
587,72.265625
588,70.312500
589,70.312500
590,68.359375
591,68.359375
592,66.406250
593,64.453125
594,64.453125
595,62.500000
596,62.500000
597,60.546875
598,58.593750
599,58.593750
600,56.640625
601,54.687500
602,54.687500
603,52.734375
604,50.781250
605,48.828125
606,46.875000
607,46.875000
608,44.921875
609,42.968750
610,41.015625
611,39.062500
612,37.109375
613,35.156250
614,33.203125
615,31.250000
616,31.250000
617,27.343750
618,25.390625
619,23.437500
620,21.484375
621,21.484375
622,17.578125
623,15.625000
624,15.625000
625,13.671875
626,9.765625
627,7.812500
628,5.859375
629,5.859375
630,1.953125
631,0.000000
632,-1.953125
633,-3.906250
634,-5.859375
635,-7.812500
636,-9.765625
637,-11.718750
638,-13.671875
639,-15.625000
640,-19.531250
641,-21.484375
642,-23.437500
643,-25.390625
644,-27.343750
645,-29.296875
646,-31.250000
647,-33.203125
648,-37.109375
649,-37.109375
650,-39.062500
651,-41.015625
652,-44.921875
653,-46.875000
654,-48.828125
655,-50.781250
656,-52.734375
657,-52.734375
658,-56.640625
659,-58.593750
660,-60.546875
661,-62.500000
662,-64.453125
663,-64.453125
664,-66.406250
665,-68.359375
666,-70.312500
667,-72.265625
668,-74.218750
669,-76.171875
670,-76.171875
671,-78.125000
672,-80.078125
673,-82.031250
674,-83.984375
675,-83.984375
676,-85.937500
677,-87.890625
678,-89.843750
679,-89.843750
680,-91.796875
681,-91.796875
682,-93.750000
683,-93.750000
684,-95.703125
685,-95.703125
686,-97.656250
687,-97.656250
688,-99.609375
689,-99.609375
690,-99.609375
691,-101.562500
692,-101.562500
693,-101.562500
694,-103.515625
695,-103.515625
696,-103.515625
697,-103.515625
698,-103.515625
699,-105.468750
700,-105.468750
701,-105.468750
702,-105.468750
703,-105.468750
704,-105.468750
705,-105.468750
706,-105.468750
707,-105.468750
708,-105.468750
709,-105.468750
710,-105.468750
711,-103.515625
712,-101.562500
713,-103.515625
714,-103.515625
715,-103.515625
716,-101.562500
717,-101.562500
718,-101.562500
719,-99.609375
720,-99.609375
721,-97.656250
722,-97.656250
723,-97.656250
724,-95.703125
725,-95.703125
726,-93.750000
727,-93.750000
728,-91.796875
729,-89.843750
730,-89.843750
731,-87.890625
732,-87.890625
733,-85.937500
734,-83.984375
735,-82.031250
736,-80.078125
737,-80.078125
738,-78.125000
739,-76.171875
740,-74.218750
741,-72.265625
742,-72.265625
743,-68.359375
744,-68.359375
745,-66.406250
746,-64.453125
747,-62.500000
748,-60.546875
749,-58.593750
750,-56.640625
751,-54.687500
752,-52.734375
753,-50.781250
754,-48.828125
755,-46.875000
756,-44.921875
757,-42.968750
758,-41.015625
759,-39.062500
760,-37.109375
761,-33.203125
762,-31.250000
763,-29.296875
764,-29.296875
765,-25.390625
766,-23.437500
767,-21.484375
768,-19.531250
769,-17.578125
770,-13.671875
771,-13.671875
772,-11.718750
773,-9.765625
774,-7.812500
775,-5.859375
776,-1.953125
777,0.000000
778,1.953125
779,3.906250
780,5.859375
781,7.812500
782,9.765625
783,11.718750
784,13.671875
785,15.625000
786,17.578125
787,19.531250
788,21.484375
789,23.437500
790,25.390625
791,27.343750
792,29.296875
793,31.250000
794,33.203125
795,33.203125
796,37.109375
797,37.109375
798,41.015625
799,41.015625
800,42.968750
801,44.921875
802,46.875000
803,48.828125
804,50.781250
805,50.781250
806,52.734375
807,54.687500
808,54.687500
809,56.640625
810,58.593750
811,60.546875
812,60.546875
813,62.500000
814,62.500000
815,64.453125
816,66.406250
817,66.406250
818,68.359375
819,68.359375
820,70.312500
821,72.265625
822,72.265625
823,74.218750
824,74.218750
825,74.218750
826,76.171875
827,76.171875
828,78.125000
829,78.125000
830,78.125000
831,80.078125
832,80.078125
833,80.078125
834,80.078125
835,82.031250
836,82.031250
837,82.031250
838,82.031250
839,82.031250
840,82.031250
841,82.031250
842,82.031250
843,83.984375
844,83.984375
845,83.984375
846,82.031250
847,83.984375
848,82.031250
849,83.984375
850,82.031250
851,82.031250
852,82.031250
853,82.031250
854,82.031250
855,80.078125
856,80.078125
857,80.078125
858,80.078125
859,78.125000
860,80.078125
861,78.125000
862,78.125000
863,76.171875
864,76.171875
865,74.218750
866,74.218750
867,74.218750
868,72.265625
869,72.265625
870,70.312500
871,70.312500
872,68.359375
873,68.359375
874,66.406250
875,66.406250
876,64.453125
877,62.500000
878,62.500000
879,60.546875
880,58.593750
881,58.593750
882,56.640625
883,54.687500
884,54.687500
885,52.734375
886,50.781250
887,48.828125
888,48.828125
889,46.875000
890,44.921875
891,42.968750
892,41.015625
893,39.062500
894,39.062500
895,37.109375
896,35.156250
897,33.203125
898,29.296875
899,29.296875
900,27.343750
901,25.390625
902,23.437500
903,21.484375
904,17.578125
905,17.578125
906,15.625000
907,13.671875
908,11.718750
909,9.765625
910,5.859375
911,5.859375
912,3.906250
913,0.000000
914,-1.953125
915,-3.906250
916,-5.859375
917,-7.812500
918,-9.765625
919,-11.718750
920,-15.625000
921,-15.625000
922,-19.531250
923,-21.484375
924,-23.437500
925,-25.390625
926,-27.343750
927,-29.296875
928,-31.250000
929,-33.203125
930,-35.156250
931,-39.062500
932,-39.062500
933,-41.015625
934,-42.968750
935,-46.875000
936,-46.875000
937,-48.828125
938,-52.734375
939,-54.687500
940,-54.687500
941,-58.593750
942,-58.593750
943,-60.546875
944,-62.500000
945,-64.453125
946,-66.406250
947,-68.359375
948,-70.312500
949,-72.265625
950,-74.218750
951,-74.218750
952,-76.171875
953,-78.125000
954,-80.078125
955,-82.031250
956,-82.031250
957,-83.984375
958,-85.937500
959,-85.937500
960,-87.890625
961,-89.843750
962,-89.843750
963,-91.796875
964,-93.750000
965,-93.750000
966,-93.750000
967,-95.703125
968,-97.656250
969,-97.656250
970,-99.609375
971,-99.609375
972,-99.609375
973,-101.562500
974,-101.562500
975,-101.562500
976,-103.515625
977,-103.515625
978,-103.515625
979,-103.515625
980,-103.515625
981,-105.468750
982,-105.468750
983,-105.468750
984,-105.468750
985,-105.468750
986,-105.468750
987,-105.468750
988,-105.468750
989,-105.468750
990,-105.468750
991,-105.468750
992,-105.468750
993,-105.468750
994,-103.515625
995,-103.515625
996,-103.515625
997,-101.562500
998,-101.562500
999,-101.562500
1000,-101.562500
1001,-99.609375
1002,-97.656250
1003,-99.609375
1004,-97.656250
1005,-95.703125
1006,-95.703125
1007,-93.750000
1008,-93.750000
1009,-91.796875
1010,-91.796875
1011,-89.843750
1012,-89.843750
1013,-87.890625
1014,-85.937500
1015,-85.937500
1016,-83.984375
1017,-82.031250
1018,-80.078125
1019,-78.125000
1020,-78.125000
1021,-76.171875
1022,-74.218750
1023,-72.265625
1024,-72.265625
1025,-70.312500
1026,-68.359375
1027,-66.406250
1028,-64.453125
1029,-62.500000
1030,-60.546875
1031,-58.593750
1032,-56.640625
1033,-54.687500
1034,-52.734375
1035,-50.781250
1036,-48.828125
1037,-46.875000
1038,-44.921875
1039,-42.968750
1040,-41.015625
1041,-39.062500
1042,-37.109375
1043,-35.156250
1044,-33.203125
1045,-31.250000
1046,-27.343750
1047,-27.343750
1048,-25.390625
1049,-23.437500
1050,-19.531250
1051,-17.578125
1052,-15.625000
1053,-13.671875
1054,-11.718750
1055,-9.765625
1056,-7.812500
1057,-5.859375
1058,-3.906250
1059,-1.953125
1060,0.000000
1061,3.906250
1062,3.906250
1063,7.812500
1064,9.765625
1065,9.765625
1066,13.671875
1067,15.625000
1068,17.578125
1069,19.531250
1070,21.484375
1071,23.437500
1072,25.390625
1073,27.343750
1074,29.296875
1075,31.250000
1076,31.250000
1077,35.156250
1078,35.156250
1079,37.109375
1080,39.062500
1081,41.015625
1082,42.968750
1083,44.921875
1084,46.875000
1085,46.875000
1086,48.828125
1087,50.781250
1088,52.734375
1089,54.687500
1090,56.640625
1091,56.640625
1092,56.640625
1093,58.593750
1094,60.546875
1095,62.500000
1096,64.453125
1097,64.453125
1098,64.453125
1099,66.406250
1100,68.359375
1101,70.312500
1102,68.359375
1103,70.312500
1104,72.265625
1105,72.265625
1106,74.218750
1107,74.218750
1108,74.218750
1109,76.171875
1110,76.171875
1111,78.125000
1112,78.125000
1113,78.125000
1114,78.125000
1115,80.078125
1116,80.078125
1117,80.078125
1118,80.078125
1119,82.031250
1120,82.031250
1121,82.031250
1122,82.031250
1123,82.031250
1124,82.031250
1125,82.031250
1126,83.984375
1127,82.031250
1128,83.984375
1129,82.031250
1130,82.031250
1131,83.984375
1132,82.031250
1133,82.031250
1134,82.031250
1135,82.031250
1136,82.031250
1137,82.031250
1138,80.078125
1139,80.078125
1140,80.078125
1141,80.078125
1142,78.125000
1143,78.125000
1144,78.125000
1145,76.171875
1146,76.171875
1147,76.171875
1148,74.218750
1149,74.218750
1150,74.218750
1151,74.218750
1152,70.312500
1153,70.312500
1154,70.312500
1155,68.359375
1156,68.359375
1157,66.406250
1158,64.453125
1159,64.453125
1160,62.500000
1161,62.500000
1162,60.546875
1163,58.593750
1164,56.640625
1165,56.640625
1166,54.687500
1167,52.734375
1168,50.781250
1169,50.781250
1170,48.828125
1171,46.875000
1172,44.921875
1173,42.968750
1174,41.015625
1175,41.015625
1176,39.062500
1177,37.109375
1178,35.156250
1179,33.203125
1180,31.250000
1181,29.296875
1182,27.343750
1183,25.390625
1184,23.437500
1185,21.484375
1186,19.531250
1187,17.578125
1188,15.625000
1189,13.671875
1190,11.718750
1191,9.765625
1192,7.812500
1193,5.859375
1194,3.906250
1195,1.953125
1196,-1.953125
1197,-3.906250
1198,-5.859375
1199,-5.859375
1200,-9.765625
1201,-11.718750
1202,-13.671875
1203,-15.625000
1204,-17.578125
1205,-19.531250
1206,-21.484375
1207,-23.437500
1208,-25.390625
1209,-27.343750
1210,-29.296875
1211,-33.203125
1212,-35.156250
1213,-37.109375
1214,-39.062500
1215,-41.015625
1216,-42.968750
1217,-44.921875
1218,-46.875000
1219,-48.828125
1220,-50.781250
1221,-52.734375
1222,-54.687500
1223,-56.640625
1224,-58.593750
1225,-60.546875
1226,-60.546875
1227,-64.453125
1228,-66.406250
1229,-68.359375
1230,-68.359375
1231,-72.265625
1232,-72.265625
1233,-74.218750
1234,-76.171875
1235,-78.125000
1236,-80.078125
1237,-80.078125
1238,-82.031250
1239,-83.984375
1240,-85.937500
1241,-85.937500
1242,-87.890625
1243,-87.890625
1244,-89.843750
1245,-91.796875
1246,-93.750000
1247,-93.750000
1248,-95.703125
1249,-95.703125
1250,-97.656250
1251,-97.656250
1252,-97.656250
1253,-99.609375
1254,-99.609375
1255,-101.562500
1256,-101.562500
1257,-101.562500
1258,-103.515625
1259,-103.515625
1260,-103.515625
1261,-103.515625
1262,-103.515625
1263,-105.468750
1264,-105.468750
1265,-105.468750
1266,-105.468750
1267,-105.468750
1268,-105.468750
1269,-105.468750
1270,-105.468750
1271,-105.468750
1272,-105.468750
1273,-105.468750
1274,-105.468750
1275,-103.515625
1276,-105.468750
1277,-103.515625
1278,-103.515625
1279,-103.515625
1280,-101.562500
1281,-101.562500
1282,-101.562500
1283,-99.609375
1284,-99.609375
1285,-99.609375
1286,-97.656250
1287,-97.656250
1288,-95.703125
1289,-93.750000
1290,-93.750000
1291,-93.750000
1292,-91.796875
1293,-89.843750
1294,-89.843750
1295,-87.890625
1296,-87.890625
1297,-85.937500
1298,-83.984375
1299,-83.984375
1300,-82.031250
1301,-80.078125
1302,-78.125000
1303,-76.171875
1304,-76.171875
1305,-74.218750
1306,-72.265625
1307,-70.312500
1308,-68.359375
1309,-66.406250
1310,-68.359375
1311,-66.406250
1312,-62.500000
1313,-58.593750
1314,-58.593750
1315,-56.640625
1316,-54.687500
1317,-52.734375
1318,-50.781250
1319,-48.828125
1320,-46.875000
1321,-44.921875
1322,-42.968750
1323,-41.015625
1324,-39.062500
1325,-35.156250
1326,-33.203125
1327,-31.250000
1328,-29.296875
1329,-27.343750
1330,-25.390625
1331,-23.437500
1332,-21.484375
1333,-19.531250
1334,-15.625000
1335,-15.625000
1336,-13.671875
1337,-9.765625
1338,-7.812500
1339,-5.859375
1340,-3.906250
1341,-1.953125
1342,0.000000
1343,1.953125
1344,3.906250
1345,5.859375
1346,7.812500
1347,9.765625
1348,11.718750
1349,13.671875
1350,15.625000
1351,17.578125
1352,21.484375
1353,21.484375
1354,23.437500
1355,27.343750
1356,27.343750
1357,29.296875
1358,31.250000
1359,33.203125
1360,35.156250
1361,37.109375
1362,39.062500
1363,41.015625
1364,42.968750
1365,44.921875
1366,44.921875
1367,46.875000
1368,48.828125
1369,50.781250
1370,50.781250
1371,52.734375
1372,54.687500
1373,54.687500
1374,58.593750
1375,58.593750
1376,60.546875
1377,60.546875
1378,62.500000
1379,64.453125
1380,64.453125
1381,66.406250
1382,66.406250
1383,68.359375
1384,70.312500
1385,70.312500
1386,72.265625
1387,72.265625
1388,74.218750
1389,74.218750
1390,74.218750
1391,76.171875
1392,76.171875
1393,78.125000
1394,78.125000
1395,78.125000
1396,80.078125
1397,80.078125
1398,80.078125
1399,80.078125
1400,80.078125
1401,82.031250
1402,82.031250
1403,82.031250
1404,82.031250
1405,83.984375
1406,82.031250
1407,82.031250
1408,83.984375
1409,83.984375
1410,83.984375
1411,82.031250
1412,82.031250
1413,83.984375
1414,83.984375
1415,82.031250
1416,82.031250
1417,82.031250
1418,82.031250
1419,82.031250
1420,80.078125
1421,80.078125
1422,80.078125
1423,80.078125
1424,80.078125
1425,78.125000
1426,78.125000
1427,78.125000
1428,76.171875
1429,76.171875
1430,74.218750
1431,74.218750
1432,74.218750
1433,72.265625
1434,74.218750
1435,70.312500
1436,70.312500
1437,68.359375
1438,68.359375
1439,66.406250
1440,64.453125
1441,64.453125
1442,62.500000
1443,62.500000
1444,60.546875
1445,58.593750
1446,56.640625
1447,56.640625
1448,54.687500
1449,54.687500
1450,50.781250
1451,48.828125
1452,48.828125
1453,46.875000
1454,44.921875
1455,42.968750
1456,42.968750
1457,41.015625
1458,39.062500
1459,37.109375
1460,35.156250
1461,33.203125
1462,31.250000
1463,29.296875
1464,27.343750
1465,25.390625
1466,25.390625
1467,23.437500
1468,21.484375
1469,19.531250
1470,15.625000
1471,15.625000
1472,11.718750
1473,9.765625
1474,7.812500
1475,5.859375
1476,3.906250
1477,3.906250
1478,0.000000
1479,-3.906250
1480,-3.906250
1481,-5.859375
1482,-7.812500
1483,-9.765625
1484,-11.718750
1485,-13.671875
1486,-17.578125
1487,-19.531250
1488,-21.484375
1489,-23.437500
1490,-25.390625
1491,-27.343750
1492,-29.296875
1493,-31.250000
1494,-33.203125
1495,-39.062500
1496,-39.062500
1497,-41.015625
1498,-42.968750
1499,-44.921875
1500,-46.875000
1501,-48.828125
1502,-50.781250
1503,-52.734375
1504,-54.687500
1505,-56.640625
1506,-58.593750
1507,-60.546875
1508,-62.500000
1509,-64.453125
1510,-66.406250
1511,-68.359375
1512,-68.359375
1513,-70.312500
1514,-72.265625
1515,-74.218750
1516,-76.171875
1517,-78.125000
1518,-78.125000
1519,-80.078125
1520,-82.031250
1521,-83.984375
1522,-83.984375
1523,-85.937500
1524,-87.890625
1525,-89.843750
1526,-89.843750
1527,-89.843750
1528,-91.796875
1529,-93.750000
1530,-93.750000
1531,-95.703125
1532,-95.703125
1533,-97.656250
1534,-97.656250
1535,-99.609375
1536,-99.609375
1537,-99.609375
1538,-101.562500
1539,-101.562500
1540,-101.562500
1541,-103.515625
1542,-103.515625
1543,-103.515625
1544,-103.515625
1545,-103.515625
1546,-105.468750
1547,-105.468750
1548,-105.468750
1549,-105.468750
1550,-105.468750
1551,-105.468750
1552,-105.468750
1553,-105.468750
1554,-105.468750
1555,-105.468750
1556,-105.468750
1557,-103.515625
1558,-103.515625
1559,-103.515625
1560,-103.515625
1561,-103.515625
1562,-103.515625
1563,-101.562500
1564,-101.562500
1565,-101.562500
1566,-99.609375
1567,-99.609375
1568,-97.656250
1569,-97.656250
1570,-95.703125
1571,-95.703125
1572,-93.750000
1573,-93.750000
1574,-91.796875
1575,-91.796875
1576,-89.843750
1577,-89.843750
1578,-87.890625
1579,-85.937500
1580,-83.984375
1581,-83.984375
1582,-82.031250
1583,-80.078125
1584,-78.125000
1585,-78.125000
1586,-76.171875
1587,-74.218750
1588,-72.265625
1589,-70.312500
1590,-68.359375
1591,-68.359375
1592,-66.406250
1593,-64.453125
1594,-62.500000
1595,-58.593750
1596,-58.593750
1597,-56.640625
1598,-54.687500
1599,-52.734375
1600,-50.781250
1601,-46.875000
1602,-44.921875
1603,-44.921875
1604,-41.015625
1605,-41.015625
1606,-39.062500
1607,-37.109375
1608,-35.156250
1609,-31.250000
1610,-29.296875
1611,-27.343750
1612,-25.390625
1613,-23.437500
1614,-21.484375
1615,-19.531250
1616,-17.578125
1617,-15.625000
1618,-13.671875
1619,-11.718750
1620,-7.812500
1621,-7.812500
1622,-3.906250
1623,-1.953125
1624,0.000000
1625,1.953125
1626,3.906250
1627,5.859375
1628,7.812500
1629,9.765625
1630,11.718750
1631,13.671875
1632,15.625000
1633,17.578125
1634,19.531250
1635,21.484375
1636,23.437500
1637,25.390625
1638,27.343750
1639,29.296875
1640,31.250000
1641,33.203125
1642,35.156250
1643,37.109375
1644,39.062500
1645,37.109375
1646,41.015625
1647,42.968750
1648,44.921875
1649,46.875000
1650,48.828125
1651,48.828125
1652,50.781250
1653,52.734375
1654,54.687500
1655,56.640625
1656,56.640625
1657,58.593750
1658,60.546875
1659,60.546875
1660,62.500000
1661,64.453125
1662,66.406250
1663,68.359375
1664,70.312500
1665,68.359375
1666,70.312500
1667,70.312500
1668,72.265625
1669,72.265625
1670,72.265625
1671,74.218750
1672,74.218750
1673,76.171875
1674,76.171875
1675,78.125000
1676,78.125000
1677,78.125000
1678,78.125000
1679,80.078125
1680,80.078125
1681,80.078125
1682,80.078125
1683,82.031250
1684,82.031250
1685,82.031250
1686,82.031250
1687,83.984375
1688,83.984375
1689,82.031250
1690,82.031250
1691,83.984375
1692,83.984375
1693,83.984375
1694,82.031250
1695,83.984375
1696,82.031250
1697,82.031250
1698,82.031250
1699,82.031250
1700,82.031250
1701,82.031250
1702,80.078125
1703,80.078125
1704,80.078125
1705,80.078125
1706,80.078125
1707,80.078125
1708,78.125000
1709,78.125000
1710,76.171875
1711,76.171875
1712,76.171875
1713,74.218750
1714,74.218750
1715,72.265625
1716,72.265625
1717,70.312500
1718,70.312500
1719,70.312500
1720,68.359375
1721,66.406250
1722,66.406250
1723,64.453125
1724,62.500000
1725,62.500000
1726,60.546875
1727,58.593750
1728,58.593750
1729,56.640625
1730,56.640625
1731,54.687500
1732,52.734375
1733,50.781250
1734,50.781250
1735,48.828125
1736,46.875000
1737,44.921875
1738,42.968750
1739,42.968750
1740,39.062500
1741,37.109375
1742,37.109375
1743,35.156250
1744,31.250000
1745,31.250000
1746,29.296875
1747,27.343750
1748,25.390625
1749,23.437500
1750,21.484375
1751,19.531250
1752,17.578125
1753,15.625000
1754,13.671875
1755,11.718750
1756,9.765625
1757,7.812500
1758,3.906250
1759,1.953125
1760,0.000000
1761,-1.953125
1762,-3.906250
1763,-5.859375
1764,-7.812500
1765,-9.765625
1766,-11.718750
1767,-13.671875
1768,-15.625000
1769,-17.578125
1770,-21.484375
1771,-23.437500
1772,-23.437500
1773,-27.343750
1774,-29.296875
1775,-31.250000
1776,-33.203125
1777,-35.156250
1778,-37.109375
1779,-39.062500
1780,-41.015625
1781,-42.968750
1782,-44.921875
1783,-46.875000
1784,-48.828125
1785,-50.781250
1786,-52.734375
1787,-54.687500
1788,-56.640625
1789,-58.593750
1790,-60.546875
1791,-62.500000
1792,-64.453125
1793,-66.406250
1794,-68.359375
1795,-70.312500
1796,-70.312500
1797,-72.265625
1798,-74.218750
1799,-76.171875
1800,-78.125000
1801,-80.078125
1802,-80.078125
1803,-82.031250
1804,-83.984375
1805,-85.937500
1806,-87.890625
1807,-87.890625
1808,-89.843750
1809,-89.843750
1810,-91.796875
1811,-91.796875
1812,-93.750000
1813,-93.750000
1814,-95.703125
1815,-95.703125
1816,-97.656250
1817,-99.609375
1818,-99.609375
1819,-99.609375
1820,-99.609375
1821,-101.562500
1822,-101.562500
1823,-101.562500
1824,-103.515625
1825,-103.515625
1826,-103.515625
1827,-105.468750
1828,-105.468750
1829,-105.468750
1830,-105.468750
1831,-105.468750
1832,-105.468750
1833,-105.468750
1834,-105.468750
1835,-105.468750
1836,-105.468750
1837,-105.468750
1838,-105.468750
1839,-105.468750
1840,-103.515625
1841,-103.515625
1842,-103.515625
1843,-103.515625
1844,-101.562500
1845,-101.562500
1846,-101.562500
1847,-101.562500
1848,-99.609375
1849,-99.609375
1850,-97.656250
1851,-97.656250
1852,-97.656250
1853,-95.703125
1854,-93.750000
1855,-93.750000
1856,-93.750000
1857,-91.796875
1858,-89.843750
1859,-89.843750
1860,-87.890625
1861,-85.937500
1862,-83.984375
1863,-83.984375
1864,-83.984375
1865,-82.031250
1866,-80.078125
1867,-78.125000
1868,-76.171875
1869,-74.218750
1870,-74.218750
1871,-72.265625
1872,-70.312500
1873,-68.359375
1874,-66.406250
1875,-64.453125
1876,-62.500000
1877,-60.546875
1878,-58.593750
1879,-56.640625
1880,-56.640625
1881,-52.734375
1882,-46.875000
1883,-48.828125
1884,-46.875000
1885,-44.921875
1886,-42.968750
1887,-41.015625
1888,-37.109375
1889,-37.109375
1890,-35.156250
1891,-33.203125
1892,-31.250000
1893,-29.296875
1894,-27.343750
1895,-25.390625
1896,-21.484375
1897,-19.531250
1898,-19.531250
1899,-15.625000
1900,-13.671875
1901,-11.718750
1902,-9.765625
1903,-7.812500
1904,-5.859375
1905,-3.906250
1906,-1.953125
1907,0.000000
1908,3.906250
1909,3.906250
1910,5.859375
1911,9.765625
1912,11.718750
1913,13.671875
1914,13.671875
1915,17.578125
1916,19.531250
1917,21.484375
1918,23.437500
1919,25.390625
1920,27.343750
1921,27.343750
1922,31.250000
1923,33.203125
1924,35.156250
1925,35.156250
1926,37.109375
1927,39.062500
1928,41.015625
1929,42.968750
1930,44.921875
1931,44.921875
1932,46.875000
1933,50.781250
1934,50.781250
1935,52.734375
1936,54.687500
1937,54.687500
1938,56.640625
1939,58.593750
1940,58.593750
1941,60.546875
1942,62.500000
1943,62.500000
1944,64.453125
1945,66.406250
1946,66.406250
1947,68.359375
1948,68.359375
1949,70.312500
1950,70.312500
1951,72.265625
1952,72.265625
1953,72.265625
1954,74.218750
1955,76.171875
1956,76.171875
1957,76.171875
1958,78.125000
1959,78.125000
1960,78.125000
1961,80.078125
1962,80.078125
1963,80.078125
1964,80.078125
1965,82.031250
1966,82.031250
1967,82.031250
1968,82.031250
1969,82.031250
1970,82.031250
1971,82.031250
1972,82.031250
1973,83.984375
1974,83.984375
1975,82.031250
1976,82.031250
1977,83.984375
1978,82.031250
1979,82.031250
1980,82.031250
1981,82.031250
1982,82.031250
1983,82.031250
1984,82.031250
1985,82.031250
1986,82.031250
1987,80.078125
1988,80.078125
1989,80.078125
1990,78.125000
1991,78.125000
1992,78.125000
1993,76.171875
1994,76.171875
1995,74.218750
1996,74.218750
1997,74.218750
1998,72.265625
1999,70.312500
2000,70.312500
2001,70.312500
2002,68.359375
2003,66.406250
2004,66.406250
2005,64.453125
2006,64.453125
2007,62.500000
2008,60.546875
2009,60.546875
2010,58.593750
2011,56.640625
2012,56.640625
2013,54.687500
2014,52.734375
2015,50.781250
2016,48.828125
2017,48.828125
2018,46.875000
2019,44.921875
2020,42.968750
2021,42.968750
2022,41.015625
2023,39.062500
2024,37.109375
2025,35.156250
2026,33.203125
2027,31.250000
2028,29.296875
2029,27.343750
2030,25.390625
2031,23.437500
2032,23.437500
2033,17.578125
2034,17.578125
2035,15.625000
2036,13.671875
2037,11.718750
2038,9.765625
2039,7.812500
2040,5.859375
2041,3.906250
2042,1.953125
2043,0.000000
2044,-1.953125
2045,-5.859375
2046,-5.859375
2047,-9.765625
2048,-11.718750
2049,-13.671875
2050,-15.625000
2051,-17.578125
2052,-19.531250
2053,-21.484375
2054,-23.437500
2055,-25.390625
2056,-29.296875
2057,-29.296875
2058,-31.250000
2059,-35.156250
2060,-37.109375
2061,-39.062500
2062,-41.015625
2063,-42.968750
2064,-44.921875
2065,-46.875000
2066,-48.828125
2067,-50.781250
2068,-52.734375
2069,-54.687500
2070,-56.640625
2071,-58.593750
2072,-60.546875
2073,-62.500000
2074,-62.500000
2075,-66.406250
2076,-68.359375
2077,-70.312500
2078,-70.312500
2079,-72.265625
2080,-74.218750
2081,-76.171875
2082,-78.125000
2083,-74.218750
2084,-80.078125
2085,-82.031250
2086,-83.984375
2087,-83.984375
2088,-85.937500
2089,-87.890625
2090,-89.843750
2091,-91.796875
2092,-91.796875
2093,-91.796875
2094,-93.750000
2095,-95.703125
2096,-95.703125
2097,-95.703125
2098,-97.656250
2099,-97.656250
2100,-99.609375
2101,-99.609375
2102,-99.609375
2103,-101.562500
2104,-103.515625
2105,-103.515625
2106,-101.562500
2107,-103.515625
2108,-103.515625
2109,-103.515625
2110,-103.515625
2111,-105.468750
2112,-105.468750
2113,-105.468750
2114,-105.468750
2115,-105.468750
2116,-105.468750
2117,-105.468750
2118,-105.468750
2119,-105.468750
2120,-105.468750
2121,-103.515625
2122,-103.515625
2123,-103.515625
2124,-103.515625
2125,-103.515625
2126,-101.562500
2127,-101.562500
2128,-101.562500
2129,-101.562500
2130,-99.609375
2131,-99.609375
2132,-99.609375
2133,-97.656250
2134,-95.703125
2135,-95.703125
2136,-93.750000
2137,-93.750000
2138,-93.750000
2139,-91.796875
2140,-89.843750
2141,-89.843750
2142,-87.890625
2143,-87.890625
2144,-85.937500
2145,-83.984375
2146,-83.984375
2147,-82.031250
2148,-80.078125
2149,-78.125000
2150,-78.125000
2151,-76.171875
2152,-74.218750
2153,-72.265625
2154,-70.312500
2155,-68.359375
2156,-66.406250
2157,-66.406250
2158,-62.500000
2159,-60.546875
2160,-60.546875
2161,-58.593750
2162,-56.640625
2163,-52.734375
2164,-52.734375
2165,-50.781250
2166,-46.875000
2167,-44.921875
2168,-44.921875
2169,-42.968750
2170,-39.062500
2171,-37.109375
2172,-35.156250
2173,-33.203125
2174,-31.250000
2175,-29.296875
2176,-27.343750
2177,-25.390625
2178,-23.437500
2179,-21.484375
2180,-19.531250
2181,-17.578125
2182,-13.671875
2183,-13.671875
2184,-9.765625
2185,-7.812500
2186,-5.859375
2187,-3.906250
2188,-1.953125
2189,1.953125
2190,1.953125
2191,3.906250
2192,5.859375
2193,9.765625
2194,9.765625
2195,11.718750
2196,15.625000
2197,17.578125
2198,17.578125
2199,21.484375
2200,21.484375
2201,25.390625
2202,25.390625
2203,29.296875
2204,29.296875
2205,31.250000
2206,33.203125
2207,35.156250
2208,37.109375
2209,39.062500
2210,41.015625
2211,42.968750
2212,42.968750
2213,44.921875
2214,46.875000
2215,48.828125
2216,48.828125
2217,52.734375
2218,52.734375
2219,54.687500
2220,56.640625
2221,58.593750
2222,58.593750
2223,60.546875
2224,62.500000
2225,62.500000
2226,64.453125
2227,64.453125
2228,66.406250
2229,66.406250
2230,68.359375
2231,70.312500
2232,70.312500
2233,72.265625
2234,72.265625
2235,74.218750
2236,74.218750
2237,76.171875
2238,76.171875
2239,76.171875
2240,78.125000
2241,78.125000
2242,78.125000
2243,80.078125
2244,80.078125
2245,80.078125
2246,80.078125
2247,82.031250
2248,82.031250
2249,82.031250
2250,82.031250
2251,82.031250
2252,80.078125
2253,82.031250
2254,82.031250
2255,83.984375
2256,83.984375
2257,83.984375
2258,83.984375
2259,82.031250
2260,83.984375
2261,83.984375
2262,83.984375
2263,82.031250
2264,82.031250
2265,82.031250
2266,82.031250
2267,82.031250
2268,82.031250
2269,80.078125
2270,80.078125
2271,80.078125
2272,78.125000
2273,78.125000
2274,76.171875
2275,76.171875
2276,76.171875
2277,74.218750
2278,74.218750
2279,72.265625
2280,72.265625
2281,70.312500
2282,70.312500
2283,68.359375
2284,68.359375
2285,68.359375
2286,66.406250
2287,66.406250
2288,64.453125
2289,62.500000
2290,62.500000
2291,60.546875
2292,58.593750
2293,56.640625
2294,56.640625
2295,54.687500
2296,52.734375
2297,50.781250
2298,50.781250
2299,48.828125
2300,46.875000
2301,46.875000
2302,42.968750
2303,42.968750
2304,41.015625
2305,39.062500
2306,37.109375
2307,35.156250
2308,33.203125
2309,31.250000
2310,29.296875
2311,29.296875
2312,27.343750
2313,25.390625
2314,21.484375
2315,21.484375
2316,19.531250
2317,15.625000
2318,13.671875
2319,13.671875
2320,9.765625
2321,7.812500
2322,5.859375
2323,3.906250
2324,1.953125
2325,0.000000
2326,-1.953125
2327,-3.906250
2328,-5.859375
2329,-9.765625
2330,-9.765625
2331,-11.718750
2332,-15.625000
2333,-17.578125
2334,-19.531250
2335,-19.531250
2336,-23.437500
2337,-25.390625
2338,-27.343750
2339,-29.296875
2340,-31.250000
2341,-35.156250
2342,-35.156250
2343,-37.109375
2344,-41.015625
2345,-42.968750
2346,-42.968750
2347,-46.875000
2348,-48.828125
2349,-50.781250
2350,-52.734375
2351,-54.687500
2352,-56.640625
2353,-58.593750
2354,-60.546875
2355,-62.500000
2356,-64.453125
2357,-64.453125
2358,-66.406250
2359,-68.359375
2360,-70.312500
2361,-72.265625
2362,-74.218750
2363,-76.171875
2364,-78.125000
2365,-78.125000
2366,-80.078125
2367,-82.031250
2368,-83.984375
2369,-83.984375
2370,-85.937500
2371,-87.890625
2372,-87.890625
2373,-89.843750
2374,-89.843750
2375,-91.796875
2376,-93.750000
2377,-93.750000
2378,-95.703125
2379,-95.703125
2380,-95.703125
2381,-97.656250
2382,-99.609375
2383,-99.609375
2384,-99.609375
2385,-99.609375
2386,-101.562500
2387,-101.562500
2388,-103.515625
2389,-103.515625
2390,-103.515625
2391,-103.515625
2392,-105.468750
2393,-105.468750
2394,-105.468750
2395,-105.468750
2396,-105.468750
2397,-105.468750
2398,-105.468750
2399,-105.468750
2400,-105.468750
2401,-105.468750
2402,-103.515625
2403,-105.468750
2404,-105.468750
2405,-103.515625
2406,-103.515625
2407,-103.515625
2408,-103.515625
2409,-103.515625
2410,-101.562500
2411,-101.562500
2412,-101.562500
2413,-99.609375
2414,-99.609375
2415,-97.656250
2416,-97.656250
2417,-95.703125
2418,-97.656250
2419,-93.750000
2420,-93.750000
2421,-91.796875
2422,-91.796875
2423,-89.843750
2424,-89.843750
2425,-87.890625
2426,-85.937500
2427,-83.984375
2428,-83.984375
2429,-82.031250
2430,-80.078125
2431,-80.078125
2432,-78.125000
2433,-76.171875
2434,-74.218750
2435,-74.218750
2436,-70.312500
2437,-68.359375
2438,-68.359375
2439,-66.406250
2440,-64.453125
2441,-62.500000
2442,-60.546875
2443,-56.640625
2444,-56.640625
2445,-54.687500
2446,-52.734375
2447,-50.781250
2448,-48.828125
2449,-46.875000
2450,-42.968750
2451,-41.015625
2452,-39.062500
2453,-39.062500
2454,-35.156250
2455,-33.203125
2456,-33.203125
2457,-31.250000
2458,-27.343750
2459,-25.390625
2460,-23.437500
2461,-21.484375
2462,-19.531250
2463,-17.578125
2464,-15.625000
2465,-13.671875
2466,-11.718750
2467,-9.765625
2468,-7.812500
2469,-3.906250
2470,-1.953125
2471,0.000000
2472,0.000000
2473,3.906250
2474,5.859375
2475,5.859375
2476,9.765625
2477,11.718750
2478,13.671875
2479,15.625000
2480,17.578125
2481,19.531250
2482,21.484375
2483,21.484375
2484,25.390625
2485,27.343750
2486,29.296875
2487,31.250000
2488,33.203125
2489,35.156250
2490,37.109375
2491,39.062500
2492,39.062500
2493,41.015625
2494,42.968750
2495,44.921875
2496,46.875000
2497,48.828125
2498,48.828125
2499,50.781250
2500,52.734375
2501,54.687500
2502,56.640625
2503,56.640625
2504,58.593750
2505,58.593750
2506,60.546875
2507,62.500000
2508,62.500000
2509,64.453125
2510,66.406250
2511,68.359375
2512,68.359375
2513,68.359375
2514,70.312500
2515,70.312500
2516,72.265625
2517,74.218750
2518,74.218750
2519,74.218750
2520,76.171875
2521,76.171875
2522,76.171875
2523,78.125000
2524,78.125000
2525,78.125000
2526,80.078125
2527,80.078125
2528,80.078125
2529,80.078125
2530,82.031250
2531,82.031250
2532,82.031250
2533,82.031250
2534,82.031250
2535,82.031250
2536,82.031250
2537,82.031250
2538,82.031250
2539,82.031250
2540,82.031250
2541,82.031250
2542,82.031250
2543,82.031250
2544,82.031250
2545,82.031250
2546,82.031250
2547,82.031250
2548,82.031250
2549,82.031250
2550,80.078125
2551,80.078125
2552,80.078125
2553,80.078125
2554,78.125000
2555,78.125000
2556,78.125000
2557,76.171875
2558,76.171875
2559,76.171875
2560,74.218750
2561,74.218750
2562,72.265625
2563,72.265625
2564,70.312500
2565,70.312500
2566,68.359375
2567,68.359375
2568,68.359375
2569,66.406250
2570,64.453125
2571,64.453125
2572,62.500000
2573,62.500000
2574,60.546875
2575,58.593750
2576,56.640625
2577,56.640625
2578,54.687500
2579,52.734375
2580,50.781250
2581,48.828125
2582,48.828125
2583,44.921875
2584,44.921875
2585,42.968750
2586,41.015625
2587,39.062500
2588,37.109375
2589,35.156250
2590,35.156250
2591,33.203125
2592,31.250000
2593,29.296875
2594,27.343750
2595,25.390625
2596,23.437500
2597,21.484375
2598,19.531250
2599,17.578125
2600,15.625000
2601,13.671875
2602,9.765625
2603,7.812500
2604,7.812500
2605,3.906250
2606,3.906250
2607,0.000000
2608,-1.953125
2609,-3.906250
2610,-5.859375
2611,-7.812500
2612,-9.765625
2613,-11.718750
2614,-15.625000
2615,-15.625000
2616,-17.578125
2617,-23.437500
2618,-23.437500
2619,-23.437500
2620,-27.343750
2621,-29.296875
2622,-31.250000
2623,-33.203125
2624,-35.156250
2625,-37.109375
2626,-39.062500
2627,-41.015625
2628,-42.968750
2629,-44.921875
2630,-46.875000
2631,-48.828125
2632,-50.781250
2633,-52.734375
2634,-54.687500
2635,-56.640625
2636,-58.593750
2637,-60.546875
2638,-60.546875
2639,-64.453125
2640,-66.406250
2641,-68.359375
2642,-70.312500
2643,-72.265625
2644,-72.265625
2645,-74.218750
2646,-76.171875
2647,-78.125000
2648,-80.078125
2649,-80.078125
2650,-82.031250
2651,-83.984375
2652,-85.937500
2653,-85.937500
2654,-87.890625
2655,-89.843750
2656,-91.796875
2657,-91.796875
2658,-91.796875
2659,-93.750000
2660,-95.703125
2661,-95.703125
2662,-97.656250
2663,-97.656250
2664,-97.656250
2665,-99.609375
2666,-99.609375
2667,-101.562500
2668,-101.562500
2669,-101.562500
2670,-103.515625
2671,-103.515625
2672,-103.515625
2673,-103.515625
2674,-105.468750
2675,-105.468750
2676,-105.468750
2677,-105.468750
2678,-105.468750
2679,-105.468750
2680,-105.468750
2681,-105.468750
2682,-105.468750
2683,-105.468750
2684,-105.468750
2685,-105.468750
2686,-105.468750
2687,-105.468750
2688,-103.515625
2689,-103.515625
2690,-103.515625
2691,-103.515625
2692,-101.562500
2693,-101.562500
2694,-101.562500
2695,-99.609375
2696,-99.609375
2697,-99.609375
2698,-97.656250
2699,-97.656250
2700,-95.703125
2701,-95.703125
2702,-93.750000
2703,-91.796875
2704,-91.796875
2705,-91.796875
2706,-87.890625
2707,-87.890625
2708,-87.890625
2709,-83.984375
2710,-83.984375
2711,-83.984375
2712,-80.078125
2713,-80.078125
2714,-78.125000
2715,-76.171875
2716,-74.218750
2717,-74.218750
2718,-72.265625
2719,-70.312500
2720,-68.359375
2721,-66.406250
2722,-64.453125
2723,-62.500000
2724,-60.546875
2725,-60.546875
2726,-56.640625
2727,-54.687500
2728,-52.734375
2729,-50.781250
2730,-50.781250
2731,-46.875000
2732,-44.921875
2733,-42.968750
2734,-41.015625
2735,-39.062500
2736,-37.109375
2737,-35.156250
2738,-33.203125
2739,-31.250000
2740,-29.296875
2741,-27.343750
2742,-25.390625
2743,-23.437500
2744,-19.531250
2745,-17.578125
2746,-15.625000
2747,-15.625000
2748,-11.718750
2749,-9.765625
2750,-9.765625
2751,-5.859375
2752,-3.906250
2753,-1.953125
2754,0.000000
2755,3.906250
2756,3.906250
2757,7.812500
2758,9.765625
2759,11.718750
2760,11.718750
2761,15.625000
2762,17.578125
2763,19.531250
2764,21.484375
2765,23.437500
2766,25.390625
2767,27.343750
2768,29.296875
2769,31.250000
2770,31.250000
2771,33.203125
2772,37.109375
2773,37.109375
2774,39.062500
2775,41.015625
2776,42.968750
2777,44.921875
2778,44.921875
2779,48.828125
2780,48.828125
2781,50.781250
2782,52.734375
2783,54.687500
2784,54.687500
2785,56.640625
2786,58.593750
2787,58.593750
2788,62.500000
2789,62.500000
2790,62.500000
2791,64.453125
2792,64.453125
2793,66.406250
2794,68.359375
2795,68.359375
2796,70.312500
2797,70.312500
2798,72.265625
2799,72.265625
2800,74.218750
2801,74.218750
2802,76.171875
2803,76.171875
2804,76.171875
2805,80.078125
2806,78.125000
2807,78.125000
2808,78.125000
2809,80.078125
2810,80.078125
2811,80.078125
2812,80.078125
2813,82.031250
2814,82.031250
2815,82.031250
2816,82.031250
2817,82.031250
2818,82.031250
2819,82.031250
2820,83.984375
2821,82.031250
2822,83.984375
2823,83.984375
2824,85.937500
2825,82.031250
2826,83.984375
2827,83.984375
2828,82.031250
2829,82.031250
2830,82.031250
2831,82.031250
2832,82.031250
2833,80.078125
2834,80.078125
2835,80.078125
2836,80.078125
2837,78.125000
2838,78.125000
2839,76.171875
2840,76.171875
2841,76.171875
2842,76.171875
2843,74.218750
2844,74.218750
2845,72.265625
2846,72.265625
2847,70.312500
2848,68.359375
2849,68.359375
2850,68.359375
2851,66.406250
2852,64.453125
2853,62.500000
2854,62.500000
2855,62.500000
2856,60.546875
2857,60.546875
2858,56.640625
2859,54.687500
2860,54.687500
2861,52.734375
2862,50.781250
2863,46.875000
2864,48.828125
2865,46.875000
2866,44.921875
2867,42.968750
2868,41.015625
2869,41.015625
2870,39.062500
2871,37.109375
2872,35.156250
2873,33.203125
2874,31.250000
2875,29.296875
2876,27.343750
2877,25.390625
2878,23.437500
2879,21.484375
2880,19.531250
2881,17.578125
2882,15.625000
2883,13.671875
2884,11.718750
2885,9.765625
2886,7.812500
2887,5.859375
2888,3.906250
2889,1.953125
2890,0.000000
2891,-3.906250
2892,-3.906250
2893,-7.812500
2894,-9.765625
2895,-11.718750
2896,-11.718750
2897,-15.625000
2898,-17.578125
2899,-19.531250
2900,-21.484375
2901,-23.437500
2902,-25.390625
2903,-27.343750
2904,-29.296875
2905,-31.250000
2906,-35.156250
2907,-37.109375
2908,-39.062500
2909,-41.015625
2910,-42.968750
2911,-44.921875
2912,-46.875000
2913,-46.875000
2914,-50.781250
2915,-52.734375
2916,-54.687500
2917,-56.640625
2918,-58.593750
2919,-60.546875
2920,-62.500000
2921,-64.453125
2922,-66.406250
2923,-68.359375
2924,-70.312500
2925,-72.265625
2926,-74.218750
2927,-74.218750
2928,-76.171875
2929,-78.125000
2930,-78.125000
2931,-80.078125
2932,-82.031250
2933,-83.984375
2934,-85.937500
2935,-85.937500
2936,-87.890625
2937,-89.843750
2938,-89.843750
2939,-91.796875
2940,-93.750000
2941,-93.750000
2942,-93.750000
2943,-95.703125
2944,-95.703125
2945,-97.656250
2946,-99.609375
2947,-99.609375
2948,-99.609375
2949,-101.562500
2950,-101.562500
2951,-101.562500
2952,-101.562500
2953,-103.515625
2954,-103.515625
2955,-103.515625
2956,-103.515625
2957,-105.468750
2958,-105.468750
2959,-105.468750
2960,-105.468750
2961,-105.468750
2962,-105.468750
2963,-105.468750
2964,-105.468750
2965,-105.468750
2966,-105.468750
2967,-103.515625
2968,-103.515625
2969,-103.515625
2970,-103.515625
2971,-103.515625
2972,-103.515625
2973,-103.515625
2974,-103.515625
2975,-101.562500
2976,-101.562500
2977,-99.609375
2978,-99.609375
2979,-99.609375
2980,-97.656250
2981,-97.656250
2982,-95.703125
2983,-95.703125
2984,-93.750000
2985,-93.750000
2986,-91.796875
2987,-91.796875
2988,-89.843750
2989,-87.890625
2990,-87.890625
2991,-85.937500
2992,-85.937500
2993,-83.984375
2994,-82.031250
2995,-80.078125
2996,-78.125000
2997,-76.171875
2998,-76.171875
2999,-72.265625
3000,-72.265625
3001,-70.312500
3002,-68.359375
3003,-66.406250
3004,-64.453125
3005,-62.500000
3006,-62.500000
3007,-60.546875
3008,-56.640625
3009,-54.687500
3010,-54.687500
3011,-50.781250
3012,-50.781250
3013,-48.828125
3014,-44.921875
3015,-44.921875
3016,-41.015625
3017,-39.062500
3018,-37.109375
3019,-35.156250
3020,-33.203125
3021,-31.250000
3022,-29.296875
3023,-27.343750
3024,-23.437500
3025,-23.437500
3026,-21.484375
3027,-19.531250
3028,-17.578125
3029,-15.625000
3030,-11.718750
3031,-9.765625
3032,-7.812500
3033,-5.859375
3034,-3.906250
3035,-1.953125
3036,0.000000
3037,1.953125
3038,3.906250
3039,5.859375
3040,7.812500
3041,9.765625
3042,11.718750
3043,15.625000
3044,15.625000
3045,17.578125
3046,19.531250
3047,21.484375
3048,23.437500
3049,25.390625
3050,27.343750
3051,29.296875
3052,31.250000
3053,33.203125
3054,35.156250
3055,37.109375
3056,39.062500
3057,41.015625
3058,41.015625
3059,44.921875
3060,44.921875
3061,46.875000
3062,48.828125
3063,48.828125
3064,50.781250
3065,52.734375
3066,54.687500
3067,54.687500
3068,56.640625
3069,58.593750
3070,60.546875
3071,60.546875
3072,62.500000
3073,64.453125
3074,62.500000
3075,66.406250
3076,66.406250
3077,68.359375
3078,68.359375
3079,70.312500
3080,72.265625
3081,72.265625
3082,72.265625
3083,74.218750
3084,74.218750
3085,76.171875
3086,76.171875
3087,76.171875
3088,78.125000
3089,78.125000
3090,78.125000
3091,80.078125
3092,80.078125
3093,80.078125
3094,82.031250
3095,82.031250
3096,82.031250
3097,82.031250
3098,82.031250
3099,82.031250
3100,82.031250
3101,82.031250
3102,83.984375
3103,82.031250
3104,82.031250
3105,83.984375
3106,82.031250
3107,82.031250
3108,82.031250
3109,82.031250
3110,82.031250
3111,82.031250
3112,82.031250
3113,82.031250
3114,80.078125
3115,82.031250
3116,80.078125
3117,80.078125
3118,80.078125
3119,78.125000
3120,78.125000
3121,78.125000
3122,78.125000
3123,76.171875
3124,74.218750
3125,74.218750
3126,72.265625
3127,72.265625
3128,72.265625
3129,70.312500
3130,70.312500
3131,68.359375
3132,68.359375
3133,66.406250
3134,64.453125
3135,64.453125
3136,62.500000
3137,62.500000
3138,60.546875
3139,58.593750
3140,58.593750
3141,56.640625
3142,54.687500
3143,52.734375
3144,52.734375
3145,50.781250
3146,48.828125
3147,46.875000
3148,44.921875
3149,44.921875
3150,42.968750
3151,41.015625
3152,39.062500
3153,37.109375
3154,35.156250
3155,35.156250
3156,33.203125
3157,29.296875
3158,29.296875
3159,27.343750
3160,23.437500
3161,23.437500
3162,19.531250
3163,19.531250
3164,17.578125
3165,13.671875
3166,13.671875
3167,11.718750
3168,7.812500
3169,5.859375
3170,3.906250
3171,1.953125
3172,0.000000
3173,-1.953125
3174,-3.906250
3175,-5.859375
3176,-7.812500
3177,-9.765625
3178,-11.718750
3179,-15.625000
3180,-17.578125
3181,-19.531250
3182,-19.531250
3183,-23.437500
3184,-25.390625
3185,-27.343750
3186,-29.296875
3187,-31.250000
3188,-33.203125
3189,-35.156250
3190,-39.062500
3191,-39.062500
3192,-41.015625
3193,-42.968750
3194,-44.921875
3195,-48.828125
3196,-48.828125
3197,-52.734375
3198,-54.687500
3199,-58.593750
3200,-58.593750
3201,-58.593750
3202,-62.500000
3203,-62.500000
3204,-64.453125
3205,-66.406250
3206,-68.359375
3207,-72.265625
3208,-72.265625
3209,-74.218750
3210,-74.218750
3211,-78.125000
3212,-78.125000
3213,-80.078125
3214,-82.031250
3215,-82.031250
3216,-83.984375
3217,-85.937500
3218,-87.890625
3219,-87.890625
3220,-89.843750
3221,-89.843750
3222,-91.796875
3223,-93.750000
3224,-93.750000
3225,-95.703125
3226,-95.703125
3227,-97.656250
3228,-97.656250
3229,-99.609375
3230,-99.609375
3231,-99.609375
3232,-99.609375
3233,-103.515625
3234,-101.562500
3235,-103.515625
3236,-101.562500
3237,-103.515625
3238,-103.515625
3239,-103.515625
3240,-105.468750
3241,-105.468750
3242,-105.468750
3243,-107.421875
3244,-105.468750
3245,-105.468750
3246,-105.468750
3247,-105.468750
3248,-105.468750
3249,-105.468750
3250,-105.468750
3251,-105.468750
3252,-103.515625
3253,-103.515625
3254,-103.515625
3255,-103.515625
3256,-103.515625
3257,-101.562500
3258,-101.562500
3259,-101.562500
3260,-99.609375
3261,-99.609375
3262,-97.656250
3263,-97.656250
3264,-97.656250
3265,-95.703125
3266,-95.703125
3267,-93.750000
3268,-91.796875
3269,-91.796875
3270,-89.843750
3271,-89.843750
3272,-87.890625
3273,-85.937500
3274,-85.937500
3275,-83.984375
3276,-82.031250
3277,-80.078125
3278,-80.078125
3279,-78.125000
3280,-76.171875
3281,-74.218750
3282,-72.265625
3283,-72.265625
3284,-68.359375
3285,-68.359375
3286,-64.453125
3287,-62.500000
3288,-62.500000
3289,-60.546875
3290,-58.593750
3291,-56.640625
3292,-54.687500
3293,-52.734375
3294,-50.781250
3295,-48.828125
3296,-46.875000
3297,-44.921875
3298,-42.968750
3299,-41.015625
3300,-39.062500
3301,-37.109375
3302,-33.203125
3303,-31.250000
3304,-31.250000
3305,-29.296875
3306,-25.390625
3307,-23.437500
3308,-21.484375
3309,-19.531250
3310,-17.578125
3311,-15.625000
3312,-13.671875
3313,-11.718750
3314,-9.765625
3315,-7.812500
3316,-5.859375
3317,-1.953125
3318,0.000000
3319,1.953125
3320,3.906250
3321,3.906250
3322,7.812500
3323,9.765625
3324,11.718750
3325,13.671875
3326,15.625000
3327,17.578125
3328,19.531250
3329,21.484375
3330,23.437500
3331,25.390625
3332,27.343750
3333,29.296875
3334,31.250000
3335,33.203125
3336,35.156250
3337,37.109375
3338,37.109375
3339,39.062500
3340,41.015625
3341,42.968750
3342,44.921875
3343,46.875000
3344,46.875000
3345,50.781250
3346,50.781250
3347,52.734375
3348,54.687500
3349,54.687500
3350,56.640625
3351,58.593750
3352,60.546875
3353,60.546875
3354,62.500000
3355,64.453125
3356,64.453125
3357,66.406250
3358,66.406250
3359,68.359375
3360,70.312500
3361,70.312500
3362,72.265625
3363,72.265625
3364,72.265625
3365,74.218750
3366,74.218750
3367,76.171875
3368,74.218750
3369,78.125000
3370,76.171875
3371,78.125000
3372,80.078125
3373,78.125000
3374,78.125000
3375,82.031250
3376,80.078125
3377,82.031250
3378,82.031250
3379,82.031250
3380,82.031250
3381,83.984375
3382,82.031250
3383,82.031250
3384,82.031250
3385,82.031250
3386,82.031250
3387,83.984375
3388,83.984375
3389,83.984375
3390,85.937500
3391,82.031250
3392,82.031250
3393,82.031250
3394,82.031250
3395,82.031250
3396,82.031250
3397,82.031250
3398,80.078125
3399,80.078125
3400,80.078125
3401,76.171875
3402,80.078125
3403,82.031250
3404,76.171875
3405,76.171875
3406,76.171875
3407,74.218750
3408,74.218750
3409,74.218750
3410,72.265625
3411,70.312500
3412,72.265625
3413,70.312500
3414,68.359375
3415,68.359375
3416,66.406250
3417,64.453125
3418,64.453125
3419,62.500000
3420,60.546875
3421,60.546875
3422,58.593750
3423,56.640625
3424,56.640625
3425,54.687500
3426,54.687500
3427,50.781250
3428,48.828125
3429,50.781250
3430,46.875000
3431,44.921875
3432,42.968750
3433,41.015625
3434,39.062500
3435,39.062500
3436,35.156250
3437,35.156250
3438,33.203125
3439,31.250000
3440,31.250000
3441,27.343750
3442,25.390625
3443,23.437500
3444,23.437500
3445,19.531250
3446,17.578125
3447,15.625000
3448,13.671875
3449,11.718750
3450,9.765625
3451,5.859375
3452,3.906250
3453,1.953125
3454,1.953125
3455,-1.953125
3456,-3.906250
3457,-5.859375
3458,-7.812500
3459,-9.765625
3460,-11.718750
3461,-13.671875
3462,-17.578125
3463,-17.578125
3464,-21.484375
3465,-21.484375
3466,-23.437500
3467,-27.343750
3468,-29.296875
3469,-31.250000
3470,-31.250000
3471,-35.156250
3472,-37.109375
3473,-39.062500
3474,-41.015625
3475,-42.968750
3476,-44.921875
3477,-46.875000
3478,-48.828125
3479,-52.734375
3480,-52.734375
3481,-54.687500
3482,-56.640625
3483,-58.593750
3484,-60.546875
3485,-62.500000
3486,-64.453125
3487,-66.406250
3488,-68.359375
3489,-70.312500
3490,-70.312500
3491,-72.265625
3492,-76.171875
3493,-76.171875
3494,-78.125000
3495,-80.078125
3496,-80.078125
3497,-82.031250
3498,-83.984375
3499,-85.937500
3500,-85.937500
3501,-87.890625
3502,-89.843750
3503,-89.843750
3504,-91.796875
3505,-93.750000
3506,-93.750000
3507,-95.703125
3508,-95.703125
3509,-97.656250
3510,-97.656250
3511,-97.656250
3512,-97.656250
3513,-101.562500
3514,-101.562500
3515,-101.562500
3516,-101.562500
3517,-103.515625
3518,-103.515625
3519,-103.515625
3520,-103.515625
3521,-105.468750
3522,-105.468750
3523,-105.468750
3524,-105.468750
3525,-105.468750
3526,-105.468750
3527,-105.468750
3528,-105.468750
3529,-105.468750
3530,-105.468750
3531,-105.468750
3532,-105.468750
3533,-103.515625
3534,-103.515625
3535,-103.515625
3536,-103.515625
3537,-103.515625
3538,-101.562500
3539,-101.562500
3540,-101.562500
3541,-99.609375
3542,-99.609375
3543,-99.609375
3544,-97.656250
3545,-97.656250
3546,-95.703125
3547,-95.703125
3548,-93.750000
3549,-93.750000
3550,-91.796875
3551,-91.796875
3552,-89.843750
3553,-89.843750
3554,-87.890625
3555,-85.937500
3556,-85.937500
3557,-83.984375
3558,-82.031250
3559,-82.031250
3560,-80.078125
3561,-78.125000
3562,-76.171875
3563,-76.171875
3564,-74.218750
3565,-70.312500
3566,-70.312500
3567,-68.359375
3568,-66.406250
3569,-64.453125
3570,-62.500000
3571,-60.546875
3572,-58.593750
3573,-56.640625
3574,-54.687500
3575,-54.687500
3576,-50.781250
3577,-48.828125
3578,-46.875000
3579,-44.921875
3580,-42.968750
3581,-41.015625
3582,-39.062500
3583,-37.109375
3584,-35.156250
3585,-33.203125
3586,-31.250000
3587,-29.296875
3588,-27.343750
3589,-25.390625
3590,-21.484375
3591,-21.484375
3592,-17.578125
3593,-15.625000
3594,-13.671875
3595,-11.718750
3596,-9.765625
3597,-7.812500
3598,-5.859375
3599,-3.906250
3600,0.000000
3601,0.000000
3602,1.953125
3603,5.859375
3604,7.812500
3605,9.765625
3606,11.718750
3607,13.671875
3608,15.625000
3609,15.625000
3610,19.531250
3611,21.484375
3612,21.484375
3613,25.390625
3614,27.343750
3615,29.296875
3616,31.250000
3617,31.250000
3618,35.156250
3619,35.156250
3620,37.109375
3621,41.015625
3622,41.015625
3623,42.968750
3624,44.921875
3625,46.875000
3626,48.828125
3627,48.828125
3628,50.781250
3629,52.734375
3630,54.687500
3631,56.640625
3632,56.640625
3633,58.593750
3634,58.593750
3635,60.546875
3636,62.500000
3637,62.500000
3638,64.453125
3639,64.453125
3640,66.406250
3641,68.359375
3642,68.359375
3643,70.312500
3644,70.312500
3645,72.265625
3646,72.265625
3647,74.218750
3648,74.218750
3649,74.218750
3650,76.171875
3651,76.171875
3652,78.125000
3653,78.125000
3654,78.125000
3655,80.078125
3656,80.078125
3657,80.078125
3658,80.078125
3659,80.078125
3660,82.031250
3661,82.031250
3662,82.031250
3663,82.031250
3664,82.031250
3665,82.031250
3666,83.984375
3667,83.984375
3668,83.984375
3669,83.984375
3670,83.984375
3671,83.984375
3672,82.031250
3673,82.031250
3674,83.984375
3675,82.031250
3676,82.031250
3677,82.031250
3678,82.031250
3679,82.031250
3680,80.078125
3681,82.031250
3682,80.078125
3683,80.078125
3684,78.125000
3685,78.125000
3686,78.125000
3687,76.171875
3688,76.171875
3689,74.218750
3690,74.218750
3691,74.218750
3692,72.265625
3693,72.265625
3694,70.312500
3695,68.359375
3696,68.359375
3697,68.359375
3698,66.406250
3699,64.453125
3700,64.453125
3701,62.500000
3702,60.546875
3703,60.546875
3704,58.593750
3705,56.640625
3706,56.640625
3707,54.687500
3708,52.734375
3709,50.781250
3710,50.781250
3711,48.828125
3712,46.875000
3713,44.921875
3714,42.968750
3715,42.968750
3716,41.015625
3717,39.062500
3718,37.109375
3719,35.156250
3720,33.203125
3721,31.250000
3722,29.296875
3723,29.296875
3724,25.390625
3725,23.437500
3726,21.484375
3727,19.531250
3728,19.531250
3729,17.578125
3730,13.671875
3731,13.671875
3732,9.765625
3733,7.812500
3734,5.859375
3735,3.906250
3736,1.953125
3737,0.000000
3738,-1.953125
3739,-3.906250
3740,-5.859375
3741,-7.812500
3742,-11.718750
3743,-11.718750
3744,-13.671875
3745,-17.578125
3746,-19.531250
3747,-21.484375
3748,-23.437500
3749,-25.390625
3750,-27.343750
3751,-29.296875
3752,-31.250000
3753,-35.156250
3754,-37.109375
3755,-39.062500
3756,-41.015625
3757,-42.968750
3758,-44.921875
3759,-46.875000
3760,-48.828125
3761,-50.781250
3762,-52.734375
3763,-52.734375
3764,-56.640625
3765,-58.593750
3766,-60.546875
3767,-62.500000
3768,-64.453125
3769,-66.406250
3770,-68.359375
3771,-68.359375
3772,-70.312500
3773,-72.265625
3774,-74.218750
3775,-76.171875
3776,-78.125000
3777,-80.078125
3778,-80.078125
3779,-82.031250
3780,-83.984375
3781,-87.890625
3782,-85.937500
3783,-87.890625
3784,-89.843750
3785,-89.843750
3786,-91.796875
3787,-91.796875
3788,-93.750000
3789,-95.703125
3790,-95.703125
3791,-97.656250
3792,-97.656250
3793,-97.656250
3794,-97.656250
3795,-99.609375
3796,-101.562500
3797,-101.562500
3798,-101.562500
3799,-101.562500
3800,-103.515625
3801,-103.515625
3802,-103.515625
3803,-103.515625
3804,-105.468750
3805,-105.468750
3806,-105.468750
3807,-105.468750
3808,-105.468750
3809,-105.468750
3810,-105.468750
3811,-105.468750
3812,-105.468750
3813,-105.468750
3814,-105.468750
3815,-103.515625
3816,-103.515625
3817,-103.515625
3818,-103.515625
3819,-103.515625
3820,-103.515625
3821,-103.515625
3822,-101.562500
3823,-101.562500
3824,-99.609375
3825,-99.609375
3826,-99.609375
3827,-97.656250
3828,-97.656250
3829,-95.703125
3830,-95.703125
3831,-89.843750
3832,-89.843750
3833,-91.796875
3834,-89.843750
3835,-89.843750
3836,-87.890625
3837,-87.890625
3838,-85.937500
3839,-83.984375
3840,-83.984375
3841,-82.031250
3842,-80.078125
3843,-78.125000
3844,-78.125000
3845,-76.171875
3846,-74.218750
3847,-72.265625
3848,-70.312500
3849,-68.359375
3850,-66.406250
3851,-66.406250
3852,-62.500000
3853,-60.546875
3854,-58.593750
3855,-56.640625
3856,-56.640625
3857,-54.687500
3858,-50.781250
3859,-50.781250
3860,-48.828125
3861,-46.875000
3862,-42.968750
3863,-41.015625
3864,-41.015625
3865,-39.062500
3866,-35.156250
3867,-33.203125
3868,-31.250000
3869,-29.296875
3870,-27.343750
3871,-25.390625
3872,-23.437500
3873,-19.531250
3874,-19.531250
3875,-17.578125
3876,-15.625000
3877,-11.718750
3878,-9.765625
3879,-7.812500
3880,-5.859375
3881,-3.906250
3882,-1.953125
3883,0.000000
3884,1.953125
3885,3.906250
3886,5.859375
3887,7.812500
3888,9.765625
3889,11.718750
3890,13.671875
3891,15.625000
3892,19.531250
3893,19.531250
3894,21.484375
3895,23.437500
3896,25.390625
3897,27.343750
3898,29.296875
3899,31.250000
3900,33.203125
3901,35.156250
3902,37.109375
3903,37.109375
3904,41.015625
3905,42.968750
3906,42.968750
3907,44.921875
3908,46.875000
3909,48.828125
3910,50.781250
3911,52.734375
3912,52.734375
3913,54.687500
3914,54.687500
3915,56.640625
3916,58.593750
3917,60.546875
3918,60.546875
3919,62.500000
3920,64.453125
3921,66.406250
3922,66.406250
3923,68.359375
3924,68.359375
3925,70.312500
3926,70.312500
3927,72.265625
3928,72.265625
3929,74.218750
3930,74.218750
3931,76.171875
3932,76.171875
3933,76.171875
3934,76.171875
3935,78.125000
3936,78.125000
3937,80.078125
3938,80.078125
3939,80.078125
3940,80.078125
3941,82.031250
3942,82.031250
3943,82.031250
3944,82.031250
3945,82.031250
3946,83.984375
3947,82.031250
3948,82.031250
3949,82.031250
3950,82.031250
3951,83.984375
3952,83.984375
3953,82.031250
3954,82.031250
3955,82.031250
3956,82.031250
3957,82.031250
3958,82.031250
3959,82.031250
3960,80.078125
3961,80.078125
3962,82.031250
3963,80.078125
3964,80.078125
3965,78.125000
3966,78.125000
3967,76.171875
3968,78.125000
3969,78.125000
3970,76.171875
3971,76.171875
3972,74.218750
3973,72.265625
3974,72.265625
3975,72.265625
3976,70.312500
3977,70.312500
3978,68.359375
3979,68.359375
3980,66.406250
3981,66.406250
3982,64.453125
3983,64.453125
3984,58.593750
3985,60.546875
3986,58.593750
3987,58.593750
3988,56.640625
3989,54.687500
3990,54.687500
3991,52.734375
3992,50.781250
3993,50.781250
3994,46.875000
3995,46.875000
3996,44.921875
3997,42.968750
3998,41.015625
3999,39.062500
4000,37.109375
4001,35.156250
4002,35.156250
4003,31.250000
4004,31.250000
4005,29.296875
4006,25.390625
4007,25.390625
4008,23.437500
4009,21.484375
4010,19.531250
4011,17.578125
4012,13.671875
4013,11.718750
4014,11.718750
4015,7.812500
4016,3.906250
4017,3.906250
4018,1.953125
4019,0.000000
4020,-1.953125
4021,-3.906250
4022,-5.859375
4023,-9.765625
4024,-9.765625
4025,-11.718750
4026,-13.671875
4027,-11.718750
4028,-19.531250
4029,-21.484375
4030,-23.437500
4031,-25.390625
4032,-27.343750
4033,-29.296875
4034,-31.250000
4035,-33.203125
4036,-35.156250
4037,-39.062500
4038,-41.015625
4039,-41.015625
4040,-44.921875
4041,-46.875000
4042,-48.828125
4043,-50.781250
4044,-52.734375
4045,-52.734375
4046,-56.640625
4047,-58.593750
4048,-58.593750
4049,-60.546875
4050,-64.453125
4051,-64.453125
4052,-66.406250
4053,-68.359375
4054,-70.312500
4055,-72.265625
4056,-74.218750
4057,-74.218750
4058,-76.171875
4059,-78.125000
4060,-80.078125
4061,-82.031250
4062,-82.031250
4063,-83.984375
4064,-85.937500
4065,-85.937500
4066,-87.890625
4067,-89.843750
4068,-91.796875
4069,-91.796875
4070,-91.796875
4071,-93.750000
4072,-93.750000
4073,-95.703125
4074,-97.656250
4075,-97.656250
4076,-99.609375
4077,-99.609375
4078,-101.562500
4079,-101.562500
4080,-101.562500
4081,-101.562500
4082,-103.515625
4083,-103.515625
4084,-103.515625
4085,-103.515625
4086,-105.468750
4087,-105.468750
4088,-105.468750
4089,-105.468750
4090,-105.468750
4091,-105.468750
4092,-105.468750
4093,-105.468750
4094,-105.468750
4095,-105.468750
4096,-105.468750
4097,-105.468750
4098,-105.468750
4099,-105.468750
4100,-103.515625
4101,-105.468750
4102,-103.515625
4103,-101.562500
4104,-101.562500
4105,-101.562500
4106,-101.562500
4107,-99.609375
4108,-99.609375
4109,-97.656250
4110,-97.656250
4111,-95.703125
4112,-95.703125
4113,-93.750000
4114,-93.750000
4115,-91.796875
4116,-89.843750
4117,-89.843750
4118,-87.890625
4119,-87.890625
4120,-85.937500
4121,-83.984375
4122,-82.031250
4123,-82.031250
4124,-80.078125
4125,-78.125000
4126,-76.171875
4127,-74.218750
4128,-74.218750
4129,-72.265625
4130,-70.312500
4131,-70.312500
4132,-68.359375
4133,-66.406250
4134,-64.453125
4135,-62.500000
4136,-60.546875
4137,-58.593750
4138,-56.640625
4139,-54.687500
4140,-52.734375
4141,-50.781250
4142,-48.828125
4143,-46.875000
4144,-44.921875
4145,-42.968750
4146,-41.015625
4147,-39.062500
4148,-37.109375
4149,-35.156250
4150,-31.250000
4151,-29.296875
4152,-29.296875
4153,-27.343750
4154,-23.437500
4155,-21.484375
4156,-19.531250
4157,-17.578125
4158,-15.625000
4159,-13.671875
4160,-11.718750
4161,-9.765625
4162,-7.812500
4163,-3.906250
4164,-3.906250
4165,0.000000
4166,1.953125
4167,3.906250
4168,5.859375
4169,7.812500
4170,9.765625
4171,11.718750
4172,13.671875
4173,15.625000
4174,15.625000
4175,19.531250
4176,21.484375
4177,23.437500
4178,25.390625
4179,27.343750
4180,29.296875
4181,31.250000
4182,37.109375
4183,35.156250
4184,37.109375
4185,39.062500
4186,39.062500
4187,41.015625
4188,42.968750
4189,44.921875
4190,46.875000
4191,48.828125
4192,50.781250
4193,50.781250
4194,52.734375
4195,54.687500
4196,56.640625
4197,56.640625
4198,58.593750
4199,60.546875
4200,60.546875
4201,62.500000
4202,64.453125
4203,64.453125
4204,66.406250
4205,66.406250
4206,68.359375
4207,70.312500
4208,70.312500
4209,70.312500
4210,72.265625
4211,72.265625
4212,74.218750
4213,74.218750
4214,74.218750
4215,76.171875
4216,76.171875
4217,78.125000
4218,78.125000
4219,83.984375
4220,80.078125
4221,80.078125
4222,80.078125
4223,80.078125
4224,80.078125
4225,80.078125
4226,82.031250
4227,82.031250
4228,82.031250
4229,83.984375
4230,82.031250
4231,82.031250
4232,83.984375
4233,82.031250
4234,83.984375
4235,83.984375
4236,83.984375
4237,83.984375
4238,82.031250
4239,82.031250
4240,82.031250
4241,82.031250
4242,82.031250
4243,82.031250
4244,82.031250
4245,80.078125
4246,80.078125
4247,80.078125
4248,78.125000
4249,78.125000
4250,78.125000
4251,76.171875
4252,78.125000
4253,76.171875
4254,74.218750
4255,74.218750
4256,72.265625
4257,72.265625
4258,72.265625
4259,70.312500
4260,70.312500
4261,68.359375
4262,66.406250
4263,66.406250
4264,64.453125
4265,64.453125
4266,62.500000
4267,60.546875
4268,58.593750
4269,58.593750
4270,56.640625
4271,54.687500
4272,54.687500
4273,52.734375
4274,50.781250
4275,48.828125
4276,48.828125
4277,46.875000
4278,44.921875
4279,42.968750
4280,41.015625
4281,41.015625
4282,39.062500
4283,37.109375
4284,35.156250
4285,33.203125
4286,31.250000
4287,29.296875
4288,27.343750
4289,25.390625
4290,23.437500
4291,21.484375
4292,19.531250
4293,17.578125
4294,15.625000
4295,13.671875
4296,11.718750
4297,7.812500
4298,7.812500
4299,5.859375
4300,1.953125
4301,1.953125
4302,-1.953125
4303,-3.906250
4304,-5.859375
4305,-7.812500
4306,-9.765625
4307,-11.718750
4308,-13.671875
4309,-15.625000
4310,-17.578125
4311,-19.531250
4312,-21.484375
4313,-23.437500
4314,-27.343750
4315,-29.296875
4316,-31.250000
4317,-31.250000
4318,-35.156250
4319,-35.156250
4320,-39.062500
4321,-41.015625
4322,-42.968750
4323,-44.921875
4324,-46.875000
4325,-48.828125
4326,-50.781250
4327,-52.734375
4328,-54.687500
4329,-56.640625
4330,-58.593750
4331,-60.546875
4332,-62.500000
4333,-64.453125
4334,-66.406250
4335,-66.406250
4336,-68.359375
4337,-72.265625
4338,-74.218750
4339,-74.218750
4340,-76.171875
4341,-78.125000
4342,-80.078125
4343,-82.031250
4344,-82.031250
4345,-83.984375
4346,-85.937500
4347,-85.937500
4348,-87.890625
4349,-89.843750
4350,-89.843750
4351,-91.796875
4352,-93.750000
4353,-93.750000
4354,-93.750000
4355,-95.703125
4356,-97.656250
4357,-97.656250
4358,-97.656250
4359,-99.609375
4360,-99.609375
4361,-99.609375
4362,-101.562500
4363,-101.562500
4364,-103.515625
4365,-103.515625
4366,-103.515625
4367,-103.515625
4368,-105.468750
4369,-103.515625
4370,-105.468750
4371,-105.468750
4372,-105.468750
4373,-105.468750
4374,-105.468750
4375,-105.468750
4376,-105.468750
4377,-105.468750
4378,-105.468750
4379,-105.468750
4380,-105.468750
4381,-105.468750
4382,-103.515625
4383,-103.515625
4384,-103.515625
4385,-101.562500
4386,-101.562500
4387,-101.562500
4388,-99.609375
4389,-99.609375
4390,-99.609375
4391,-99.609375
4392,-97.656250
4393,-97.656250
4394,-95.703125
4395,-95.703125
4396,-93.750000
4397,-93.750000
4398,-91.796875
4399,-89.843750
4400,-89.843750
4401,-87.890625
4402,-85.937500
4403,-85.937500
4404,-83.984375
4405,-82.031250
4406,-80.078125
4407,-80.078125
4408,-78.125000
4409,-76.171875
4410,-76.171875
4411,-74.218750
4412,-72.265625
4413,-70.312500
4414,-68.359375
4415,-66.406250
4416,-64.453125
4417,-62.500000
4418,-60.546875
4419,-58.593750
4420,-56.640625
4421,-54.687500
4422,-54.687500
4423,-50.781250
4424,-48.828125
4425,-46.875000
4426,-44.921875
4427,-42.968750
4428,-42.968750
4429,-39.062500
4430,-37.109375
4431,-35.156250
4432,-33.203125
4433,-31.250000
4434,-29.296875
4435,-27.343750
4436,-25.390625
4437,-23.437500
4438,-19.531250
4439,-17.578125
4440,-15.625000
4441,-13.671875
4442,-11.718750
4443,-9.765625
4444,-7.812500
4445,-5.859375
4446,-3.906250
4447,-1.953125
4448,1.953125
4449,1.953125
4450,3.906250
4451,5.859375
4452,7.812500
4453,11.718750
4454,13.671875
4455,15.625000
4456,15.625000
4457,19.531250
4458,19.531250
4459,23.437500
4460,25.390625
4461,27.343750
4462,27.343750
4463,29.296875
4464,31.250000
4465,33.203125
4466,35.156250
4467,37.109375
4468,39.062500
4469,41.015625
4470,42.968750
4471,44.921875
4472,44.921875
4473,48.828125
4474,48.828125
4475,50.781250
4476,50.781250
4477,52.734375
4478,54.687500
4479,56.640625
4480,58.593750
4481,58.593750
4482,60.546875
4483,60.546875
4484,62.500000
4485,64.453125
4486,66.406250
4487,66.406250
4488,68.359375
4489,68.359375
4490,70.312500
4491,70.312500
4492,72.265625
4493,72.265625
4494,72.265625
4495,74.218750
4496,74.218750
4497,76.171875
4498,78.125000
4499,78.125000
4500,78.125000
4501,78.125000
4502,80.078125
4503,80.078125
4504,80.078125
4505,82.031250
4506,82.031250
4507,82.031250
4508,82.031250
4509,82.031250
4510,82.031250
4511,83.984375
4512,83.984375
4513,82.031250
4514,82.031250
4515,83.984375
4516,83.984375
4517,83.984375
4518,83.984375
4519,83.984375
4520,83.984375
4521,82.031250
4522,82.031250
4523,82.031250
4524,82.031250
4525,82.031250
4526,82.031250
4527,82.031250
4528,80.078125
4529,80.078125
4530,80.078125
4531,78.125000
4532,78.125000
4533,78.125000
4534,76.171875
4535,76.171875
4536,74.218750
4537,74.218750
4538,72.265625
4539,72.265625
4540,72.265625
4541,70.312500
4542,70.312500
4543,68.359375
4544,66.406250
4545,66.406250
4546,66.406250
4547,64.453125
4548,62.500000
4549,60.546875
4550,60.546875
4551,58.593750
4552,56.640625
4553,56.640625
4554,54.687500
4555,52.734375
4556,52.734375
4557,50.781250
4558,48.828125
4559,46.875000
4560,44.921875
4561,42.968750
4562,42.968750
4563,41.015625
4564,39.062500
4565,37.109375
4566,35.156250
4567,33.203125
4568,31.250000
4569,29.296875
4570,27.343750
4571,27.343750
4572,23.437500
4573,21.484375
4574,19.531250
4575,17.578125
4576,15.625000
4577,13.671875
4578,11.718750
4579,9.765625
4580,7.812500
4581,5.859375
4582,3.906250
4583,1.953125
4584,0.000000
4585,-1.953125
4586,-3.906250
4587,-5.859375
4588,-7.812500
4589,-9.765625
4590,-11.718750
4591,-15.625000
4592,-17.578125
4593,-19.531250
4594,-21.484375
4595,-23.437500
4596,-25.390625
4597,-27.343750
4598,-29.296875
4599,-31.250000
4600,-35.156250
4601,-35.156250
4602,-37.109375
4603,-41.015625
4604,-42.968750
4605,-44.921875
4606,-46.875000
4607,-48.828125
4608,-50.781250
4609,-52.734375
4610,-54.687500
4611,-56.640625
4612,-58.593750
4613,-60.546875
4614,-62.500000
4615,-62.500000
4616,-66.406250
4617,-68.359375
4618,-70.312500
4619,-72.265625
4620,-72.265625
4621,-74.218750
4622,-76.171875
4623,-78.125000
4624,-78.125000
4625,-80.078125
4626,-82.031250
4627,-83.984375
4628,-85.937500
4629,-85.937500
4630,-87.890625
4631,-87.890625
4632,-89.843750
4633,-91.796875
4634,-91.796875
4635,-93.750000
4636,-93.750000
4637,-95.703125
4638,-95.703125
4639,-97.656250
4640,-97.656250
4641,-97.656250
4642,-99.609375
4643,-99.609375
4644,-101.562500
4645,-101.562500
4646,-101.562500
4647,-103.515625
4648,-103.515625
4649,-103.515625
4650,-103.515625
4651,-103.515625
4652,-103.515625
4653,-105.468750
4654,-105.468750
4655,-105.468750
4656,-105.468750
4657,-105.468750
4658,-105.468750
4659,-105.468750
4660,-105.468750
4661,-105.468750
4662,-105.468750
4663,-103.515625
4664,-103.515625
4665,-103.515625
4666,-103.515625
4667,-103.515625
4668,-101.562500
4669,-101.562500
4670,-99.609375
4671,-101.562500
4672,-99.609375
4673,-99.609375
4674,-97.656250
4675,-97.656250
4676,-95.703125
4677,-95.703125
4678,-93.750000
4679,-93.750000
4680,-91.796875
4681,-91.796875
4682,-89.843750
4683,-87.890625
4684,-87.890625
4685,-85.937500
4686,-83.984375
4687,-82.031250
4688,-80.078125
4689,-80.078125
4690,-78.125000
4691,-78.125000
4692,-74.218750
4693,-74.218750
4694,-72.265625
4695,-70.312500
4696,-68.359375
4697,-68.359375
4698,-64.453125
4699,-62.500000
4700,-60.546875
4701,-60.546875
4702,-58.593750
4703,-56.640625
4704,-54.687500
4705,-50.781250
4706,-50.781250
4707,-48.828125
4708,-46.875000
4709,-44.921875
4710,-41.015625
4711,-39.062500
4712,-37.109375
4713,-35.156250
4714,-35.156250
4715,-31.250000
4716,-29.296875
4717,-27.343750
4718,-25.390625
4719,-23.437500
4720,-21.484375
4721,-17.578125
4722,-15.625000
4723,-15.625000
4724,-11.718750
4725,-9.765625
4726,-7.812500
4727,-5.859375
4728,-3.906250
4729,-1.953125
4730,0.000000
4731,1.953125
4732,3.906250
4733,5.859375
4734,7.812500
4735,9.765625
4736,13.671875
4737,13.671875
4738,15.625000
4739,17.578125
4740,19.531250
4741,21.484375
4742,23.437500
4743,25.390625
4744,29.296875
4745,29.296875
4746,33.203125
4747,33.203125
4748,35.156250
4749,37.109375
4750,39.062500
4751,39.062500
4752,42.968750
4753,42.968750
4754,44.921875
4755,46.875000
4756,48.828125
4757,50.781250
4758,50.781250
4759,52.734375
4760,54.687500
4761,56.640625
4762,56.640625
4763,58.593750
4764,60.546875
4765,62.500000
4766,62.500000
4767,64.453125
4768,64.453125
4769,66.406250
4770,68.359375
4771,68.359375
4772,70.312500
4773,70.312500
4774,72.265625
4775,72.265625
4776,72.265625
4777,74.218750
4778,76.171875
4779,78.125000
4780,76.171875
4781,78.125000
4782,80.078125
4783,78.125000
4784,80.078125
4785,80.078125
4786,80.078125
4787,80.078125
4788,82.031250
4789,82.031250
4790,82.031250
4791,82.031250
4792,82.031250
4793,82.031250
4794,82.031250
4795,82.031250
4796,83.984375
4797,83.984375
4798,83.984375
4799,82.031250
4800,82.031250
4801,82.031250
4802,82.031250
4803,82.031250
4804,82.031250
4805,82.031250
4806,82.031250
4807,80.078125
4808,82.031250
4809,80.078125
4810,80.078125
4811,80.078125
4812,80.078125
4813,78.125000
4814,78.125000
4815,78.125000
4816,76.171875
4817,76.171875
4818,74.218750
4819,74.218750
4820,74.218750
4821,72.265625
4822,72.265625
4823,70.312500
4824,70.312500
4825,68.359375
4826,68.359375
4827,66.406250
4828,64.453125
4829,64.453125
4830,64.453125
4831,62.500000
4832,60.546875
4833,58.593750
4834,58.593750
4835,56.640625
4836,54.687500
4837,54.687500
4838,52.734375
4839,50.781250
4840,48.828125
4841,46.875000
4842,44.921875
4843,44.921875
4844,42.968750
4845,41.015625
4846,39.062500
4847,37.109375
4848,35.156250
4849,33.203125
4850,33.203125
4851,31.250000
4852,29.296875
4853,27.343750
4854,25.390625
4855,23.437500
4856,21.484375
4857,19.531250
4858,17.578125
4859,15.625000
4860,13.671875
4861,9.765625
4862,7.812500
4863,5.859375
4864,3.906250
4865,1.953125
4866,0.000000
4867,-1.953125
4868,-3.906250
4869,-5.859375
4870,-7.812500
4871,-9.765625
4872,-11.718750
4873,-13.671875
4874,-15.625000
4875,-19.531250
4876,-21.484375
4877,-23.437500
4878,-25.390625
4879,-27.343750
4880,-29.296875
4881,-33.203125
4882,-33.203125
4883,-35.156250
4884,-37.109375
4885,-39.062500
4886,-41.015625
4887,-42.968750
4888,-46.875000
4889,-48.828125
4890,-48.828125
4891,-52.734375
4892,-54.687500
4893,-54.687500
4894,-56.640625
4895,-58.593750
4896,-60.546875
4897,-62.500000
4898,-64.453125
4899,-66.406250
4900,-68.359375
4901,-70.312500
4902,-70.312500
4903,-74.218750
4904,-74.218750
4905,-76.171875
4906,-78.125000
4907,-80.078125
4908,-80.078125
4909,-82.031250
4910,-83.984375
4911,-85.937500
4912,-85.937500
4913,-87.890625
4914,-89.843750
4915,-89.843750
4916,-91.796875
4917,-93.750000
4918,-93.750000
4919,-93.750000
4920,-95.703125
4921,-97.656250
4922,-97.656250
4923,-97.656250
4924,-99.609375
4925,-99.609375
4926,-101.562500
4927,-101.562500
4928,-101.562500
4929,-103.515625
4930,-103.515625
4931,-103.515625
4932,-105.468750
4933,-105.468750
4934,-105.468750
4935,-105.468750
4936,-105.468750
4937,-105.468750
4938,-105.468750
4939,-105.468750
4940,-105.468750
4941,-105.468750
4942,-105.468750
4943,-105.468750
4944,-105.468750
4945,-105.468750
4946,-103.515625
4947,-105.468750
4948,-103.515625
4949,-103.515625
4950,-103.515625
4951,-101.562500
4952,-99.609375
4953,-103.515625
4954,-99.609375
4955,-99.609375
4956,-97.656250
4957,-97.656250
4958,-95.703125
4959,-95.703125
4960,-93.750000
4961,-93.750000
4962,-91.796875
4963,-91.796875
4964,-89.843750
4965,-85.937500
4966,-87.890625
4967,-85.937500
4968,-85.937500
4969,-83.984375
4970,-82.031250
4971,-80.078125
4972,-78.125000
4973,-76.171875
4974,-76.171875
4975,-74.218750
4976,-72.265625
4977,-72.265625
4978,-70.312500
4979,-66.406250
4980,-66.406250
4981,-64.453125
4982,-62.500000
4983,-60.546875
4984,-58.593750
4985,-56.640625
4986,-54.687500
4987,-52.734375
4988,-50.781250
4989,-48.828125
4990,-46.875000
4991,-44.921875
4992,-42.968750
4993,-41.015625
4994,-39.062500
4995,-37.109375
4996,-35.156250
4997,-33.203125
4998,-29.296875
4999,-29.296875
5000,-25.390625
5001,-25.390625
5002,-23.437500
5003,-19.531250
5004,-17.578125
5005,-15.625000
5006,-13.671875
5007,-11.718750
5008,-9.765625
5009,-7.812500
5010,-3.906250
5011,-1.953125
5012,-1.953125
5013,1.953125
5014,3.906250
5015,3.906250
5016,7.812500
5017,9.765625
5018,11.718750
5019,13.671875
5020,15.625000
5021,17.578125
5022,19.531250
5023,21.484375
5024,23.437500
5025,25.390625
5026,27.343750
5027,29.296875
5028,31.250000
5029,33.203125
5030,35.156250
5031,37.109375
5032,39.062500
5033,39.062500
5034,41.015625
5035,42.968750
5036,44.921875
5037,46.875000
5038,48.828125
5039,48.828125
5040,50.781250
5041,52.734375
5042,54.687500
5043,54.687500
5044,56.640625
5045,58.593750
5046,60.546875
5047,60.546875
5048,62.500000
5049,62.500000
5050,64.453125
5051,66.406250
5052,66.406250
5053,68.359375
5054,68.359375
5055,70.312500
5056,70.312500
5057,72.265625
5058,72.265625
5059,74.218750
5060,74.218750
5061,74.218750
5062,76.171875
5063,78.125000
5064,78.125000
5065,78.125000
5066,78.125000
5067,80.078125
5068,80.078125
5069,80.078125
5070,80.078125
5071,82.031250
5072,82.031250
5073,82.031250
5074,82.031250
5075,82.031250
5076,82.031250
5077,83.984375
5078,82.031250
5079,83.984375
5080,83.984375
5081,82.031250
5082,82.031250
5083,82.031250
5084,83.984375
5085,83.984375
5086,82.031250
5087,82.031250
5088,82.031250
5089,82.031250
5090,82.031250
5091,82.031250
5092,80.078125
5093,80.078125
5094,80.078125
5095,78.125000
5096,78.125000
5097,78.125000
5098,78.125000
5099,76.171875
5100,76.171875
5101,76.171875
5102,74.218750
5103,72.265625
5104,72.265625
5105,72.265625
5106,70.312500
5107,70.312500
5108,68.359375
5109,68.359375
5110,66.406250
5111,64.453125
5112,64.453125
5113,62.500000
5114,60.546875
5115,60.546875
5116,58.593750
5117,56.640625
5118,54.687500
5119,54.687500
5120,52.734375
5121,50.781250
5122,48.828125
5123,48.828125
5124,46.875000
5125,44.921875
5126,42.968750
5127,41.015625
5128,39.062500
5129,39.062500
5130,37.109375
5131,35.156250
5132,33.203125
5133,31.250000
5134,29.296875
5135,27.343750
5136,25.390625
5137,23.437500
5138,21.484375
5139,19.531250
5140,17.578125
5141,15.625000
5142,13.671875
5143,11.718750
5144,9.765625
5145,7.812500
5146,5.859375
5147,3.906250
5148,0.000000
5149,0.000000
5150,-1.953125
5151,-3.906250
5152,-7.812500
5153,-9.765625
5154,-11.718750
5155,-13.671875
5156,-15.625000
5157,-17.578125
5158,-19.531250
5159,-21.484375
5160,-23.437500
5161,-25.390625
5162,-27.343750
5163,-31.250000
5164,-31.250000
5165,-35.156250
5166,-37.109375
5167,-39.062500
5168,-41.015625
5169,-42.968750
5170,-44.921875
5171,-46.875000
5172,-48.828125
5173,-50.781250
5174,-52.734375
5175,-54.687500
5176,-56.640625
5177,-58.593750
5178,-60.546875
5179,-62.500000
5180,-64.453125
5181,-66.406250
5182,-68.359375
5183,-70.312500
5184,-72.265625
5185,-72.265625
5186,-74.218750
5187,-76.171875
5188,-78.125000
5189,-80.078125
5190,-82.031250
5191,-82.031250
5192,-83.984375
5193,-85.937500
5194,-87.890625
5195,-87.890625
5196,-89.843750
5197,-91.796875
5198,-91.796875
5199,-91.796875
5200,-93.750000
5201,-95.703125
5202,-95.703125
5203,-95.703125
5204,-97.656250
5205,-97.656250
5206,-99.609375
5207,-99.609375
5208,-101.562500
5209,-101.562500
5210,-101.562500
5211,-101.562500
5212,-103.515625
5213,-103.515625
5214,-103.515625
5215,-105.468750
5216,-105.468750
5217,-105.468750
5218,-105.468750
5219,-105.468750
5220,-105.468750
5221,-105.468750
5222,-105.468750
5223,-105.468750
5224,-105.468750
5225,-105.468750
5226,-103.515625
5227,-103.515625
5228,-103.515625
5229,-103.515625
5230,-103.515625
5231,-103.515625
5232,-101.562500
5233,-101.562500
5234,-101.562500
5235,-101.562500
5236,-99.609375
5237,-99.609375
5238,-97.656250
5239,-97.656250
5240,-97.656250
5241,-95.703125
5242,-93.750000
5243,-93.750000
5244,-93.750000
5245,-91.796875
5246,-89.843750
5247,-89.843750
5248,-87.890625
5249,-85.937500
5250,-85.937500
5251,-83.984375
5252,-82.031250
5253,-82.031250
5254,-80.078125
5255,-78.125000
5256,-76.171875
5257,-76.171875
5258,-74.218750
5259,-72.265625
5260,-70.312500
5261,-68.359375
5262,-66.406250
5263,-64.453125
5264,-62.500000
5265,-62.500000
5266,-58.593750
5267,-56.640625
5268,-54.687500
5269,-52.734375
5270,-52.734375
5271,-48.828125
5272,-46.875000
5273,-44.921875
5274,-42.968750
5275,-42.968750
5276,-39.062500
5277,-37.109375
5278,-35.156250
5279,-33.203125
5280,-31.250000
5281,-29.296875
5282,-27.343750
5283,-25.390625
5284,-21.484375
5285,-19.531250
5286,-17.578125
5287,-15.625000
5288,-13.671875
5289,-11.718750
5290,-9.765625
5291,-7.812500
5292,-5.859375
5293,-3.906250
5294,-1.953125
5295,1.953125
5296,3.906250
5297,3.906250
5298,5.859375
5299,9.765625
5300,11.718750
5301,13.671875
5302,15.625000
5303,17.578125
5304,17.578125
5305,21.484375
5306,21.484375
5307,25.390625
5308,27.343750
5309,29.296875
5310,29.296875
5311,31.250000
5312,33.203125
5313,35.156250
5314,37.109375
5315,39.062500
5316,41.015625
5317,42.968750
5318,42.968750
5319,44.921875
5320,46.875000
5321,48.828125
5322,50.781250
5323,50.781250
5324,52.734375
5325,54.687500
5326,56.640625
5327,58.593750
5328,58.593750
5329,60.546875
5330,60.546875
5331,62.500000
5332,64.453125
5333,66.406250
5334,66.406250
5335,66.406250
5336,68.359375
5337,70.312500
5338,70.312500
5339,72.265625
5340,72.265625
5341,74.218750
5342,74.218750
5343,74.218750
5344,76.171875
5345,76.171875
5346,78.125000
5347,78.125000
5348,78.125000
5349,78.125000
5350,80.078125
5351,80.078125
5352,80.078125
5353,82.031250
5354,82.031250
5355,82.031250
5356,82.031250
5357,82.031250
5358,82.031250
5359,83.984375
5360,83.984375
5361,82.031250
5362,83.984375
5363,82.031250
5364,83.984375
5365,82.031250
5366,82.031250
5367,82.031250
5368,82.031250
5369,82.031250
5370,82.031250
5371,82.031250
5372,82.031250
5373,80.078125
5374,82.031250
5375,80.078125
5376,80.078125
5377,78.125000
5378,78.125000
5379,78.125000
5380,78.125000
5381,76.171875
5382,76.171875
5383,74.218750
5384,74.218750
5385,72.265625
5386,72.265625
5387,70.312500
5388,70.312500
5389,70.312500
5390,68.359375
5391,66.406250
5392,66.406250
5393,66.406250
5394,64.453125
5395,62.500000
5396,62.500000
5397,58.593750
5398,58.593750
5399,56.640625
5400,56.640625
5401,54.687500
5402,54.687500
5403,50.781250
5404,50.781250
5405,48.828125
5406,46.875000
5407,44.921875
5408,42.968750
5409,42.968750
5410,41.015625
5411,39.062500
5412,37.109375
5413,35.156250
5414,33.203125
5415,31.250000
5416,29.296875
5417,27.343750
5418,25.390625
5419,23.437500
5420,21.484375
5421,19.531250
5422,17.578125
5423,15.625000
5424,13.671875
5425,11.718750
5426,9.765625
5427,7.812500
5428,5.859375
5429,3.906250
5430,1.953125
5431,0.000000
5432,-1.953125
5433,-3.906250
5434,-5.859375
5435,-7.812500
5436,-9.765625
5437,-13.671875
5438,-15.625000
5439,-17.578125
5440,-19.531250
5441,-21.484375
5442,-23.437500
5443,-25.390625
5444,-27.343750
5445,-31.250000
5446,-31.250000
5447,-35.156250
5448,-37.109375
5449,-39.062500
5450,-41.015625
5451,-42.968750
5452,-44.921875
5453,-46.875000
5454,-48.828125
5455,-50.781250
5456,-52.734375
5457,-54.687500
5458,-56.640625
5459,-58.593750
5460,-60.546875
5461,-62.500000
5462,-64.453125
5463,-66.406250
5464,-68.359375
5465,-70.312500
5466,-70.312500
5467,-72.265625
5468,-74.218750
5469,-76.171875
5470,-78.125000
5471,-78.125000
5472,-80.078125
5473,-82.031250
5474,-83.984375
5475,-85.937500
5476,-85.937500
5477,-87.890625
5478,-87.890625
5479,-89.843750
5480,-91.796875
5481,-91.796875
5482,-93.750000
5483,-93.750000
5484,-95.703125
5485,-97.656250
5486,-97.656250
5487,-99.609375
5488,-97.656250
5489,-99.609375
5490,-99.609375
5491,-101.562500
5492,-101.562500
5493,-103.515625
5494,-103.515625
5495,-103.515625
5496,-103.515625
5497,-103.515625
5498,-103.515625
5499,-105.468750
5500,-105.468750
5501,-105.468750
5502,-105.468750
5503,-105.468750
5504,-105.468750
5505,-105.468750
5506,-105.468750
5507,-105.468750
5508,-105.468750
5509,-105.468750
5510,-103.515625
5511,-103.515625
5512,-103.515625
5513,-103.515625
5514,-103.515625
5515,-101.562500
5516,-101.562500
5517,-101.562500
5518,-101.562500
5519,-99.609375
5520,-97.656250
5521,-99.609375
5522,-97.656250
5523,-97.656250
5524,-95.703125
5525,-93.750000
5526,-93.750000
5527,-91.796875
5528,-89.843750
5529,-89.843750
5530,-87.890625
5531,-87.890625
5532,-85.937500
5533,-83.984375
5534,-83.984375
5535,-82.031250
5536,-78.125000
5537,-78.125000
5538,-76.171875
5539,-76.171875
5540,-74.218750
5541,-72.265625
5542,-70.312500
5543,-68.359375
5544,-66.406250
5545,-64.453125
5546,-64.453125
5547,-62.500000
5548,-58.593750
5549,-58.593750
5550,-56.640625
5551,-54.687500
5552,-52.734375
5553,-50.781250
5554,-48.828125
5555,-46.875000
5556,-42.968750
5557,-42.968750
5558,-39.062500
5559,-37.109375
5560,-37.109375
5561,-33.203125
5562,-33.203125
5563,-31.250000
5564,-27.343750
5565,-25.390625
5566,-23.437500
5567,-21.484375
5568,-19.531250
5569,-17.578125
5570,-15.625000
5571,-13.671875
5572,-11.718750
5573,-7.812500
5574,-5.859375
5575,-3.906250
5576,-1.953125
5577,-1.953125
5578,1.953125
5579,1.953125
5580,5.859375
5581,7.812500
5582,9.765625
5583,11.718750
5584,13.671875
5585,15.625000
5586,17.578125
5587,19.531250
5588,21.484375
5589,23.437500
5590,25.390625
5591,27.343750
5592,29.296875
5593,31.250000
5594,33.203125
5595,35.156250
5596,37.109375
5597,39.062500
5598,41.015625
5599,41.015625
5600,44.921875
5601,44.921875
5602,46.875000
5603,48.828125
5604,48.828125
5605,52.734375
5606,52.734375
5607,54.687500
5608,54.687500
5609,56.640625
5610,58.593750
5611,60.546875
5612,60.546875
5613,62.500000
5614,64.453125
5615,64.453125
5616,66.406250
5617,68.359375
5618,68.359375
5619,70.312500
5620,70.312500
5621,72.265625
5622,72.265625
5623,72.265625
5624,74.218750
5625,74.218750
5626,76.171875
5627,76.171875
5628,78.125000
5629,78.125000
5630,78.125000
5631,78.125000
5632,80.078125
5633,80.078125
5634,80.078125
5635,82.031250
5636,82.031250
5637,82.031250
5638,82.031250
5639,82.031250
5640,82.031250
5641,82.031250
5642,82.031250
5643,82.031250
5644,83.984375
5645,82.031250
5646,82.031250
5647,83.984375
5648,83.984375
5649,82.031250
5650,82.031250
5651,82.031250
5652,82.031250
5653,82.031250
5654,80.078125
5655,80.078125
5656,80.078125
5657,80.078125
5658,80.078125
5659,78.125000
5660,78.125000
5661,78.125000
5662,78.125000
5663,76.171875
5664,76.171875
5665,76.171875
5666,74.218750
5667,74.218750
5668,72.265625
5669,72.265625
5670,72.265625
5671,70.312500
5672,68.359375
5673,68.359375
5674,66.406250
5675,66.406250
5676,64.453125
5677,62.500000
5678,62.500000
5679,60.546875
5680,60.546875
5681,58.593750
5682,56.640625
5683,54.687500
5684,54.687500
5685,52.734375
5686,50.781250
5687,48.828125
5688,48.828125
5689,46.875000
5690,44.921875
5691,42.968750
5692,41.015625
5693,39.062500
5694,37.109375
5695,35.156250
5696,35.156250
5697,31.250000
5698,29.296875
5699,27.343750
5700,27.343750
5701,25.390625
5702,23.437500
5703,19.531250
5704,17.578125
5705,17.578125
5706,15.625000
5707,13.671875
5708,11.718750
5709,7.812500
5710,5.859375
5711,3.906250
5712,1.953125
5713,0.000000
5714,-1.953125
5715,-3.906250
5716,-5.859375
5717,-7.812500
5718,-9.765625
5719,-11.718750
5720,-13.671875
5721,-17.578125
5722,-17.578125
5723,-21.484375
5724,-23.437500
5725,-25.390625
5726,-27.343750
5727,-29.296875
5728,-31.250000
5729,-33.203125
5730,-35.156250
5731,-37.109375
5732,-39.062500
5733,-42.968750
5734,-42.968750
5735,-44.921875
5736,-46.875000
5737,-50.781250
5738,-52.734375
5739,-54.687500
5740,-54.687500
5741,-56.640625
5742,-58.593750
5743,-60.546875
5744,-64.453125
5745,-64.453125
5746,-66.406250
5747,-68.359375
5748,-70.312500
5749,-72.265625
5750,-74.218750
5751,-76.171875
5752,-76.171875
5753,-78.125000
5754,-80.078125
5755,-82.031250
5756,-83.984375
5757,-83.984375
5758,-85.937500
5759,-87.890625
5760,-87.890625
5761,-89.843750
5762,-89.843750
5763,-91.796875
5764,-93.750000
5765,-93.750000
5766,-95.703125
5767,-95.703125
5768,-97.656250
5769,-97.656250
5770,-99.609375
5771,-99.609375
5772,-99.609375
5773,-101.562500
5774,-101.562500
5775,-103.515625
5776,-103.515625
5777,-103.515625
5778,-105.468750
5779,-105.468750
5780,-105.468750
5781,-105.468750
5782,-105.468750
5783,-105.468750
5784,-105.468750
5785,-105.468750
5786,-105.468750
5787,-105.468750
5788,-105.468750
5789,-105.468750
5790,-105.468750
5791,-105.468750
5792,-103.515625
5793,-105.468750
5794,-103.515625
5795,-103.515625
5796,-103.515625
5797,-103.515625
5798,-101.562500
5799,-101.562500
5800,-99.609375
5801,-99.609375
5802,-99.609375
5803,-99.609375
5804,-97.656250
5805,-97.656250
5806,-95.703125
5807,-93.750000
5808,-93.750000
5809,-91.796875
5810,-91.796875
5811,-89.843750
5812,-87.890625
5813,-87.890625
5814,-85.937500
5815,-85.937500
5816,-83.984375
5817,-82.031250
5818,-80.078125
5819,-78.125000
5820,-78.125000
5821,-76.171875
5822,-74.218750
5823,-72.265625
5824,-70.312500
5825,-68.359375
5826,-68.359375
5827,-66.406250
5828,-64.453125
5829,-62.500000
5830,-60.546875
5831,-58.593750
5832,-56.640625
5833,-54.687500
5834,-52.734375
5835,-50.781250
5836,-48.828125
5837,-46.875000
5838,-44.921875
5839,-42.968750
5840,-41.015625
5841,-39.062500
5842,-37.109375
5843,-35.156250
5844,-33.203125
5845,-29.296875
5846,-29.296875
5847,-27.343750
5848,-25.390625
5849,-21.484375
5850,-19.531250
5851,-17.578125
5852,-15.625000
5853,-13.671875
5854,-11.718750
5855,-9.765625
5856,-7.812500
5857,-5.859375
5858,-1.953125
5859,-1.953125
5860,1.953125
5861,1.953125
5862,5.859375
5863,7.812500
5864,9.765625
5865,11.718750
5866,13.671875
5867,15.625000
5868,17.578125
5869,19.531250
5870,21.484375
5871,23.437500
5872,25.390625
5873,27.343750
5874,29.296875
5875,31.250000
5876,33.203125
5877,35.156250
5878,37.109375
5879,37.109375
5880,39.062500
5881,41.015625
5882,42.968750
5883,44.921875
5884,46.875000
5885,46.875000
5886,48.828125
5887,50.781250
5888,52.734375
5889,54.687500
5890,54.687500
5891,56.640625
5892,58.593750
5893,58.593750
5894,60.546875
5895,62.500000
5896,62.500000
5897,64.453125
5898,66.406250
5899,66.406250
5900,68.359375
5901,70.312500
5902,70.312500
5903,70.312500
5904,72.265625
5905,72.265625
5906,74.218750
5907,74.218750
5908,74.218750
5909,76.171875
5910,76.171875
5911,78.125000
5912,78.125000
5913,78.125000
5914,78.125000
5915,80.078125
5916,82.031250
5917,82.031250
5918,80.078125
5919,80.078125
5920,82.031250
5921,82.031250
5922,82.031250
5923,82.031250
5924,82.031250
5925,85.937500
5926,83.984375
5927,82.031250
5928,82.031250
5929,82.031250
5930,85.937500
5931,83.984375
5932,82.031250
5933,82.031250
5934,82.031250
5935,82.031250
5936,82.031250
5937,82.031250
5938,80.078125
5939,78.125000
5940,80.078125
5941,80.078125
5942,78.125000
5943,78.125000
5944,78.125000
5945,76.171875
5946,76.171875
5947,76.171875
5948,76.171875
5949,74.218750
5950,72.265625
5951,72.265625
5952,70.312500
5953,70.312500
5954,68.359375
5955,68.359375
5956,66.406250
5957,66.406250
5958,62.500000
5959,64.453125
5960,62.500000
5961,60.546875
5962,60.546875
5963,56.640625
5964,56.640625
5965,54.687500
5966,54.687500
5967,52.734375
5968,50.781250
5969,48.828125
5970,46.875000
5971,46.875000
5972,44.921875
5973,42.968750
5974,41.015625
5975,39.062500
5976,37.109375
5977,35.156250
5978,35.156250
5979,33.203125
5980,31.250000
5981,29.296875
5982,27.343750
5983,25.390625
5984,23.437500
5985,21.484375
5986,19.531250
5987,17.578125
5988,15.625000
5989,13.671875
5990,11.718750
5991,9.765625
5992,7.812500
5993,5.859375
5994,3.906250
5995,1.953125
5996,0.000000
5997,-3.906250
5998,-5.859375
5999,-7.812500
6000,-9.765625
6001,-11.718750
6002,-13.671875
6003,-15.625000
6004,-17.578125
6005,-19.531250
6006,-21.484375
6007,-23.437500
6008,-25.390625
6009,-27.343750
6010,-31.250000
6011,-33.203125
6012,-35.156250
6013,-37.109375
6014,-39.062500
6015,-41.015625
6016,-42.968750
6017,-44.921875
6018,-46.875000
6019,-48.828125
6020,-52.734375
6021,-52.734375
6022,-54.687500
6023,-56.640625
6024,-58.593750
6025,-60.546875
6026,-62.500000
6027,-64.453125
6028,-66.406250
6029,-68.359375
6030,-70.312500
6031,-72.265625
6032,-74.218750
6033,-74.218750
6034,-76.171875
6035,-78.125000
6036,-80.078125
6037,-80.078125
6038,-82.031250
6039,-83.984375
6040,-85.937500
6041,-85.937500
6042,-87.890625
6043,-89.843750
6044,-89.843750
6045,-91.796875
6046,-93.750000
6047,-93.750000
6048,-93.750000
6049,-95.703125
6050,-97.656250
6051,-97.656250
6052,-97.656250
6053,-99.609375
6054,-99.609375
6055,-99.609375
6056,-101.562500
6057,-101.562500
6058,-101.562500
6059,-103.515625
6060,-103.515625
6061,-103.515625
6062,-103.515625
6063,-103.515625
6064,-105.468750
6065,-105.468750
6066,-105.468750
6067,-105.468750
6068,-105.468750
6069,-105.468750
6070,-105.468750
6071,-105.468750
6072,-105.468750
6073,-105.468750
6074,-103.515625
6075,-105.468750
6076,-101.562500
6077,-103.515625
6078,-105.468750
6079,-103.515625
6080,-101.562500
6081,-101.562500
6082,-101.562500
6083,-99.609375
6084,-99.609375
6085,-97.656250
6086,-97.656250
6087,-97.656250
6088,-95.703125
6089,-95.703125
6090,-93.750000
6091,-93.750000
6092,-91.796875
6093,-89.843750
6094,-89.843750
6095,-87.890625
6096,-85.937500
6097,-85.937500
6098,-83.984375
6099,-83.984375
6100,-82.031250
6101,-80.078125
6102,-78.125000
6103,-76.171875
6104,-74.218750
6105,-74.218750
6106,-72.265625
6107,-70.312500
6108,-68.359375
6109,-72.265625
6110,-64.453125
6111,-62.500000
6112,-60.546875
6113,-60.546875
6114,-56.640625
6115,-54.687500
6116,-52.734375
6117,-50.781250
6118,-48.828125
6119,-46.875000
6120,-44.921875
6121,-42.968750
6122,-41.015625
6123,-39.062500
6124,-37.109375
6125,-35.156250
6126,-33.203125
6127,-31.250000
6128,-33.203125
6129,-27.343750
6130,-25.390625
6131,-23.437500
6132,-19.531250
6133,-17.578125
6134,-15.625000
6135,-13.671875
6136,-11.718750
6137,-9.765625
6138,-7.812500
6139,-5.859375
6140,-3.906250
6141,-1.953125
6142,0.000000
6143,1.953125
6144,3.906250
6145,5.859375
6146,7.812500
6147,9.765625
6148,13.671875
6149,15.625000
6150,17.578125
6151,19.531250
6152,21.484375
6153,21.484375
6154,23.437500
6155,25.390625
6156,27.343750
6157,29.296875
6158,29.296875
6159,33.203125
6160,37.109375
6161,37.109375
6162,37.109375
6163,41.015625
6164,42.968750
6165,42.968750
6166,44.921875
6167,46.875000
6168,48.828125
6169,50.781250
6170,50.781250
6171,52.734375
6172,54.687500
6173,56.640625
6174,58.593750
6175,60.546875
6176,60.546875
6177,62.500000
6178,62.500000
6179,64.453125
6180,64.453125
6181,66.406250
6182,66.406250
6183,68.359375
6184,70.312500
6185,70.312500
6186,72.265625
6187,72.265625
6188,74.218750
6189,74.218750
6190,76.171875
6191,76.171875
6192,76.171875
6193,78.125000
6194,78.125000
6195,78.125000
6196,78.125000
6197,80.078125
6198,80.078125
6199,80.078125
6200,82.031250
6201,80.078125
6202,82.031250
6203,82.031250
6204,82.031250
6205,82.031250
6206,82.031250
6207,82.031250
6208,83.984375
6209,83.984375
6210,83.984375
6211,82.031250
6212,82.031250
6213,82.031250
6214,83.984375
6215,82.031250
6216,82.031250
6217,82.031250
6218,82.031250
6219,82.031250
6220,82.031250
6221,80.078125
6222,80.078125
6223,80.078125
6224,80.078125
6225,80.078125
6226,78.125000
6227,78.125000
6228,76.171875
6229,76.171875
6230,74.218750
6231,74.218750
6232,74.218750
6233,72.265625
6234,72.265625
6235,70.312500
6236,70.312500
6237,68.359375
6238,66.406250
6239,66.406250
6240,64.453125
6241,64.453125
6242,64.453125
6243,62.500000
6244,60.546875
6245,58.593750
6246,56.640625
6247,56.640625
6248,54.687500
6249,52.734375
6250,50.781250
6251,50.781250
6252,48.828125
6253,46.875000
6254,46.875000
6255,42.968750
6256,42.968750
6257,41.015625
6258,39.062500
6259,37.109375
6260,35.156250
6261,33.203125
6262,31.250000
6263,29.296875
6264,27.343750
6265,27.343750
6266,25.390625
6267,21.484375
6268,21.484375
6269,17.578125
6270,15.625000
6271,15.625000
6272,11.718750
6273,9.765625
6274,7.812500
6275,5.859375
6276,3.906250
6277,1.953125
6278,0.000000
6279,-1.953125
6280,-5.859375
6281,-5.859375
6282,-7.812500
6283,-9.765625
6284,-11.718750
6285,-15.625000
6286,-17.578125
6287,-19.531250
6288,-21.484375
6289,-23.437500
6290,-25.390625
6291,-27.343750
6292,-31.250000
6293,-33.203125
6294,-35.156250
6295,-35.156250
6296,-37.109375
6297,-41.015625
6298,-42.968750
6299,-44.921875
6300,-46.875000
6301,-48.828125
6302,-50.781250
6303,-52.734375
6304,-54.687500
6305,-56.640625
6306,-58.593750
6307,-60.546875
6308,-62.500000
6309,-62.500000
6310,-66.406250
6311,-68.359375
6312,-68.359375
6313,-70.312500
6314,-72.265625
6315,-74.218750
6316,-76.171875
6317,-76.171875
6318,-78.125000
6319,-80.078125
6320,-82.031250
6321,-83.984375
6322,-83.984375
6323,-85.937500
6324,-87.890625
6325,-87.890625
6326,-89.843750
6327,-91.796875
6328,-91.796875
6329,-93.750000
6330,-93.750000
6331,-95.703125
6332,-95.703125
6333,-97.656250
6334,-97.656250
6335,-99.609375
6336,-99.609375
6337,-99.609375
6338,-101.562500
6339,-101.562500
6340,-103.515625
6341,-103.515625
6342,-103.515625
6343,-103.515625
6344,-103.515625
6345,-103.515625
6346,-105.468750
6347,-105.468750
6348,-105.468750
6349,-105.468750
6350,-103.515625
6351,-105.468750
6352,-105.468750
6353,-105.468750
6354,-105.468750
6355,-105.468750
6356,-105.468750
6357,-105.468750
6358,-103.515625
6359,-103.515625
6360,-103.515625
6361,-103.515625
6362,-103.515625
6363,-101.562500
6364,-101.562500
6365,-101.562500
6366,-99.609375
6367,-99.609375
6368,-97.656250
6369,-97.656250
6370,-95.703125
6371,-95.703125
6372,-95.703125
6373,-93.750000
6374,-91.796875
6375,-91.796875
6376,-89.843750
6377,-89.843750
6378,-87.890625
6379,-85.937500
6380,-85.937500
6381,-83.984375
6382,-82.031250
6383,-80.078125
6384,-78.125000
6385,-78.125000
6386,-76.171875
6387,-74.218750
6388,-72.265625
6389,-70.312500
6390,-70.312500
6391,-66.406250
6392,-64.453125
6393,-62.500000
6394,-62.500000
6395,-60.546875
6396,-58.593750
6397,-54.687500
6398,-54.687500
6399,-52.734375
6400,-50.781250
6401,-48.828125
6402,-46.875000
6403,-44.921875
6404,-42.968750
6405,-41.015625
6406,-39.062500
6407,-37.109375
6408,-35.156250
6409,-31.250000
6410,-29.296875
6411,-29.296875
6412,-25.390625
6413,-23.437500
6414,-21.484375
6415,-19.531250
6416,-17.578125
6417,-15.625000
6418,-13.671875
6419,-9.765625
6420,-7.812500
6421,-5.859375
6422,-3.906250
6423,-1.953125
6424,0.000000
6425,1.953125
6426,3.906250
6427,5.859375
6428,7.812500
6429,9.765625
6430,11.718750
6431,13.671875
6432,15.625000
6433,17.578125
6434,19.531250
6435,21.484375
6436,23.437500
6437,25.390625
6438,27.343750
6439,29.296875
6440,31.250000
6441,33.203125
6442,35.156250
6443,37.109375
6444,39.062500
6445,41.015625
6446,41.015625
6447,42.968750
6448,44.921875
6449,46.875000
6450,46.875000
6451,48.828125
6452,50.781250
6453,52.734375
6454,54.687500
6455,56.640625
6456,56.640625
6457,58.593750
6458,60.546875
6459,60.546875
6460,62.500000
6461,64.453125
6462,64.453125
6463,66.406250
6464,66.406250
6465,68.359375
6466,70.312500
6467,70.312500
6468,70.312500
6469,72.265625
6470,74.218750
6471,74.218750
6472,74.218750
6473,76.171875
6474,76.171875
6475,78.125000
6476,78.125000
6477,78.125000
6478,78.125000
6479,80.078125
6480,80.078125
6481,80.078125
6482,80.078125
6483,80.078125
6484,82.031250
6485,82.031250
6486,82.031250
6487,82.031250
6488,82.031250
6489,82.031250
6490,82.031250
6491,83.984375
6492,82.031250
6493,82.031250
6494,82.031250
6495,82.031250
6496,83.984375
6497,82.031250
6498,82.031250
6499,82.031250
6500,82.031250
6501,82.031250
6502,82.031250
6503,80.078125
6504,80.078125
6505,80.078125
6506,80.078125
6507,80.078125
6508,78.125000
6509,76.171875
6510,76.171875
6511,76.171875
6512,76.171875
6513,74.218750
6514,74.218750
6515,72.265625
6516,72.265625
6517,72.265625
6518,70.312500
6519,68.359375
6520,68.359375
6521,66.406250
6522,66.406250
6523,64.453125
6524,62.500000
6525,62.500000
6526,60.546875
6527,60.546875
6528,58.593750
6529,56.640625
6530,54.687500
6531,54.687500
6532,52.734375
6533,50.781250
6534,48.828125
6535,46.875000
6536,46.875000
6537,44.921875
6538,42.968750
6539,41.015625
6540,39.062500
6541,37.109375
6542,35.156250
6543,33.203125
6544,31.250000
6545,29.296875
6546,27.343750
6547,27.343750
6548,25.390625
6549,23.437500
6550,21.484375
6551,17.578125
6552,17.578125
6553,13.671875
6554,13.671875
6555,9.765625
6556,7.812500
6557,5.859375
6558,3.906250
6559,1.953125
6560,0.000000
6561,-1.953125
6562,-3.906250
6563,-5.859375
6564,-7.812500
6565,-9.765625
6566,-11.718750
6567,-15.625000
6568,-15.625000
6569,-17.578125
6570,-19.531250
6571,-23.437500
6572,-25.390625
6573,-27.343750
6574,-29.296875
6575,-31.250000
6576,-33.203125
6577,-35.156250
6578,-39.062500
6579,-39.062500
6580,-41.015625
6581,-42.968750
6582,-44.921875
6583,-48.828125
6584,-48.828125
6585,-50.781250
6586,-52.734375
6587,-54.687500
6588,-56.640625
6589,-58.593750
6590,-60.546875
6591,-62.500000
6592,-64.453125
6593,-66.406250
6594,-68.359375
6595,-70.312500
6596,-72.265625
6597,-74.218750
6598,-74.218750
6599,-76.171875
6600,-78.125000
6601,-80.078125
6602,-82.031250
6603,-82.031250
6604,-83.984375
6605,-85.937500
6606,-85.937500
6607,-87.890625
6608,-89.843750
6609,-91.796875
6610,-91.796875
6611,-93.750000
6612,-93.750000
6613,-95.703125
6614,-95.703125
6615,-97.656250
6616,-99.609375
6617,-99.609375
6618,-99.609375
6619,-101.562500
6620,-101.562500
6621,-101.562500
6622,-101.562500
6623,-103.515625
6624,-103.515625
6625,-103.515625
6626,-103.515625
6627,-105.468750
6628,-105.468750
6629,-105.468750
6630,-105.468750
6631,-105.468750
6632,-105.468750
6633,-105.468750
6634,-105.468750
6635,-105.468750
6636,-105.468750
6637,-105.468750
6638,-105.468750
6639,-103.515625
6640,-105.468750
6641,-103.515625
6642,-103.515625
6643,-103.515625
6644,-101.562500
6645,-101.562500
6646,-101.562500
6647,-99.609375
6648,-99.609375
6649,-99.609375
6650,-97.656250
6651,-97.656250
6652,-95.703125
6653,-95.703125
6654,-95.703125
6655,-93.750000
6656,-91.796875
6657,-89.843750
6658,-89.843750
6659,-89.843750
6660,-87.890625
6661,-85.937500
6662,-85.937500
6663,-83.984375
6664,-82.031250
6665,-80.078125
6666,-80.078125
6667,-78.125000
6668,-76.171875
6669,-74.218750
6670,-72.265625
6671,-72.265625
6672,-70.312500
6673,-68.359375
6674,-66.406250
6675,-64.453125
6676,-62.500000
6677,-60.546875
6678,-58.593750
6679,-56.640625
6680,-54.687500
6681,-52.734375
6682,-50.781250
6683,-48.828125
6684,-46.875000
6685,-44.921875
6686,-42.968750
6687,-41.015625
6688,-39.062500
6689,-37.109375
6690,-35.156250
6691,-33.203125
6692,-31.250000
6693,-29.296875
6694,-25.390625
6695,-23.437500
6696,-21.484375
6697,-21.484375
6698,-17.578125
6699,-15.625000
6700,-13.671875
6701,-11.718750
6702,-9.765625
6703,-7.812500
6704,-5.859375
6705,-1.953125
6706,0.000000
6707,1.953125
6708,3.906250
6709,5.859375
6710,7.812500
6711,9.765625
6712,13.671875
6713,13.671875
6714,15.625000
6715,17.578125
6716,19.531250
6717,21.484375
6718,23.437500
6719,25.390625
6720,27.343750
6721,29.296875
6722,31.250000
6723,33.203125
6724,35.156250
6725,37.109375
6726,39.062500
6727,39.062500
6728,41.015625
6729,42.968750
6730,44.921875
6731,46.875000
6732,48.828125
6733,48.828125
6734,50.781250
6735,52.734375
6736,54.687500
6737,56.640625
6738,56.640625
6739,58.593750
6740,58.593750
6741,60.546875
6742,62.500000
6743,62.500000
6744,64.453125
6745,64.453125
6746,66.406250
6747,68.359375
6748,68.359375
6749,70.312500
6750,70.312500
6751,72.265625
6752,72.265625
6753,74.218750
6754,74.218750
6755,74.218750
6756,76.171875
6757,76.171875
6758,78.125000
6759,78.125000
6760,78.125000
6761,80.078125
6762,80.078125
6763,80.078125
6764,82.031250
6765,82.031250
6766,82.031250
6767,82.031250
6768,82.031250
6769,82.031250
6770,83.984375
6771,82.031250
6772,82.031250
6773,83.984375
6774,83.984375
6775,83.984375
6776,83.984375
6777,83.984375
6778,83.984375
6779,82.031250
6780,82.031250
6781,82.031250
6782,82.031250
6783,82.031250
6784,82.031250
6785,80.078125
6786,80.078125
6787,80.078125
6788,80.078125
6789,78.125000
6790,78.125000
6791,78.125000
6792,78.125000
6793,76.171875
6794,76.171875
6795,74.218750
6796,74.218750
6797,74.218750
6798,72.265625
6799,72.265625
6800,70.312500
6801,70.312500
6802,68.359375
6803,66.406250
6804,66.406250
6805,64.453125
6806,64.453125
6807,62.500000
6808,60.546875
6809,58.593750
6810,58.593750
6811,56.640625
6812,54.687500
6813,54.687500
6814,52.734375
6815,50.781250
6816,48.828125
6817,48.828125
6818,46.875000
6819,44.921875
6820,42.968750
6821,42.968750
6822,39.062500
6823,39.062500
6824,37.109375
6825,35.156250
6826,33.203125
6827,31.250000
6828,29.296875
6829,27.343750
6830,25.390625
6831,23.437500
6832,21.484375
6833,19.531250
6834,17.578125
6835,15.625000
6836,13.671875
6837,11.718750
6838,9.765625
6839,7.812500
6840,5.859375
6841,3.906250
6842,1.953125
6843,0.000000
6844,-1.953125
6845,-5.859375
6846,-5.859375
6847,-7.812500
6848,-11.718750
6849,-11.718750
6850,-15.625000
6851,-17.578125
6852,-19.531250
6853,-21.484375
6854,-23.437500
6855,-25.390625
6856,-29.296875
6857,-31.250000
6858,-33.203125
6859,-35.156250
6860,-37.109375
6861,-39.062500
6862,-41.015625
6863,-42.968750
6864,-44.921875
6865,-46.875000
6866,-48.828125
6867,-50.781250
6868,-52.734375
6869,-54.687500
6870,-56.640625
6871,-58.593750
6872,-60.546875
6873,-62.500000
6874,-64.453125
6875,-66.406250
6876,-68.359375
6877,-70.312500
6878,-72.265625
6879,-74.218750
6880,-74.218750
6881,-76.171875
6882,-78.125000
6883,-80.078125
6884,-80.078125
6885,-82.031250
6886,-83.984375
6887,-85.937500
6888,-85.937500
6889,-87.890625
6890,-87.890625
6891,-89.843750
6892,-91.796875
6893,-93.750000
6894,-93.750000
6895,-93.750000
6896,-95.703125
6897,-97.656250
6898,-97.656250
6899,-99.609375
6900,-97.656250
6901,-99.609375
6902,-101.562500
6903,-101.562500
6904,-101.562500
6905,-101.562500
6906,-103.515625
6907,-103.515625
6908,-103.515625
6909,-105.468750
6910,-103.515625
6911,-105.468750
6912,-105.468750
6913,-105.468750
6914,-105.468750
6915,-105.468750
6916,-105.468750
6917,-105.468750
6918,-105.468750
6919,-105.468750
6920,-105.468750
6921,-103.515625
6922,-103.515625
6923,-103.515625
6924,-103.515625
6925,-103.515625
6926,-103.515625
6927,-103.515625
6928,-101.562500
6929,-101.562500
6930,-101.562500
6931,-99.609375
6932,-99.609375
6933,-97.656250
6934,-97.656250
6935,-95.703125
6936,-95.703125
6937,-93.750000
6938,-93.750000
6939,-91.796875
6940,-91.796875
6941,-89.843750
6942,-87.890625
6943,-87.890625
6944,-85.937500
6945,-83.984375
6946,-82.031250
6947,-82.031250
6948,-80.078125
6949,-78.125000
6950,-78.125000
6951,-76.171875
6952,-74.218750
6953,-72.265625
6954,-70.312500
6955,-68.359375
6956,-68.359375
6957,-64.453125
6958,-62.500000
6959,-60.546875
6960,-58.593750
6961,-56.640625
6962,-56.640625
6963,-54.687500
6964,-50.781250
6965,-48.828125
6966,-46.875000
6967,-46.875000
6968,-42.968750
6969,-41.015625
6970,-39.062500
6971,-37.109375
6972,-35.156250
6973,-33.203125
6974,-31.250000
6975,-29.296875
6976,-27.343750
6977,-25.390625
6978,-23.437500
6979,-21.484375
6980,-17.578125
6981,-15.625000
6982,-15.625000
6983,-11.718750
6984,-9.765625
6985,-7.812500
6986,-5.859375
6987,-3.906250
6988,-1.953125
6989,0.000000
6990,1.953125
6991,3.906250
6992,5.859375
6993,7.812500
6994,9.765625
6995,11.718750
6996,13.671875
6997,17.578125
6998,17.578125
6999,19.531250
7000,21.484375
7001,25.390625
7002,25.390625
7003,29.296875
7004,29.296875
7005,31.250000
7006,33.203125
7007,35.156250
7008,37.109375
7009,39.062500
7010,41.015625
7011,42.968750
7012,42.968750
7013,44.921875
7014,46.875000
7015,48.828125
7016,50.781250
7017,52.734375
7018,52.734375
7019,54.687500
7020,56.640625
7021,58.593750
7022,58.593750
7023,60.546875
7024,62.500000
7025,62.500000
7026,64.453125
7027,66.406250
7028,66.406250
7029,68.359375
7030,70.312500
7031,70.312500
7032,70.312500
7033,72.265625
7034,72.265625
7035,74.218750
7036,74.218750
7037,74.218750
7038,76.171875
7039,76.171875
7040,78.125000
7041,78.125000
7042,78.125000
7043,80.078125
7044,80.078125
7045,80.078125
7046,82.031250
7047,80.078125
7048,82.031250
7049,82.031250
7050,82.031250
7051,82.031250
7052,82.031250
7053,82.031250
7054,83.984375
7055,82.031250
7056,82.031250
7057,82.031250
7058,82.031250
7059,83.984375
7060,82.031250
7061,82.031250
7062,82.031250
7063,82.031250
7064,82.031250
7065,82.031250
7066,80.078125
7067,82.031250
7068,80.078125
7069,80.078125
7070,78.125000
7071,78.125000
7072,78.125000
7073,78.125000
7074,78.125000
7075,76.171875
7076,76.171875
7077,74.218750
7078,74.218750
7079,74.218750
7080,72.265625
7081,70.312500
7082,72.265625
7083,70.312500
7084,68.359375
7085,68.359375
7086,66.406250
7087,66.406250
7088,64.453125
7089,62.500000
7090,62.500000
7091,60.546875
7092,58.593750
7093,56.640625
7094,56.640625
7095,54.687500
7096,52.734375
7097,52.734375
7098,50.781250
7099,48.828125
7100,46.875000
7101,44.921875
7102,44.921875
7103,42.968750
7104,41.015625
7105,39.062500
7106,37.109375
7107,35.156250
7108,33.203125
7109,31.250000
7110,31.250000
7111,27.343750
7112,25.390625
7113,23.437500
7114,23.437500
7115,19.531250
7116,17.578125
7117,15.625000
7118,13.671875
7119,11.718750
7120,9.765625
7121,7.812500
7122,5.859375
7123,3.906250
7124,1.953125
7125,0.000000
7126,-1.953125
7127,-5.859375
7128,-7.812500
7129,-9.765625
7130,-11.718750
7131,-13.671875
7132,-15.625000
7133,-17.578125
7134,-19.531250
7135,-21.484375
7136,-23.437500
7137,-25.390625
7138,-27.343750
7139,-31.250000
7140,-31.250000
7141,-33.203125
7142,-37.109375
7143,-39.062500
7144,-41.015625
7145,-41.015625
7146,-44.921875
7147,-46.875000
7148,-48.828125
7149,-50.781250
7150,-52.734375
7151,-54.687500
7152,-56.640625
7153,-58.593750
7154,-58.593750
7155,-62.500000
7156,-64.453125
7157,-66.406250
7158,-68.359375
7159,-70.312500
7160,-70.312500
7161,-72.265625
7162,-74.218750
7163,-76.171875
7164,-78.125000
7165,-78.125000
7166,-80.078125
7167,-82.031250
7168,-83.984375
7169,-83.984375
7170,-85.937500
7171,-87.890625
7172,-89.843750
7173,-89.843750
7174,-91.796875
7175,-91.796875
7176,-93.750000
7177,-93.750000
7178,-95.703125
7179,-95.703125
7180,-97.656250
7181,-99.609375
7182,-99.609375
7183,-99.609375
7184,-99.609375
7185,-101.562500
7186,-101.562500
7187,-103.515625
7188,-103.515625
7189,-103.515625
7190,-103.515625
7191,-103.515625
7192,-105.468750
7193,-105.468750
7194,-105.468750
7195,-105.468750
7196,-105.468750
7197,-105.468750
7198,-105.468750
7199,-105.468750
7200,-105.468750
7201,-105.468750
7202,-105.468750
7203,-105.468750
7204,-105.468750
7205,-105.468750
7206,-103.515625
7207,-103.515625
7208,-103.515625
7209,-103.515625
7210,-101.562500
7211,-101.562500
7212,-99.609375
7213,-99.609375
7214,-99.609375
7215,-97.656250
7216,-97.656250
7217,-95.703125
7218,-95.703125
7219,-93.750000
7220,-93.750000
7221,-91.796875
7222,-91.796875
7223,-89.843750
7224,-89.843750
7225,-87.890625
7226,-85.937500
7227,-83.984375
7228,-82.031250
7229,-82.031250
7230,-80.078125
7231,-78.125000
7232,-76.171875
7233,-76.171875
7234,-74.218750
7235,-72.265625
7236,-70.312500
7237,-68.359375
7238,-66.406250
7239,-64.453125
7240,-64.453125
7241,-62.500000
7242,-60.546875
7243,-58.593750
7244,-56.640625
7245,-54.687500
7246,-52.734375
7247,-50.781250
7248,-48.828125
7249,-46.875000
7250,-44.921875
7251,-42.968750
7252,-41.015625
7253,-37.109375
7254,-37.109375
7255,-35.156250
7256,-31.250000
7257,-31.250000
7258,-27.343750
7259,-25.390625
7260,-23.437500
7261,-21.484375
7262,-19.531250
7263,-17.578125
7264,-15.625000
7265,-13.671875
7266,-11.718750
7267,-9.765625
7268,-7.812500
7269,-3.906250
7270,-1.953125
7271,0.000000
7272,1.953125
7273,3.906250
7274,5.859375
7275,7.812500
7276,9.765625
7277,11.718750
7278,13.671875
7279,15.625000
7280,17.578125
7281,21.484375
7282,21.484375
7283,23.437500
7284,25.390625
7285,27.343750
7286,29.296875
7287,31.250000
7288,33.203125
7289,35.156250
7290,37.109375
7291,37.109375
7292,41.015625
7293,42.968750
7294,42.968750
7295,44.921875
7296,46.875000
7297,48.828125
7298,50.781250
7299,50.781250
7300,52.734375
7301,54.687500
7302,56.640625
7303,58.593750
7304,58.593750
7305,60.546875
7306,60.546875
7307,62.500000
7308,64.453125
7309,64.453125
7310,66.406250
7311,66.406250
7312,68.359375
7313,70.312500
7314,70.312500
7315,72.265625
7316,72.265625
7317,72.265625
7318,74.218750
7319,74.218750
7320,76.171875
7321,76.171875
7322,76.171875
7323,78.125000
7324,78.125000
7325,78.125000
7326,80.078125
7327,80.078125
7328,80.078125
7329,80.078125
7330,80.078125
7331,82.031250
7332,82.031250
7333,82.031250
7334,83.984375
7335,83.984375
7336,82.031250
7337,82.031250
7338,82.031250
7339,82.031250
7340,82.031250
7341,82.031250
7342,82.031250
7343,83.984375
7344,82.031250
7345,82.031250
7346,82.031250
7347,82.031250
7348,82.031250
7349,82.031250
7350,82.031250
7351,80.078125
7352,80.078125
7353,80.078125
7354,80.078125
7355,78.125000
7356,78.125000
7357,76.171875
7358,76.171875
7359,76.171875
7360,74.218750
7361,74.218750
7362,72.265625
7363,72.265625
7364,70.312500
7365,70.312500
7366,70.312500
7367,68.359375
7368,66.406250
7369,64.453125
7370,64.453125
7371,64.453125
7372,62.500000
7373,60.546875
7374,58.593750
7375,58.593750
7376,56.640625
7377,54.687500
7378,54.687500
7379,52.734375
7380,50.781250
7381,48.828125
7382,46.875000
7383,46.875000
7384,44.921875
7385,42.968750
7386,41.015625
7387,39.062500
7388,37.109375
7389,35.156250
7390,35.156250
7391,33.203125
7392,29.296875
7393,29.296875
7394,25.390625
7395,25.390625
7396,21.484375
7397,21.484375
7398,19.531250
7399,17.578125
7400,13.671875
7401,11.718750
7402,11.718750
7403,9.765625
7404,7.812500
7405,3.906250
7406,1.953125
7407,0.000000
7408,-1.953125
7409,-3.906250
7410,-5.859375
7411,-7.812500
7412,-9.765625
7413,-11.718750
7414,-13.671875
7415,-15.625000
7416,-17.578125
7417,-19.531250
7418,-21.484375
7419,-25.390625
7420,-27.343750
7421,-29.296875
7422,-31.250000
7423,-33.203125
7424,-35.156250
7425,-37.109375
7426,-39.062500
7427,-41.015625
7428,-42.968750
7429,-44.921875
7430,-46.875000
7431,-48.828125
7432,-50.781250
7433,-54.687500
7434,-56.640625
7435,-56.640625
7436,-58.593750
7437,-60.546875
7438,-62.500000
7439,-64.453125
7440,-66.406250
7441,-68.359375
7442,-70.312500
7443,-72.265625
7444,-74.218750
7445,-74.218750
7446,-76.171875
7447,-78.125000
7448,-80.078125
7449,-82.031250
7450,-82.031250
7451,-83.984375
7452,-85.937500
7453,-87.890625
7454,-89.843750
7455,-89.843750
7456,-89.843750
7457,-91.796875
7458,-93.750000
7459,-93.750000
7460,-95.703125
7461,-95.703125
7462,-97.656250
7463,-97.656250
7464,-99.609375
7465,-99.609375
7466,-101.562500
7467,-101.562500
7468,-101.562500
7469,-103.515625
7470,-103.515625
7471,-103.515625
7472,-103.515625
7473,-103.515625
7474,-105.468750
7475,-105.468750
7476,-105.468750
7477,-105.468750
7478,-105.468750
7479,-105.468750
7480,-105.468750
7481,-105.468750
7482,-105.468750
7483,-105.468750
7484,-105.468750
7485,-105.468750
7486,-103.515625
7487,-105.468750
7488,-103.515625
7489,-103.515625
7490,-103.515625
7491,-101.562500
7492,-101.562500
7493,-101.562500
7494,-99.609375
7495,-99.609375
7496,-99.609375
7497,-97.656250
7498,-97.656250
7499,-95.703125
7500,-95.703125
7501,-95.703125
7502,-93.750000
7503,-91.796875
7504,-91.796875
7505,-89.843750
7506,-89.843750
7507,-87.890625
7508,-85.937500
7509,-85.937500
7510,-83.984375
7511,-82.031250
7512,-82.031250
7513,-80.078125
7514,-78.125000
7515,-76.171875
7516,-76.171875
7517,-74.218750
7518,-72.265625
7519,-70.312500
7520,-68.359375
7521,-66.406250
7522,-64.453125
7523,-62.500000
7524,-60.546875
7525,-58.593750
7526,-56.640625
7527,-54.687500
7528,-52.734375
7529,-50.781250
7530,-48.828125
7531,-46.875000
7532,-44.921875
7533,-42.968750
7534,-41.015625
7535,-39.062500
7536,-37.109375
7537,-35.156250
7538,-33.203125
7539,-31.250000
7540,-27.343750
7541,-25.390625
7542,-23.437500
7543,-21.484375
7544,-19.531250
7545,-17.578125
7546,-15.625000
7547,-13.671875
7548,-11.718750
7549,-9.765625
7550,-7.812500
7551,-3.906250
7552,-1.953125
7553,-1.953125
7554,1.953125
7555,3.906250
7556,5.859375
7557,7.812500
7558,9.765625
7559,11.718750
7560,13.671875
7561,15.625000
7562,17.578125
7563,19.531250
7564,21.484375
7565,23.437500
7566,25.390625
7567,27.343750
7568,29.296875
7569,29.296875
7570,33.203125
7571,35.156250
7572,35.156250
7573,37.109375
7574,39.062500
7575,41.015625
7576,42.968750
7577,44.921875
7578,44.921875
7579,46.875000
7580,48.828125
7581,50.781250
7582,52.734375
7583,52.734375
7584,54.687500
7585,56.640625
7586,58.593750
7587,58.593750
7588,60.546875
7589,62.500000
7590,64.453125
7591,64.453125
7592,64.453125
7593,66.406250
7594,68.359375
7595,68.359375
7596,70.312500
7597,70.312500
7598,72.265625
7599,72.265625
7600,74.218750
7601,74.218750
7602,76.171875
7603,76.171875
7604,76.171875
7605,78.125000
7606,78.125000
7607,78.125000
7608,80.078125
7609,80.078125
7610,80.078125
7611,80.078125
7612,82.031250
7613,82.031250
7614,82.031250
7615,82.031250
7616,82.031250
7617,83.984375
7618,83.984375
7619,83.984375
7620,83.984375
7621,83.984375
7622,83.984375
7623,83.984375
7624,83.984375
7625,83.984375
7626,82.031250
7627,82.031250
7628,82.031250
7629,82.031250
7630,82.031250
7631,82.031250
7632,80.078125
7633,80.078125
7634,82.031250
7635,80.078125
7636,78.125000
7637,78.125000
7638,78.125000
7639,78.125000
7640,76.171875
7641,76.171875
7642,74.218750
7643,74.218750
7644,72.265625
7645,72.265625
7646,70.312500
7647,70.312500
7648,68.359375
7649,68.359375
7650,68.359375
7651,66.406250
7652,64.453125
7653,64.453125
7654,62.500000
7655,60.546875
7656,60.546875
7657,58.593750
7658,56.640625
7659,54.687500
7660,54.687500
7661,52.734375
7662,50.781250
7663,50.781250
7664,48.828125
7665,46.875000
7666,44.921875
7667,42.968750
7668,41.015625
7669,39.062500
7670,39.062500
7671,37.109375
7672,35.156250
7673,33.203125
7674,31.250000
7675,29.296875
7676,27.343750
7677,25.390625
7678,23.437500
7679,21.484375
7680,19.531250
7681,17.578125
7682,15.625000
7683,13.671875
7684,11.718750
7685,9.765625
7686,7.812500
7687,5.859375
7688,3.906250
7689,1.953125
7690,0.000000
7691,-1.953125
7692,-5.859375
7693,-7.812500
7694,-9.765625
7695,-11.718750
7696,-13.671875
7697,-15.625000
7698,-17.578125
7699,-19.531250
7700,-21.484375
7701,-23.437500
7702,-25.390625
7703,-27.343750
7704,-31.250000
7705,-33.203125
7706,-35.156250
7707,-37.109375
7708,-39.062500
7709,-41.015625
7710,-42.968750
7711,-44.921875
7712,-46.875000
7713,-50.781250
7714,-50.781250
7715,-52.734375
7716,-54.687500
7717,-58.593750
7718,-58.593750
7719,-60.546875
7720,-62.500000
7721,-64.453125
7722,-66.406250
7723,-68.359375
7724,-70.312500
7725,-72.265625
7726,-74.218750
7727,-74.218750
7728,-76.171875
7729,-78.125000
7730,-80.078125
7731,-82.031250
7732,-82.031250
7733,-83.984375
7734,-85.937500
7735,-85.937500
7736,-87.890625
7737,-89.843750
7738,-89.843750
7739,-91.796875
7740,-91.796875
7741,-93.750000
7742,-95.703125
7743,-95.703125
7744,-95.703125
7745,-97.656250
7746,-97.656250
7747,-99.609375
7748,-99.609375
7749,-99.609375
7750,-101.562500
7751,-101.562500
7752,-103.515625
7753,-103.515625
7754,-103.515625
7755,-103.515625
7756,-103.515625
7757,-105.468750
7758,-105.468750
7759,-105.468750
7760,-105.468750
7761,-105.468750
7762,-105.468750
7763,-105.468750
7764,-105.468750
7765,-105.468750
7766,-105.468750
7767,-105.468750
7768,-105.468750
7769,-105.468750
7770,-103.515625
7771,-103.515625
7772,-103.515625
7773,-103.515625
7774,-103.515625
7775,-101.562500
7776,-101.562500
7777,-101.562500
7778,-99.609375
7779,-99.609375
7780,-97.656250
7781,-97.656250
7782,-95.703125
7783,-93.750000
7784,-93.750000
7785,-91.796875
7786,-91.796875
7787,-91.796875
7788,-89.843750
7789,-87.890625
7790,-85.937500
7791,-85.937500
7792,-83.984375
7793,-83.984375
7794,-82.031250
7795,-80.078125
7796,-78.125000
7797,-76.171875
7798,-76.171875
7799,-74.218750
7800,-72.265625
7801,-70.312500
7802,-68.359375
7803,-66.406250
7804,-64.453125
7805,-62.500000
7806,-60.546875
7807,-58.593750
7808,-56.640625
7809,-54.687500
7810,-54.687500
7811,-50.781250
7812,-50.781250
7813,-46.875000
7814,-44.921875
7815,-42.968750
7816,-41.015625
7817,-39.062500
7818,-37.109375
7819,-37.109375
7820,-33.203125
7821,-31.250000
7822,-29.296875
7823,-27.343750
7824,-25.390625
7825,-23.437500
7826,-21.484375
7827,-19.531250
7828,-15.625000
7829,-13.671875
7830,-11.718750
7831,-11.718750
7832,-7.812500
7833,-5.859375
7834,-3.906250
7835,-1.953125
7836,0.000000
7837,1.953125
7838,3.906250
7839,7.812500
7840,7.812500
7841,13.671875
7842,11.718750
7843,13.671875
7844,15.625000
7845,17.578125
7846,19.531250
7847,23.437500
7848,25.390625
7849,25.390625
7850,27.343750
7851,31.250000
7852,31.250000
7853,33.203125
7854,35.156250
7855,37.109375
7856,39.062500
7857,41.015625
7858,42.968750
7859,42.968750
7860,46.875000
7861,46.875000
7862,48.828125
7863,50.781250
7864,52.734375
7865,52.734375
7866,54.687500
7867,60.546875
7868,58.593750
7869,58.593750
7870,60.546875
7871,62.500000
7872,62.500000
7873,64.453125
7874,64.453125
7875,66.406250
7876,68.359375
7877,68.359375
7878,68.359375
7879,70.312500
7880,72.265625
7881,76.171875
7882,74.218750
7883,74.218750
7884,74.218750
7885,76.171875
7886,76.171875
7887,76.171875
7888,78.125000
7889,80.078125
7890,80.078125
7891,80.078125
7892,80.078125
7893,80.078125
7894,80.078125
7895,82.031250
7896,82.031250
7897,82.031250
7898,80.078125
7899,82.031250
7900,82.031250
7901,82.031250
7902,83.984375
7903,82.031250
7904,82.031250
7905,82.031250
7906,82.031250
7907,83.984375
7908,83.984375
7909,82.031250
7910,82.031250
7911,83.984375
7912,80.078125
7913,82.031250
7914,80.078125
7915,80.078125
7916,80.078125
7917,80.078125
7918,80.078125
7919,78.125000
7920,78.125000
7921,76.171875
7922,76.171875
7923,76.171875
7924,74.218750
7925,74.218750
7926,74.218750
7927,72.265625
7928,72.265625
7929,70.312500
7930,70.312500
7931,68.359375
7932,68.359375
7933,66.406250
7934,64.453125
7935,64.453125
7936,62.500000
7937,62.500000
7938,60.546875
7939,58.593750
7940,56.640625
7941,56.640625
7942,54.687500
7943,54.687500
7944,50.781250
7945,50.781250
7946,48.828125
7947,46.875000
7948,44.921875
7949,44.921875
7950,42.968750
7951,41.015625
7952,39.062500
7953,37.109375
7954,35.156250
7955,33.203125
7956,31.250000
7957,29.296875
7958,29.296875
7959,27.343750
7960,23.437500
7961,21.484375
7962,19.531250
7963,17.578125
7964,15.625000
7965,13.671875
7966,11.718750
7967,9.765625
7968,7.812500
7969,5.859375
7970,3.906250
7971,1.953125
7972,0.000000
7973,-1.953125
7974,-3.906250
7975,-5.859375
7976,-9.765625
7977,-11.718750
7978,-13.671875
7979,-15.625000
7980,-17.578125
7981,-19.531250
7982,-19.531250
7983,-23.437500
7984,-25.390625
7985,-27.343750
7986,-29.296875
7987,-31.250000
7988,-33.203125
7989,-35.156250
7990,-37.109375
7991,-41.015625
7992,-42.968750
7993,-44.921875
7994,-46.875000
7995,-48.828125
7996,-50.781250
7997,-52.734375
7998,-54.687500
7999,-54.687500
8000,-58.593750
8001,-58.593750
8002,-62.500000
8003,-64.453125
8004,-66.406250
8005,-66.406250
8006,-68.359375
8007,-70.312500
8008,-72.265625
8009,-74.218750
8010,-74.218750
8011,-78.125000
8012,-78.125000
8013,-80.078125
8014,-82.031250
8015,-83.984375
8016,-83.984375
8017,-85.937500
8018,-87.890625
8019,-87.890625
8020,-89.843750
8021,-91.796875
8022,-91.796875
8023,-93.750000
8024,-93.750000
8025,-95.703125
8026,-95.703125
8027,-97.656250
8028,-97.656250
8029,-99.609375
8030,-99.609375
8031,-101.562500
8032,-101.562500
8033,-103.515625
8034,-101.562500
8035,-103.515625
8036,-103.515625
8037,-103.515625
8038,-103.515625
8039,-105.468750
8040,-105.468750
8041,-105.468750
8042,-105.468750
8043,-105.468750
8044,-105.468750
8045,-105.468750
8046,-105.468750
8047,-105.468750
8048,-105.468750
8049,-105.468750
8050,-105.468750
8051,-103.515625
8052,-105.468750
8053,-103.515625
8054,-103.515625
8055,-103.515625
8056,-101.562500
8057,-101.562500
8058,-101.562500
8059,-101.562500
8060,-99.609375
8061,-99.609375
8062,-97.656250
8063,-95.703125
8064,-95.703125
8065,-95.703125
8066,-95.703125
8067,-93.750000
8068,-91.796875
8069,-91.796875
8070,-89.843750
8071,-87.890625
8072,-87.890625
8073,-85.937500
8074,-85.937500
8075,-83.984375
8076,-82.031250
8077,-80.078125
8078,-78.125000
8079,-78.125000
8080,-76.171875
8081,-74.218750
8082,-70.312500
8083,-70.312500
8084,-70.312500
8085,-66.406250
8086,-64.453125
8087,-64.453125
8088,-62.500000
8089,-60.546875
8090,-58.593750
8091,-54.687500
8092,-54.687500
8093,-52.734375
8094,-50.781250
8095,-48.828125
8096,-44.921875
8097,-44.921875
8098,-42.968750
8099,-41.015625
8100,-39.062500
8101,-33.203125
8102,-35.156250
8103,-33.203125
8104,-29.296875
8105,-29.296875
8106,-25.390625
8107,-23.437500
8108,-21.484375
8109,-19.531250
8110,-17.578125
8111,-15.625000
8112,-13.671875
8113,-11.718750
8114,-9.765625
8115,-5.859375
8116,-3.906250
8117,-1.953125
8118,0.000000
8119,1.953125
8120,3.906250
8121,5.859375
8122,7.812500
8123,9.765625
8124,11.718750
8125,13.671875
8126,15.625000
8127,17.578125
8128,19.531250
8129,21.484375
8130,23.437500
8131,25.390625
8132,27.343750
8133,29.296875
8134,31.250000
8135,33.203125
8136,35.156250
8137,37.109375
8138,39.062500
8139,41.015625
8140,41.015625
8141,42.968750
8142,44.921875
8143,46.875000
8144,48.828125
8145,48.828125
8146,50.781250
8147,52.734375
8148,54.687500
8149,54.687500
8150,56.640625
8151,58.593750
8152,60.546875
8153,60.546875
8154,62.500000
8155,64.453125
8156,64.453125
8157,66.406250
8158,66.406250
8159,68.359375
8160,70.312500
8161,70.312500
8162,70.312500
8163,72.265625
8164,74.218750
8165,74.218750
8166,74.218750
8167,76.171875
8168,76.171875
8169,76.171875
8170,78.125000
8171,78.125000
8172,78.125000
8173,80.078125
8174,80.078125
8175,80.078125
8176,80.078125
8177,82.031250
8178,82.031250
8179,82.031250
8180,82.031250
8181,82.031250
8182,83.984375
8183,83.984375
8184,82.031250
8185,83.984375
8186,83.984375
8187,83.984375
8188,83.984375
8189,82.031250
8190,83.984375
8191,83.984375
8192,82.031250
8193,82.031250
8194,82.031250
8195,82.031250
8196,82.031250
8197,80.078125
8198,80.078125
8199,80.078125
8200,80.078125
8201,80.078125
8202,78.125000
8203,78.125000
8204,76.171875
8205,76.171875
8206,76.171875
8207,74.218750
8208,74.218750
8209,74.218750
8210,72.265625
8211,70.312500
8212,70.312500
8213,68.359375
8214,68.359375
8215,66.406250
8216,64.453125
8217,64.453125
8218,62.500000
8219,62.500000
8220,60.546875
8221,58.593750
8222,58.593750
8223,56.640625
8224,56.640625
8225,54.687500
8226,52.734375
8227,50.781250
8228,48.828125
8229,48.828125
8230,46.875000
8231,44.921875
8232,42.968750
8233,41.015625
8234,39.062500
8235,37.109375
8236,35.156250
8237,35.156250
8238,31.250000
8239,31.250000
8240,29.296875
8241,27.343750
8242,25.390625
8243,23.437500
8244,19.531250
8245,19.531250
8246,17.578125
8247,15.625000
8248,7.812500
8249,11.718750
8250,9.765625
8251,7.812500
8252,3.906250
8253,1.953125
8254,0.000000
8255,-1.953125
8256,-3.906250
8257,-5.859375
8258,-7.812500
8259,-9.765625
8260,-11.718750
8261,-13.671875
8262,-15.625000
8263,-17.578125
8264,-19.531250
8265,-21.484375
8266,-25.390625
8267,-27.343750
8268,-29.296875
8269,-31.250000
8270,-33.203125
8271,-35.156250
8272,-37.109375
8273,-39.062500
8274,-41.015625
8275,-42.968750
8276,-44.921875
8277,-48.828125
8278,-50.781250
8279,-50.781250
8280,-52.734375
8281,-56.640625
8282,-58.593750
8283,-58.593750
8284,-60.546875
8285,-62.500000
8286,-64.453125
8287,-68.359375
8288,-68.359375
8289,-70.312500
8290,-72.265625
8291,-74.218750
8292,-76.171875
8293,-76.171875
8294,-78.125000
8295,-80.078125
8296,-82.031250
8297,-83.984375
8298,-83.984375
8299,-85.937500
8300,-87.890625
8301,-87.890625
8302,-89.843750
8303,-91.796875
8304,-93.750000
8305,-93.750000
8306,-93.750000
8307,-95.703125
8308,-97.656250
8309,-97.656250
8310,-97.656250
8311,-99.609375
8312,-99.609375
8313,-101.562500
8314,-101.562500
8315,-101.562500
8316,-101.562500
8317,-103.515625
8318,-103.515625
8319,-103.515625
8320,-103.515625
8321,-105.468750
8322,-105.468750
8323,-105.468750
8324,-105.468750
8325,-105.468750
8326,-105.468750
8327,-105.468750
8328,-105.468750
8329,-105.468750
8330,-105.468750
8331,-105.468750
8332,-105.468750
8333,-105.468750
8334,-103.515625
8335,-103.515625
8336,-103.515625
8337,-103.515625
8338,-101.562500
8339,-103.515625
8340,-101.562500
8341,-99.609375
8342,-99.609375
8343,-99.609375
8344,-99.609375
8345,-97.656250
8346,-95.703125
8347,-95.703125
8348,-95.703125
8349,-93.750000
8350,-91.796875
8351,-91.796875
8352,-89.843750
8353,-89.843750
8354,-87.890625
8355,-87.890625
8356,-85.937500
8357,-83.984375
8358,-82.031250
8359,-82.031250
8360,-80.078125
8361,-78.125000
8362,-76.171875
8363,-74.218750
8364,-74.218750
8365,-72.265625
8366,-70.312500
8367,-68.359375
8368,-66.406250
8369,-64.453125
8370,-62.500000
8371,-60.546875
8372,-60.546875
8373,-56.640625
8374,-54.687500
8375,-52.734375
8376,-50.781250
8377,-48.828125
8378,-46.875000
8379,-44.921875
8380,-42.968750
8381,-41.015625
8382,-39.062500
8383,-37.109375
8384,-35.156250
8385,-33.203125
8386,-31.250000
8387,-29.296875
8388,-25.390625
8389,-23.437500
8390,-23.437500
8391,-19.531250
8392,-17.578125
8393,-15.625000
8394,-13.671875
8395,-11.718750
8396,-9.765625
8397,-7.812500
8398,-3.906250
8399,-1.953125
8400,0.000000
8401,0.000000
8402,3.906250
8403,5.859375
8404,7.812500
8405,9.765625
8406,11.718750
8407,13.671875
8408,15.625000
8409,17.578125
8410,19.531250
8411,19.531250
8412,23.437500
8413,25.390625
8414,27.343750
8415,29.296875
8416,31.250000
8417,31.250000
8418,33.203125
8419,35.156250
8420,39.062500
8421,39.062500
8422,41.015625
8423,42.968750
8424,44.921875
8425,44.921875
8426,48.828125
8427,48.828125
8428,50.781250
8429,52.734375
8430,54.687500
8431,54.687500
8432,56.640625
8433,58.593750
8434,60.546875
8435,60.546875
8436,60.546875
8437,62.500000
8438,64.453125
8439,66.406250
8440,66.406250
8441,66.406250
8442,68.359375
8443,70.312500
8444,70.312500
8445,72.265625
8446,72.265625
8447,74.218750
8448,74.218750
8449,74.218750
8450,76.171875
8451,78.125000
8452,78.125000
8453,78.125000
8454,78.125000
8455,80.078125
8456,80.078125
8457,80.078125
8458,82.031250
8459,82.031250
8460,82.031250
8461,82.031250
8462,82.031250
8463,82.031250
8464,82.031250
8465,83.984375
8466,83.984375
8467,82.031250
8468,83.984375
8469,83.984375
8470,82.031250
8471,83.984375
8472,82.031250
8473,82.031250
8474,82.031250
8475,82.031250
8476,82.031250
8477,82.031250
8478,80.078125
8479,82.031250
8480,80.078125
8481,80.078125
8482,80.078125
8483,78.125000
8484,78.125000
8485,80.078125
8486,76.171875
8487,76.171875
8488,76.171875
8489,76.171875
8490,74.218750
8491,72.265625
8492,72.265625
8493,70.312500
8494,70.312500
8495,68.359375
8496,68.359375
8497,68.359375
8498,66.406250
8499,64.453125
8500,62.500000
8501,62.500000
8502,60.546875
8503,60.546875
8504,58.593750
8505,56.640625
8506,54.687500
8507,54.687500
8508,52.734375
8509,50.781250
8510,48.828125
8511,48.828125
8512,46.875000
8513,44.921875
8514,42.968750
8515,41.015625
8516,39.062500
8517,39.062500
8518,37.109375
8519,35.156250
8520,33.203125
8521,31.250000
8522,29.296875
8523,27.343750
8524,25.390625
8525,23.437500
8526,21.484375
8527,19.531250
8528,17.578125
8529,15.625000
8530,13.671875
8531,11.718750
8532,9.765625
8533,7.812500
8534,5.859375
8535,3.906250
8536,1.953125
8537,0.000000
8538,-3.906250
8539,-5.859375
8540,-7.812500
8541,-9.765625
8542,-11.718750
8543,-13.671875
8544,-15.625000
8545,-17.578125
8546,-19.531250
8547,-21.484375
8548,-23.437500
8549,-27.343750
8550,-29.296875
8551,-29.296875
8552,-33.203125
8553,-35.156250
8554,-37.109375
8555,-39.062500
8556,-41.015625
8557,-42.968750
8558,-44.921875
8559,-46.875000
8560,-48.828125
8561,-50.781250
8562,-52.734375
8563,-54.687500
8564,-56.640625
8565,-60.546875
8566,-60.546875
8567,-62.500000
8568,-64.453125
8569,-66.406250
8570,-68.359375
8571,-70.312500
8572,-72.265625
8573,-74.218750
8574,-74.218750
8575,-76.171875
8576,-78.125000
8577,-78.125000
8578,-80.078125
8579,-82.031250
8580,-83.984375
8581,-83.984375
8582,-85.937500
8583,-87.890625
8584,-89.843750
8585,-89.843750
8586,-91.796875
8587,-91.796875
8588,-93.750000
8589,-93.750000
8590,-95.703125
8591,-95.703125
8592,-97.656250
8593,-97.656250
8594,-99.609375
8595,-99.609375
8596,-101.562500
8597,-101.562500
8598,-101.562500
8599,-103.515625
8600,-103.515625
8601,-103.515625
8602,-103.515625
8603,-103.515625
8604,-105.468750
8605,-105.468750
8606,-105.468750
8607,-105.468750
8608,-105.468750
8609,-105.468750
8610,-105.468750
8611,-105.468750
8612,-105.468750
8613,-105.468750
8614,-103.515625
8615,-105.468750
8616,-105.468750
8617,-103.515625
8618,-103.515625
8619,-103.515625
8620,-103.515625
8621,-101.562500
8622,-101.562500
8623,-101.562500
8624,-99.609375
8625,-99.609375
8626,-99.609375
8627,-97.656250
8628,-97.656250
8629,-95.703125
8630,-95.703125
8631,-93.750000
8632,-91.796875
8633,-91.796875
8634,-91.796875
8635,-89.843750
8636,-87.890625
8637,-87.890625
8638,-85.937500
8639,-83.984375
8640,-82.031250
8641,-82.031250
8642,-80.078125
8643,-78.125000
8644,-76.171875
8645,-74.218750
8646,-74.218750
8647,-72.265625
8648,-70.312500
8649,-68.359375
8650,-68.359375
8651,-64.453125
8652,-62.500000
8653,-60.546875
8654,-58.593750
8655,-58.593750
8656,-54.687500
8657,-54.687500
8658,-50.781250
8659,-50.781250
8660,-46.875000
8661,-46.875000
8662,-42.968750
8663,-42.968750
8664,-39.062500
8665,-37.109375
8666,-37.109375
8667,-33.203125
8668,-31.250000
8669,-29.296875
8670,-27.343750
8671,-25.390625
8672,-23.437500
8673,-21.484375
8674,-19.531250
8675,-17.578125
8676,-13.671875
8677,-13.671875
8678,-9.765625
8679,-7.812500
8680,-5.859375
8681,-3.906250
8682,-1.953125
8683,0.000000
8684,1.953125
8685,3.906250
8686,5.859375
8687,7.812500
8688,9.765625
8689,11.718750
8690,13.671875
8691,15.625000
8692,19.531250
8693,19.531250
8694,21.484375
8695,25.390625
8696,25.390625
8697,27.343750
8698,29.296875
8699,31.250000
8700,33.203125
8701,35.156250
8702,37.109375
8703,39.062500
8704,41.015625
8705,41.015625
8706,44.921875
8707,46.875000
8708,46.875000
8709,48.828125
8710,50.781250
8711,52.734375
8712,52.734375
8713,54.687500
8714,56.640625
8715,56.640625
8716,58.593750
8717,60.546875
8718,62.500000
8719,62.500000
8720,64.453125
8721,66.406250
8722,66.406250
8723,68.359375
8724,68.359375
8725,70.312500
8726,70.312500
8727,72.265625
8728,72.265625
8729,72.265625
8730,74.218750
8731,74.218750
8732,76.171875
8733,76.171875
8734,78.125000
8735,78.125000
8736,78.125000
8737,78.125000
8738,80.078125
8739,80.078125
8740,80.078125
8741,82.031250
8742,82.031250
8743,82.031250
8744,82.031250
8745,82.031250
8746,82.031250
8747,82.031250
8748,82.031250
8749,82.031250
8750,83.984375
8751,82.031250
8752,82.031250
8753,83.984375
8754,82.031250
8755,82.031250
8756,82.031250
8757,82.031250
8758,82.031250
8759,82.031250
8760,82.031250
8761,80.078125
8762,82.031250
8763,80.078125
8764,80.078125
8765,80.078125
8766,80.078125
8767,78.125000
8768,78.125000
8769,76.171875
8770,76.171875
8771,76.171875
8772,74.218750
8773,74.218750
8774,72.265625
8775,72.265625
8776,70.312500
8777,70.312500
8778,70.312500
8779,68.359375
8780,66.406250
8781,66.406250
8782,64.453125
8783,62.500000
8784,62.500000
8785,60.546875
8786,58.593750
8787,56.640625
8788,56.640625
8789,54.687500
8790,52.734375
8791,50.781250
8792,50.781250
8793,48.828125
8794,46.875000
8795,44.921875
8796,44.921875
8797,42.968750
8798,41.015625
8799,39.062500
8800,37.109375
8801,35.156250
8802,33.203125
8803,31.250000
8804,29.296875
8805,27.343750
8806,25.390625
8807,25.390625
8808,21.484375
8809,19.531250
8810,19.531250
8811,17.578125
8812,13.671875
8813,11.718750
8814,9.765625
8815,7.812500
8816,5.859375
8817,3.906250
8818,1.953125
8819,0.000000
8820,-1.953125
8821,-3.906250
8822,-7.812500
8823,-9.765625
8824,-9.765625
8825,-11.718750
8826,-15.625000
8827,-17.578125
8828,-17.578125
8829,-21.484375
8830,-23.437500
8831,-27.343750
8832,-27.343750
8833,-29.296875
8834,-31.250000
8835,-33.203125
8836,-37.109375
8837,-37.109375
8838,-41.015625
8839,-42.968750
8840,-44.921875
8841,-46.875000
8842,-48.828125
8843,-50.781250
8844,-52.734375
8845,-54.687500
8846,-56.640625
8847,-58.593750
8848,-58.593750
8849,-60.546875
8850,-64.453125
8851,-66.406250
8852,-66.406250
8853,-68.359375
8854,-70.312500
8855,-72.265625
8856,-74.218750
8857,-76.171875
8858,-76.171875
8859,-80.078125
8860,-80.078125
8861,-82.031250
8862,-83.984375
8863,-83.984375
8864,-85.937500
8865,-87.890625
8866,-87.890625
8867,-89.843750
8868,-91.796875
8869,-91.796875
8870,-93.750000
8871,-95.703125
8872,-95.703125
8873,-95.703125
8874,-95.703125
8875,-97.656250
8876,-99.609375
8877,-99.609375
8878,-101.562500
8879,-101.562500
8880,-101.562500
8881,-103.515625
8882,-103.515625
8883,-103.515625
8884,-103.515625
8885,-103.515625
8886,-105.468750
8887,-105.468750
8888,-105.468750
8889,-105.468750
8890,-105.468750
8891,-105.468750
8892,-105.468750
8893,-105.468750
8894,-105.468750
8895,-105.468750
8896,-105.468750
8897,-105.468750
8898,-105.468750
8899,-103.515625
8900,-103.515625
8901,-103.515625
8902,-103.515625
8903,-103.515625
8904,-101.562500
8905,-101.562500
8906,-101.562500
8907,-99.609375
8908,-99.609375
8909,-97.656250
8910,-97.656250
8911,-95.703125
8912,-95.703125
8913,-93.750000
8914,-93.750000
8915,-91.796875
8916,-91.796875
8917,-89.843750
8918,-87.890625
8919,-87.890625
8920,-85.937500
8921,-83.984375
8922,-83.984375
8923,-82.031250
8924,-80.078125
8925,-78.125000
8926,-76.171875
8927,-76.171875
8928,-74.218750
8929,-72.265625
8930,-70.312500
8931,-68.359375
8932,-68.359375
8933,-66.406250
8934,-64.453125
8935,-60.546875
8936,-60.546875
8937,-58.593750
8938,-56.640625
8939,-54.687500
8940,-52.734375
8941,-50.781250
8942,-48.828125
8943,-46.875000
8944,-44.921875
8945,-42.968750
8946,-41.015625
8947,-39.062500
8948,-37.109375
8949,-35.156250
8950,-31.250000
8951,-29.296875
8952,-29.296875
8953,-25.390625
8954,-23.437500
8955,-21.484375
8956,-19.531250
8957,-17.578125
8958,-15.625000
8959,-13.671875
8960,-11.718750
8961,-9.765625
8962,-7.812500
8963,-5.859375
8964,-1.953125
8965,0.000000
8966,1.953125
8967,3.906250
8968,5.859375
8969,7.812500
8970,9.765625
8971,11.718750
8972,13.671875
8973,15.625000
8974,17.578125
8975,19.531250
8976,21.484375
8977,23.437500
8978,25.390625
8979,27.343750
8980,29.296875
8981,31.250000
8982,33.203125
8983,35.156250
8984,37.109375
8985,39.062500
8986,41.015625
8987,42.968750
8988,42.968750
8989,44.921875
8990,46.875000
8991,46.875000
8992,48.828125
8993,52.734375
8994,52.734375
8995,54.687500
8996,54.687500
8997,56.640625
8998,58.593750
8999,58.593750
9000,60.546875
9001,62.500000
9002,64.453125
9003,64.453125
9004,66.406250
9005,66.406250
9006,68.359375
9007,68.359375
9008,70.312500
9009,72.265625
9010,72.265625
9011,72.265625
9012,74.218750
9013,76.171875
9014,76.171875
9015,76.171875
9016,76.171875
9017,78.125000
9018,78.125000
9019,78.125000
9020,80.078125
9021,80.078125
9022,80.078125
9023,82.031250
9024,80.078125
9025,82.031250
9026,82.031250
9027,82.031250
9028,82.031250
9029,82.031250
9030,82.031250
9031,82.031250
9032,83.984375
9033,83.984375
9034,82.031250
9035,82.031250
9036,83.984375
9037,82.031250
9038,82.031250
9039,82.031250
9040,82.031250
9041,82.031250
9042,82.031250
9043,82.031250
9044,82.031250
9045,80.078125
9046,80.078125
9047,80.078125
9048,80.078125
9049,78.125000
9050,78.125000
9051,76.171875
9052,76.171875
9053,76.171875
9054,74.218750
9055,74.218750
9056,74.218750
9057,72.265625
9058,70.312500
9059,70.312500
9060,68.359375
9061,68.359375
9062,66.406250
9063,64.453125
9064,64.453125
9065,64.453125
9066,62.500000
9067,60.546875
9068,60.546875
9069,58.593750
9070,56.640625
9071,54.687500
9072,54.687500
9073,52.734375
9074,50.781250
9075,48.828125
9076,48.828125
9077,44.921875
9078,44.921875
9079,42.968750
9080,41.015625
9081,39.062500
9082,37.109375
9083,35.156250
9084,35.156250
9085,33.203125
9086,29.296875
9087,29.296875
9088,27.343750
9089,25.390625
9090,23.437500
9091,21.484375
9092,19.531250
9093,17.578125
9094,15.625000
9095,11.718750
9096,11.718750
9097,9.765625
9098,7.812500
9099,3.906250
9100,3.906250
9101,1.953125
9102,-1.953125
9103,-3.906250
9104,-5.859375
9105,-7.812500
9106,-9.765625
9107,-11.718750
9108,-13.671875
9109,-15.625000
9110,-17.578125
9111,-19.531250
9112,-23.437500
9113,-23.437500
9114,-27.343750
9115,-29.296875
9116,-31.250000
9117,-33.203125
9118,-35.156250
9119,-37.109375
9120,-39.062500
9121,-41.015625
9122,-42.968750
9123,-44.921875
9124,-48.828125
9125,-48.828125
9126,-50.781250
9127,-52.734375
9128,-56.640625
9129,-56.640625
9130,-58.593750
9131,-60.546875
9132,-62.500000
9133,-66.406250
9134,-66.406250
9135,-68.359375
9136,-70.312500
9137,-72.265625
9138,-74.218750
9139,-74.218750
9140,-76.171875
9141,-78.125000
9142,-80.078125
9143,-82.031250
9144,-83.984375
9145,-83.984375
9146,-85.937500
9147,-87.890625
9148,-89.843750
9149,-89.843750
9150,-89.843750
9151,-91.796875
9152,-93.750000
9153,-93.750000
9154,-95.703125
9155,-97.656250
9156,-97.656250
9157,-97.656250
9158,-97.656250
9159,-99.609375
9160,-99.609375
9161,-101.562500
9162,-101.562500
9163,-101.562500
9164,-103.515625
9165,-103.515625
9166,-103.515625
9167,-103.515625
9168,-103.515625
9169,-103.515625
9170,-105.468750
9171,-105.468750
9172,-105.468750
9173,-105.468750
9174,-105.468750
9175,-105.468750
9176,-105.468750
9177,-105.468750
9178,-103.515625
9179,-105.468750
9180,-105.468750
9181,-105.468750
9182,-103.515625
9183,-103.515625
9184,-103.515625
9185,-103.515625
9186,-101.562500
9187,-101.562500
9188,-101.562500
9189,-99.609375
9190,-99.609375
9191,-97.656250
9192,-97.656250
9193,-97.656250
9194,-95.703125
9195,-95.703125
9196,-93.750000
9197,-93.750000
9198,-91.796875
9199,-89.843750
9200,-89.843750
9201,-87.890625
9202,-87.890625
9203,-85.937500
9204,-83.984375
9205,-82.031250
9206,-82.031250
9207,-80.078125
9208,-78.125000
9209,-76.171875
9210,-74.218750
9211,-74.218750
9212,-72.265625
9213,-70.312500
9214,-68.359375
9215,-66.406250
9216,-64.453125
9217,-62.500000
9218,-60.546875
9219,-58.593750
9220,-58.593750
9221,-54.687500
9222,-52.734375
9223,-50.781250
9224,-48.828125
9225,-46.875000
9226,-44.921875
9227,-42.968750
9228,-41.015625
9229,-39.062500
9230,-37.109375
9231,-35.156250
9232,-33.203125
9233,-31.250000
9234,-27.343750
9235,-27.343750
9236,-23.437500
9237,-21.484375
9238,-19.531250
9239,-17.578125
9240,-15.625000
9241,-13.671875
9242,-11.718750
9243,-9.765625
9244,-7.812500
9245,-5.859375
9246,-3.906250
9247,-1.953125
9248,0.000000
9249,3.906250
9250,5.859375
9251,7.812500
9252,9.765625
9253,11.718750
9254,13.671875
9255,15.625000
9256,17.578125
9257,19.531250
9258,21.484375
9259,23.437500
9260,23.437500
9261,27.343750
9262,29.296875
9263,31.250000
9264,31.250000
9265,35.156250
9266,35.156250
9267,37.109375
9268,39.062500
9269,41.015625
9270,42.968750
9271,44.921875
9272,46.875000
9273,46.875000
9274,48.828125
9275,50.781250
9276,52.734375
9277,54.687500
9278,56.640625
9279,56.640625
9280,58.593750
9281,60.546875
9282,60.546875
9283,62.500000
9284,62.500000
9285,64.453125
9286,66.406250
9287,68.359375
9288,68.359375
9289,68.359375
9290,70.312500
9291,70.312500
9292,72.265625
9293,72.265625
9294,74.218750
9295,74.218750
9296,76.171875
9297,76.171875
9298,76.171875
9299,78.125000
9300,78.125000
9301,78.125000
9302,80.078125
9303,80.078125
9304,80.078125
9305,82.031250
9306,82.031250
9307,82.031250
9308,82.031250
9309,82.031250
9310,82.031250
9311,83.984375
9312,82.031250
9313,83.984375
9314,83.984375
9315,83.984375
9316,82.031250
9317,82.031250
9318,82.031250
9319,82.031250
9320,83.984375
9321,83.984375
9322,82.031250
9323,82.031250
9324,82.031250
9325,82.031250
9326,80.078125
9327,80.078125
9328,80.078125
9329,80.078125
9330,80.078125
9331,78.125000
9332,78.125000
9333,76.171875
9334,76.171875
9335,76.171875
9336,74.218750
9337,74.218750
9338,72.265625
9339,72.265625
9340,70.312500
9341,70.312500
9342,70.312500
9343,68.359375
9344,68.359375
9345,66.406250
9346,64.453125
9347,64.453125
9348,62.500000
9349,62.500000
9350,60.546875
9351,58.593750
9352,56.640625
9353,56.640625
9354,54.687500
9355,52.734375
9356,52.734375
9357,50.781250
9358,48.828125
9359,46.875000
9360,44.921875
9361,44.921875
9362,42.968750
9363,41.015625
9364,37.109375
9365,37.109375
9366,35.156250
9367,33.203125
9368,31.250000
9369,29.296875
9370,27.343750
9371,25.390625
9372,23.437500
9373,21.484375
9374,19.531250
9375,17.578125
9376,17.578125
9377,13.671875
9378,11.718750
9379,9.765625
9380,7.812500
9381,5.859375
9382,3.906250
9383,1.953125
9384,0.000000
9385,-1.953125
9386,-5.859375
9387,-7.812500
9388,-9.765625
9389,-11.718750
9390,-13.671875
9391,-15.625000
9392,-17.578125
9393,-19.531250
9394,-23.437500
9395,-25.390625
9396,-25.390625
9397,-27.343750
9398,-31.250000
9399,-33.203125
9400,-35.156250
9401,-37.109375
9402,-39.062500
9403,-41.015625
9404,-42.968750
9405,-44.921875
9406,-46.875000
9407,-48.828125
9408,-50.781250
9409,-52.734375
9410,-54.687500
9411,-56.640625
9412,-58.593750
9413,-60.546875
9414,-64.453125
9415,-64.453125
9416,-66.406250
9417,-66.406250
9418,-70.312500
9419,-72.265625
9420,-72.265625
9421,-74.218750
9422,-76.171875
9423,-78.125000
9424,-80.078125
9425,-80.078125
9426,-82.031250
9427,-82.031250
9428,-85.937500
9429,-85.937500
9430,-87.890625
9431,-87.890625
9432,-89.843750
9433,-91.796875
9434,-93.750000
9435,-93.750000
9436,-93.750000
9437,-95.703125
9438,-95.703125
9439,-97.656250
9440,-97.656250
9441,-99.609375
9442,-99.609375
9443,-101.562500
9444,-103.515625
9445,-101.562500
9446,-101.562500
9447,-103.515625
9448,-103.515625
9449,-105.468750
9450,-105.468750
9451,-105.468750
9452,-105.468750
9453,-107.421875
9454,-105.468750
9455,-105.468750
9456,-105.468750
9457,-105.468750
9458,-105.468750
9459,-105.468750
9460,-105.468750
9461,-105.468750
9462,-105.468750
9463,-105.468750
9464,-103.515625
9465,-105.468750
9466,-103.515625
9467,-103.515625
9468,-101.562500
9469,-101.562500
9470,-101.562500
9471,-101.562500
9472,-99.609375
9473,-97.656250
9474,-97.656250
9475,-97.656250
9476,-95.703125
9477,-95.703125
9478,-93.750000
9479,-93.750000
9480,-91.796875
9481,-89.843750
9482,-89.843750
9483,-87.890625
9484,-87.890625
9485,-85.937500
9486,-83.984375
9487,-82.031250
9488,-80.078125
9489,-80.078125
9490,-78.125000
9491,-76.171875
9492,-76.171875
9493,-72.265625
9494,-72.265625
9495,-70.312500
9496,-68.359375
9497,-66.406250
9498,-64.453125
9499,-62.500000
9500,-62.500000
9501,-58.593750
9502,-56.640625
9503,-56.640625
9504,-54.687500
9505,-52.734375
9506,-50.781250
9507,-48.828125
9508,-46.875000
9509,-42.968750
9510,-41.015625
9511,-39.062500
9512,-37.109375
9513,-35.156250
9514,-33.203125
9515,-31.250000
9516,-29.296875
9517,-27.343750
9518,-25.390625
9519,-23.437500
9520,-21.484375
9521,-19.531250
9522,-15.625000
9523,-13.671875
9524,-13.671875
9525,-9.765625
9526,-7.812500
9527,-5.859375
9528,-3.906250
9529,-1.953125
9530,0.000000
9531,1.953125
9532,3.906250
9533,5.859375
9534,7.812500
9535,9.765625
9536,11.718750
9537,15.625000
9538,17.578125
9539,19.531250
9540,21.484375
9541,23.437500
9542,25.390625
9543,25.390625
9544,27.343750
9545,29.296875
9546,33.203125
9547,33.203125
9548,35.156250
9549,37.109375
9550,39.062500
9551,41.015625
9552,42.968750
9553,44.921875
9554,44.921875
9555,46.875000
9556,48.828125
9557,50.781250
9558,52.734375
9559,54.687500
9560,54.687500
9561,56.640625
9562,58.593750
9563,58.593750
9564,60.546875
9565,62.500000
9566,62.500000
9567,64.453125
9568,66.406250
9569,68.359375
9570,68.359375
9571,68.359375
9572,70.312500
9573,70.312500
9574,72.265625
9575,72.265625
9576,74.218750
9577,74.218750
9578,74.218750
9579,76.171875
9580,76.171875
9581,78.125000
9582,78.125000
9583,78.125000
9584,78.125000
9585,80.078125
9586,80.078125
9587,80.078125
9588,82.031250
9589,80.078125
9590,82.031250
9591,82.031250
9592,82.031250
9593,82.031250
9594,82.031250
9595,82.031250
9596,83.984375
9597,82.031250
9598,82.031250
9599,83.984375
9600,83.984375
9601,82.031250
9602,82.031250
9603,82.031250
9604,82.031250
9605,82.031250
9606,82.031250
9607,80.078125
9608,82.031250
9609,80.078125
9610,80.078125
9611,80.078125
9612,80.078125
9613,78.125000
9614,78.125000
9615,78.125000
9616,76.171875
9617,76.171875
9618,76.171875
9619,74.218750
9620,74.218750
9621,72.265625
9622,72.265625
9623,72.265625
9624,70.312500
9625,68.359375
9626,68.359375
9627,66.406250
9628,66.406250
9629,64.453125
9630,62.500000
9631,62.500000
9632,60.546875
9633,60.546875
9634,58.593750
9635,56.640625
9636,54.687500
9637,52.734375
9638,50.781250
9639,50.781250
9640,48.828125
9641,46.875000
9642,44.921875
9643,44.921875
9644,42.968750
9645,41.015625
9646,39.062500
9647,37.109375
9648,35.156250
9649,33.203125
9650,31.250000
9651,29.296875
9652,29.296875
9653,25.390625
9654,23.437500
9655,23.437500
9656,21.484375
9657,17.578125
9658,15.625000
9659,15.625000
9660,11.718750
9661,9.765625
9662,7.812500
9663,5.859375
9664,3.906250
9665,1.953125
9666,0.000000
9667,-1.953125
9668,-3.906250
9669,-5.859375
9670,-7.812500
9671,-11.718750
9672,-13.671875
9673,-15.625000
9674,-15.625000
9675,-19.531250
9676,-21.484375
9677,-23.437500
9678,-25.390625
9679,-27.343750
9680,-29.296875
9681,-31.250000
9682,-33.203125
9683,-35.156250
9684,-39.062500
9685,-39.062500
9686,-41.015625
9687,-44.921875
9688,-46.875000
9689,-48.828125
9690,-50.781250
9691,-52.734375
9692,-52.734375
9693,-54.687500
9694,-58.593750
9695,-60.546875
9696,-60.546875
9697,-64.453125
9698,-66.406250
9699,-66.406250
9700,-68.359375
9701,-70.312500
9702,-72.265625
9703,-74.218750
9704,-76.171875
9705,-78.125000
9706,-78.125000
9707,-80.078125
9708,-82.031250
9709,-83.984375
9710,-83.984375
9711,-85.937500
9712,-87.890625
9713,-89.843750
9714,-89.843750
9715,-91.796875
9716,-93.750000
9717,-93.750000
9718,-93.750000
9719,-95.703125
9720,-97.656250
9721,-97.656250
9722,-99.609375
9723,-99.609375
9724,-99.609375
9725,-99.609375
9726,-101.562500
9727,-101.562500
9728,-101.562500
9729,-103.515625
9730,-103.515625
9731,-103.515625
9732,-103.515625
9733,-105.468750
9734,-105.468750
9735,-105.468750
9736,-105.468750
9737,-105.468750
9738,-105.468750
9739,-105.468750
9740,-105.468750
9741,-105.468750
9742,-105.468750
9743,-105.468750
9744,-103.515625
9745,-103.515625
9746,-103.515625
9747,-103.515625
9748,-103.515625
9749,-101.562500
9750,-101.562500
9751,-101.562500
9752,-101.562500
9753,-99.609375
9754,-99.609375
9755,-97.656250
9756,-97.656250
9757,-97.656250
9758,-95.703125
9759,-95.703125
9760,-93.750000
9761,-93.750000
9762,-91.796875
9763,-89.843750
9764,-89.843750
9765,-89.843750
9766,-85.937500
9767,-85.937500
9768,-85.937500
9769,-83.984375
9770,-82.031250
9771,-80.078125
9772,-80.078125
9773,-76.171875
9774,-76.171875
9775,-74.218750
9776,-72.265625
9777,-70.312500
9778,-68.359375
9779,-68.359375
9780,-64.453125
9781,-62.500000
9782,-60.546875
9783,-60.546875
9784,-58.593750
9785,-56.640625
9786,-54.687500
9787,-52.734375
9788,-50.781250
9789,-48.828125
9790,-44.921875
9791,-44.921875
9792,-42.968750
9793,-41.015625
9794,-39.062500
9795,-35.156250
9796,-33.203125
9797,-33.203125
9798,-29.296875
9799,-29.296875
9800,-25.390625
9801,-23.437500
9802,-21.484375
9803,-19.531250
9804,-17.578125
9805,-15.625000
9806,-13.671875
9807,-11.718750
9808,-7.812500
9809,-5.859375
9810,-3.906250
9811,-1.953125
9812,0.000000
9813,1.953125
9814,3.906250
9815,5.859375
9816,7.812500
9817,9.765625
9818,11.718750
9819,13.671875
9820,15.625000
9821,17.578125
9822,19.531250
9823,21.484375
9824,23.437500
9825,25.390625
9826,27.343750
9827,29.296875
9828,31.250000
9829,33.203125
9830,35.156250
9831,37.109375
9832,39.062500
9833,39.062500
9834,41.015625
9835,42.968750
9836,44.921875
9837,46.875000
9838,48.828125
9839,48.828125
9840,50.781250
9841,52.734375
9842,54.687500
9843,54.687500
9844,56.640625
9845,58.593750
9846,60.546875
9847,60.546875
9848,62.500000
9849,64.453125
9850,64.453125
9851,66.406250
9852,66.406250
9853,68.359375
9854,68.359375
9855,70.312500
9856,72.265625
9857,72.265625
9858,74.218750
9859,74.218750
9860,74.218750
9861,76.171875
9862,76.171875
9863,76.171875
9864,78.125000
9865,78.125000
9866,78.125000
9867,80.078125
9868,80.078125
9869,80.078125
9870,80.078125
9871,82.031250
9872,82.031250
9873,82.031250
9874,82.031250
9875,82.031250
9876,82.031250
9877,82.031250
9878,83.984375
9879,83.984375
9880,82.031250
9881,83.984375
9882,83.984375
9883,82.031250
9884,82.031250
9885,82.031250
9886,82.031250
9887,82.031250
9888,82.031250
9889,82.031250
9890,82.031250
9891,82.031250
9892,80.078125
9893,80.078125
9894,78.125000
9895,78.125000
9896,78.125000
9897,78.125000
9898,76.171875
9899,76.171875
9900,76.171875
9901,74.218750
9902,74.218750
9903,72.265625
9904,72.265625
9905,70.312500
9906,70.312500
9907,70.312500
9908,68.359375
9909,66.406250
9910,66.406250
9911,64.453125
9912,64.453125
9913,62.500000
9914,60.546875
9915,58.593750
9916,58.593750
9917,56.640625
9918,54.687500
9919,54.687500
9920,52.734375
9921,50.781250
9922,50.781250
9923,48.828125
9924,46.875000
9925,44.921875
9926,42.968750
9927,41.015625
9928,39.062500
9929,39.062500
9930,37.109375
9931,35.156250
9932,33.203125
9933,31.250000
9934,29.296875
9935,27.343750
9936,25.390625
9937,23.437500
9938,21.484375
9939,19.531250
9940,17.578125
9941,15.625000
9942,13.671875
9943,11.718750
9944,9.765625
9945,7.812500
9946,5.859375
9947,3.906250
9948,1.953125
9949,-1.953125
9950,-3.906250
9951,-5.859375
9952,-7.812500
9953,-9.765625
9954,-11.718750
9955,-13.671875
9956,-15.625000
9957,-17.578125
9958,-21.484375
9959,-23.437500
9960,-25.390625
9961,-27.343750
9962,-29.296875
9963,-31.250000
9964,-33.203125
9965,-35.156250
9966,-37.109375
9967,-39.062500
9968,-41.015625
9969,-42.968750
9970,-44.921875
9971,-48.828125
9972,-50.781250
9973,-50.781250
9974,-52.734375
9975,-54.687500
9976,-58.593750
9977,-58.593750
9978,-60.546875
9979,-62.500000
9980,-64.453125
9981,-66.406250
9982,-68.359375
9983,-70.312500
9984,-72.265625
9985,-72.265625
9986,-74.218750
9987,-76.171875
9988,-78.125000
9989,-80.078125
9990,-82.031250
9991,-82.031250
9992,-83.984375
9993,-85.937500
9994,-85.937500
9995,-87.890625
9996,-89.843750
9997,-89.843750
9998,-91.796875
9999,-93.750000
10000,-93.750000
