Channel              :,CH1
Frequency            :,1.771kHz
Period               :,0.565ms
PK-PK                :,253.9mV
Probe attenuation    :,1X
Voltage per ADC value:,0.122070mV
Time interval        :,2.00000us

index,CH1_Voltage(mV)
1,111.328125
2,111.328125
3,111.328125
4,111.328125
5,111.328125
6,111.328125
7,111.328125
8,111.328125
9,109.375000
10,109.375000
11,109.375000
12,109.375000
13,107.421875
14,107.421875
15,105.468750
16,105.468750
17,105.468750
18,103.515625
19,101.562500
20,101.562500
21,99.609375
22,99.609375
23,99.609375
24,97.656250
25,95.703125
26,93.750000
27,91.796875
28,91.796875
29,89.843750
30,87.890625
31,87.890625
32,85.937500
33,83.984375
34,82.031250
35,80.078125
36,78.125000
37,76.171875
38,74.218750
39,72.265625
40,70.312500
41,68.359375
42,66.406250
43,64.453125
44,62.500000
45,60.546875
46,58.593750
47,56.640625
48,54.687500
49,50.781250
50,48.828125
51,46.875000
52,44.921875
53,41.015625
54,39.062500
55,37.109375
56,35.156250
57,31.250000
58,29.296875
59,27.343750
60,23.437500
61,21.484375
62,19.531250
63,15.625000
64,13.671875
65,9.765625
66,7.812500
67,3.906250
68,1.953125
69,-1.953125
70,-3.906250
71,-5.859375
72,-9.765625
73,-11.718750
74,-13.671875
75,-17.578125
76,-21.484375
77,-23.437500
78,-27.343750
79,-29.296875
80,-33.203125
81,-35.156250
82,-37.109375
83,-41.015625
84,-42.968750
85,-46.875000
86,-48.828125
87,-52.734375
88,-54.687500
89,-58.593750
90,-60.546875
91,-62.500000
92,-66.406250
93,-68.359375
94,-70.312500
95,-74.218750
96,-76.171875
97,-78.125000
98,-82.031250
99,-83.984375
100,-85.937500
101,-87.890625
102,-89.843750
103,-93.750000
104,-95.703125
105,-97.656250
106,-99.609375
107,-101.562500
108,-103.515625
109,-105.468750
110,-107.421875
111,-109.375000
112,-111.328125
113,-113.281250
114,-115.234375
115,-117.187500
116,-119.140625
117,-119.140625
118,-121.093750
119,-123.046875
120,-123.046875
121,-125.000000
122,-126.953125
123,-126.953125
124,-128.906250
125,-128.906250
126,-130.859375
127,-132.812500
128,-132.812500
129,-132.812500
130,-134.765625
131,-134.765625
132,-136.718750
133,-136.718750
134,-136.718750
135,-136.718750
136,-136.718750
137,-136.718750
138,-138.671875
139,-138.671875
140,-136.718750
141,-136.718750
142,-136.718750
143,-136.718750
144,-136.718750
145,-136.718750
146,-136.718750
147,-136.718750
148,-136.718750
149,-134.765625
150,-134.765625
151,-132.812500
152,-132.812500
153,-132.812500
154,-130.859375
155,-130.859375
156,-128.906250
157,-126.953125
158,-126.953125
159,-125.000000
160,-125.000000
161,-123.046875
162,-121.093750
163,-119.140625
164,-119.140625
165,-117.187500
166,-115.234375
167,-113.281250
168,-111.328125
169,-109.375000
170,-107.421875
171,-105.468750
172,-103.515625
173,-101.562500
174,-99.609375
175,-97.656250
176,-95.703125
177,-93.750000
178,-91.796875
179,-87.890625
180,-85.937500
181,-83.984375
182,-82.031250
183,-80.078125
184,-76.171875
185,-74.218750
186,-70.312500
187,-68.359375
188,-66.406250
189,-64.453125
190,-60.546875
191,-58.593750
192,-54.687500
193,-52.734375
194,-50.781250
195,-46.875000
196,-44.921875
197,-41.015625
198,-39.062500
199,-37.109375
200,-33.203125
201,-29.296875
202,-27.343750
203,-25.390625
204,-21.484375
205,-19.531250
206,-15.625000
207,-13.671875
208,-9.765625
209,-7.812500
210,-5.859375
211,-1.953125
212,0.000000
213,3.906250
214,5.859375
215,7.812500
216,11.718750
217,15.625000
218,17.578125
219,19.531250
220,21.484375
221,25.390625
222,27.343750
223,31.250000
224,33.203125
225,35.156250
226,37.109375
227,41.015625
228,41.015625
229,44.921875
230,46.875000
231,50.781250
232,52.734375
233,56.640625
234,56.640625
235,58.593750
236,60.546875
237,64.453125
238,66.406250
239,66.406250
240,70.312500
241,72.265625
242,74.218750
243,76.171875
244,78.125000
245,78.125000
246,82.031250
247,82.031250
248,83.984375
249,85.937500
250,87.890625
251,89.843750
252,89.843750
253,91.796875
254,93.750000
255,93.750000
256,95.703125
257,97.656250
258,99.609375
259,99.609375
260,99.609375
261,101.562500
262,103.515625
263,103.515625
264,105.468750
265,105.468750
266,105.468750
267,107.421875
268,107.421875
269,107.421875
270,109.375000
271,109.375000
272,109.375000
273,111.328125
274,111.328125
275,111.328125
276,111.328125
277,113.281250
278,111.328125
279,111.328125
280,113.281250
281,111.328125
282,111.328125
283,111.328125
284,111.328125
285,109.375000
286,111.328125
287,111.328125
288,111.328125
289,111.328125
290,109.375000
291,109.375000
292,109.375000
293,107.421875
294,107.421875
295,107.421875
296,107.421875
297,105.468750
298,105.468750
299,103.515625
300,103.515625
301,103.515625
302,101.562500
303,99.609375
304,99.609375
305,97.656250
306,97.656250
307,95.703125
308,93.750000
309,93.750000
310,91.796875
311,89.843750
312,89.843750
313,87.890625
314,85.937500
315,83.984375
316,82.031250
317,82.031250
318,80.078125
319,76.171875
320,74.218750
321,74.218750
322,72.265625
323,70.312500
324,66.406250
325,64.453125
326,62.500000
327,60.546875
328,58.593750
329,56.640625
330,54.687500
331,52.734375
332,48.828125
333,46.875000
334,44.921875
335,42.968750
336,39.062500
337,37.109375
338,35.156250
339,31.250000
340,29.296875
341,27.343750
342,25.390625
343,21.484375
344,17.578125
345,15.625000
346,13.671875
347,9.765625
348,7.812500
349,3.906250
350,1.953125
351,0.000000
352,-3.906250
353,-5.859375
354,-9.765625
355,-11.718750
356,-13.671875
357,-17.578125
358,-21.484375
359,-23.437500
360,-27.343750
361,-29.296875
362,-31.250000
363,-35.156250
364,-37.109375
365,-41.015625
366,-42.968750
367,-46.875000
368,-48.828125
369,-50.781250
370,-54.687500
371,-56.640625
372,-60.546875
373,-62.500000
374,-64.453125
375,-68.359375
376,-70.312500
377,-72.265625
378,-74.218750
379,-78.125000
380,-80.078125
381,-82.031250
382,-85.937500
383,-87.890625
384,-89.843750
385,-91.796875
386,-93.750000
387,-97.656250
388,-99.609375
389,-101.562500
390,-103.515625
391,-105.468750
392,-105.468750
393,-109.375000
394,-111.328125
395,-113.281250
396,-115.234375
397,-115.234375
398,-117.187500
399,-119.140625
400,-121.093750
401,-123.046875
402,-123.046875
403,-125.000000
404,-126.953125
405,-128.906250
406,-128.906250
407,-128.906250
408,-130.859375
409,-132.812500
410,-132.812500
411,-134.765625
412,-134.765625
413,-134.765625
414,-136.718750
415,-136.718750
416,-136.718750
417,-136.718750
418,-136.718750
419,-136.718750
420,-138.671875
421,-138.671875
422,-136.718750
423,-138.671875
424,-138.671875
425,-138.671875
426,-136.718750
427,-136.718750
428,-136.718750
429,-136.718750
430,-136.718750
431,-134.765625
432,-134.765625
433,-134.765625
434,-132.812500
435,-132.812500
436,-130.859375
437,-130.859375
438,-128.906250
439,-128.906250
440,-126.953125
441,-125.000000
442,-125.000000
443,-123.046875
444,-121.093750
445,-121.093750
446,-121.093750
447,-117.187500
448,-115.234375
449,-113.281250
450,-113.281250
451,-109.375000
452,-107.421875
453,-105.468750
454,-105.468750
455,-101.562500
456,-99.609375
457,-97.656250
458,-95.703125
459,-93.750000
460,-91.796875
461,-89.843750
462,-85.937500
463,-85.937500
464,-82.031250
465,-80.078125
466,-78.125000
467,-74.218750
468,-72.265625
469,-70.312500
470,-66.406250
471,-64.453125
472,-62.500000
473,-58.593750
474,-56.640625
475,-54.687500
476,-50.781250
477,-48.828125
478,-44.921875
479,-42.968750
480,-41.015625
481,-37.109375
482,-35.156250
483,-31.250000
484,-29.296875
485,-25.390625
486,-23.437500
487,-19.531250
488,-17.578125
489,-15.625000
490,-11.718750
491,-7.812500
492,-5.859375
493,-3.906250
494,0.000000
495,1.953125
496,5.859375
497,7.812500
498,11.718750
499,13.671875
500,17.578125
501,19.531250
502,21.484375
503,23.437500
504,27.343750
505,29.296875
506,33.203125
507,33.203125
508,37.109375
509,39.062500
510,42.968750
511,44.921875
512,46.875000
513,50.781250
514,52.734375
515,54.687500
516,56.640625
517,58.593750
518,60.546875
519,62.500000
520,64.453125
521,68.359375
522,68.359375
523,72.265625
524,72.265625
525,74.218750
526,76.171875
527,80.078125
528,80.078125
529,82.031250
530,83.984375
531,83.984375
532,87.890625
533,87.890625
534,89.843750
535,89.843750
536,93.750000
537,93.750000
538,95.703125
539,97.656250
540,97.656250
541,99.609375
542,99.609375
543,101.562500
544,101.562500
545,103.515625
546,103.515625
547,105.468750
548,105.468750
549,105.468750
550,107.421875
551,109.375000
552,109.375000
553,109.375000
554,109.375000
555,111.328125
556,111.328125
557,111.328125
558,111.328125
559,111.328125
560,111.328125
561,113.281250
562,111.328125
563,111.328125
564,111.328125
565,111.328125
566,113.281250
567,111.328125
568,111.328125
569,111.328125
570,111.328125
571,111.328125
572,111.328125
573,109.375000
574,109.375000
575,109.375000
576,109.375000
577,107.421875
578,107.421875
579,105.468750
580,105.468750
581,105.468750
582,103.515625
583,103.515625
584,101.562500
585,101.562500
586,99.609375
587,97.656250
588,97.656250
589,95.703125
590,95.703125
591,93.750000
592,91.796875
593,91.796875
594,89.843750
595,87.890625
596,85.937500
597,83.984375
598,83.984375
599,82.031250
600,78.125000
601,78.125000
602,76.171875
603,72.265625
604,72.265625
605,68.359375
606,68.359375
607,66.406250
608,64.453125
609,62.500000
610,58.593750
611,56.640625
612,54.687500
613,52.734375
614,50.781250
615,48.828125
616,44.921875
617,42.968750
618,41.015625
619,39.062500
620,35.156250
621,33.203125
622,31.250000
623,27.343750
624,25.390625
625,21.484375
626,19.531250
627,15.625000
628,13.671875
629,11.718750
630,11.718750
631,7.812500
632,3.906250
633,0.000000
634,-5.859375
635,-5.859375
636,-7.812500
637,-11.718750
638,-11.718750
639,-17.578125
640,-19.531250
641,-21.484375
642,-25.390625
643,-27.343750
644,-31.250000
645,-33.203125
646,-37.109375
647,-41.015625
648,-42.968750
649,-44.921875
650,-46.875000
651,-50.781250
652,-54.687500
653,-56.640625
654,-58.593750
655,-60.546875
656,-64.453125
657,-68.359375
658,-70.312500
659,-72.265625
660,-74.218750
661,-76.171875
662,-80.078125
663,-82.031250
664,-85.937500
665,-89.843750
666,-89.843750
667,-91.796875
668,-93.750000
669,-91.796875
670,-99.609375
671,-101.562500
672,-105.468750
673,-103.515625
674,-107.421875
675,-109.375000
676,-109.375000
677,-113.281250
678,-115.234375
679,-117.187500
680,-117.187500
681,-119.140625
682,-121.093750
683,-123.046875
684,-125.000000
685,-125.000000
686,-126.953125
687,-126.953125
688,-130.859375
689,-128.906250
690,-130.859375
691,-132.812500
692,-132.812500
693,-134.765625
694,-134.765625
695,-134.765625
696,-134.765625
697,-136.718750
698,-136.718750
699,-136.718750
700,-136.718750
701,-138.671875
702,-138.671875
703,-138.671875
704,-138.671875
705,-138.671875
706,-138.671875
707,-136.718750
708,-138.671875
709,-136.718750
710,-136.718750
711,-136.718750
712,-136.718750
713,-136.718750
714,-134.765625
715,-134.765625
716,-132.812500
717,-132.812500
718,-132.812500
719,-130.859375
720,-130.859375
721,-128.906250
722,-126.953125
723,-126.953125
724,-125.000000
725,-123.046875
726,-123.046875
727,-121.093750
728,-119.140625
729,-117.187500
730,-117.187500
731,-115.234375
732,-113.281250
733,-111.328125
734,-109.375000
735,-107.421875
736,-105.468750
737,-103.515625
738,-101.562500
739,-99.609375
740,-97.656250
741,-95.703125
742,-93.750000
743,-91.796875
744,-87.890625
745,-85.937500
746,-83.984375
747,-82.031250
748,-78.125000
749,-76.171875
750,-74.218750
751,-70.312500
752,-68.359375
753,-66.406250
754,-62.500000
755,-60.546875
756,-56.640625
757,-54.687500
758,-52.734375
759,-48.828125
760,-46.875000
761,-42.968750
762,-41.015625
763,-39.062500
764,-35.156250
765,-33.203125
766,-29.296875
767,-25.390625
768,-25.390625
769,-21.484375
770,-17.578125
771,-15.625000
772,-11.718750
773,-9.765625
774,-5.859375
775,-3.906250
776,-1.953125
777,1.953125
778,3.906250
779,7.812500
780,9.765625
781,11.718750
782,15.625000
783,17.578125
784,21.484375
785,23.437500
786,25.390625
787,29.296875
788,31.250000
789,33.203125
790,37.109375
791,39.062500
792,41.015625
793,42.968750
794,44.921875
795,48.828125
796,52.734375
797,52.734375
798,54.687500
799,56.640625
800,60.546875
801,62.500000
802,64.453125
803,66.406250
804,68.359375
805,70.312500
806,72.265625
807,74.218750
808,76.171875
809,78.125000
810,78.125000
811,82.031250
812,82.031250
813,83.984375
814,85.937500
815,87.890625
816,89.843750
817,91.796875
818,93.750000
819,91.796875
820,95.703125
821,95.703125
822,93.750000
823,99.609375
824,99.609375
825,101.562500
826,101.562500
827,103.515625
828,103.515625
829,105.468750
830,105.468750
831,107.421875
832,107.421875
833,107.421875
834,109.375000
835,109.375000
836,109.375000
837,109.375000
838,111.328125
839,111.328125
840,111.328125
841,111.328125
842,111.328125
843,111.328125
844,111.328125
845,111.328125
846,111.328125
847,111.328125
848,113.281250
849,113.281250
850,111.328125
851,111.328125
852,111.328125
853,111.328125
854,111.328125
855,109.375000
856,109.375000
857,107.421875
858,109.375000
859,107.421875
860,107.421875
861,105.468750
862,105.468750
863,105.468750
864,103.515625
865,107.421875
866,101.562500
867,101.562500
868,99.609375
869,97.656250
870,97.656250
871,95.703125
872,93.750000
873,93.750000
874,91.796875
875,91.796875
876,89.843750
877,87.890625
878,85.937500
879,83.984375
880,82.031250
881,80.078125
882,80.078125
883,78.125000
884,74.218750
885,74.218750
886,72.265625
887,70.312500
888,68.359375
889,66.406250
890,64.453125
891,62.500000
892,60.546875
893,56.640625
894,54.687500
895,52.734375
896,52.734375
897,48.828125
898,46.875000
899,42.968750
900,41.015625
901,39.062500
902,37.109375
903,33.203125
904,29.296875
905,27.343750
906,25.390625
907,23.437500
908,19.531250
909,17.578125
910,13.671875
911,11.718750
912,9.765625
913,5.859375
914,3.906250
915,0.000000
916,-1.953125
917,-3.906250
918,-7.812500
919,-9.765625
920,-13.671875
921,-15.625000
922,-17.578125
923,-21.484375
924,-25.390625
925,-27.343750
926,-31.250000
927,-33.203125
928,-37.109375
929,-39.062500
930,-42.968750
931,-44.921875
932,-46.875000
933,-50.781250
934,-52.734375
935,-56.640625
936,-58.593750
937,-62.500000
938,-64.453125
939,-66.406250
940,-70.312500
941,-72.265625
942,-74.218750
943,-76.171875
944,-80.078125
945,-82.031250
946,-85.937500
947,-87.890625
948,-89.843750
949,-91.796875
950,-93.750000
951,-95.703125
952,-97.656250
953,-99.609375
954,-101.562500
955,-105.468750
956,-107.421875
957,-107.421875
958,-109.375000
959,-113.281250
960,-113.281250
961,-115.234375
962,-117.187500
963,-119.140625
964,-119.140625
965,-121.093750
966,-123.046875
967,-125.000000
968,-125.000000
969,-126.953125
970,-128.906250
971,-128.906250
972,-130.859375
973,-130.859375
974,-132.812500
975,-132.812500
976,-134.765625
977,-134.765625
978,-134.765625
979,-134.765625
980,-136.718750
981,-136.718750
982,-136.718750
983,-138.671875
984,-138.671875
985,-138.671875
986,-138.671875
987,-138.671875
988,-138.671875
989,-136.718750
990,-138.671875
991,-136.718750
992,-136.718750
993,-136.718750
994,-136.718750
995,-136.718750
996,-134.765625
997,-134.765625
998,-134.765625
999,-132.812500
1000,-132.812500
1001,-130.859375
1002,-130.859375
1003,-128.906250
1004,-128.906250
1005,-126.953125
1006,-125.000000
1007,-126.953125
1008,-123.046875
1009,-121.093750
1010,-121.093750
1011,-117.187500
1012,-117.187500
1013,-115.234375
1014,-113.281250
1015,-111.328125
1016,-109.375000
1017,-107.421875
1018,-105.468750
1019,-103.515625
1020,-101.562500
1021,-99.609375
1022,-97.656250
1023,-95.703125
1024,-93.750000
1025,-89.843750
1026,-87.890625
1027,-85.937500
1028,-83.984375
1029,-82.031250
1030,-78.125000
1031,-76.171875
1032,-74.218750
1033,-70.312500
1034,-68.359375
1035,-66.406250
1036,-64.453125
1037,-60.546875
1038,-58.593750
1039,-56.640625
1040,-52.734375
1041,-48.828125
1042,-46.875000
1043,-44.921875
1044,-41.015625
1045,-39.062500
1046,-35.156250
1047,-33.203125
1048,-31.250000
1049,-27.343750
1050,-25.390625
1051,-21.484375
1052,-19.531250
1053,-15.625000
1054,-13.671875
1055,-9.765625
1056,-7.812500
1057,-1.953125
1058,-1.953125
1059,0.000000
1060,3.906250
1061,5.859375
1062,7.812500
1063,11.718750
1064,15.625000
1065,17.578125
1066,19.531250
1067,21.484375
1068,25.390625
1069,27.343750
1070,29.296875
1071,33.203125
1072,35.156250
1073,37.109375
1074,41.015625
1075,41.015625
1076,44.921875
1077,48.828125
1078,50.781250
1079,52.734375
1080,54.687500
1081,56.640625
1082,60.546875
1083,60.546875
1084,62.500000
1085,66.406250
1086,68.359375
1087,70.312500
1088,72.265625
1089,74.218750
1090,76.171875
1091,78.125000
1092,80.078125
1093,82.031250
1094,82.031250
1095,83.984375
1096,85.937500
1097,87.890625
1098,89.843750
1099,89.843750
1100,91.796875
1101,93.750000
1102,95.703125
1103,95.703125
1104,97.656250
1105,97.656250
1106,99.609375
1107,99.609375
1108,101.562500
1109,103.515625
1110,103.515625
1111,103.515625
1112,105.468750
1113,105.468750
1114,107.421875
1115,107.421875
1116,107.421875
1117,109.375000
1118,109.375000
1119,109.375000
1120,109.375000
1121,111.328125
1122,111.328125
1123,111.328125
1124,111.328125
1125,111.328125
1126,111.328125
1127,113.281250
1128,111.328125
1129,111.328125
1130,111.328125
1131,111.328125
1132,111.328125
1133,111.328125
1134,111.328125
1135,111.328125
1136,111.328125
1137,111.328125
1138,109.375000
1139,109.375000
1140,109.375000
1141,107.421875
1142,107.421875
1143,105.468750
1144,105.468750
1145,105.468750
1146,103.515625
1147,103.515625
1148,101.562500
1149,101.562500
1150,101.562500
1151,99.609375
1152,97.656250
1153,95.703125
1154,95.703125
1155,93.750000
1156,93.750000
1157,91.796875
1158,89.843750
1159,87.890625
1160,87.890625
1161,85.937500
1162,83.984375
1163,82.031250
1164,80.078125
1165,78.125000
1166,76.171875
1167,74.218750
1168,72.265625
1169,70.312500
1170,68.359375
1171,66.406250
1172,64.453125
1173,62.500000
1174,60.546875
1175,60.546875
1176,56.640625
1177,52.734375
1178,50.781250
1179,48.828125
1180,46.875000
1181,44.921875
1182,41.015625
1183,39.062500
1184,35.156250
1185,35.156250
1186,31.250000
1187,27.343750
1188,25.390625
1189,23.437500
1190,21.484375
1191,17.578125
1192,15.625000
1193,11.718750
1194,9.765625
1195,7.812500
1196,3.906250
1197,1.953125
1198,-1.953125
1199,-3.906250
1200,-7.812500
1201,-9.765625
1202,-13.671875
1203,-15.625000
1204,-19.531250
1205,-21.484375
1206,-23.437500
1207,-27.343750
1208,-29.296875
1209,-33.203125
1210,-35.156250
1211,-39.062500
1212,-41.015625
1213,-44.921875
1214,-46.875000
1215,-48.828125
1216,-52.734375
1217,-54.687500
1218,-58.593750
1219,-60.546875
1220,-62.500000
1221,-66.406250
1222,-68.359375
1223,-70.312500
1224,-74.218750
1225,-78.125000
1226,-82.031250
1227,-82.031250
1228,-83.984375
1229,-85.937500
1230,-87.890625
1231,-89.843750
1232,-93.750000
1233,-95.703125
1234,-97.656250
1235,-99.609375
1236,-101.562500
1237,-103.515625
1238,-105.468750
1239,-107.421875
1240,-109.375000
1241,-111.328125
1242,-113.281250
1243,-115.234375
1244,-117.187500
1245,-119.140625
1246,-121.093750
1247,-121.093750
1248,-123.046875
1249,-125.000000
1250,-126.953125
1251,-126.953125
1252,-128.906250
1253,-128.906250
1254,-130.859375
1255,-132.812500
1256,-132.812500
1257,-132.812500
1258,-134.765625
1259,-134.765625
1260,-136.718750
1261,-136.718750
1262,-136.718750
1263,-138.671875
1264,-138.671875
1265,-138.671875
1266,-138.671875
1267,-138.671875
1268,-138.671875
1269,-138.671875
1270,-138.671875
1271,-138.671875
1272,-138.671875
1273,-138.671875
1274,-138.671875
1275,-136.718750
1276,-138.671875
1277,-136.718750
1278,-136.718750
1279,-134.765625
1280,-134.765625
1281,-132.812500
1282,-132.812500
1283,-132.812500
1284,-130.859375
1285,-128.906250
1286,-128.906250
1287,-126.953125
1288,-126.953125
1289,-125.000000
1290,-123.046875
1291,-121.093750
1292,-121.093750
1293,-119.140625
1294,-119.140625
1295,-115.234375
1296,-113.281250
1297,-111.328125
1298,-111.328125
1299,-109.375000
1300,-107.421875
1301,-105.468750
1302,-103.515625
1303,-101.562500
1304,-99.609375
1305,-95.703125
1306,-93.750000
1307,-91.796875
1308,-89.843750
1309,-87.890625
1310,-85.937500
1311,-82.031250
1312,-80.078125
1313,-78.125000
1314,-76.171875
1315,-72.265625
1316,-70.312500
1317,-66.406250
1318,-64.453125
1319,-62.500000
1320,-60.546875
1321,-56.640625
1322,-52.734375
1323,-50.781250
1324,-48.828125
1325,-44.921875
1326,-42.968750
1327,-39.062500
1328,-37.109375
1329,-35.156250
1330,-31.250000
1331,-29.296875
1332,-25.390625
1333,-23.437500
1334,-19.531250
1335,-17.578125
1336,-15.625000
1337,-11.718750
1338,-7.812500
1339,-5.859375
1340,-1.953125
1341,0.000000
1342,1.953125
1343,5.859375
1344,5.859375
1345,11.718750
1346,13.671875
1347,15.625000
1348,19.531250
1349,21.484375
1350,25.390625
1351,27.343750
1352,29.296875
1353,33.203125
1354,35.156250
1355,37.109375
1356,41.015625
1357,42.968750
1358,44.921875
1359,46.875000
1360,48.828125
1361,52.734375
1362,54.687500
1363,56.640625
1364,58.593750
1365,60.546875
1366,62.500000
1367,64.453125
1368,66.406250
1369,68.359375
1370,72.265625
1371,74.218750
1372,74.218750
1373,76.171875
1374,78.125000
1375,80.078125
1376,83.984375
1377,83.984375
1378,85.937500
1379,85.937500
1380,89.843750
1381,89.843750
1382,91.796875
1383,91.796875
1384,93.750000
1385,95.703125
1386,97.656250
1387,97.656250
1388,99.609375
1389,99.609375
1390,101.562500
1391,101.562500
1392,103.515625
1393,103.515625
1394,103.515625
1395,105.468750
1396,107.421875
1397,107.421875
1398,107.421875
1399,109.375000
1400,109.375000
1401,109.375000
1402,105.468750
1403,111.328125
1404,111.328125
1405,111.328125
1406,111.328125
1407,111.328125
1408,111.328125
1409,111.328125
1410,111.328125
1411,111.328125
1412,111.328125
1413,111.328125
1414,111.328125
1415,111.328125
1416,111.328125
1417,111.328125
1418,111.328125
1419,113.281250
1420,109.375000
1421,109.375000
1422,109.375000
1423,107.421875
1424,107.421875
1425,107.421875
1426,107.421875
1427,105.468750
1428,103.515625
1429,103.515625
1430,103.515625
1431,101.562500
1432,101.562500
1433,99.609375
1434,97.656250
1435,95.703125
1436,95.703125
1437,93.750000
1438,93.750000
1439,89.843750
1440,89.843750
1441,87.890625
1442,87.890625
1443,85.937500
1444,83.984375
1445,85.937500
1446,80.078125
1447,78.125000
1448,78.125000
1449,74.218750
1450,72.265625
1451,70.312500
1452,68.359375
1453,64.453125
1454,64.453125
1455,62.500000
1456,60.546875
1457,58.593750
1458,56.640625
1459,52.734375
1460,50.781250
1461,48.828125
1462,46.875000
1463,44.921875
1464,41.015625
1465,41.015625
1466,37.109375
1467,35.156250
1468,31.250000
1469,29.296875
1470,27.343750
1471,25.390625
1472,21.484375
1473,17.578125
1474,15.625000
1475,13.671875
1476,9.765625
1477,7.812500
1478,5.859375
1479,1.953125
1480,0.000000
1481,-3.906250
1482,-5.859375
1483,-7.812500
1484,-13.671875
1485,-15.625000
1486,-17.578125
1487,-19.531250
1488,-23.437500
1489,-25.390625
1490,-29.296875
1491,-33.203125
1492,-35.156250
1493,-37.109375
1494,-41.015625
1495,-42.968750
1496,-46.875000
1497,-48.828125
1498,-52.734375
1499,-54.687500
1500,-56.640625
1501,-60.546875
1502,-64.453125
1503,-64.453125
1504,-68.359375
1505,-70.312500
1506,-72.265625
1507,-76.171875
1508,-78.125000
1509,-80.078125
1510,-83.984375
1511,-85.937500
1512,-87.890625
1513,-89.843750
1514,-93.750000
1515,-95.703125
1516,-97.656250
1517,-99.609375
1518,-101.562500
1519,-103.515625
1520,-105.468750
1521,-107.421875
1522,-109.375000
1523,-111.328125
1524,-113.281250
1525,-115.234375
1526,-117.187500
1527,-119.140625
1528,-119.140625
1529,-121.093750
1530,-123.046875
1531,-123.046875
1532,-125.000000
1533,-126.953125
1534,-128.906250
1535,-128.906250
1536,-128.906250
1537,-130.859375
1538,-130.859375
1539,-132.812500
1540,-132.812500
1541,-134.765625
1542,-134.765625
1543,-134.765625
1544,-136.718750
1545,-136.718750
1546,-136.718750
1547,-138.671875
1548,-136.718750
1549,-138.671875
1550,-138.671875
1551,-138.671875
1552,-138.671875
1553,-138.671875
1554,-136.718750
1555,-136.718750
1556,-136.718750
1557,-136.718750
1558,-136.718750
1559,-136.718750
1560,-134.765625
1561,-134.765625
1562,-134.765625
1563,-132.812500
1564,-132.812500
1565,-132.812500
1566,-130.859375
1567,-130.859375
1568,-128.906250
1569,-126.953125
1570,-126.953125
1571,-125.000000
1572,-125.000000
1573,-121.093750
1574,-121.093750
1575,-119.140625
1576,-117.187500
1577,-115.234375
1578,-115.234375
1579,-113.281250
1580,-111.328125
1581,-109.375000
1582,-107.421875
1583,-105.468750
1584,-103.515625
1585,-101.562500
1586,-99.609375
1587,-97.656250
1588,-93.750000
1589,-91.796875
1590,-89.843750
1591,-87.890625
1592,-85.937500
1593,-82.031250
1594,-80.078125
1595,-78.125000
1596,-74.218750
1597,-72.265625
1598,-70.312500
1599,-68.359375
1600,-64.453125
1601,-62.500000
1602,-60.546875
1603,-56.640625
1604,-54.687500
1605,-50.781250
1606,-48.828125
1607,-44.921875
1608,-42.968750
1609,-41.015625
1610,-37.109375
1611,-33.203125
1612,-31.250000
1613,-27.343750
1614,-25.390625
1615,-23.437500
1616,-19.531250
1617,-17.578125
1618,-15.625000
1619,-11.718750
1620,-9.765625
1621,-5.859375
1622,-3.906250
1623,0.000000
1624,1.953125
1625,5.859375
1626,7.812500
1627,9.765625
1628,13.671875
1629,15.625000
1630,17.578125
1631,21.484375
1632,23.437500
1633,27.343750
1634,29.296875
1635,31.250000
1636,35.156250
1637,37.109375
1638,39.062500
1639,42.968750
1640,42.968750
1641,46.875000
1642,48.828125
1643,50.781250
1644,52.734375
1645,56.640625
1646,56.640625
1647,58.593750
1648,62.500000
1649,64.453125
1650,66.406250
1651,68.359375
1652,70.312500
1653,72.265625
1654,74.218750
1655,76.171875
1656,78.125000
1657,80.078125
1658,82.031250
1659,83.984375
1660,83.984375
1661,85.937500
1662,87.890625
1663,89.843750
1664,89.843750
1665,91.796875
1666,93.750000
1667,95.703125
1668,95.703125
1669,97.656250
1670,97.656250
1671,99.609375
1672,101.562500
1673,101.562500
1674,103.515625
1675,103.515625
1676,105.468750
1677,105.468750
1678,107.421875
1679,107.421875
1680,107.421875
1681,107.421875
1682,109.375000
1683,109.375000
1684,109.375000
1685,111.328125
1686,111.328125
1687,111.328125
1688,111.328125
1689,111.328125
1690,111.328125
1691,113.281250
1692,113.281250
1693,113.281250
1694,111.328125
1695,111.328125
1696,111.328125
1697,111.328125
1698,111.328125
1699,111.328125
1700,111.328125
1701,109.375000
1702,109.375000
1703,109.375000
1704,109.375000
1705,107.421875
1706,107.421875
1707,107.421875
1708,105.468750
1709,105.468750
1710,103.515625
1711,103.515625
1712,103.515625
1713,101.562500
1714,99.609375
1715,99.609375
1716,99.609375
1717,97.656250
1718,95.703125
1719,93.750000
1720,93.750000
1721,91.796875
1722,91.796875
1723,89.843750
1724,87.890625
1725,85.937500
1726,83.984375
1727,82.031250
1728,80.078125
1729,78.125000
1730,78.125000
1731,76.171875
1732,74.218750
1733,72.265625
1734,70.312500
1735,68.359375
1736,66.406250
1737,64.453125
1738,62.500000
1739,58.593750
1740,56.640625
1741,54.687500
1742,52.734375
1743,50.781250
1744,46.875000
1745,46.875000
1746,42.968750
1747,41.015625
1748,37.109375
1749,35.156250
1750,33.203125
1751,31.250000
1752,27.343750
1753,25.390625
1754,21.484375
1755,19.531250
1756,17.578125
1757,13.671875
1758,11.718750
1759,7.812500
1760,5.859375
1761,3.906250
1762,0.000000
1763,-1.953125
1764,-5.859375
1765,-7.812500
1766,-11.718750
1767,-13.671875
1768,-15.625000
1769,-19.531250
1770,-23.437500
1771,-25.390625
1772,-27.343750
1773,-31.250000
1774,-33.203125
1775,-37.109375
1776,-41.015625
1777,-42.968750
1778,-44.921875
1779,-48.828125
1780,-50.781250
1781,-54.687500
1782,-56.640625
1783,-58.593750
1784,-60.546875
1785,-64.453125
1786,-66.406250
1787,-68.359375
1788,-72.265625
1789,-74.218750
1790,-78.125000
1791,-80.078125
1792,-82.031250
1793,-85.937500
1794,-87.890625
1795,-89.843750
1796,-91.796875
1797,-97.656250
1798,-95.703125
1799,-99.609375
1800,-99.609375
1801,-103.515625
1802,-103.515625
1803,-107.421875
1804,-107.421875
1805,-111.328125
1806,-111.328125
1807,-113.281250
1808,-115.234375
1809,-117.187500
1810,-119.140625
1811,-121.093750
1812,-123.046875
1813,-123.046875
1814,-125.000000
1815,-126.953125
1816,-126.953125
1817,-128.906250
1818,-128.906250
1819,-130.859375
1820,-130.859375
1821,-132.812500
1822,-132.812500
1823,-134.765625
1824,-134.765625
1825,-136.718750
1826,-136.718750
1827,-136.718750
1828,-136.718750
1829,-136.718750
1830,-138.671875
1831,-138.671875
1832,-138.671875
1833,-138.671875
1834,-138.671875
1835,-138.671875
1836,-138.671875
1837,-140.625000
1838,-138.671875
1839,-136.718750
1840,-136.718750
1841,-136.718750
1842,-136.718750
1843,-134.765625
1844,-134.765625
1845,-134.765625
1846,-132.812500
1847,-132.812500
1848,-130.859375
1849,-130.859375
1850,-128.906250
1851,-126.953125
1852,-126.953125
1853,-125.000000
1854,-125.000000
1855,-123.046875
1856,-121.093750
1857,-119.140625
1858,-119.140625
1859,-117.187500
1860,-115.234375
1861,-113.281250
1862,-111.328125
1863,-109.375000
1864,-107.421875
1865,-105.468750
1866,-103.515625
1867,-101.562500
1868,-99.609375
1869,-97.656250
1870,-95.703125
1871,-91.796875
1872,-89.843750
1873,-87.890625
1874,-85.937500
1875,-83.984375
1876,-82.031250
1877,-78.125000
1878,-76.171875
1879,-74.218750
1880,-70.312500
1881,-68.359375
1882,-66.406250
1883,-62.500000
1884,-60.546875
1885,-58.593750
1886,-54.687500
1887,-52.734375
1888,-50.781250
1889,-46.875000
1890,-42.968750
1891,-41.015625
1892,-39.062500
1893,-35.156250
1894,-33.203125
1895,-29.296875
1896,-27.343750
1897,-23.437500
1898,-21.484375
1899,-17.578125
1900,-15.625000
1901,-13.671875
1902,-9.765625
1903,-5.859375
1904,-3.906250
1905,-1.953125
1906,0.000000
1907,3.906250
1908,7.812500
1909,9.765625
1910,11.718750
1911,13.671875
1912,17.578125
1913,19.531250
1914,23.437500
1915,25.390625
1916,27.343750
1917,31.250000
1918,33.203125
1919,37.109375
1920,39.062500
1921,41.015625
1922,42.968750
1923,44.921875
1924,48.828125
1925,50.781250
1926,52.734375
1927,54.687500
1928,58.593750
1929,60.546875
1930,62.500000
1931,64.453125
1932,66.406250
1933,68.359375
1934,70.312500
1935,72.265625
1936,74.218750
1937,76.171875
1938,78.125000
1939,80.078125
1940,82.031250
1941,83.984375
1942,85.937500
1943,85.937500
1944,87.890625
1945,89.843750
1946,91.796875
1947,91.796875
1948,91.796875
1949,95.703125
1950,95.703125
1951,97.656250
1952,97.656250
1953,99.609375
1954,101.562500
1955,101.562500
1956,103.515625
1957,103.515625
1958,105.468750
1959,105.468750
1960,107.421875
1961,107.421875
1962,107.421875
1963,107.421875
1964,109.375000
1965,109.375000
1966,109.375000
1967,109.375000
1968,111.328125
1969,111.328125
1970,111.328125
1971,111.328125
1972,111.328125
1973,111.328125
1974,111.328125
1975,111.328125
1976,111.328125
1977,113.281250
1978,113.281250
1979,111.328125
1980,111.328125
1981,111.328125
1982,111.328125
1983,111.328125
1984,109.375000
1985,109.375000
1986,109.375000
1987,107.421875
1988,107.421875
1989,107.421875
1990,105.468750
1991,105.468750
1992,105.468750
1993,105.468750
1994,103.515625
1995,101.562500
1996,101.562500
1997,99.609375
1998,101.562500
1999,97.656250
2000,97.656250
2001,95.703125
2002,93.750000
2003,93.750000
2004,91.796875
2005,89.843750
2006,89.843750
2007,85.937500
2008,83.984375
2009,83.984375
2010,82.031250
2011,80.078125
2012,78.125000
2013,76.171875
2014,74.218750
2015,74.218750
2016,70.312500
2017,68.359375
2018,66.406250
2019,64.453125
2020,62.500000
2021,60.546875
2022,56.640625
2023,54.687500
2024,52.734375
2025,50.781250
2026,48.828125
2027,46.875000
2028,42.968750
2029,41.015625
2030,39.062500
2031,35.156250
2032,33.203125
2033,31.250000
2034,27.343750
2035,25.390625
2036,23.437500
2037,19.531250
2038,17.578125
2039,15.625000
2040,11.718750
2041,9.765625
2042,5.859375
2043,3.906250
2044,0.000000
2045,-1.953125
2046,-3.906250
2047,-7.812500
2048,-9.765625
2049,-13.671875
2050,-15.625000
2051,-17.578125
2052,-21.484375
2053,-25.390625
2054,-27.343750
2055,-29.296875
2056,-33.203125
2057,-37.109375
2058,-39.062500
2059,-41.015625
2060,-44.921875
2061,-46.875000
2062,-50.781250
2063,-52.734375
2064,-54.687500
2065,-58.593750
2066,-60.546875
2067,-64.453125
2068,-66.406250
2069,-68.359375
2070,-70.312500
2071,-74.218750
2072,-76.171875
2073,-80.078125
2074,-82.031250
2075,-83.984375
2076,-85.937500
2077,-89.843750
2078,-91.796875
2079,-93.750000
2080,-95.703125
2081,-97.656250
2082,-99.609375
2083,-103.515625
2084,-103.515625
2085,-105.468750
2086,-109.375000
2087,-109.375000
2088,-111.328125
2089,-113.281250
2090,-115.234375
2091,-117.187500
2092,-119.140625
2093,-119.140625
2094,-121.093750
2095,-123.046875
2096,-125.000000
2097,-125.000000
2098,-126.953125
2099,-128.906250
2100,-128.906250
2101,-130.859375
2102,-130.859375
2103,-132.812500
2104,-132.812500
2105,-134.765625
2106,-134.765625
2107,-134.765625
2108,-136.718750
2109,-136.718750
2110,-136.718750
2111,-136.718750
2112,-136.718750
2113,-138.671875
2114,-138.671875
2115,-138.671875
2116,-138.671875
2117,-138.671875
2118,-138.671875
2119,-136.718750
2120,-136.718750
2121,-136.718750
2122,-136.718750
2123,-136.718750
2124,-134.765625
2125,-134.765625
2126,-134.765625
2127,-132.812500
2128,-132.812500
2129,-130.859375
2130,-130.859375
2131,-130.859375
2132,-128.906250
2133,-126.953125
2134,-126.953125
2135,-125.000000
2136,-125.000000
2137,-123.046875
2138,-121.093750
2139,-119.140625
2140,-119.140625
2141,-117.187500
2142,-115.234375
2143,-113.281250
2144,-111.328125
2145,-109.375000
2146,-107.421875
2147,-105.468750
2148,-103.515625
2149,-103.515625
2150,-101.562500
2151,-97.656250
2152,-95.703125
2153,-93.750000
2154,-91.796875
2155,-87.890625
2156,-85.937500
2157,-83.984375
2158,-82.031250
2159,-78.125000
2160,-76.171875
2161,-74.218750
2162,-72.265625
2163,-70.312500
2164,-66.406250
2165,-64.453125
2166,-60.546875
2167,-58.593750
2168,-54.687500
2169,-52.734375
2170,-50.781250
2171,-46.875000
2172,-44.921875
2173,-41.015625
2174,-39.062500
2175,-37.109375
2176,-33.203125
2177,-31.250000
2178,-27.343750
2179,-25.390625
2180,-21.484375
2181,-19.531250
2182,-15.625000
2183,-13.671875
2184,-9.765625
2185,-7.812500
2186,-5.859375
2187,-1.953125
2188,0.000000
2189,3.906250
2190,5.859375
2191,9.765625
2192,11.718750
2193,13.671875
2194,17.578125
2195,19.531250
2196,23.437500
2197,25.390625
2198,27.343750
2199,31.250000
2200,33.203125
2201,35.156250
2202,39.062500
2203,41.015625
2204,42.968750
2205,44.921875
2206,48.828125
2207,50.781250
2208,52.734375
2209,54.687500
2210,56.640625
2211,58.593750
2212,60.546875
2213,62.500000
2214,66.406250
2215,66.406250
2216,70.312500
2217,70.312500
2218,72.265625
2219,74.218750
2220,78.125000
2221,78.125000
2222,80.078125
2223,82.031250
2224,83.984375
2225,85.937500
2226,87.890625
2227,87.890625
2228,89.843750
2229,91.796875
2230,93.750000
2231,93.750000
2232,95.703125
2233,97.656250
2234,97.656250
2235,99.609375
2236,99.609375
2237,101.562500
2238,101.562500
2239,103.515625
2240,103.515625
2241,105.468750
2242,105.468750
2243,107.421875
2244,107.421875
2245,107.421875
2246,109.375000
2247,109.375000
2248,109.375000
2249,111.328125
2250,111.328125
2251,111.328125
2252,111.328125
2253,111.328125
2254,111.328125
2255,111.328125
2256,111.328125
2257,111.328125
2258,111.328125
2259,111.328125
2260,111.328125
2261,111.328125
2262,111.328125
2263,111.328125
2264,111.328125
2265,111.328125
2266,111.328125
2267,109.375000
2268,109.375000
2269,109.375000
2270,107.421875
2271,107.421875
2272,107.421875
2273,105.468750
2274,105.468750
2275,103.515625
2276,103.515625
2277,101.562500
2278,101.562500
2279,99.609375
2280,99.609375
2281,97.656250
2282,95.703125
2283,95.703125
2284,93.750000
2285,93.750000
2286,91.796875
2287,89.843750
2288,87.890625
2289,85.937500
2290,85.937500
2291,83.984375
2292,82.031250
2293,80.078125
2294,78.125000
2295,76.171875
2296,74.218750
2297,72.265625
2298,70.312500
2299,68.359375
2300,66.406250
2301,64.453125
2302,62.500000
2303,60.546875
2304,58.593750
2305,56.640625
2306,52.734375
2307,50.781250
2308,48.828125
2309,46.875000
2310,44.921875
2311,41.015625
2312,39.062500
2313,37.109375
2314,35.156250
2315,31.250000
2316,29.296875
2317,27.343750
2318,23.437500
2319,21.484375
2320,19.531250
2321,15.625000
2322,13.671875
2323,9.765625
2324,7.812500
2325,3.906250
2326,1.953125
2327,-1.953125
2328,-3.906250
2329,-5.859375
2330,-9.765625
2331,-11.718750
2332,-15.625000
2333,-17.578125
2334,-19.531250
2335,-23.437500
2336,-27.343750
2337,-29.296875
2338,-33.203125
2339,-35.156250
2340,-39.062500
2341,-41.015625
2342,-44.921875
2343,-46.875000
2344,-48.828125
2345,-52.734375
2346,-54.687500
2347,-58.593750
2348,-60.546875
2349,-62.500000
2350,-66.406250
2351,-68.359375
2352,-72.265625
2353,-74.218750
2354,-76.171875
2355,-78.125000
2356,-82.031250
2357,-83.984375
2358,-85.937500
2359,-87.890625
2360,-91.796875
2361,-93.750000
2362,-95.703125
2363,-99.609375
2364,-99.609375
2365,-101.562500
2366,-103.515625
2367,-105.468750
2368,-107.421875
2369,-111.328125
2370,-111.328125
2371,-113.281250
2372,-115.234375
2373,-117.187500
2374,-119.140625
2375,-119.140625
2376,-125.000000
2377,-123.046875
2378,-125.000000
2379,-125.000000
2380,-126.953125
2381,-128.906250
2382,-128.906250
2383,-130.859375
2384,-130.859375
2385,-134.765625
2386,-130.859375
2387,-132.812500
2388,-134.765625
2389,-134.765625
2390,-136.718750
2391,-136.718750
2392,-132.812500
2393,-136.718750
2394,-138.671875
2395,-138.671875
2396,-138.671875
2397,-136.718750
2398,-138.671875
2399,-138.671875
2400,-138.671875
2401,-138.671875
2402,-136.718750
2403,-136.718750
2404,-136.718750
2405,-136.718750
2406,-136.718750
2407,-134.765625
2408,-134.765625
2409,-134.765625
2410,-132.812500
2411,-132.812500
2412,-132.812500
2413,-130.859375
2414,-128.906250
2415,-128.906250
2416,-126.953125
2417,-126.953125
2418,-125.000000
2419,-125.000000
2420,-123.046875
2421,-121.093750
2422,-119.140625
2423,-117.187500
2424,-115.234375
2425,-113.281250
2426,-113.281250
2427,-111.328125
2428,-109.375000
2429,-107.421875
2430,-105.468750
2431,-103.515625
2432,-101.562500
2433,-97.656250
2434,-95.703125
2435,-93.750000
2436,-91.796875
2437,-89.843750
2438,-87.890625
2439,-83.984375
2440,-82.031250
2441,-80.078125
2442,-76.171875
2443,-74.218750
2444,-72.265625
2445,-70.312500
2446,-66.406250
2447,-64.453125
2448,-62.500000
2449,-58.593750
2450,-56.640625
2451,-54.687500
2452,-50.781250
2453,-48.828125
2454,-44.921875
2455,-42.968750
2456,-39.062500
2457,-37.109375
2458,-35.156250
2459,-31.250000
2460,-29.296875
2461,-25.390625
2462,-23.437500
2463,-19.531250
2464,-17.578125
2465,-13.671875
2466,-11.718750
2467,-7.812500
2468,-5.859375
2469,-1.953125
2470,0.000000
2471,1.953125
2472,5.859375
2473,7.812500
2474,11.718750
2475,13.671875
2476,15.625000
2477,19.531250
2478,21.484375
2479,23.437500
2480,27.343750
2481,29.296875
2482,33.203125
2483,35.156250
2484,37.109375
2485,39.062500
2486,42.968750
2487,44.921875
2488,46.875000
2489,48.828125
2490,52.734375
2491,54.687500
2492,56.640625
2493,58.593750
2494,60.546875
2495,62.500000
2496,64.453125
2497,66.406250
2498,68.359375
2499,70.312500
2500,74.218750
2501,74.218750
2502,76.171875
2503,78.125000
2504,80.078125
2505,82.031250
2506,83.984375
2507,85.937500
2508,85.937500
2509,87.890625
2510,89.843750
2511,91.796875
2512,91.796875
2513,93.750000
2514,95.703125
2515,97.656250
2516,97.656250
2517,99.609375
2518,101.562500
2519,101.562500
2520,103.515625
2521,103.515625
2522,103.515625
2523,105.468750
2524,105.468750
2525,107.421875
2526,107.421875
2527,107.421875
2528,109.375000
2529,109.375000
2530,109.375000
2531,109.375000
2532,111.328125
2533,111.328125
2534,111.328125
2535,111.328125
2536,113.281250
2537,111.328125
2538,113.281250
2539,111.328125
2540,111.328125
2541,111.328125
2542,111.328125
2543,113.281250
2544,111.328125
2545,111.328125
2546,111.328125
2547,111.328125
2548,109.375000
2549,109.375000
2550,109.375000
2551,107.421875
2552,107.421875
2553,109.375000
2554,105.468750
2555,105.468750
2556,105.468750
2557,103.515625
2558,103.515625
2559,103.515625
2560,101.562500
2561,99.609375
2562,99.609375
2563,97.656250
2564,97.656250
2565,95.703125
2566,93.750000
2567,93.750000
2568,91.796875
2569,89.843750
2570,89.843750
2571,87.890625
2572,85.937500
2573,83.984375
2574,82.031250
2575,80.078125
2576,78.125000
2577,78.125000
2578,74.218750
2579,72.265625
2580,72.265625
2581,70.312500
2582,68.359375
2583,64.453125
2584,62.500000
2585,60.546875
2586,58.593750
2587,56.640625
2588,54.687500
2589,52.734375
2590,48.828125
2591,46.875000
2592,44.921875
2593,42.968750
2594,39.062500
2595,37.109375
2596,35.156250
2597,31.250000
2598,29.296875
2599,27.343750
2600,23.437500
2601,21.484375
2602,19.531250
2603,13.671875
2604,13.671875
2605,13.671875
2606,7.812500
2607,5.859375
2608,1.953125
2609,0.000000
2610,-1.953125
2611,-5.859375
2612,-9.765625
2613,-11.718750
2614,-13.671875
2615,-17.578125
2616,-21.484375
2617,-23.437500
2618,-27.343750
2619,-29.296875
2620,-31.250000
2621,-35.156250
2622,-39.062500
2623,-41.015625
2624,-42.968750
2625,-46.875000
2626,-48.828125
2627,-52.734375
2628,-54.687500
2629,-56.640625
2630,-58.593750
2631,-62.500000
2632,-66.406250
2633,-68.359375
2634,-70.312500
2635,-72.265625
2636,-76.171875
2637,-78.125000
2638,-80.078125
2639,-82.031250
2640,-83.984375
2641,-87.890625
2642,-89.843750
2643,-91.796875
2644,-93.750000
2645,-97.656250
2646,-99.609375
2647,-101.562500
2648,-103.515625
2649,-105.468750
2650,-107.421875
2651,-109.375000
2652,-111.328125
2653,-113.281250
2654,-115.234375
2655,-117.187500
2656,-117.187500
2657,-119.140625
2658,-121.093750
2659,-123.046875
2660,-123.046875
2661,-126.953125
2662,-126.953125
2663,-126.953125
2664,-128.906250
2665,-130.859375
2666,-130.859375
2667,-132.812500
2668,-132.812500
2669,-134.765625
2670,-134.765625
2671,-134.765625
2672,-136.718750
2673,-136.718750
2674,-138.671875
2675,-138.671875
2676,-136.718750
2677,-138.671875
2678,-138.671875
2679,-138.671875
2680,-138.671875
2681,-138.671875
2682,-138.671875
2683,-138.671875
2684,-138.671875
2685,-138.671875
2686,-138.671875
2687,-136.718750
2688,-136.718750
2689,-136.718750
2690,-134.765625
2691,-134.765625
2692,-134.765625
2693,-132.812500
2694,-132.812500
2695,-130.859375
2696,-130.859375
2697,-128.906250
2698,-128.906250
2699,-126.953125
2700,-125.000000
2701,-123.046875
2702,-123.046875
2703,-121.093750
2704,-121.093750
2705,-119.140625
2706,-117.187500
2707,-113.281250
2708,-113.281250
2709,-111.328125
2710,-109.375000
2711,-107.421875
2712,-105.468750
2713,-103.515625
2714,-101.562500
2715,-99.609375
2716,-97.656250
2717,-95.703125
2718,-91.796875
2719,-89.843750
2720,-87.890625
2721,-85.937500
2722,-83.984375
2723,-80.078125
2724,-78.125000
2725,-76.171875
2726,-74.218750
2727,-70.312500
2728,-68.359375
2729,-66.406250
2730,-62.500000
2731,-60.546875
2732,-56.640625
2733,-54.687500
2734,-52.734375
2735,-48.828125
2736,-46.875000
2737,-42.968750
2738,-41.015625
2739,-39.062500
2740,-35.156250
2741,-33.203125
2742,-29.296875
2743,-27.343750
2744,-23.437500
2745,-21.484375
2746,-19.531250
2747,-15.625000
2748,-11.718750
2749,-9.765625
2750,-7.812500
2751,-3.906250
2752,-1.953125
2753,1.953125
2754,3.906250
2755,5.859375
2756,9.765625
2757,11.718750
2758,15.625000
2759,17.578125
2760,19.531250
2761,23.437500
2762,25.390625
2763,27.343750
2764,31.250000
2765,33.203125
2766,35.156250
2767,39.062500
2768,41.015625
2769,42.968750
2770,46.875000
2771,48.828125
2772,50.781250
2773,52.734375
2774,56.640625
2775,58.593750
2776,60.546875
2777,62.500000
2778,64.453125
2779,66.406250
2780,68.359375
2781,70.312500
2782,72.265625
2783,74.218750
2784,76.171875
2785,78.125000
2786,80.078125
2787,82.031250
2788,83.984375
2789,83.984375
2790,85.937500
2791,87.890625
2792,89.843750
2793,89.843750
2794,91.796875
2795,93.750000
2796,95.703125
2797,97.656250
2798,97.656250
2799,97.656250
2800,99.609375
2801,101.562500
2802,101.562500
2803,103.515625
2804,103.515625
2805,103.515625
2806,105.468750
2807,105.468750
2808,107.421875
2809,107.421875
2810,107.421875
2811,109.375000
2812,109.375000
2813,109.375000
2814,109.375000
2815,109.375000
2816,111.328125
2817,111.328125
2818,111.328125
2819,111.328125
2820,111.328125
2821,111.328125
2822,111.328125
2823,111.328125
2824,111.328125
2825,111.328125
2826,111.328125
2827,111.328125
2828,111.328125
2829,111.328125
2830,111.328125
2831,109.375000
2832,109.375000
2833,109.375000
2834,107.421875
2835,107.421875
2836,107.421875
2837,105.468750
2838,105.468750
2839,105.468750
2840,103.515625
2841,103.515625
2842,101.562500
2843,99.609375
2844,99.609375
2845,97.656250
2846,97.656250
2847,95.703125
2848,93.750000
2849,93.750000
2850,91.796875
2851,91.796875
2852,89.843750
2853,87.890625
2854,83.984375
2855,83.984375
2856,82.031250
2857,80.078125
2858,78.125000
2859,76.171875
2860,76.171875
2861,74.218750
2862,72.265625
2863,68.359375
2864,66.406250
2865,66.406250
2866,62.500000
2867,60.546875
2868,58.593750
2869,56.640625
2870,54.687500
2871,50.781250
2872,50.781250
2873,46.875000
2874,44.921875
2875,42.968750
2876,41.015625
2877,37.109375
2878,35.156250
2879,33.203125
2880,29.296875
2881,27.343750
2882,23.437500
2883,21.484375
2884,19.531250
2885,15.625000
2886,13.671875
2887,11.718750
2888,7.812500
2889,5.859375
2890,1.953125
2891,0.000000
2892,-3.906250
2893,-5.859375
2894,-9.765625
2895,-11.718750
2896,-13.671875
2897,-17.578125
2898,-19.531250
2899,-23.437500
2900,-25.390625
2901,-27.343750
2902,-31.250000
2903,-33.203125
2904,-37.109375
2905,-39.062500
2906,-42.968750
2907,-44.921875
2908,-48.828125
2909,-50.781250
2910,-52.734375
2911,-56.640625
2912,-58.593750
2913,-62.500000
2914,-64.453125
2915,-68.359375
2916,-70.312500
2917,-72.265625
2918,-76.171875
2919,-78.125000
2920,-80.078125
2921,-82.031250
2922,-83.984375
2923,-87.890625
2924,-87.890625
2925,-93.750000
2926,-93.750000
2927,-95.703125
2928,-99.609375
2929,-99.609375
2930,-103.515625
2931,-105.468750
2932,-107.421875
2933,-109.375000
2934,-111.328125
2935,-111.328125
2936,-115.234375
2937,-117.187500
2938,-117.187500
2939,-119.140625
2940,-121.093750
2941,-123.046875
2942,-123.046875
2943,-125.000000
2944,-126.953125
2945,-126.953125
2946,-128.906250
2947,-126.953125
2948,-130.859375
2949,-132.812500
2950,-132.812500
2951,-132.812500
2952,-134.765625
2953,-134.765625
2954,-134.765625
2955,-136.718750
2956,-136.718750
2957,-138.671875
2958,-138.671875
2959,-138.671875
2960,-138.671875
2961,-138.671875
2962,-138.671875
2963,-138.671875
2964,-138.671875
2965,-138.671875
2966,-138.671875
2967,-138.671875
2968,-136.718750
2969,-136.718750
2970,-136.718750
2971,-136.718750
2972,-134.765625
2973,-134.765625
2974,-134.765625
2975,-132.812500
2976,-132.812500
2977,-130.859375
2978,-130.859375
2979,-128.906250
2980,-128.906250
2981,-126.953125
2982,-125.000000
2983,-123.046875
2984,-123.046875
2985,-121.093750
2986,-119.140625
2987,-117.187500
2988,-117.187500
2989,-113.281250
2990,-113.281250
2991,-111.328125
2992,-109.375000
2993,-107.421875
2994,-107.421875
2995,-105.468750
2996,-101.562500
2997,-101.562500
2998,-97.656250
2999,-95.703125
3000,-93.750000
3001,-87.890625
3002,-89.843750
3003,-85.937500
3004,-83.984375
3005,-82.031250
3006,-80.078125
3007,-76.171875
3008,-74.218750
3009,-72.265625
3010,-68.359375
3011,-66.406250
3012,-64.453125
3013,-60.546875
3014,-58.593750
3015,-54.687500
3016,-52.734375
3017,-50.781250
3018,-46.875000
3019,-44.921875
3020,-41.015625
3021,-39.062500
3022,-35.156250
3023,-33.203125
3024,-29.296875
3025,-27.343750
3026,-25.390625
3027,-21.484375
3028,-19.531250
3029,-15.625000
3030,-13.671875
3031,-9.765625
3032,-7.812500
3033,-3.906250
3034,-1.953125
3035,1.953125
3036,3.906250
3037,5.859375
3038,9.765625
3039,11.718750
3040,13.671875
3041,17.578125
3042,19.531250
3043,23.437500
3044,25.390625
3045,27.343750
3046,31.250000
3047,33.203125
3048,35.156250
3049,39.062500
3050,41.015625
3051,42.968750
3052,44.921875
3053,48.828125
3054,50.781250
3055,52.734375
3056,54.687500
3057,56.640625
3058,58.593750
3059,60.546875
3060,64.453125
3061,66.406250
3062,66.406250
3063,70.312500
3064,72.265625
3065,74.218750
3066,76.171875
3067,76.171875
3068,80.078125
3069,80.078125
3070,82.031250
3071,83.984375
3072,85.937500
3073,87.890625
3074,89.843750
3075,89.843750
3076,91.796875
3077,93.750000
3078,93.750000
3079,95.703125
3080,97.656250
3081,97.656250
3082,99.609375
3083,101.562500
3084,101.562500
3085,103.515625
3086,103.515625
3087,105.468750
3088,105.468750
3089,105.468750
3090,107.421875
3091,107.421875
3092,109.375000
3093,109.375000
3094,109.375000
3095,109.375000
3096,109.375000
3097,111.328125
3098,111.328125
3099,111.328125
3100,111.328125
3101,111.328125
3102,111.328125
3103,111.328125
3104,111.328125
3105,111.328125
3106,113.281250
3107,111.328125
3108,111.328125
3109,111.328125
3110,111.328125
3111,111.328125
3112,109.375000
3113,109.375000
3114,109.375000
3115,109.375000
3116,107.421875
3117,107.421875
3118,107.421875
3119,105.468750
3120,105.468750
3121,105.468750
3122,103.515625
3123,103.515625
3124,101.562500
3125,99.609375
3126,99.609375
3127,99.609375
3128,97.656250
3129,95.703125
3130,93.750000
3131,93.750000
3132,91.796875
3133,89.843750
3134,89.843750
3135,87.890625
3136,85.937500
3137,83.984375
3138,83.984375
3139,82.031250
3140,80.078125
3141,78.125000
3142,76.171875
3143,74.218750
3144,72.265625
3145,70.312500
3146,68.359375
3147,66.406250
3148,64.453125
3149,62.500000
3150,58.593750
3151,56.640625
3152,54.687500
3153,52.734375
3154,50.781250
3155,48.828125
3156,44.921875
3157,42.968750
3158,41.015625
3159,39.062500
3160,37.109375
3161,33.203125
3162,31.250000
3163,27.343750
3164,25.390625
3165,23.437500
3166,19.531250
3167,17.578125
3168,15.625000
3169,11.718750
3170,9.765625
3171,5.859375
3172,3.906250
3173,1.953125
3174,-1.953125
3175,-5.859375
3176,-7.812500
3177,-11.718750
3178,-13.671875
3179,-15.625000
3180,-19.531250
3181,-21.484375
3182,-25.390625
3183,-29.296875
3184,-31.250000
3185,-33.203125
3186,-37.109375
3187,-39.062500
3188,-42.968750
3189,-46.875000
3190,-46.875000
3191,-48.828125
3192,-52.734375
3193,-56.640625
3194,-58.593750
3195,-62.500000
3196,-64.453125
3197,-66.406250
3198,-68.359375
3199,-72.265625
3200,-74.218750
3201,-78.125000
3202,-80.078125
3203,-82.031250
3204,-85.937500
3205,-87.890625
3206,-89.843750
3207,-91.796875
3208,-95.703125
3209,-95.703125
3210,-97.656250
3211,-101.562500
3212,-103.515625
3213,-105.468750
3214,-107.421875
3215,-109.375000
3216,-111.328125
3217,-113.281250
3218,-113.281250
3219,-115.234375
3220,-117.187500
3221,-119.140625
3222,-121.093750
3223,-121.093750
3224,-123.046875
3225,-125.000000
3226,-126.953125
3227,-128.906250
3228,-128.906250
3229,-128.906250
3230,-130.859375
3231,-132.812500
3232,-132.812500
3233,-134.765625
3234,-134.765625
3235,-134.765625
3236,-136.718750
3237,-136.718750
3238,-136.718750
3239,-136.718750
3240,-138.671875
3241,-138.671875
3242,-138.671875
3243,-138.671875
3244,-140.625000
3245,-138.671875
3246,-138.671875
3247,-138.671875
3248,-138.671875
3249,-138.671875
3250,-138.671875
3251,-136.718750
3252,-136.718750
3253,-136.718750
3254,-136.718750
3255,-134.765625
3256,-134.765625
3257,-132.812500
3258,-132.812500
3259,-132.812500
3260,-130.859375
3261,-130.859375
3262,-128.906250
3263,-128.906250
3264,-126.953125
3265,-125.000000
3266,-125.000000
3267,-123.046875
3268,-121.093750
3269,-119.140625
3270,-119.140625
3271,-117.187500
3272,-115.234375
3273,-113.281250
3274,-111.328125
3275,-109.375000
3276,-107.421875
3277,-105.468750
3278,-101.562500
3279,-101.562500
3280,-97.656250
3281,-97.656250
3282,-93.750000
3283,-91.796875
3284,-89.843750
3285,-87.890625
3286,-83.984375
3287,-82.031250
3288,-80.078125
3289,-76.171875
3290,-74.218750
3291,-72.265625
3292,-70.312500
3293,-66.406250
3294,-64.453125
3295,-60.546875
3296,-58.593750
3297,-56.640625
3298,-52.734375
3299,-50.781250
3300,-48.828125
3301,-44.921875
3302,-42.968750
3303,-39.062500
3304,-37.109375
3305,-33.203125
3306,-31.250000
3307,-29.296875
3308,-25.390625
3309,-21.484375
3310,-19.531250
3311,-17.578125
3312,-13.671875
3313,-11.718750
3314,-7.812500
3315,-5.859375
3316,-3.906250
3317,0.000000
3318,1.953125
3319,5.859375
3320,7.812500
3321,11.718750
3322,13.671875
3323,15.625000
3324,19.531250
3325,21.484375
3326,25.390625
3327,27.343750
3328,29.296875
3329,31.250000
3330,35.156250
3331,37.109375
3332,39.062500
3333,42.968750
3334,44.921875
3335,46.875000
3336,50.781250
3337,50.781250
3338,54.687500
3339,56.640625
3340,58.593750
3341,60.546875
3342,62.500000
3343,64.453125
3344,66.406250
3345,68.359375
3346,72.265625
3347,74.218750
3348,74.218750
3349,76.171875
3350,80.078125
3351,80.078125
3352,82.031250
3353,83.984375
3354,85.937500
3355,87.890625
3356,89.843750
3357,89.843750
3358,91.796875
3359,91.796875
3360,95.703125
3361,95.703125
3362,97.656250
3363,97.656250
3364,99.609375
3365,99.609375
3366,101.562500
3367,101.562500
3368,103.515625
3369,103.515625
3370,105.468750
3371,105.468750
3372,105.468750
3373,107.421875
3374,107.421875
3375,109.375000
3376,109.375000
3377,107.421875
3378,109.375000
3379,111.328125
3380,111.328125
3381,111.328125
3382,111.328125
3383,111.328125
3384,111.328125
3385,111.328125
3386,111.328125
3387,111.328125
3388,111.328125
3389,111.328125
3390,111.328125
3391,111.328125
3392,111.328125
3393,111.328125
3394,111.328125
3395,109.375000
3396,109.375000
3397,109.375000
3398,107.421875
3399,107.421875
3400,107.421875
3401,105.468750
3402,105.468750
3403,105.468750
3404,103.515625
3405,103.515625
3406,101.562500
3407,101.562500
3408,101.562500
3409,99.609375
3410,97.656250
3411,95.703125
3412,95.703125
3413,93.750000
3414,93.750000
3415,91.796875
3416,89.843750
3417,87.890625
3418,85.937500
3419,83.984375
3420,83.984375
3421,82.031250
3422,80.078125
3423,78.125000
3424,76.171875
3425,74.218750
3426,72.265625
3427,72.265625
3428,68.359375
3429,66.406250
3430,64.453125
3431,62.500000
3432,60.546875
3433,58.593750
3434,56.640625
3435,52.734375
3436,50.781250
3437,48.828125
3438,46.875000
3439,44.921875
3440,41.015625
3441,39.062500
3442,37.109375
3443,35.156250
3444,31.250000
3445,29.296875
3446,27.343750
3447,23.437500
3448,21.484375
3449,17.578125
3450,15.625000
3451,13.671875
3452,9.765625
3453,7.812500
3454,3.906250
3455,1.953125
3456,-1.953125
3457,-3.906250
3458,-7.812500
3459,-9.765625
3460,-11.718750
3461,-15.625000
3462,-19.531250
3463,-21.484375
3464,-23.437500
3465,-27.343750
3466,-29.296875
3467,-33.203125
3468,-35.156250
3469,-39.062500
3470,-41.015625
3471,-44.921875
3472,-46.875000
3473,-48.828125
3474,-52.734375
3475,-54.687500
3476,-56.640625
3477,-60.546875
3478,-62.500000
3479,-66.406250
3480,-68.359375
3481,-70.312500
3482,-74.218750
3483,-76.171875
3484,-78.125000
3485,-80.078125
3486,-82.031250
3487,-85.937500
3488,-87.890625
3489,-89.843750
3490,-93.750000
3491,-95.703125
3492,-97.656250
3493,-99.609375
3494,-101.562500
3495,-103.515625
3496,-105.468750
3497,-107.421875
3498,-109.375000
3499,-111.328125
3500,-113.281250
3501,-115.234375
3502,-117.187500
3503,-119.140625
3504,-119.140625
3505,-121.093750
3506,-123.046875
3507,-125.000000
3508,-125.000000
3509,-126.953125
3510,-128.906250
3511,-128.906250
3512,-130.859375
3513,-130.859375
3514,-132.812500
3515,-132.812500
3516,-134.765625
3517,-134.765625
3518,-136.718750
3519,-136.718750
3520,-136.718750
3521,-136.718750
3522,-136.718750
3523,-136.718750
3524,-138.671875
3525,-138.671875
3526,-138.671875
3527,-138.671875
3528,-138.671875
3529,-138.671875
3530,-138.671875
3531,-138.671875
3532,-136.718750
3533,-136.718750
3534,-136.718750
3535,-136.718750
3536,-134.765625
3537,-134.765625
3538,-134.765625
3539,-132.812500
3540,-132.812500
3541,-130.859375
3542,-130.859375
3543,-128.906250
3544,-128.906250
3545,-126.953125
3546,-123.046875
3547,-125.000000
3548,-123.046875
3549,-121.093750
3550,-121.093750
3551,-119.140625
3552,-117.187500
3553,-115.234375
3554,-113.281250
3555,-111.328125
3556,-111.328125
3557,-107.421875
3558,-105.468750
3559,-105.468750
3560,-103.515625
3561,-99.609375
3562,-97.656250
3563,-97.656250
3564,-93.750000
3565,-91.796875
3566,-89.843750
3567,-87.890625
3568,-83.984375
3569,-82.031250
3570,-80.078125
3571,-78.125000
3572,-74.218750
3573,-72.265625
3574,-70.312500
3575,-68.359375
3576,-64.453125
3577,-62.500000
3578,-62.500000
3579,-56.640625
3580,-52.734375
3581,-50.781250
3582,-48.828125
3583,-44.921875
3584,-42.968750
3585,-41.015625
3586,-37.109375
3587,-35.156250
3588,-31.250000
3589,-29.296875
3590,-25.390625
3591,-23.437500
3592,-19.531250
3593,-17.578125
3594,-13.671875
3595,-11.718750
3596,-9.765625
3597,-5.859375
3598,-3.906250
3599,0.000000
3600,1.953125
3601,5.859375
3602,7.812500
3603,9.765625
3604,13.671875
3605,15.625000
3606,19.531250
3607,21.484375
3608,23.437500
3609,27.343750
3610,29.296875
3611,33.203125
3612,35.156250
3613,37.109375
3614,41.015625
3615,42.968750
3616,44.921875
3617,46.875000
3618,48.828125
3619,50.781250
3620,54.687500
3621,56.640625
3622,58.593750
3623,60.546875
3624,62.500000
3625,64.453125
3626,68.359375
3627,68.359375
3628,70.312500
3629,74.218750
3630,74.218750
3631,76.171875
3632,78.125000
3633,80.078125
3634,82.031250
3635,83.984375
3636,83.984375
3637,85.937500
3638,87.890625
3639,89.843750
3640,91.796875
3641,91.796875
3642,93.750000
3643,95.703125
3644,95.703125
3645,97.656250
3646,99.609375
3647,99.609375
3648,101.562500
3649,101.562500
3650,103.515625
3651,103.515625
3652,105.468750
3653,105.468750
3654,105.468750
3655,107.421875
3656,107.421875
3657,109.375000
3658,109.375000
3659,109.375000
3660,109.375000
3661,109.375000
3662,111.328125
3663,111.328125
3664,111.328125
3665,111.328125
3666,111.328125
3667,111.328125
3668,111.328125
3669,111.328125
3670,111.328125
3671,111.328125
3672,111.328125
3673,111.328125
3674,111.328125
3675,111.328125
3676,111.328125
3677,111.328125
3678,109.375000
3679,109.375000
3680,109.375000
3681,109.375000
3682,107.421875
3683,107.421875
3684,105.468750
3685,105.468750
3686,105.468750
3687,103.515625
3688,103.515625
3689,101.562500
3690,101.562500
3691,99.609375
3692,97.656250
3693,97.656250
3694,95.703125
3695,95.703125
3696,93.750000
3697,91.796875
3698,89.843750
3699,87.890625
3700,87.890625
3701,85.937500
3702,83.984375
3703,82.031250
3704,80.078125
3705,80.078125
3706,78.125000
3707,74.218750
3708,72.265625
3709,72.265625
3710,70.312500
3711,68.359375
3712,64.453125
3713,64.453125
3714,60.546875
3715,58.593750
3716,56.640625
3717,54.687500
3718,52.734375
3719,48.828125
3720,46.875000
3721,44.921875
3722,42.968750
3723,39.062500
3724,37.109375
3725,35.156250
3726,31.250000
3727,29.296875
3728,27.343750
3729,25.390625
3730,21.484375
3731,19.531250
3732,15.625000
3733,13.671875
3734,11.718750
3735,7.812500
3736,5.859375
3737,1.953125
3738,0.000000
3739,-3.906250
3740,-5.859375
3741,-9.765625
3742,-11.718750
3743,-13.671875
3744,-17.578125
3745,-19.531250
3746,-23.437500
3747,-23.437500
3748,-29.296875
3749,-31.250000
3750,-35.156250
3751,-37.109375
3752,-39.062500
3753,-42.968750
3754,-46.875000
3755,-48.828125
3756,-50.781250
3757,-54.687500
3758,-56.640625
3759,-60.546875
3760,-62.500000
3761,-64.453125
3762,-68.359375
3763,-70.312500
3764,-72.265625
3765,-78.125000
3766,-78.125000
3767,-80.078125
3768,-82.031250
3769,-85.937500
3770,-87.890625
3771,-91.796875
3772,-91.796875
3773,-93.750000
3774,-93.750000
3775,-99.609375
3776,-101.562500
3777,-103.515625
3778,-105.468750
3779,-107.421875
3780,-109.375000
3781,-111.328125
3782,-111.328125
3783,-115.234375
3784,-117.187500
3785,-117.187500
3786,-119.140625
3787,-121.093750
3788,-123.046875
3789,-125.000000
3790,-125.000000
3791,-126.953125
3792,-128.906250
3793,-128.906250
3794,-130.859375
3795,-130.859375
3796,-130.859375
3797,-132.812500
3798,-132.812500
3799,-134.765625
3800,-134.765625
3801,-134.765625
3802,-136.718750
3803,-136.718750
3804,-136.718750
3805,-136.718750
3806,-138.671875
3807,-138.671875
3808,-138.671875
3809,-138.671875
3810,-138.671875
3811,-138.671875
3812,-138.671875
3813,-138.671875
3814,-136.718750
3815,-136.718750
3816,-136.718750
3817,-134.765625
3818,-134.765625
3819,-134.765625
3820,-134.765625
3821,-134.765625
3822,-132.812500
3823,-130.859375
3824,-130.859375
3825,-130.859375
3826,-128.906250
3827,-126.953125
3828,-126.953125
3829,-125.000000
3830,-125.000000
3831,-123.046875
3832,-121.093750
3833,-119.140625
3834,-119.140625
3835,-115.234375
3836,-113.281250
3837,-113.281250
3838,-111.328125
3839,-109.375000
3840,-107.421875
3841,-105.468750
3842,-103.515625
3843,-101.562500
3844,-99.609375
3845,-97.656250
3846,-95.703125
3847,-91.796875
3848,-91.796875
3849,-87.890625
3850,-85.937500
3851,-83.984375
3852,-82.031250
3853,-78.125000
3854,-76.171875
3855,-74.218750
3856,-70.312500
3857,-68.359375
3858,-66.406250
3859,-62.500000
3860,-60.546875
3861,-58.593750
3862,-54.687500
3863,-52.734375
3864,-48.828125
3865,-44.921875
3866,-42.968750
3867,-41.015625
3868,-39.062500
3869,-35.156250
3870,-31.250000
3871,-29.296875
3872,-25.390625
3873,-23.437500
3874,-21.484375
3875,-17.578125
3876,-13.671875
3877,-11.718750
3878,-9.765625
3879,-5.859375
3880,-3.906250
3881,0.000000
3882,1.953125
3883,3.906250
3884,7.812500
3885,9.765625
3886,13.671875
3887,15.625000
3888,17.578125
3889,21.484375
3890,25.390625
3891,25.390625
3892,29.296875
3893,31.250000
3894,33.203125
3895,37.109375
3896,39.062500
3897,41.015625
3898,44.921875
3899,46.875000
3900,48.828125
3901,50.781250
3902,52.734375
3903,54.687500
3904,56.640625
3905,60.546875
3906,60.546875
3907,64.453125
3908,66.406250
3909,68.359375
3910,72.265625
3911,72.265625
3912,74.218750
3913,76.171875
3914,78.125000
3915,80.078125
3916,82.031250
3917,83.984375
3918,85.937500
3919,85.937500
3920,87.890625
3921,89.843750
3922,91.796875
3923,89.843750
3924,93.750000
3925,95.703125
3926,95.703125
3927,97.656250
3928,99.609375
3929,99.609375
3930,101.562500
3931,101.562500
3932,103.515625
3933,103.515625
3934,105.468750
3935,105.468750
3936,105.468750
3937,107.421875
3938,107.421875
3939,109.375000
3940,109.375000
3941,109.375000
3942,109.375000
3943,111.328125
3944,111.328125
3945,111.328125
3946,111.328125
3947,111.328125
3948,111.328125
3949,113.281250
3950,113.281250
3951,113.281250
3952,111.328125
3953,113.281250
3954,113.281250
3955,111.328125
3956,111.328125
3957,111.328125
3958,111.328125
3959,111.328125
3960,111.328125
3961,109.375000
3962,109.375000
3963,109.375000
3964,107.421875
3965,105.468750
3966,109.375000
3967,105.468750
3968,105.468750
3969,103.515625
3970,103.515625
3971,101.562500
3972,101.562500
3973,99.609375
3974,97.656250
3975,97.656250
3976,95.703125
3977,95.703125
3978,95.703125
3979,91.796875
3980,91.796875
3981,89.843750
3982,87.890625
3983,85.937500
3984,83.984375
3985,83.984375
3986,82.031250
3987,80.078125
3988,78.125000
3989,76.171875
3990,74.218750
3991,72.265625
3992,70.312500
3993,68.359375
3994,66.406250
3995,64.453125
3996,62.500000
3997,58.593750
3998,58.593750
3999,56.640625
4000,52.734375
4001,50.781250
4002,48.828125
4003,46.875000
4004,42.968750
4005,41.015625
4006,39.062500
4007,35.156250
4008,33.203125
4009,31.250000
4010,27.343750
4011,25.390625
4012,23.437500
4013,21.484375
4014,17.578125
4015,15.625000
4016,11.718750
4017,9.765625
4018,5.859375
4019,3.906250
4020,0.000000
4021,-1.953125
4022,-3.906250
4023,-7.812500
4024,-11.718750
4025,-13.671875
4026,-15.625000
4027,-17.578125
4028,-21.484375
4029,-25.390625
4030,-27.343750
4031,-31.250000
4032,-33.203125
4033,-37.109375
4034,-39.062500
4035,-41.015625
4036,-44.921875
4037,-48.828125
4038,-50.781250
4039,-52.734375
4040,-54.687500
4041,-58.593750
4042,-60.546875
4043,-64.453125
4044,-66.406250
4045,-68.359375
4046,-70.312500
4047,-74.218750
4048,-76.171875
4049,-78.125000
4050,-82.031250
4051,-83.984375
4052,-85.937500
4053,-87.890625
4054,-91.796875
4055,-93.750000
4056,-95.703125
4057,-97.656250
4058,-99.609375
4059,-101.562500
4060,-103.515625
4061,-105.468750
4062,-107.421875
4063,-109.375000
4064,-111.328125
4065,-113.281250
4066,-115.234375
4067,-117.187500
4068,-117.187500
4069,-119.140625
4070,-121.093750
4071,-123.046875
4072,-123.046875
4073,-125.000000
4074,-126.953125
4075,-126.953125
4076,-128.906250
4077,-130.859375
4078,-130.859375
4079,-130.859375
4080,-132.812500
4081,-134.765625
4082,-134.765625
4083,-134.765625
4084,-132.812500
4085,-136.718750
4086,-136.718750
4087,-136.718750
4088,-136.718750
4089,-136.718750
4090,-138.671875
4091,-136.718750
4092,-138.671875
4093,-136.718750
4094,-138.671875
4095,-138.671875
4096,-136.718750
4097,-136.718750
4098,-136.718750
4099,-136.718750
4100,-134.765625
4101,-134.765625
4102,-134.765625
4103,-132.812500
4104,-132.812500
4105,-132.812500
4106,-130.859375
4107,-128.906250
4108,-128.906250
4109,-128.906250
4110,-126.953125
4111,-125.000000
4112,-125.000000
4113,-123.046875
4114,-121.093750
4115,-119.140625
4116,-117.187500
4117,-115.234375
4118,-115.234375
4119,-113.281250
4120,-111.328125
4121,-109.375000
4122,-107.421875
4123,-105.468750
4124,-103.515625
4125,-101.562500
4126,-99.609375
4127,-97.656250
4128,-95.703125
4129,-91.796875
4130,-89.843750
4131,-87.890625
4132,-85.937500
4133,-83.984375
4134,-82.031250
4135,-78.125000
4136,-76.171875
4137,-74.218750
4138,-70.312500
4139,-68.359375
4140,-66.406250
4141,-62.500000
4142,-58.593750
4143,-58.593750
4144,-54.687500
4145,-52.734375
4146,-48.828125
4147,-46.875000
4148,-44.921875
4149,-41.015625
4150,-39.062500
4151,-35.156250
4152,-33.203125
4153,-29.296875
4154,-27.343750
4155,-25.390625
4156,-21.484375
4157,-17.578125
4158,-15.625000
4159,-11.718750
4160,-9.765625
4161,-7.812500
4162,-3.906250
4163,-1.953125
4164,1.953125
4165,3.906250
4166,5.859375
4167,9.765625
4168,11.718750
4169,15.625000
4170,17.578125
4171,19.531250
4172,23.437500
4173,27.343750
4174,27.343750
4175,31.250000
4176,33.203125
4177,37.109375
4178,39.062500
4179,41.015625
4180,42.968750
4181,44.921875
4182,48.828125
4183,50.781250
4184,52.734375
4185,54.687500
4186,56.640625
4187,60.546875
4188,62.500000
4189,64.453125
4190,66.406250
4191,68.359375
4192,70.312500
4193,72.265625
4194,74.218750
4195,76.171875
4196,78.125000
4197,80.078125
4198,82.031250
4199,83.984375
4200,85.937500
4201,85.937500
4202,87.890625
4203,89.843750
4204,89.843750
4205,91.796875
4206,93.750000
4207,95.703125
4208,95.703125
4209,97.656250
4210,97.656250
4211,99.609375
4212,101.562500
4213,101.562500
4214,103.515625
4215,103.515625
4216,105.468750
4217,105.468750
4218,105.468750
4219,107.421875
4220,107.421875
4221,107.421875
4222,109.375000
4223,109.375000
4224,109.375000
4225,109.375000
4226,111.328125
4227,111.328125
4228,111.328125
4229,111.328125
4230,111.328125
4231,111.328125
4232,111.328125
4233,111.328125
4234,111.328125
4235,111.328125
4236,111.328125
4237,111.328125
4238,111.328125
4239,111.328125
4240,111.328125
4241,111.328125
4242,111.328125
4243,111.328125
4244,109.375000
4245,109.375000
4246,107.421875
4247,107.421875
4248,107.421875
4249,105.468750
4250,105.468750
4251,103.515625
4252,103.515625
4253,101.562500
4254,101.562500
4255,99.609375
4256,99.609375
4257,97.656250
4258,97.656250
4259,95.703125
4260,93.750000
4261,91.796875
4262,91.796875
4263,89.843750
4264,87.890625
4265,85.937500
4266,85.937500
4267,83.984375
4268,82.031250
4269,80.078125
4270,78.125000
4271,76.171875
4272,74.218750
4273,72.265625
4274,72.265625
4275,68.359375
4276,66.406250
4277,64.453125
4278,62.500000
4279,60.546875
4280,58.593750
4281,56.640625
4282,52.734375
4283,50.781250
4284,50.781250
4285,46.875000
4286,42.968750
4287,41.015625
4288,39.062500
4289,37.109375
4290,33.203125
4291,31.250000
4292,29.296875
4293,25.390625
4294,23.437500
4295,21.484375
4296,17.578125
4297,15.625000
4298,11.718750
4299,9.765625
4300,5.859375
4301,3.906250
4302,1.953125
4303,-1.953125
4304,-3.906250
4305,-7.812500
4306,-9.765625
4307,-13.671875
4308,-15.625000
4309,-19.531250
4310,-21.484375
4311,-23.437500
4312,-27.343750
4313,-29.296875
4314,-33.203125
4315,-35.156250
4316,-39.062500
4317,-41.015625
4318,-42.968750
4319,-46.875000
4320,-48.828125
4321,-52.734375
4322,-54.687500
4323,-56.640625
4324,-60.546875
4325,-62.500000
4326,-66.406250
4327,-68.359375
4328,-70.312500
4329,-74.218750
4330,-76.171875
4331,-78.125000
4332,-80.078125
4333,-83.984375
4334,-85.937500
4335,-87.890625
4336,-91.796875
4337,-93.750000
4338,-95.703125
4339,-97.656250
4340,-99.609375
4341,-101.562500
4342,-103.515625
4343,-105.468750
4344,-107.421875
4345,-109.375000
4346,-111.328125
4347,-113.281250
4348,-115.234375
4349,-117.187500
4350,-117.187500
4351,-119.140625
4352,-121.093750
4353,-125.000000
4354,-125.000000
4355,-125.000000
4356,-126.953125
4357,-128.906250
4358,-128.906250
4359,-130.859375
4360,-130.859375
4361,-132.812500
4362,-132.812500
4363,-134.765625
4364,-136.718750
4365,-134.765625
4366,-136.718750
4367,-136.718750
4368,-136.718750
4369,-136.718750
4370,-138.671875
4371,-138.671875
4372,-138.671875
4373,-138.671875
4374,-136.718750
4375,-138.671875
4376,-138.671875
4377,-138.671875
4378,-138.671875
4379,-136.718750
4380,-136.718750
4381,-136.718750
4382,-134.765625
4383,-134.765625
4384,-134.765625
4385,-134.765625
4386,-132.812500
4387,-130.859375
4388,-130.859375
4389,-130.859375
4390,-128.906250
4391,-126.953125
4392,-126.953125
4393,-125.000000
4394,-123.046875
4395,-123.046875
4396,-121.093750
4397,-121.093750
4398,-119.140625
4399,-117.187500
4400,-115.234375
4401,-113.281250
4402,-111.328125
4403,-109.375000
4404,-107.421875
4405,-105.468750
4406,-103.515625
4407,-101.562500
4408,-99.609375
4409,-97.656250
4410,-95.703125
4411,-93.750000
4412,-89.843750
4413,-87.890625
4414,-87.890625
4415,-83.984375
4416,-82.031250
4417,-80.078125
4418,-76.171875
4419,-74.218750
4420,-72.265625
4421,-70.312500
4422,-66.406250
4423,-64.453125
4424,-60.546875
4425,-58.593750
4426,-56.640625
4427,-52.734375
4428,-50.781250
4429,-46.875000
4430,-44.921875
4431,-42.968750
4432,-39.062500
4433,-37.109375
4434,-33.203125
4435,-31.250000
4436,-27.343750
4437,-25.390625
4438,-21.484375
4439,-19.531250
4440,-15.625000
4441,-13.671875
4442,-11.718750
4443,-7.812500
4444,-5.859375
4445,-1.953125
4446,0.000000
4447,3.906250
4448,5.859375
4449,9.765625
4450,11.718750
4451,13.671875
4452,17.578125
4453,19.531250
4454,23.437500
4455,25.390625
4456,27.343750
4457,31.250000
4458,33.203125
4459,35.156250
4460,39.062500
4461,41.015625
4462,42.968750
4463,44.921875
4464,48.828125
4465,50.781250
4466,52.734375
4467,54.687500
4468,56.640625
4469,60.546875
4470,60.546875
4471,64.453125
4472,66.406250
4473,68.359375
4474,70.312500
4475,72.265625
4476,74.218750
4477,76.171875
4478,78.125000
4479,78.125000
4480,82.031250
4481,82.031250
4482,83.984375
4483,85.937500
4484,87.890625
4485,89.843750
4486,91.796875
4487,91.796875
4488,93.750000
4489,93.750000
4490,95.703125
4491,97.656250
4492,97.656250
4493,99.609375
4494,101.562500
4495,101.562500
4496,103.515625
4497,103.515625
4498,105.468750
4499,105.468750
4500,105.468750
4501,107.421875
4502,107.421875
4503,109.375000
4504,109.375000
4505,109.375000
4506,109.375000
4507,111.328125
4508,111.328125
4509,111.328125
4510,109.375000
4511,111.328125
4512,113.281250
4513,113.281250
4514,113.281250
4515,111.328125
4516,113.281250
4517,113.281250
4518,113.281250
4519,111.328125
4520,111.328125
4521,113.281250
4522,111.328125
4523,111.328125
4524,111.328125
4525,111.328125
4526,109.375000
4527,109.375000
4528,107.421875
4529,107.421875
4530,107.421875
4531,107.421875
4532,105.468750
4533,105.468750
4534,103.515625
4535,103.515625
4536,101.562500
4537,101.562500
4538,99.609375
4539,97.656250
4540,97.656250
4541,95.703125
4542,95.703125
4543,93.750000
4544,91.796875
4545,89.843750
4546,87.890625
4547,87.890625
4548,85.937500
4549,83.984375
4550,82.031250
4551,80.078125
4552,80.078125
4553,74.218750
4554,76.171875
4555,72.265625
4556,70.312500
4557,68.359375
4558,66.406250
4559,66.406250
4560,62.500000
4561,58.593750
4562,58.593750
4563,56.640625
4564,54.687500
4565,52.734375
4566,48.828125
4567,46.875000
4568,44.921875
4569,42.968750
4570,39.062500
4571,37.109375
4572,33.203125
4573,31.250000
4574,29.296875
4575,27.343750
4576,25.390625
4577,21.484375
4578,19.531250
4579,15.625000
4580,13.671875
4581,11.718750
4582,7.812500
4583,5.859375
4584,1.953125
4585,0.000000
4586,-3.906250
4587,-5.859375
4588,-7.812500
4589,-11.718750
4590,-13.671875
4591,-17.578125
4592,-19.531250
4593,-23.437500
4594,-25.390625
4595,-29.296875
4596,-31.250000
4597,-35.156250
4598,-37.109375
4599,-39.062500
4600,-42.968750
4601,-46.875000
4602,-48.828125
4603,-50.781250
4604,-54.687500
4605,-56.640625
4606,-60.546875
4607,-62.500000
4608,-64.453125
4609,-68.359375
4610,-70.312500
4611,-74.218750
4612,-76.171875
4613,-78.125000
4614,-80.078125
4615,-83.984375
4616,-85.937500
4617,-87.890625
4618,-89.843750
4619,-91.796875
4620,-93.750000
4621,-97.656250
4622,-99.609375
4623,-101.562500
4624,-103.515625
4625,-105.468750
4626,-107.421875
4627,-109.375000
4628,-111.328125
4629,-113.281250
4630,-115.234375
4631,-117.187500
4632,-117.187500
4633,-119.140625
4634,-121.093750
4635,-123.046875
4636,-123.046875
4637,-125.000000
4638,-126.953125
4639,-126.953125
4640,-128.906250
4641,-128.906250
4642,-130.859375
4643,-132.812500
4644,-132.812500
4645,-132.812500
4646,-134.765625
4647,-134.765625
4648,-136.718750
4649,-136.718750
4650,-136.718750
4651,-136.718750
4652,-138.671875
4653,-136.718750
4654,-138.671875
4655,-138.671875
4656,-138.671875
4657,-138.671875
4658,-136.718750
4659,-136.718750
4660,-136.718750
4661,-136.718750
4662,-136.718750
4663,-136.718750
4664,-136.718750
4665,-134.765625
4666,-132.812500
4667,-134.765625
4668,-132.812500
4669,-132.812500
4670,-130.859375
4671,-130.859375
4672,-128.906250
4673,-128.906250
4674,-126.953125
4675,-126.953125
4676,-125.000000
4677,-123.046875
4678,-123.046875
4679,-121.093750
4680,-119.140625
4681,-117.187500
4682,-117.187500
4683,-115.234375
4684,-113.281250
4685,-111.328125
4686,-109.375000
4687,-109.375000
4688,-105.468750
4689,-103.515625
4690,-101.562500
4691,-99.609375
4692,-97.656250
4693,-93.750000
4694,-91.796875
4695,-87.890625
4696,-87.890625
4697,-83.984375
4698,-83.984375
4699,-80.078125
4700,-78.125000
4701,-74.218750
4702,-76.171875
4703,-70.312500
4704,-68.359375
4705,-64.453125
4706,-62.500000
4707,-58.593750
4708,-56.640625
4709,-52.734375
4710,-50.781250
4711,-48.828125
4712,-44.921875
4713,-42.968750
4714,-39.062500
4715,-37.109375
4716,-33.203125
4717,-31.250000
4718,-29.296875
4719,-25.390625
4720,-23.437500
4721,-19.531250
4722,-17.578125
4723,-15.625000
4724,-11.718750
4725,-7.812500
4726,-5.859375
4727,-3.906250
4728,0.000000
4729,1.953125
4730,3.906250
4731,7.812500
4732,11.718750
4733,13.671875
4734,15.625000
4735,17.578125
4736,21.484375
4737,23.437500
4738,27.343750
4739,29.296875
4740,31.250000
4741,35.156250
4742,37.109375
4743,39.062500
4744,41.015625
4745,44.921875
4746,46.875000
4747,48.828125
4748,50.781250
4749,54.687500
4750,56.640625
4751,56.640625
4752,60.546875
4753,62.500000
4754,64.453125
4755,66.406250
4756,70.312500
4757,70.312500
4758,72.265625
4759,74.218750
4760,76.171875
4761,78.125000
4762,80.078125
4763,82.031250
4764,83.984375
4765,85.937500
4766,85.937500
4767,87.890625
4768,89.843750
4769,91.796875
4770,91.796875
4771,93.750000
4772,95.703125
4773,95.703125
4774,97.656250
4775,97.656250
4776,99.609375
4777,101.562500
4778,101.562500
4779,103.515625
4780,103.515625
4781,105.468750
4782,105.468750
4783,107.421875
4784,107.421875
4785,107.421875
4786,107.421875
4787,109.375000
4788,109.375000
4789,109.375000
4790,111.328125
4791,111.328125
4792,111.328125
4793,111.328125
4794,111.328125
4795,111.328125
4796,111.328125
4797,111.328125
4798,111.328125
4799,111.328125
4800,111.328125
4801,111.328125
4802,111.328125
4803,111.328125
4804,111.328125
4805,111.328125
4806,109.375000
4807,109.375000
4808,109.375000
4809,109.375000
4810,107.421875
4811,107.421875
4812,107.421875
4813,105.468750
4814,105.468750
4815,105.468750
4816,103.515625
4817,103.515625
4818,101.562500
4819,99.609375
4820,99.609375
4821,97.656250
4822,97.656250
4823,95.703125
4824,93.750000
4825,93.750000
4826,91.796875
4827,89.843750
4828,89.843750
4829,87.890625
4830,85.937500
4831,83.984375
4832,82.031250
4833,80.078125
4834,78.125000
4835,76.171875
4836,76.171875
4837,74.218750
4838,72.265625
4839,70.312500
4840,68.359375
4841,66.406250
4842,64.453125
4843,62.500000
4844,58.593750
4845,56.640625
4846,54.687500
4847,52.734375
4848,50.781250
4849,48.828125
4850,44.921875
4851,42.968750
4852,39.062500
4853,37.109375
4854,35.156250
4855,33.203125
4856,29.296875
4857,27.343750
4858,25.390625
4859,21.484375
4860,19.531250
4861,17.578125
4862,13.671875
4863,9.765625
4864,7.812500
4865,5.859375
4866,1.953125
4867,0.000000
4868,-3.906250
4869,-5.859375
4870,-7.812500
4871,-11.718750
4872,-13.671875
4873,-17.578125
4874,-19.531250
4875,-23.437500
4876,-25.390625
4877,-29.296875
4878,-31.250000
4879,-33.203125
4880,-37.109375
4881,-41.015625
4882,-42.968750
4883,-44.921875
4884,-48.828125
4885,-50.781250
4886,-54.687500
4887,-56.640625
4888,-58.593750
4889,-62.500000
4890,-64.453125
4891,-68.359375
4892,-70.312500
4893,-72.265625
4894,-74.218750
4895,-78.125000
4896,-80.078125
4897,-82.031250
4898,-83.984375
4899,-87.890625
4900,-89.843750
4901,-91.796875
4902,-93.750000
4903,-95.703125
4904,-97.656250
4905,-101.562500
4906,-103.515625
4907,-105.468750
4908,-107.421875
4909,-109.375000
4910,-111.328125
4911,-113.281250
4912,-113.281250
4913,-115.234375
4914,-117.187500
4915,-119.140625
4916,-121.093750
4917,-123.046875
4918,-123.046875
4919,-125.000000
4920,-126.953125
4921,-126.953125
4922,-128.906250
4923,-128.906250
4924,-130.859375
4925,-130.859375
4926,-132.812500
4927,-132.812500
4928,-134.765625
4929,-134.765625
4930,-136.718750
4931,-134.765625
4932,-136.718750
4933,-136.718750
4934,-136.718750
4935,-138.671875
4936,-138.671875
4937,-138.671875
4938,-138.671875
4939,-138.671875
4940,-138.671875
4941,-138.671875
4942,-136.718750
4943,-136.718750
4944,-136.718750
4945,-136.718750
4946,-136.718750
4947,-136.718750
4948,-134.765625
4949,-134.765625
4950,-134.765625
4951,-132.812500
4952,-132.812500
4953,-130.859375
4954,-130.859375
4955,-128.906250
4956,-128.906250
4957,-126.953125
4958,-125.000000
4959,-123.046875
4960,-123.046875
4961,-121.093750
4962,-119.140625
4963,-117.187500
4964,-117.187500
4965,-115.234375
4966,-113.281250
4967,-111.328125
4968,-109.375000
4969,-107.421875
4970,-105.468750
4971,-103.515625
4972,-101.562500
4973,-99.609375
4974,-97.656250
4975,-93.750000
4976,-91.796875
4977,-89.843750
4978,-87.890625
4979,-85.937500
4980,-83.984375
4981,-80.078125
4982,-78.125000
4983,-76.171875
4984,-72.265625
4985,-70.312500
4986,-68.359375
4987,-66.406250
4988,-62.500000
4989,-60.546875
4990,-58.593750
4991,-54.687500
4992,-52.734375
4993,-48.828125
4994,-46.875000
4995,-42.968750
4996,-41.015625
4997,-39.062500
4998,-35.156250
4999,-33.203125
5000,-29.296875
5001,-27.343750
5002,-23.437500
5003,-21.484375
5004,-17.578125
5005,-15.625000
5006,-13.671875
5007,-9.765625
5008,-5.859375
5009,-3.906250
5010,-1.953125
5011,1.953125
5012,3.906250
5013,7.812500
5014,9.765625
5015,11.718750
5016,15.625000
5017,19.531250
5018,21.484375
5019,23.437500
5020,25.390625
5021,29.296875
5022,31.250000
5023,33.203125
5024,37.109375
5025,39.062500
5026,41.015625
5027,42.968750
5028,46.875000
5029,48.828125
5030,50.781250
5031,52.734375
5032,54.687500
5033,58.593750
5034,60.546875
5035,62.500000
5036,64.453125
5037,66.406250
5038,68.359375
5039,70.312500
5040,72.265625
5041,74.218750
5042,76.171875
5043,78.125000
5044,80.078125
5045,82.031250
5046,83.984375
5047,83.984375
5048,85.937500
5049,87.890625
5050,89.843750
5051,89.843750
5052,91.796875
5053,93.750000
5054,95.703125
5055,95.703125
5056,97.656250
5057,97.656250
5058,99.609375
5059,101.562500
5060,101.562500
5061,103.515625
5062,103.515625
5063,105.468750
5064,105.468750
5065,105.468750
5066,107.421875
5067,107.421875
5068,107.421875
5069,109.375000
5070,109.375000
5071,109.375000
5072,109.375000
5073,111.328125
5074,111.328125
5075,111.328125
5076,111.328125
5077,111.328125
5078,111.328125
5079,111.328125
5080,111.328125
5081,111.328125
5082,111.328125
5083,111.328125
5084,111.328125
5085,111.328125
5086,111.328125
5087,111.328125
5088,111.328125
5089,109.375000
5090,109.375000
5091,109.375000
5092,109.375000
5093,107.421875
5094,107.421875
5095,107.421875
5096,105.468750
5097,105.468750
5098,103.515625
5099,103.515625
5100,101.562500
5101,101.562500
5102,99.609375
5103,99.609375
5104,97.656250
5105,97.656250
5106,95.703125
5107,93.750000
5108,91.796875
5109,91.796875
5110,89.843750
5111,87.890625
5112,85.937500
5113,85.937500
5114,83.984375
5115,82.031250
5116,80.078125
5117,78.125000
5118,76.171875
5119,74.218750
5120,72.265625
5121,70.312500
5122,68.359375
5123,66.406250
5124,64.453125
5125,62.500000
5126,60.546875
5127,56.640625
5128,54.687500
5129,52.734375
5130,50.781250
5131,48.828125
5132,46.875000
5133,42.968750
5134,41.015625
5135,37.109375
5136,35.156250
5137,33.203125
5138,29.296875
5139,27.343750
5140,25.390625
5141,23.437500
5142,19.531250
5143,17.578125
5144,15.625000
5145,11.718750
5146,7.812500
5147,5.859375
5148,3.906250
5149,0.000000
5150,-1.953125
5151,-5.859375
5152,-7.812500
5153,-11.718750
5154,-13.671875
5155,-17.578125
5156,-19.531250
5157,-21.484375
5158,-25.390625
5159,-27.343750
5160,-31.250000
5161,-33.203125
5162,-37.109375
5163,-39.062500
5164,-41.015625
5165,-44.921875
5166,-46.875000
5167,-50.781250
5168,-52.734375
5169,-56.640625
5170,-58.593750
5171,-60.546875
5172,-64.453125
5173,-66.406250
5174,-68.359375
5175,-72.265625
5176,-74.218750
5177,-76.171875
5178,-80.078125
5179,-82.031250
5180,-83.984375
5181,-85.937500
5182,-87.890625
5183,-91.796875
5184,-93.750000
5185,-95.703125
5186,-97.656250
5187,-99.609375
5188,-101.562500
5189,-105.468750
5190,-105.468750
5191,-107.421875
5192,-111.328125
5193,-111.328125
5194,-113.281250
5195,-115.234375
5196,-117.187500
5197,-119.140625
5198,-121.093750
5199,-121.093750
5200,-123.046875
5201,-125.000000
5202,-126.953125
5203,-126.953125
5204,-128.906250
5205,-130.859375
5206,-130.859375
5207,-132.812500
5208,-132.812500
5209,-134.765625
5210,-134.765625
5211,-134.765625
5212,-136.718750
5213,-136.718750
5214,-136.718750
5215,-136.718750
5216,-136.718750
5217,-138.671875
5218,-138.671875
5219,-138.671875
5220,-138.671875
5221,-138.671875
5222,-138.671875
5223,-138.671875
5224,-138.671875
5225,-138.671875
5226,-138.671875
5227,-136.718750
5228,-136.718750
5229,-136.718750
5230,-134.765625
5231,-134.765625
5232,-134.765625
5233,-132.812500
5234,-132.812500
5235,-130.859375
5236,-130.859375
5237,-128.906250
5238,-126.953125
5239,-126.953125
5240,-126.953125
5241,-125.000000
5242,-123.046875
5243,-121.093750
5244,-121.093750
5245,-119.140625
5246,-117.187500
5247,-115.234375
5248,-113.281250
5249,-111.328125
5250,-109.375000
5251,-107.421875
5252,-105.468750
5253,-105.468750
5254,-101.562500
5255,-99.609375
5256,-97.656250
5257,-95.703125
5258,-93.750000
5259,-91.796875
5260,-87.890625
5261,-87.890625
5262,-83.984375
5263,-82.031250
5264,-80.078125
5265,-76.171875
5266,-74.218750
5267,-72.265625
5268,-70.312500
5269,-66.406250
5270,-64.453125
5271,-62.500000
5272,-58.593750
5273,-56.640625
5274,-52.734375
5275,-50.781250
5276,-46.875000
5277,-44.921875
5278,-42.968750
5279,-39.062500
5280,-35.156250
5281,-33.203125
5282,-31.250000
5283,-27.343750
5284,-25.390625
5285,-21.484375
5286,-19.531250
5287,-15.625000
5288,-13.671875
5289,-11.718750
5290,-7.812500
5291,-5.859375
5292,-1.953125
5293,0.000000
5294,3.906250
5295,5.859375
5296,9.765625
5297,11.718750
5298,15.625000
5299,17.578125
5300,19.531250
5301,21.484375
5302,25.390625
5303,27.343750
5304,29.296875
5305,33.203125
5306,35.156250
5307,39.062500
5308,41.015625
5309,42.968750
5310,44.921875
5311,46.875000
5312,48.828125
5313,52.734375
5314,54.687500
5315,56.640625
5316,58.593750
5317,60.546875
5318,64.453125
5319,64.453125
5320,68.359375
5321,70.312500
5322,70.312500
5323,74.218750
5324,74.218750
5325,76.171875
5326,78.125000
5327,80.078125
5328,82.031250
5329,83.984375
5330,85.937500
5331,87.890625
5332,87.890625
5333,89.843750
5334,91.796875
5335,91.796875
5336,93.750000
5337,95.703125
5338,97.656250
5339,97.656250
5340,99.609375
5341,99.609375
5342,101.562500
5343,103.515625
5344,103.515625
5345,103.515625
5346,105.468750
5347,105.468750
5348,107.421875
5349,107.421875
5350,107.421875
5351,109.375000
5352,109.375000
5353,111.328125
5354,109.375000
5355,111.328125
5356,111.328125
5357,111.328125
5358,111.328125
5359,111.328125
5360,111.328125
5361,111.328125
5362,113.281250
5363,111.328125
5364,111.328125
5365,111.328125
5366,111.328125
5367,111.328125
5368,111.328125
5369,111.328125
5370,111.328125
5371,111.328125
5372,109.375000
5373,109.375000
5374,109.375000
5375,107.421875
5376,107.421875
5377,107.421875
5378,105.468750
5379,105.468750
5380,105.468750
5381,103.515625
5382,101.562500
5383,101.562500
5384,99.609375
5385,99.609375
5386,97.656250
5387,95.703125
5388,95.703125
5389,93.750000
5390,93.750000
5391,91.796875
5392,89.843750
5393,87.890625
5394,85.937500
5395,85.937500
5396,82.031250
5397,82.031250
5398,80.078125
5399,78.125000
5400,76.171875
5401,74.218750
5402,72.265625
5403,70.312500
5404,68.359375
5405,66.406250
5406,64.453125
5407,62.500000
5408,60.546875
5409,58.593750
5410,54.687500
5411,54.687500
5412,50.781250
5413,48.828125
5414,46.875000
5415,42.968750
5416,41.015625
5417,39.062500
5418,37.109375
5419,33.203125
5420,31.250000
5421,29.296875
5422,27.343750
5423,23.437500
5424,21.484375
5425,17.578125
5426,15.625000
5427,13.671875
5428,9.765625
5429,7.812500
5430,3.906250
5431,1.953125
5432,-1.953125
5433,-3.906250
5434,-5.859375
5435,-9.765625
5436,-11.718750
5437,-15.625000
5438,-17.578125
5439,-21.484375
5440,-23.437500
5441,-27.343750
5442,-29.296875
5443,-33.203125
5444,-35.156250
5445,-39.062500
5446,-41.015625
5447,-42.968750
5448,-46.875000
5449,-50.781250
5450,-52.734375
5451,-54.687500
5452,-56.640625
5453,-60.546875
5454,-64.453125
5455,-66.406250
5456,-68.359375
5457,-70.312500
5458,-74.218750
5459,-76.171875
5460,-78.125000
5461,-82.031250
5462,-83.984375
5463,-85.937500
5464,-89.843750
5465,-89.843750
5466,-93.750000
5467,-95.703125
5468,-97.656250
5469,-99.609375
5470,-101.562500
5471,-103.515625
5472,-105.468750
5473,-107.421875
5474,-109.375000
5475,-111.328125
5476,-113.281250
5477,-115.234375
5478,-117.187500
5479,-117.187500
5480,-119.140625
5481,-121.093750
5482,-123.046875
5483,-123.046875
5484,-125.000000
5485,-126.953125
5486,-128.906250
5487,-128.906250
5488,-128.906250
5489,-130.859375
5490,-130.859375
5491,-132.812500
5492,-132.812500
5493,-134.765625
5494,-134.765625
5495,-134.765625
5496,-136.718750
5497,-136.718750
5498,-136.718750
5499,-136.718750
5500,-136.718750
5501,-136.718750
5502,-138.671875
5503,-138.671875
5504,-138.671875
5505,-136.718750
5506,-136.718750
5507,-138.671875
5508,-138.671875
5509,-136.718750
5510,-136.718750
5511,-136.718750
5512,-136.718750
5513,-134.765625
5514,-134.765625
5515,-132.812500
5516,-132.812500
5517,-130.859375
5518,-130.859375
5519,-128.906250
5520,-128.906250
5521,-126.953125
5522,-126.953125
5523,-125.000000
5524,-123.046875
5525,-123.046875
5526,-121.093750
5527,-119.140625
5528,-117.187500
5529,-115.234375
5530,-115.234375
5531,-113.281250
5532,-109.375000
5533,-109.375000
5534,-107.421875
5535,-105.468750
5536,-103.515625
5537,-99.609375
5538,-97.656250
5539,-95.703125
5540,-93.750000
5541,-91.796875
5542,-89.843750
5543,-87.890625
5544,-85.937500
5545,-82.031250
5546,-80.078125
5547,-78.125000
5548,-76.171875
5549,-72.265625
5550,-70.312500
5551,-66.406250
5552,-64.453125
5553,-62.500000
5554,-58.593750
5555,-56.640625
5556,-52.734375
5557,-50.781250
5558,-48.828125
5559,-44.921875
5560,-42.968750
5561,-39.062500
5562,-37.109375
5563,-35.156250
5564,-31.250000
5565,-27.343750
5566,-25.390625
5567,-23.437500
5568,-19.531250
5569,-17.578125
5570,-13.671875
5571,-11.718750
5572,-9.765625
5573,-5.859375
5574,-1.953125
5575,0.000000
5576,3.906250
5577,5.859375
5578,7.812500
5579,9.765625
5580,13.671875
5581,15.625000
5582,19.531250
5583,21.484375
5584,23.437500
5585,27.343750
5586,29.296875
5587,31.250000
5588,35.156250
5589,37.109375
5590,39.062500
5591,42.968750
5592,44.921875
5593,46.875000
5594,48.828125
5595,52.734375
5596,54.687500
5597,56.640625
5598,58.593750
5599,60.546875
5600,62.500000
5601,64.453125
5602,68.359375
5603,68.359375
5604,70.312500
5605,72.265625
5606,74.218750
5607,76.171875
5608,78.125000
5609,80.078125
5610,82.031250
5611,83.984375
5612,85.937500
5613,85.937500
5614,87.890625
5615,89.843750
5616,91.796875
5617,93.750000
5618,93.750000
5619,95.703125
5620,97.656250
5621,97.656250
5622,99.609375
5623,99.609375
5624,101.562500
5625,103.515625
5626,103.515625
5627,105.468750
5628,105.468750
5629,105.468750
5630,107.421875
5631,107.421875
5632,107.421875
5633,109.375000
5634,109.375000
5635,109.375000
5636,111.328125
5637,111.328125
5638,111.328125
5639,111.328125
5640,111.328125
5641,111.328125
5642,111.328125
5643,111.328125
5644,111.328125
5645,111.328125
5646,113.281250
5647,113.281250
5648,111.328125
5649,111.328125
5650,111.328125
5651,111.328125
5652,111.328125
5653,109.375000
5654,109.375000
5655,109.375000
5656,109.375000
5657,107.421875
5658,107.421875
5659,107.421875
5660,105.468750
5661,105.468750
5662,103.515625
5663,105.468750
5664,101.562500
5665,101.562500
5666,99.609375
5667,99.609375
5668,97.656250
5669,95.703125
5670,95.703125
5671,93.750000
5672,95.703125
5673,91.796875
5674,89.843750
5675,87.890625
5676,87.890625
5677,87.890625
5678,83.984375
5679,82.031250
5680,80.078125
5681,80.078125
5682,76.171875
5683,76.171875
5684,74.218750
5685,70.312500
5686,70.312500
5687,68.359375
5688,66.406250
5689,62.500000
5690,60.546875
5691,58.593750
5692,56.640625
5693,54.687500
5694,50.781250
5695,48.828125
5696,46.875000
5697,44.921875
5698,42.968750
5699,39.062500
5700,37.109375
5701,35.156250
5702,33.203125
5703,29.296875
5704,27.343750
5705,23.437500
5706,21.484375
5707,17.578125
5708,15.625000
5709,13.671875
5710,9.765625
5711,7.812500
5712,3.906250
5713,0.000000
5714,0.000000
5715,-5.859375
5716,-5.859375
5717,-9.765625
5718,-11.718750
5719,-15.625000
5720,-17.578125
5721,-21.484375
5722,-23.437500
5723,-27.343750
5724,-31.250000
5725,-31.250000
5726,-35.156250
5727,-39.062500
5728,-41.015625
5729,-44.921875
5730,-46.875000
5731,-48.828125
5732,-52.734375
5733,-54.687500
5734,-58.593750
5735,-60.546875
5736,-62.500000
5737,-64.453125
5738,-68.359375
5739,-70.312500
5740,-72.265625
5741,-76.171875
5742,-78.125000
5743,-80.078125
5744,-83.984375
5745,-85.937500
5746,-87.890625
5747,-89.843750
5748,-93.750000
5749,-93.750000
5750,-97.656250
5751,-99.609375
5752,-101.562500
5753,-103.515625
5754,-105.468750
5755,-107.421875
5756,-109.375000
5757,-111.328125
5758,-113.281250
5759,-115.234375
5760,-117.187500
5761,-117.187500
5762,-119.140625
5763,-121.093750
5764,-123.046875
5765,-123.046875
5766,-125.000000
5767,-126.953125
5768,-126.953125
5769,-128.906250
5770,-130.859375
5771,-130.859375
5772,-132.812500
5773,-132.812500
5774,-132.812500
5775,-134.765625
5776,-134.765625
5777,-136.718750
5778,-136.718750
5779,-136.718750
5780,-138.671875
5781,-136.718750
5782,-138.671875
5783,-138.671875
5784,-138.671875
5785,-138.671875
5786,-138.671875
5787,-138.671875
5788,-138.671875
5789,-138.671875
5790,-138.671875
5791,-136.718750
5792,-136.718750
5793,-136.718750
5794,-136.718750
5795,-134.765625
5796,-134.765625
5797,-132.812500
5798,-132.812500
5799,-132.812500
5800,-130.859375
5801,-128.906250
5802,-128.906250
5803,-126.953125
5804,-126.953125
5805,-125.000000
5806,-123.046875
5807,-123.046875
5808,-121.093750
5809,-119.140625
5810,-117.187500
5811,-115.234375
5812,-115.234375
5813,-113.281250
5814,-111.328125
5815,-109.375000
5816,-105.468750
5817,-105.468750
5818,-103.515625
5819,-101.562500
5820,-99.609375
5821,-95.703125
5822,-93.750000
5823,-91.796875
5824,-89.843750
5825,-87.890625
5826,-85.937500
5827,-83.984375
5828,-80.078125
5829,-78.125000
5830,-76.171875
5831,-72.265625
5832,-70.312500
5833,-68.359375
5834,-64.453125
5835,-62.500000
5836,-58.593750
5837,-56.640625
5838,-54.687500
5839,-50.781250
5840,-46.875000
5841,-48.828125
5842,-42.968750
5843,-41.015625
5844,-37.109375
5845,-35.156250
5846,-31.250000
5847,-29.296875
5848,-27.343750
5849,-23.437500
5850,-19.531250
5851,-17.578125
5852,-15.625000
5853,-11.718750
5854,-9.765625
5855,-5.859375
5856,-3.906250
5857,1.953125
5858,1.953125
5859,5.859375
5860,7.812500
5861,9.765625
5862,11.718750
5863,15.625000
5864,17.578125
5865,21.484375
5866,23.437500
5867,27.343750
5868,29.296875
5869,31.250000
5870,33.203125
5871,37.109375
5872,39.062500
5873,42.968750
5874,44.921875
5875,46.875000
5876,42.968750
5877,50.781250
5878,52.734375
5879,56.640625
5880,58.593750
5881,60.546875
5882,62.500000
5883,64.453125
5884,66.406250
5885,68.359375
5886,70.312500
5887,72.265625
5888,76.171875
5889,76.171875
5890,78.125000
5891,80.078125
5892,82.031250
5893,83.984375
5894,85.937500
5895,85.937500
5896,87.890625
5897,89.843750
5898,91.796875
5899,91.796875
5900,93.750000
5901,95.703125
5902,97.656250
5903,97.656250
5904,99.609375
5905,99.609375
5906,97.656250
5907,101.562500
5908,103.515625
5909,103.515625
5910,109.375000
5911,105.468750
5912,107.421875
5913,107.421875
5914,107.421875
5915,109.375000
5916,109.375000
5917,109.375000
5918,109.375000
5919,109.375000
5920,111.328125
5921,111.328125
5922,111.328125
5923,111.328125
5924,109.375000
5925,113.281250
5926,111.328125
5927,111.328125
5928,111.328125
5929,111.328125
5930,111.328125
5931,111.328125
5932,111.328125
5933,111.328125
5934,111.328125
5935,109.375000
5936,111.328125
5937,109.375000
5938,109.375000
5939,107.421875
5940,107.421875
5941,107.421875
5942,105.468750
5943,107.421875
5944,105.468750
5945,103.515625
5946,103.515625
5947,101.562500
5948,101.562500
5949,99.609375
5950,97.656250
5951,97.656250
5952,97.656250
5953,95.703125
5954,93.750000
5955,91.796875
5956,91.796875
5957,89.843750
5958,87.890625
5959,87.890625
5960,85.937500
5961,82.031250
5962,82.031250
5963,80.078125
5964,78.125000
5965,76.171875
5966,74.218750
5967,72.265625
5968,70.312500
5969,68.359375
5970,66.406250
5971,64.453125
5972,62.500000
5973,58.593750
5974,56.640625
5975,54.687500
5976,52.734375
5977,48.828125
5978,46.875000
5979,44.921875
5980,42.968750
5981,41.015625
5982,37.109375
5983,35.156250
5984,33.203125
5985,31.250000
5986,27.343750
5987,25.390625
5988,21.484375
5989,19.531250
5990,15.625000
5991,13.671875
5992,11.718750
5993,7.812500
5994,5.859375
5995,1.953125
5996,0.000000
5997,-1.953125
5998,-5.859375
5999,-7.812500
6000,-11.718750
6001,-13.671875
6002,-17.578125
6003,-19.531250
6004,-21.484375
6005,-25.390625
6006,-27.343750
6007,-31.250000
6008,-33.203125
6009,-37.109375
6010,-39.062500
6011,-41.015625
6012,-44.921875
6013,-46.875000
6014,-50.781250
6015,-52.734375
6016,-56.640625
6017,-58.593750
6018,-60.546875
6019,-64.453125
6020,-66.406250
6021,-70.312500
6022,-72.265625
6023,-74.218750
6024,-76.171875
6025,-80.078125
6026,-82.031250
6027,-83.984375
6028,-85.937500
6029,-89.843750
6030,-91.796875
6031,-93.750000
6032,-95.703125
6033,-97.656250
6034,-99.609375
6035,-103.515625
6036,-105.468750
6037,-107.421875
6038,-109.375000
6039,-109.375000
6040,-111.328125
6041,-113.281250
6042,-115.234375
6043,-117.187500
6044,-119.140625
6045,-121.093750
6046,-121.093750
6047,-123.046875
6048,-125.000000
6049,-126.953125
6050,-126.953125
6051,-128.906250
6052,-128.906250
6053,-130.859375
6054,-130.859375
6055,-132.812500
6056,-134.765625
6057,-134.765625
6058,-134.765625
6059,-134.765625
6060,-134.765625
6061,-136.718750
6062,-136.718750
6063,-136.718750
6064,-136.718750
6065,-138.671875
6066,-138.671875
6067,-138.671875
6068,-138.671875
6069,-138.671875
6070,-138.671875
6071,-136.718750
6072,-138.671875
6073,-136.718750
6074,-136.718750
6075,-136.718750
6076,-134.765625
6077,-134.765625
6078,-134.765625
6079,-132.812500
6080,-132.812500
6081,-132.812500
6082,-130.859375
6083,-128.906250
6084,-128.906250
6085,-126.953125
6086,-125.000000
6087,-125.000000
6088,-125.000000
6089,-123.046875
6090,-121.093750
6091,-119.140625
6092,-119.140625
6093,-117.187500
6094,-115.234375
6095,-113.281250
6096,-111.328125
6097,-109.375000
6098,-107.421875
6099,-105.468750
6100,-103.515625
6101,-101.562500
6102,-99.609375
6103,-97.656250
6104,-95.703125
6105,-93.750000
6106,-89.843750
6107,-87.890625
6108,-85.937500
6109,-83.984375
6110,-82.031250
6111,-78.125000
6112,-76.171875
6113,-74.218750
6114,-70.312500
6115,-68.359375
6116,-66.406250
6117,-62.500000
6118,-60.546875
6119,-58.593750
6120,-54.687500
6121,-52.734375
6122,-50.781250
6123,-46.875000
6124,-42.968750
6125,-41.015625
6126,-39.062500
6127,-35.156250
6128,-33.203125
6129,-29.296875
6130,-27.343750
6131,-23.437500
6132,-21.484375
6133,-17.578125
6134,-15.625000
6135,-11.718750
6136,-9.765625
6137,-5.859375
6138,-3.906250
6139,-1.953125
6140,1.953125
6141,3.906250
6142,7.812500
6143,9.765625
6144,11.718750
6145,15.625000
6146,17.578125
6147,21.484375
6148,23.437500
6149,27.343750
6150,29.296875
6151,31.250000
6152,33.203125
6153,37.109375
6154,39.062500
6155,41.015625
6156,42.968750
6157,44.921875
6158,48.828125
6159,50.781250
6160,52.734375
6161,54.687500
6162,56.640625
6163,60.546875
6164,62.500000
6165,64.453125
6166,66.406250
6167,68.359375
6168,70.312500
6169,72.265625
6170,74.218750
6171,76.171875
6172,78.125000
6173,80.078125
6174,80.078125
6175,82.031250
6176,83.984375
6177,85.937500
6178,87.890625
6179,89.843750
6180,89.843750
6181,91.796875
6182,93.750000
6183,95.703125
6184,95.703125
6185,97.656250
6186,99.609375
6187,99.609375
6188,99.609375
6189,101.562500
6190,103.515625
6191,103.515625
6192,105.468750
6193,105.468750
6194,105.468750
6195,107.421875
6196,107.421875
6197,109.375000
6198,109.375000
6199,109.375000
6200,109.375000
6201,111.328125
6202,111.328125
6203,111.328125
6204,111.328125
6205,111.328125
6206,111.328125
6207,113.281250
6208,113.281250
6209,113.281250
6210,111.328125
6211,111.328125
6212,111.328125
6213,111.328125
6214,111.328125
6215,111.328125
6216,111.328125
6217,111.328125
6218,109.375000
6219,109.375000
6220,109.375000
6221,107.421875
6222,107.421875
6223,107.421875
6224,107.421875
6225,105.468750
6226,105.468750
6227,103.515625
6228,103.515625
6229,101.562500
6230,101.562500
6231,99.609375
6232,97.656250
6233,97.656250
6234,95.703125
6235,95.703125
6236,93.750000
6237,91.796875
6238,89.843750
6239,89.843750
6240,87.890625
6241,85.937500
6242,83.984375
6243,83.984375
6244,82.031250
6245,80.078125
6246,78.125000
6247,76.171875
6248,74.218750
6249,72.265625
6250,70.312500
6251,68.359375
6252,66.406250
6253,64.453125
6254,60.546875
6255,60.546875
6256,58.593750
6257,54.687500
6258,52.734375
6259,50.781250
6260,48.828125
6261,46.875000
6262,44.921875
6263,41.015625
6264,39.062500
6265,35.156250
6266,33.203125
6267,31.250000
6268,27.343750
6269,25.390625
6270,23.437500
6271,19.531250
6272,17.578125
6273,15.625000
6274,11.718750
6275,11.718750
6276,5.859375
6277,5.859375
6278,0.000000
6279,-1.953125
6280,-3.906250
6281,-7.812500
6282,-9.765625
6283,-13.671875
6284,-15.625000
6285,-19.531250
6286,-21.484375
6287,-25.390625
6288,-27.343750
6289,-31.250000
6290,-33.203125
6291,-37.109375
6292,-39.062500
6293,-42.968750
6294,-44.921875
6295,-46.875000
6296,-50.781250
6297,-52.734375
6298,-56.640625
6299,-58.593750
6300,-60.546875
6301,-64.453125
6302,-66.406250
6303,-70.312500
6304,-72.265625
6305,-74.218750
6306,-76.171875
6307,-80.078125
6308,-82.031250
6309,-83.984375
6310,-85.937500
6311,-89.843750
6312,-91.796875
6313,-93.750000
6314,-95.703125
6315,-97.656250
6316,-99.609375
6317,-103.515625
6318,-105.468750
6319,-105.468750
6320,-107.421875
6321,-109.375000
6322,-111.328125
6323,-113.281250
6324,-115.234375
6325,-117.187500
6326,-119.140625
6327,-119.140625
6328,-121.093750
6329,-123.046875
6330,-125.000000
6331,-125.000000
6332,-126.953125
6333,-128.906250
6334,-128.906250
6335,-130.859375
6336,-130.859375
6337,-132.812500
6338,-132.812500
6339,-134.765625
6340,-134.765625
6341,-134.765625
6342,-136.718750
6343,-136.718750
6344,-136.718750
6345,-136.718750
6346,-136.718750
6347,-138.671875
6348,-138.671875
6349,-138.671875
6350,-138.671875
6351,-138.671875
6352,-138.671875
6353,-138.671875
6354,-136.718750
6355,-136.718750
6356,-136.718750
6357,-136.718750
6358,-136.718750
6359,-136.718750
6360,-134.765625
6361,-134.765625
6362,-132.812500
6363,-132.812500
6364,-130.859375
6365,-130.859375
6366,-128.906250
6367,-128.906250
6368,-126.953125
6369,-125.000000
6370,-125.000000
6371,-123.046875
6372,-123.046875
6373,-119.140625
6374,-119.140625
6375,-117.187500
6376,-115.234375
6377,-113.281250
6378,-111.328125
6379,-109.375000
6380,-109.375000
6381,-105.468750
6382,-105.468750
6383,-101.562500
6384,-99.609375
6385,-97.656250
6386,-95.703125
6387,-93.750000
6388,-91.796875
6389,-87.890625
6390,-85.937500
6391,-83.984375
6392,-82.031250
6393,-80.078125
6394,-76.171875
6395,-74.218750
6396,-72.265625
6397,-68.359375
6398,-66.406250
6399,-64.453125
6400,-60.546875
6401,-58.593750
6402,-54.687500
6403,-52.734375
6404,-50.781250
6405,-46.875000
6406,-44.921875
6407,-41.015625
6408,-39.062500
6409,-37.109375
6410,-33.203125
6411,-31.250000
6412,-27.343750
6413,-25.390625
6414,-21.484375
6415,-19.531250
6416,-15.625000
6417,-13.671875
6418,-9.765625
6419,-7.812500
6420,-5.859375
6421,-1.953125
6422,1.953125
6423,3.906250
6424,5.859375
6425,9.765625
6426,11.718750
6427,15.625000
6428,17.578125
6429,19.531250
6430,21.484375
6431,25.390625
6432,27.343750
6433,29.296875
6434,33.203125
6435,35.156250
6436,37.109375
6437,39.062500
6438,42.968750
6439,44.921875
6440,46.875000
6441,50.781250
6442,52.734375
6443,54.687500
6444,56.640625
6445,58.593750
6446,62.500000
6447,64.453125
6448,66.406250
6449,66.406250
6450,68.359375
6451,72.265625
6452,74.218750
6453,76.171875
6454,76.171875
6455,78.125000
6456,82.031250
6457,82.031250
6458,83.984375
6459,85.937500
6460,87.890625
6461,87.890625
6462,89.843750
6463,91.796875
6464,93.750000
6465,93.750000
6466,95.703125
6467,97.656250
6468,97.656250
6469,99.609375
6470,101.562500
6471,101.562500
6472,103.515625
6473,103.515625
6474,103.515625
6475,105.468750
6476,107.421875
6477,107.421875
6478,107.421875
6479,107.421875
6480,109.375000
6481,109.375000
6482,109.375000
6483,111.328125
6484,111.328125
6485,111.328125
6486,111.328125
6487,111.328125
6488,111.328125
6489,111.328125
6490,111.328125
6491,111.328125
6492,111.328125
6493,111.328125
6494,111.328125
6495,111.328125
6496,111.328125
6497,111.328125
6498,111.328125
6499,109.375000
6500,111.328125
6501,109.375000
6502,109.375000
6503,107.421875
6504,107.421875
6505,107.421875
6506,105.468750
6507,105.468750
6508,105.468750
6509,103.515625
6510,103.515625
6511,101.562500
6512,101.562500
6513,99.609375
6514,99.609375
6515,97.656250
6516,95.703125
6517,95.703125
6518,93.750000
6519,93.750000
6520,91.796875
6521,89.843750
6522,89.843750
6523,87.890625
6524,85.937500
6525,83.984375
6526,82.031250
6527,80.078125
6528,78.125000
6529,76.171875
6530,76.171875
6531,72.265625
6532,70.312500
6533,68.359375
6534,68.359375
6535,64.453125
6536,62.500000
6537,60.546875
6538,58.593750
6539,56.640625
6540,52.734375
6541,50.781250
6542,48.828125
6543,46.875000
6544,42.968750
6545,41.015625
6546,39.062500
6547,37.109375
6548,33.203125
6549,31.250000
6550,29.296875
6551,25.390625
6552,23.437500
6553,21.484375
6554,17.578125
6555,15.625000
6556,13.671875
6557,9.765625
6558,7.812500
6559,3.906250
6560,1.953125
6561,-1.953125
6562,-3.906250
6563,-5.859375
6564,-9.765625
6565,-11.718750
6566,-15.625000
6567,-19.531250
6568,-21.484375
6569,-23.437500
6570,-27.343750
6571,-29.296875
6572,-33.203125
6573,-35.156250
6574,-37.109375
6575,-41.015625
6576,-42.968750
6577,-46.875000
6578,-48.828125
6579,-52.734375
6580,-54.687500
6581,-56.640625
6582,-60.546875
6583,-62.500000
6584,-66.406250
6585,-68.359375
6586,-70.312500
6587,-74.218750
6588,-76.171875
6589,-78.125000
6590,-82.031250
6591,-83.984375
6592,-85.937500
6593,-87.890625
6594,-91.796875
6595,-93.750000
6596,-95.703125
6597,-97.656250
6598,-99.609375
6599,-101.562500
6600,-103.515625
6601,-105.468750
6602,-107.421875
6603,-109.375000
6604,-111.328125
6605,-113.281250
6606,-115.234375
6607,-117.187500
6608,-119.140625
6609,-119.140625
6610,-121.093750
6611,-123.046875
6612,-125.000000
6613,-125.000000
6614,-126.953125
6615,-126.953125
6616,-130.859375
6617,-130.859375
6618,-130.859375
6619,-132.812500
6620,-132.812500
6621,-134.765625
6622,-134.765625
6623,-134.765625
6624,-136.718750
6625,-136.718750
6626,-136.718750
6627,-136.718750
6628,-136.718750
6629,-138.671875
6630,-138.671875
6631,-138.671875
6632,-138.671875
6633,-138.671875
6634,-138.671875
6635,-138.671875
6636,-138.671875
6637,-136.718750
6638,-138.671875
6639,-136.718750
6640,-136.718750
6641,-136.718750
6642,-134.765625
6643,-134.765625
6644,-132.812500
6645,-132.812500
6646,-130.859375
6647,-130.859375
6648,-130.859375
6649,-128.906250
6650,-126.953125
6651,-126.953125
6652,-125.000000
6653,-123.046875
6654,-123.046875
6655,-121.093750
6656,-119.140625
6657,-117.187500
6658,-117.187500
6659,-113.281250
6660,-111.328125
6661,-111.328125
6662,-109.375000
6663,-107.421875
6664,-105.468750
6665,-103.515625
6666,-99.609375
6667,-99.609375
6668,-95.703125
6669,-93.750000
6670,-91.796875
6671,-89.843750
6672,-87.890625
6673,-85.937500
6674,-82.031250
6675,-80.078125
6676,-78.125000
6677,-74.218750
6678,-72.265625
6679,-70.312500
6680,-68.359375
6681,-64.453125
6682,-62.500000
6683,-60.546875
6684,-56.640625
6685,-54.687500
6686,-50.781250
6687,-48.828125
6688,-46.875000
6689,-42.968750
6690,-41.015625
6691,-37.109375
6692,-35.156250
6693,-31.250000
6694,-29.296875
6695,-27.343750
6696,-23.437500
6697,-19.531250
6698,-17.578125
6699,-15.625000
6700,-11.718750
6701,-9.765625
6702,-5.859375
6703,-3.906250
6704,0.000000
6705,1.953125
6706,5.859375
6707,7.812500
6708,9.765625
6709,13.671875
6710,15.625000
6711,17.578125
6712,21.484375
6713,23.437500
6714,27.343750
6715,29.296875
6716,31.250000
6717,35.156250
6718,37.109375
6719,39.062500
6720,41.015625
6721,44.921875
6722,46.875000
6723,48.828125
6724,50.781250
6725,52.734375
6726,56.640625
6727,58.593750
6728,60.546875
6729,62.500000
6730,64.453125
6731,66.406250
6732,68.359375
6733,70.312500
6734,72.265625
6735,74.218750
6736,76.171875
6737,78.125000
6738,80.078125
6739,82.031250
6740,83.984375
6741,83.984375
6742,85.937500
6743,87.890625
6744,89.843750
6745,89.843750
6746,93.750000
6747,93.750000
6748,95.703125
6749,95.703125
6750,97.656250
6751,99.609375
6752,99.609375
6753,101.562500
6754,101.562500
6755,103.515625
6756,103.515625
6757,103.515625
6758,105.468750
6759,105.468750
6760,107.421875
6761,107.421875
6762,109.375000
6763,109.375000
6764,109.375000
6765,109.375000
6766,109.375000
6767,111.328125
6768,111.328125
6769,111.328125
6770,111.328125
6771,111.328125
6772,111.328125
6773,111.328125
6774,111.328125
6775,111.328125
6776,111.328125
6777,111.328125
6778,111.328125
6779,111.328125
6780,111.328125
6781,109.375000
6782,111.328125
6783,109.375000
6784,109.375000
6785,107.421875
6786,109.375000
6787,107.421875
6788,107.421875
6789,105.468750
6790,105.468750
6791,103.515625
6792,103.515625
6793,103.515625
6794,101.562500
6795,99.609375
6796,99.609375
6797,97.656250
6798,97.656250
6799,95.703125
6800,93.750000
6801,93.750000
6802,91.796875
6803,89.843750
6804,87.890625
6805,87.890625
6806,85.937500
6807,83.984375
6808,82.031250
6809,80.078125
6810,78.125000
6811,76.171875
6812,74.218750
6813,72.265625
6814,70.312500
6815,68.359375
6816,66.406250
6817,64.453125
6818,62.500000
6819,60.546875
6820,58.593750
6821,56.640625
6822,52.734375
6823,52.734375
6824,48.828125
6825,46.875000
6826,44.921875
6827,41.015625
6828,39.062500
6829,37.109375
6830,33.203125
6831,31.250000
6832,29.296875
6833,27.343750
6834,23.437500
6835,21.484375
6836,19.531250
6837,15.625000
6838,13.671875
6839,9.765625
6840,7.812500
6841,5.859375
6842,1.953125
6843,0.000000
6844,-1.953125
6845,-5.859375
6846,-9.765625
6847,-11.718750
6848,-15.625000
6849,-17.578125
6850,-19.531250
6851,-23.437500
6852,-27.343750
6853,-29.296875
6854,-31.250000
6855,-35.156250
6856,-37.109375
6857,-41.015625
6858,-42.968750
6859,-46.875000
6860,-48.828125
6861,-50.781250
6862,-54.687500
6863,-56.640625
6864,-60.546875
6865,-62.500000
6866,-64.453125
6867,-68.359375
6868,-70.312500
6869,-72.265625
6870,-76.171875
6871,-78.125000
6872,-80.078125
6873,-83.984375
6874,-85.937500
6875,-87.890625
6876,-89.843750
6877,-91.796875
6878,-95.703125
6879,-97.656250
6880,-99.609375
6881,-101.562500
6882,-103.515625
6883,-105.468750
6884,-107.421875
6885,-109.375000
6886,-111.328125
6887,-113.281250
6888,-115.234375
6889,-117.187500
6890,-119.140625
6891,-119.140625
6892,-121.093750
6893,-123.046875
6894,-123.046875
6895,-125.000000
6896,-126.953125
6897,-128.906250
6898,-128.906250
6899,-130.859375
6900,-130.859375
6901,-132.812500
6902,-132.812500
6903,-134.765625
6904,-134.765625
6905,-134.765625
6906,-136.718750
6907,-136.718750
6908,-136.718750
6909,-136.718750
6910,-138.671875
6911,-136.718750
6912,-138.671875
6913,-138.671875
6914,-138.671875
6915,-138.671875
6916,-138.671875
6917,-138.671875
6918,-138.671875
6919,-138.671875
6920,-136.718750
6921,-136.718750
6922,-136.718750
6923,-134.765625
6924,-134.765625
6925,-134.765625
6926,-132.812500
6927,-132.812500
6928,-132.812500
6929,-130.859375
6930,-128.906250
6931,-128.906250
6932,-126.953125
6933,-126.953125
6934,-125.000000
6935,-123.046875
6936,-123.046875
6937,-121.093750
6938,-119.140625
6939,-117.187500
6940,-117.187500
6941,-115.234375
6942,-113.281250
6943,-111.328125
6944,-109.375000
6945,-107.421875
6946,-105.468750
6947,-103.515625
6948,-101.562500
6949,-99.609375
6950,-97.656250
6951,-95.703125
6952,-93.750000
6953,-91.796875
6954,-87.890625
6955,-85.937500
6956,-83.984375
6957,-82.031250
6958,-78.125000
6959,-76.171875
6960,-72.265625
6961,-70.312500
6962,-68.359375
6963,-66.406250
6964,-62.500000
6965,-60.546875
6966,-58.593750
6967,-54.687500
6968,-52.734375
6969,-48.828125
6970,-46.875000
6971,-42.968750
6972,-41.015625
6973,-37.109375
6974,-35.156250
6975,-33.203125
6976,-29.296875
6977,-27.343750
6978,-23.437500
6979,-19.531250
6980,-17.578125
6981,-15.625000
6982,-11.718750
6983,-9.765625
6984,-5.859375
6985,-3.906250
6986,-1.953125
6987,1.953125
6988,3.906250
6989,7.812500
6990,9.765625
6991,13.671875
6992,15.625000
6993,17.578125
6994,21.484375
6995,23.437500
6996,25.390625
6997,29.296875
6998,31.250000
6999,33.203125
7000,37.109375
7001,39.062500
7002,41.015625
7003,42.968750
7004,46.875000
7005,48.828125
7006,50.781250
7007,52.734375
7008,54.687500
7009,56.640625
7010,60.546875
7011,62.500000
7012,64.453125
7013,66.406250
7014,68.359375
7015,70.312500
7016,72.265625
7017,74.218750
7018,76.171875
7019,78.125000
7020,80.078125
7021,80.078125
7022,82.031250
7023,83.984375
7024,85.937500
7025,87.890625
7026,89.843750
7027,89.843750
7028,91.796875
7029,93.750000
7030,95.703125
7031,95.703125
7032,97.656250
7033,97.656250
7034,99.609375
7035,101.562500
7036,101.562500
7037,101.562500
7038,103.515625
7039,105.468750
7040,105.468750
7041,105.468750
7042,107.421875
7043,107.421875
7044,109.375000
7045,109.375000
7046,109.375000
7047,109.375000
7048,111.328125
7049,111.328125
7050,111.328125
7051,111.328125
7052,111.328125
7053,111.328125
7054,111.328125
7055,113.281250
7056,111.328125
7057,111.328125
7058,111.328125
7059,111.328125
7060,111.328125
7061,111.328125
7062,111.328125
7063,111.328125
7064,109.375000
7065,109.375000
7066,109.375000
7067,107.421875
7068,107.421875
7069,107.421875
7070,107.421875
7071,105.468750
7072,105.468750
7073,105.468750
7074,103.515625
7075,101.562500
7076,101.562500
7077,99.609375
7078,99.609375
7079,97.656250
7080,97.656250
7081,95.703125
7082,93.750000
7083,93.750000
7084,91.796875
7085,89.843750
7086,87.890625
7087,87.890625
7088,85.937500
7089,83.984375
7090,82.031250
7091,80.078125
7092,78.125000
7093,78.125000
7094,76.171875
7095,74.218750
7096,70.312500
7097,70.312500
7098,68.359375
7099,64.453125
7100,62.500000
7101,60.546875
7102,58.593750
7103,56.640625
7104,54.687500
7105,52.734375
7106,50.781250
7107,46.875000
7108,44.921875
7109,42.968750
7110,41.015625
7111,37.109375
7112,35.156250
7113,33.203125
7114,29.296875
7115,27.343750
7116,23.437500
7117,21.484375
7118,19.531250
7119,17.578125
7120,13.671875
7121,11.718750
7122,7.812500
7123,5.859375
7124,3.906250
7125,0.000000
7126,-3.906250
7127,-5.859375
7128,-9.765625
7129,-11.718750
7130,-13.671875
7131,-17.578125
7132,-21.484375
7133,-23.437500
7134,-27.343750
7135,-29.296875
7136,-31.250000
7137,-35.156250
7138,-37.109375
7139,-41.015625
7140,-42.968750
7141,-44.921875
7142,-48.828125
7143,-50.781250
7144,-54.687500
7145,-56.640625
7146,-58.593750
7147,-62.500000
7148,-64.453125
7149,-68.359375
7150,-70.312500
7151,-72.265625
7152,-76.171875
7153,-78.125000
7154,-80.078125
7155,-82.031250
7156,-85.937500
7157,-87.890625
7158,-89.843750
7159,-91.796875
7160,-95.703125
7161,-97.656250
7162,-97.656250
7163,-101.562500
7164,-103.515625
7165,-105.468750
7166,-107.421875
7167,-109.375000
7168,-111.328125
7169,-113.281250
7170,-115.234375
7171,-117.187500
7172,-117.187500
7173,-119.140625
7174,-121.093750
7175,-123.046875
7176,-123.046875
7177,-125.000000
7178,-126.953125
7179,-126.953125
7180,-128.906250
7181,-130.859375
7182,-130.859375
7183,-132.812500
7184,-132.812500
7185,-134.765625
7186,-134.765625
7187,-136.718750
7188,-136.718750
7189,-136.718750
7190,-136.718750
7191,-138.671875
7192,-138.671875
7193,-138.671875
7194,-138.671875
7195,-138.671875
7196,-138.671875
7197,-138.671875
7198,-138.671875
7199,-138.671875
7200,-138.671875
7201,-138.671875
7202,-138.671875
7203,-138.671875
7204,-136.718750
7205,-136.718750
7206,-136.718750
7207,-134.765625
7208,-134.765625
7209,-134.765625
7210,-132.812500
7211,-130.859375
7212,-130.859375
7213,-128.906250
7214,-128.906250
7215,-128.906250
7216,-126.953125
7217,-125.000000
7218,-123.046875
7219,-121.093750
7220,-121.093750
7221,-119.140625
7222,-117.187500
7223,-115.234375
7224,-113.281250
7225,-111.328125
7226,-111.328125
7227,-107.421875
7228,-105.468750
7229,-103.515625
7230,-101.562500
7231,-99.609375
7232,-97.656250
7233,-95.703125
7234,-93.750000
7235,-91.796875
7236,-87.890625
7237,-87.890625
7238,-83.984375
7239,-82.031250
7240,-78.125000
7241,-76.171875
7242,-74.218750
7243,-72.265625
7244,-70.312500
7245,-66.406250
7246,-64.453125
7247,-60.546875
7248,-58.593750
7249,-56.640625
7250,-52.734375
7251,-50.781250
7252,-46.875000
7253,-44.921875
7254,-41.015625
7255,-39.062500
7256,-37.109375
7257,-33.203125
7258,-31.250000
7259,-27.343750
7260,-25.390625
7261,-23.437500
7262,-19.531250
7263,-15.625000
7264,-13.671875
7265,-11.718750
7266,-7.812500
7267,-5.859375
7268,-1.953125
7269,0.000000
7270,3.906250
7271,5.859375
7272,9.765625
7273,11.718750
7274,13.671875
7275,17.578125
7276,19.531250
7277,23.437500
7278,25.390625
7279,27.343750
7280,29.296875
7281,33.203125
7282,35.156250
7283,37.109375
7284,39.062500
7285,42.968750
7286,44.921875
7287,48.828125
7288,48.828125
7289,52.734375
7290,54.687500
7291,56.640625
7292,58.593750
7293,62.500000
7294,62.500000
7295,66.406250
7296,66.406250
7297,70.312500
7298,72.265625
7299,74.218750
7300,74.218750
7301,76.171875
7302,78.125000
7303,80.078125
7304,82.031250
7305,83.984375
7306,85.937500
7307,87.890625
7308,87.890625
7309,89.843750
7310,91.796875
7311,93.750000
7312,93.750000
7313,95.703125
7314,97.656250
7315,97.656250
7316,99.609375
7317,99.609375
7318,101.562500
7319,101.562500
7320,103.515625
7321,103.515625
7322,105.468750
7323,105.468750
7324,107.421875
7325,107.421875
7326,107.421875
7327,107.421875
7328,109.375000
7329,109.375000
7330,109.375000
7331,109.375000
7332,111.328125
7333,111.328125
7334,111.328125
7335,111.328125
7336,111.328125
7337,111.328125
7338,111.328125
7339,111.328125
7340,111.328125
7341,111.328125
7342,111.328125
7343,111.328125
7344,111.328125
7345,111.328125
7346,109.375000
7347,109.375000
7348,109.375000
7349,109.375000
7350,107.421875
7351,107.421875
7352,107.421875
7353,105.468750
7354,105.468750
7355,105.468750
7356,103.515625
7357,103.515625
7358,101.562500
7359,101.562500
7360,99.609375
7361,99.609375
7362,97.656250
7363,95.703125
7364,95.703125
7365,93.750000
7366,91.796875
7367,91.796875
7368,89.843750
7369,87.890625
7370,85.937500
7371,83.984375
7372,83.984375
7373,82.031250
7374,80.078125
7375,78.125000
7376,76.171875
7377,74.218750
7378,72.265625
7379,70.312500
7380,68.359375
7381,66.406250
7382,64.453125
7383,62.500000
7384,58.593750
7385,56.640625
7386,54.687500
7387,52.734375
7388,50.781250
7389,48.828125
7390,46.875000
7391,42.968750
7392,41.015625
7393,39.062500
7394,35.156250
7395,33.203125
7396,31.250000
7397,29.296875
7398,25.390625
7399,23.437500
7400,19.531250
7401,17.578125
7402,13.671875
7403,11.718750
7404,9.765625
7405,5.859375
7406,3.906250
7407,0.000000
7408,-1.953125
7409,-3.906250
7410,-7.812500
7411,-9.765625
7412,-13.671875
7413,-15.625000
7414,-19.531250
7415,-21.484375
7416,-25.390625
7417,-27.343750
7418,-29.296875
7419,-33.203125
7420,-37.109375
7421,-39.062500
7422,-41.015625
7423,-44.921875
7424,-46.875000
7425,-50.781250
7426,-52.734375
7427,-54.687500
7428,-58.593750
7429,-60.546875
7430,-64.453125
7431,-66.406250
7432,-68.359375
7433,-70.312500
7434,-74.218750
7435,-76.171875
7436,-80.078125
7437,-82.031250
7438,-83.984375
7439,-85.937500
7440,-87.890625
7441,-91.796875
7442,-93.750000
7443,-95.703125
7444,-97.656250
7445,-99.609375
7446,-101.562500
7447,-103.515625
7448,-105.468750
7449,-109.375000
7450,-109.375000
7451,-111.328125
7452,-113.281250
7453,-115.234375
7454,-117.187500
7455,-119.140625
7456,-121.093750
7457,-121.093750
7458,-123.046875
7459,-125.000000
7460,-126.953125
7461,-126.953125
7462,-128.906250
7463,-130.859375
7464,-130.859375
7465,-130.859375
7466,-132.812500
7467,-134.765625
7468,-134.765625
7469,-134.765625
7470,-134.765625
7471,-136.718750
7472,-136.718750
7473,-136.718750
7474,-138.671875
7475,-138.671875
7476,-138.671875
7477,-138.671875
7478,-138.671875
7479,-138.671875
7480,-138.671875
7481,-138.671875
7482,-138.671875
7483,-138.671875
7484,-136.718750
7485,-136.718750
7486,-136.718750
7487,-136.718750
7488,-134.765625
7489,-134.765625
7490,-132.812500
7491,-132.812500
7492,-132.812500
7493,-130.859375
7494,-130.859375
7495,-128.906250
7496,-126.953125
7497,-126.953125
7498,-126.953125
7499,-125.000000
7500,-123.046875
7501,-123.046875
7502,-121.093750
7503,-119.140625
7504,-117.187500
7505,-115.234375
7506,-115.234375
7507,-111.328125
7508,-109.375000
7509,-107.421875
7510,-107.421875
7511,-103.515625
7512,-103.515625
7513,-101.562500
7514,-97.656250
7515,-95.703125
7516,-93.750000
7517,-91.796875
7518,-89.843750
7519,-87.890625
7520,-83.984375
7521,-82.031250
7522,-80.078125
7523,-78.125000
7524,-76.171875
7525,-72.265625
7526,-70.312500
7527,-66.406250
7528,-64.453125
7529,-62.500000
7530,-58.593750
7531,-56.640625
7532,-54.687500
7533,-50.781250
7534,-46.875000
7535,-44.921875
7536,-42.968750
7537,-41.015625
7538,-37.109375
7539,-33.203125
7540,-31.250000
7541,-29.296875
7542,-25.390625
7543,-23.437500
7544,-19.531250
7545,-15.625000
7546,-13.671875
7547,-11.718750
7548,-7.812500
7549,-5.859375
7550,-1.953125
7551,0.000000
7552,3.906250
7553,5.859375
7554,7.812500
7555,11.718750
7556,15.625000
7557,17.578125
7558,19.531250
7559,21.484375
7560,25.390625
7561,27.343750
7562,31.250000
7563,33.203125
7564,35.156250
7565,39.062500
7566,41.015625
7567,42.968750
7568,44.921875
7569,46.875000
7570,48.828125
7571,50.781250
7572,54.687500
7573,56.640625
7574,58.593750
7575,60.546875
7576,62.500000
7577,66.406250
7578,66.406250
7579,70.312500
7580,72.265625
7581,74.218750
7582,74.218750
7583,76.171875
7584,78.125000
7585,80.078125
7586,82.031250
7587,83.984375
7588,85.937500
7589,85.937500
7590,87.890625
7591,89.843750
7592,91.796875
7593,91.796875
7594,93.750000
7595,95.703125
7596,97.656250
7597,97.656250
7598,99.609375
7599,99.609375
7600,101.562500
7601,101.562500
7602,103.515625
7603,103.515625
7604,105.468750
7605,105.468750
7606,105.468750
7607,107.421875
7608,107.421875
7609,107.421875
7610,109.375000
7611,109.375000
7612,109.375000
7613,109.375000
7614,111.328125
7615,111.328125
7616,111.328125
7617,111.328125
7618,111.328125
7619,111.328125
7620,113.281250
7621,111.328125
7622,111.328125
7623,111.328125
7624,111.328125
7625,111.328125
7626,111.328125
7627,111.328125
7628,111.328125
7629,109.375000
7630,109.375000
7631,109.375000
7632,109.375000
7633,107.421875
7634,107.421875
7635,105.468750
7636,105.468750
7637,105.468750
7638,103.515625
7639,103.515625
7640,101.562500
7641,101.562500
7642,101.562500
7643,99.609375
7644,97.656250
7645,95.703125
7646,95.703125
7647,93.750000
7648,93.750000
7649,91.796875
7650,89.843750
7651,87.890625
7652,87.890625
7653,85.937500
7654,83.984375
7655,82.031250
7656,80.078125
7657,78.125000
7658,76.171875
7659,74.218750
7660,72.265625
7661,70.312500
7662,68.359375
7663,66.406250
7664,64.453125
7665,62.500000
7666,60.546875
7667,58.593750
7668,54.687500
7669,52.734375
7670,50.781250
7671,48.828125
7672,46.875000
7673,42.968750
7674,42.968750
7675,39.062500
7676,37.109375
7677,33.203125
7678,31.250000
7679,29.296875
7680,27.343750
7681,23.437500
7682,21.484375
7683,19.531250
7684,15.625000
7685,13.671875
7686,9.765625
7687,7.812500
7688,3.906250
7689,1.953125
7690,0.000000
7691,-3.906250
7692,-7.812500
7693,-9.765625
7694,-11.718750
7695,-15.625000
7696,-17.578125
7697,-21.484375
7698,-23.437500
7699,-27.343750
7700,-29.296875
7701,-31.250000
7702,-35.156250
7703,-39.062500
7704,-41.015625
7705,-42.968750
7706,-46.875000
7707,-48.828125
7708,-52.734375
7709,-54.687500
7710,-56.640625
7711,-60.546875
7712,-64.453125
7713,-64.453125
7714,-68.359375
7715,-70.312500
7716,-74.218750
7717,-76.171875
7718,-78.125000
7719,-82.031250
7720,-83.984375
7721,-85.937500
7722,-87.890625
7723,-89.843750
7724,-93.750000
7725,-95.703125
7726,-97.656250
7727,-99.609375
7728,-101.562500
7729,-103.515625
7730,-105.468750
7731,-107.421875
7732,-111.328125
7733,-111.328125
7734,-113.281250
7735,-115.234375
7736,-117.187500
7737,-119.140625
7738,-121.093750
7739,-121.093750
7740,-123.046875
7741,-125.000000
7742,-126.953125
7743,-126.953125
7744,-128.906250
7745,-128.906250
7746,-128.906250
7747,-132.812500
7748,-132.812500
7749,-132.812500
7750,-134.765625
7751,-134.765625
7752,-134.765625
7753,-136.718750
7754,-136.718750
7755,-136.718750
7756,-138.671875
7757,-136.718750
7758,-138.671875
7759,-138.671875
7760,-138.671875
7761,-138.671875
7762,-138.671875
7763,-138.671875
7764,-138.671875
7765,-138.671875
7766,-136.718750
7767,-136.718750
7768,-136.718750
7769,-136.718750
7770,-136.718750
7771,-134.765625
7772,-134.765625
7773,-132.812500
7774,-132.812500
7775,-132.812500
7776,-130.859375
7777,-130.859375
7778,-128.906250
7779,-126.953125
7780,-126.953125
7781,-125.000000
7782,-125.000000
7783,-121.093750
7784,-121.093750
7785,-119.140625
7786,-119.140625
7787,-117.187500
7788,-113.281250
7789,-113.281250
7790,-111.328125
7791,-109.375000
7792,-107.421875
7793,-105.468750
7794,-103.515625
7795,-101.562500
7796,-99.609375
7797,-95.703125
7798,-93.750000
7799,-91.796875
7800,-89.843750
7801,-87.890625
7802,-85.937500
7803,-83.984375
7804,-80.078125
7805,-78.125000
7806,-76.171875
7807,-72.265625
7808,-70.312500
7809,-66.406250
7810,-64.453125
7811,-62.500000
7812,-60.546875
7813,-56.640625
7814,-52.734375
7815,-50.781250
7816,-48.828125
7817,-44.921875
7818,-42.968750
7819,-39.062500
7820,-37.109375
7821,-35.156250
7822,-31.250000
7823,-27.343750
7824,-25.390625
7825,-23.437500
7826,-19.531250
7827,-17.578125
7828,-13.671875
7829,-11.718750
7830,-7.812500
7831,-5.859375
7832,-1.953125
7833,0.000000
7834,3.906250
7835,5.859375
7836,7.812500
7837,11.718750
7838,13.671875
7839,15.625000
7840,19.531250
7841,21.484375
7842,23.437500
7843,27.343750
7844,29.296875
7845,33.203125
7846,35.156250
7847,37.109375
7848,41.015625
7849,42.968750
7850,44.921875
7851,46.875000
7852,48.828125
7853,50.781250
7854,54.687500
7855,56.640625
7856,58.593750
7857,62.500000
7858,62.500000
7859,64.453125
7860,66.406250
7861,70.312500
7862,72.265625
7863,72.265625
7864,74.218750
7865,76.171875
7866,78.125000
7867,80.078125
7868,82.031250
7869,83.984375
7870,85.937500
7871,85.937500
7872,87.890625
7873,89.843750
7874,91.796875
7875,93.750000
7876,93.750000
7877,95.703125
7878,97.656250
7879,97.656250
7880,99.609375
7881,99.609375
7882,101.562500
7883,103.515625
7884,103.515625
7885,103.515625
7886,105.468750
7887,105.468750
7888,105.468750
7889,107.421875
7890,107.421875
7891,109.375000
7892,109.375000
7893,109.375000
7894,111.328125
7895,111.328125
7896,111.328125
7897,111.328125
7898,111.328125
7899,113.281250
7900,113.281250
7901,113.281250
7902,113.281250
7903,111.328125
7904,111.328125
7905,113.281250
7906,111.328125
7907,111.328125
7908,111.328125
7909,111.328125
7910,111.328125
7911,109.375000
7912,109.375000
7913,109.375000
7914,109.375000
7915,107.421875
7916,107.421875
7917,105.468750
7918,107.421875
7919,105.468750
7920,103.515625
7921,103.515625
7922,103.515625
7923,101.562500
7924,101.562500
7925,99.609375
7926,97.656250
7927,97.656250
7928,95.703125
7929,93.750000
7930,93.750000
7931,91.796875
7932,89.843750
7933,87.890625
7934,87.890625
7935,85.937500
7936,83.984375
7937,82.031250
7938,82.031250
7939,80.078125
7940,78.125000
7941,74.218750
7942,74.218750
7943,72.265625
7944,70.312500
7945,68.359375
7946,66.406250
7947,64.453125
7948,60.546875
7949,58.593750
7950,56.640625
7951,54.687500
7952,52.734375
7953,50.781250
7954,46.875000
7955,44.921875
7956,42.968750
7957,41.015625
7958,37.109375
7959,35.156250
7960,33.203125
7961,31.250000
7962,27.343750
7963,23.437500
7964,21.484375
7965,19.531250
7966,15.625000
7967,13.671875
7968,11.718750
7969,9.765625
7970,5.859375
7971,3.906250
7972,0.000000
7973,-1.953125
7974,-5.859375
7975,-7.812500
7976,-11.718750
7977,-13.671875
7978,-17.578125
7979,-19.531250
7980,-23.437500
7981,-25.390625
7982,-29.296875
7983,-31.250000
7984,-35.156250
7985,-39.062500
7986,-39.062500
7987,-42.968750
7988,-46.875000
7989,-48.828125
7990,-50.781250
7991,-54.687500
7992,-56.640625
7993,-58.593750
7994,-62.500000
7995,-64.453125
7996,-68.359375
7997,-70.312500
7998,-72.265625
7999,-74.218750
8000,-78.125000
8001,-80.078125
8002,-82.031250
8003,-83.984375
8004,-85.937500
8005,-87.890625
8006,-91.796875
8007,-93.750000
8008,-95.703125
8009,-97.656250
8010,-101.562500
8011,-103.515625
8012,-103.515625
8013,-107.421875
8014,-109.375000
8015,-109.375000
8016,-111.328125
8017,-113.281250
8018,-115.234375
8019,-117.187500
8020,-119.140625
8021,-121.093750
8022,-123.046875
8023,-123.046875
8024,-125.000000
8025,-125.000000
8026,-126.953125
8027,-128.906250
8028,-128.906250
8029,-130.859375
8030,-130.859375
8031,-132.812500
8032,-132.812500
8033,-132.812500
8034,-134.765625
8035,-134.765625
8036,-136.718750
8037,-136.718750
8038,-136.718750
8039,-136.718750
8040,-136.718750
8041,-138.671875
8042,-138.671875
8043,-138.671875
8044,-138.671875
8045,-138.671875
8046,-138.671875
8047,-136.718750
8048,-136.718750
8049,-136.718750
8050,-136.718750
8051,-136.718750
8052,-134.765625
8053,-134.765625
8054,-134.765625
8055,-134.765625
8056,-132.812500
8057,-132.812500
8058,-130.859375
8059,-130.859375
8060,-128.906250
8061,-126.953125
8062,-126.953125
8063,-125.000000
8064,-123.046875
8065,-121.093750
8066,-121.093750
8067,-119.140625
8068,-117.187500
8069,-115.234375
8070,-115.234375
8071,-113.281250
8072,-111.328125
8073,-109.375000
8074,-107.421875
8075,-105.468750
8076,-103.515625
8077,-101.562500
8078,-97.656250
8079,-95.703125
8080,-93.750000
8081,-93.750000
8082,-89.843750
8083,-87.890625
8084,-85.937500
8085,-83.984375
8086,-80.078125
8087,-78.125000
8088,-76.171875
8089,-74.218750
8090,-70.312500
8091,-68.359375
8092,-64.453125
8093,-62.500000
8094,-58.593750
8095,-56.640625
8096,-54.687500
8097,-50.781250
8098,-48.828125
8099,-44.921875
8100,-42.968750
8101,-41.015625
8102,-37.109375
8103,-35.156250
8104,-31.250000
8105,-29.296875
8106,-27.343750
8107,-23.437500
8108,-21.484375
8109,-17.578125
8110,-15.625000
8111,-11.718750
8112,-9.765625
8113,-7.812500
8114,-3.906250
8115,0.000000
8116,1.953125
8117,3.906250
8118,7.812500
8119,9.765625
8120,13.671875
8121,15.625000
8122,17.578125
8123,21.484375
8124,23.437500
8125,27.343750
8126,29.296875
8127,31.250000
8128,35.156250
8129,37.109375
8130,39.062500
8131,41.015625
8132,44.921875
8133,46.875000
8134,48.828125
8135,50.781250
8136,52.734375
8137,56.640625
8138,58.593750
8139,60.546875
8140,62.500000
8141,64.453125
8142,66.406250
8143,68.359375
8144,70.312500
8145,74.218750
8146,74.218750
8147,76.171875
8148,78.125000
8149,80.078125
8150,82.031250
8151,83.984375
8152,85.937500
8153,85.937500
8154,87.890625
8155,89.843750
8156,91.796875
8157,93.750000
8158,93.750000
8159,95.703125
8160,95.703125
8161,97.656250
8162,99.609375
8163,99.609375
8164,101.562500
8165,101.562500
8166,103.515625
8167,103.515625
8168,105.468750
8169,105.468750
8170,107.421875
8171,107.421875
8172,107.421875
8173,109.375000
8174,109.375000
8175,109.375000
8176,111.328125
8177,111.328125
8178,111.328125
8179,111.328125
8180,111.328125
8181,111.328125
8182,111.328125
8183,111.328125
8184,111.328125
8185,113.281250
8186,111.328125
8187,111.328125
8188,111.328125
8189,111.328125
8190,111.328125
8191,111.328125
8192,111.328125
8193,111.328125
8194,109.375000
8195,109.375000
8196,109.375000
8197,109.375000
8198,107.421875
8199,107.421875
8200,107.421875
8201,105.468750
8202,105.468750
8203,103.515625
8204,103.515625
8205,101.562500
8206,101.562500
8207,99.609375
8208,97.656250
8209,97.656250
8210,95.703125
8211,95.703125
8212,93.750000
8213,91.796875
8214,91.796875
8215,89.843750
8216,87.890625
8217,85.937500
8218,83.984375
8219,83.984375
8220,82.031250
8221,80.078125
8222,78.125000
8223,76.171875
8224,74.218750
8225,72.265625
8226,70.312500
8227,68.359375
8228,66.406250
8229,64.453125
8230,62.500000
8231,60.546875
8232,58.593750
8233,54.687500
8234,52.734375
8235,50.781250
8236,48.828125
8237,44.921875
8238,42.968750
8239,41.015625
8240,39.062500
8241,35.156250
8242,33.203125
8243,31.250000
8244,27.343750
8245,25.390625
8246,23.437500
8247,19.531250
8248,17.578125
8249,13.671875
8250,11.718750
8251,9.765625
8252,5.859375
8253,1.953125
8254,0.000000
8255,-1.953125
8256,-5.859375
8257,-7.812500
8258,-11.718750
8259,-13.671875
8260,-15.625000
8261,-19.531250
8262,-21.484375
8263,-25.390625
8264,-27.343750
8265,-31.250000
8266,-33.203125
8267,-35.156250
8268,-39.062500
8269,-42.968750
8270,-44.921875
8271,-46.875000
8272,-50.781250
8273,-52.734375
8274,-56.640625
8275,-56.640625
8276,-62.500000
8277,-64.453125
8278,-66.406250
8279,-68.359375
8280,-72.265625
8281,-74.218750
8282,-76.171875
8283,-80.078125
8284,-82.031250
8285,-83.984375
8286,-85.937500
8287,-89.843750
8288,-91.796875
8289,-93.750000
8290,-95.703125
8291,-97.656250
8292,-99.609375
8293,-101.562500
8294,-103.515625
8295,-105.468750
8296,-107.421875
8297,-111.328125
8298,-111.328125
8299,-113.281250
8300,-115.234375
8301,-117.187500
8302,-119.140625
8303,-119.140625
8304,-123.046875
8305,-123.046875
8306,-125.000000
8307,-125.000000
8308,-126.953125
8309,-128.906250
8310,-128.906250
8311,-130.859375
8312,-130.859375
8313,-132.812500
8314,-132.812500
8315,-134.765625
8316,-134.765625
8317,-134.765625
8318,-134.765625
8319,-136.718750
8320,-136.718750
8321,-138.671875
8322,-138.671875
8323,-136.718750
8324,-138.671875
8325,-138.671875
8326,-138.671875
8327,-138.671875
8328,-136.718750
8329,-138.671875
8330,-136.718750
8331,-136.718750
8332,-136.718750
8333,-136.718750
8334,-134.765625
8335,-134.765625
8336,-134.765625
8337,-132.812500
8338,-132.812500
8339,-130.859375
8340,-130.859375
8341,-128.906250
8342,-128.906250
8343,-126.953125
8344,-126.953125
8345,-125.000000
8346,-125.000000
8347,-123.046875
8348,-121.093750
8349,-119.140625
8350,-117.187500
8351,-115.234375
8352,-115.234375
8353,-113.281250
8354,-111.328125
8355,-109.375000
8356,-107.421875
8357,-105.468750
8358,-103.515625
8359,-101.562500
8360,-99.609375
8361,-97.656250
8362,-95.703125
8363,-93.750000
8364,-91.796875
8365,-87.890625
8366,-85.937500
8367,-83.984375
8368,-82.031250
8369,-78.125000
8370,-76.171875
8371,-74.218750
8372,-70.312500
8373,-68.359375
8374,-66.406250
8375,-62.500000
8376,-60.546875
8377,-58.593750
8378,-54.687500
8379,-52.734375
8380,-50.781250
8381,-46.875000
8382,-42.968750
8383,-41.015625
8384,-39.062500
8385,-35.156250
8386,-33.203125
8387,-29.296875
8388,-27.343750
8389,-23.437500
8390,-21.484375
8391,-17.578125
8392,-15.625000
8393,-13.671875
8394,-9.765625
8395,-7.812500
8396,-3.906250
8397,-1.953125
8398,1.953125
8399,3.906250
8400,7.812500
8401,9.765625
8402,11.718750
8403,15.625000
8404,17.578125
8405,21.484375
8406,23.437500
8407,25.390625
8408,29.296875
8409,31.250000
8410,33.203125
8411,37.109375
8412,39.062500
8413,41.015625
8414,44.921875
8415,46.875000
8416,48.828125
8417,50.781250
8418,52.734375
8419,54.687500
8420,56.640625
8421,60.546875
8422,62.500000
8423,64.453125
8424,66.406250
8425,68.359375
8426,70.312500
8427,74.218750
8428,74.218750
8429,76.171875
8430,78.125000
8431,80.078125
8432,82.031250
8433,82.031250
8434,83.984375
8435,85.937500
8436,87.890625
8437,89.843750
8438,89.843750
8439,91.796875
8440,93.750000
8441,95.703125
8442,95.703125
8443,97.656250
8444,99.609375
8445,99.609375
8446,99.609375
8447,101.562500
8448,103.515625
8449,103.515625
8450,105.468750
8451,105.468750
8452,105.468750
8453,107.421875
8454,107.421875
8455,109.375000
8456,109.375000
8457,109.375000
8458,109.375000
8459,111.328125
8460,111.328125
8461,111.328125
8462,111.328125
8463,113.281250
8464,113.281250
8465,113.281250
8466,113.281250
8467,111.328125
8468,113.281250
8469,113.281250
8470,111.328125
8471,111.328125
8472,111.328125
8473,111.328125
8474,111.328125
8475,111.328125
8476,111.328125
8477,111.328125
8478,109.375000
8479,109.375000
8480,107.421875
8481,107.421875
8482,107.421875
8483,105.468750
8484,105.468750
8485,103.515625
8486,103.515625
8487,103.515625
8488,101.562500
8489,101.562500
8490,99.609375
8491,97.656250
8492,97.656250
8493,95.703125
8494,93.750000
8495,91.796875
8496,91.796875
8497,89.843750
8498,89.843750
8499,87.890625
8500,85.937500
8501,83.984375
8502,82.031250
8503,80.078125
8504,80.078125
8505,76.171875
8506,74.218750
8507,72.265625
8508,70.312500
8509,68.359375
8510,66.406250
8511,64.453125
8512,62.500000
8513,60.546875
8514,58.593750
8515,56.640625
8516,52.734375
8517,50.781250
8518,48.828125
8519,46.875000
8520,44.921875
8521,41.015625
8522,39.062500
8523,37.109375
8524,35.156250
8525,33.203125
8526,29.296875
8527,25.390625
8528,23.437500
8529,21.484375
8530,17.578125
8531,15.625000
8532,13.671875
8533,9.765625
8534,7.812500
8535,5.859375
8536,1.953125
8537,-1.953125
8538,-3.906250
8539,-5.859375
8540,-9.765625
8541,-11.718750
8542,-15.625000
8543,-19.531250
8544,-21.484375
8545,-23.437500
8546,-25.390625
8547,-29.296875
8548,-33.203125
8549,-35.156250
8550,-37.109375
8551,-41.015625
8552,-42.968750
8553,-46.875000
8554,-48.828125
8555,-52.734375
8556,-54.687500
8557,-56.640625
8558,-60.546875
8559,-62.500000
8560,-66.406250
8561,-68.359375
8562,-70.312500
8563,-74.218750
8564,-76.171875
8565,-78.125000
8566,-82.031250
8567,-83.984375
8568,-85.937500
8569,-87.890625
8570,-91.796875
8571,-93.750000
8572,-95.703125
8573,-95.703125
8574,-99.609375
8575,-101.562500
8576,-103.515625
8577,-105.468750
8578,-107.421875
8579,-109.375000
8580,-111.328125
8581,-113.281250
8582,-115.234375
8583,-117.187500
8584,-117.187500
8585,-119.140625
8586,-121.093750
8587,-123.046875
8588,-123.046875
8589,-125.000000
8590,-126.953125
8591,-128.906250
8592,-128.906250
8593,-130.859375
8594,-130.859375
8595,-130.859375
8596,-132.812500
8597,-134.765625
8598,-134.765625
8599,-134.765625
8600,-134.765625
8601,-136.718750
8602,-136.718750
8603,-136.718750
8604,-136.718750
8605,-136.718750
8606,-136.718750
8607,-136.718750
8608,-136.718750
8609,-138.671875
8610,-138.671875
8611,-136.718750
8612,-138.671875
8613,-136.718750
8614,-136.718750
8615,-136.718750
8616,-134.765625
8617,-134.765625
8618,-134.765625
8619,-134.765625
8620,-132.812500
8621,-130.859375
8622,-130.859375
8623,-130.859375
8624,-128.906250
8625,-128.906250
8626,-126.953125
8627,-125.000000
8628,-125.000000
8629,-123.046875
8630,-121.093750
8631,-121.093750
8632,-119.140625
8633,-117.187500
8634,-115.234375
8635,-113.281250
8636,-111.328125
8637,-111.328125
8638,-107.421875
8639,-105.468750
8640,-103.515625
8641,-103.515625
8642,-101.562500
8643,-97.656250
8644,-95.703125
8645,-93.750000
8646,-91.796875
8647,-89.843750
8648,-85.937500
8649,-83.984375
8650,-82.031250
8651,-80.078125
8652,-76.171875
8653,-74.218750
8654,-72.265625
8655,-70.312500
8656,-66.406250
8657,-64.453125
8658,-62.500000
8659,-58.593750
8660,-56.640625
8661,-52.734375
8662,-50.781250
8663,-48.828125
8664,-44.921875
8665,-41.015625
8666,-39.062500
8667,-37.109375
8668,-33.203125
8669,-31.250000
8670,-27.343750
8671,-25.390625
8672,-21.484375
8673,-19.531250
8674,-17.578125
8675,-13.671875
8676,-9.765625
8677,-7.812500
8678,-5.859375
8679,-1.953125
8680,0.000000
8681,3.906250
8682,5.859375
8683,9.765625
8684,11.718750
8685,13.671875
8686,17.578125
8687,19.531250
8688,21.484375
8689,25.390625
8690,27.343750
8691,29.296875
8692,33.203125
8693,35.156250
8694,37.109375
8695,39.062500
8696,42.968750
8697,44.921875
8698,46.875000
8699,48.828125
8700,50.781250
8701,54.687500
8702,56.640625
8703,58.593750
8704,60.546875
8705,62.500000
8706,64.453125
8707,66.406250
8708,70.312500
8709,70.312500
8710,72.265625
8711,74.218750
8712,76.171875
8713,78.125000
8714,80.078125
8715,82.031250
8716,83.984375
8717,85.937500
8718,87.890625
8719,87.890625
8720,89.843750
8721,91.796875
8722,93.750000
8723,93.750000
8724,95.703125
8725,97.656250
8726,97.656250
8727,99.609375
8728,99.609375
8729,101.562500
8730,103.515625
8731,103.515625
8732,105.468750
8733,105.468750
8734,105.468750
8735,107.421875
8736,107.421875
8737,109.375000
8738,109.375000
8739,109.375000
8740,109.375000
8741,109.375000
8742,111.328125
8743,111.328125
8744,111.328125
8745,111.328125
8746,111.328125
8747,113.281250
8748,111.328125
8749,111.328125
8750,111.328125
8751,111.328125
8752,111.328125
8753,111.328125
8754,111.328125
8755,111.328125
8756,111.328125
8757,111.328125
8758,109.375000
8759,109.375000
8760,109.375000
8761,109.375000
8762,107.421875
8763,107.421875
8764,107.421875
8765,105.468750
8766,105.468750
8767,105.468750
8768,103.515625
8769,103.515625
8770,101.562500
8771,99.609375
8772,99.609375
8773,97.656250
8774,97.656250
8775,95.703125
8776,93.750000
8777,93.750000
8778,91.796875
8779,89.843750
8780,89.843750
8781,87.890625
8782,85.937500
8783,83.984375
8784,82.031250
8785,82.031250
8786,78.125000
8787,76.171875
8788,76.171875
8789,72.265625
8790,70.312500
8791,68.359375
8792,68.359375
8793,66.406250
8794,62.500000
8795,60.546875
8796,58.593750
8797,56.640625
8798,54.687500
8799,52.734375
8800,48.828125
8801,46.875000
8802,42.968750
8803,41.015625
8804,39.062500
8805,37.109375
8806,35.156250
8807,31.250000
8808,29.296875
8809,27.343750
8810,23.437500
8811,21.484375
8812,19.531250
8813,15.625000
8814,13.671875
8815,11.718750
8816,7.812500
8817,3.906250
8818,1.953125
8819,0.000000
8820,-3.906250
8821,-5.859375
8822,-9.765625
8823,-11.718750
8824,-13.671875
8825,-17.578125
8826,-19.531250
8827,-23.437500
8828,-27.343750
8829,-29.296875
8830,-31.250000
8831,-35.156250
8832,-37.109375
8833,-41.015625
8834,-42.968750
8835,-46.875000
8836,-48.828125
8837,-50.781250
8838,-54.687500
8839,-56.640625
8840,-60.546875
8841,-62.500000
8842,-66.406250
8843,-68.359375
8844,-70.312500
8845,-72.265625
8846,-74.218750
8847,-78.125000
8848,-82.031250
8849,-83.984375
8850,-85.937500
8851,-87.890625
8852,-89.843750
8853,-91.796875
8854,-93.750000
8855,-97.656250
8856,-99.609375
8857,-101.562500
8858,-103.515625
8859,-105.468750
8860,-107.421875
8861,-109.375000
8862,-111.328125
8863,-113.281250
8864,-113.281250
8865,-115.234375
8866,-117.187500
8867,-119.140625
8868,-121.093750
8869,-123.046875
8870,-123.046875
8871,-125.000000
8872,-126.953125
8873,-126.953125
8874,-128.906250
8875,-130.859375
8876,-130.859375
8877,-132.812500
8878,-132.812500
8879,-132.812500
8880,-134.765625
8881,-134.765625
8882,-134.765625
8883,-136.718750
8884,-136.718750
8885,-136.718750
8886,-136.718750
8887,-136.718750
8888,-138.671875
8889,-138.671875
8890,-138.671875
8891,-138.671875
8892,-138.671875
8893,-138.671875
8894,-138.671875
8895,-136.718750
8896,-136.718750
8897,-136.718750
8898,-136.718750
8899,-136.718750
8900,-134.765625
8901,-134.765625
8902,-132.812500
8903,-132.812500
8904,-130.859375
8905,-130.859375
8906,-128.906250
8907,-128.906250
8908,-126.953125
8909,-125.000000
8910,-125.000000
8911,-123.046875
8912,-121.093750
8913,-121.093750
8914,-119.140625
8915,-117.187500
8916,-115.234375
8917,-113.281250
8918,-111.328125
8919,-109.375000
8920,-109.375000
8921,-105.468750
8922,-105.468750
8923,-101.562500
8924,-99.609375
8925,-97.656250
8926,-95.703125
8927,-93.750000
8928,-91.796875
8929,-89.843750
8930,-87.890625
8931,-83.984375
8932,-82.031250
8933,-80.078125
8934,-78.125000
8935,-76.171875
8936,-72.265625
8937,-70.312500
8938,-66.406250
8939,-64.453125
8940,-62.500000
8941,-60.546875
8942,-56.640625
8943,-54.687500
8944,-50.781250
8945,-48.828125
8946,-44.921875
8947,-42.968750
8948,-39.062500
8949,-37.109375
8950,-35.156250
8951,-31.250000
8952,-29.296875
8953,-25.390625
8954,-23.437500
8955,-21.484375
8956,-17.578125
8957,-13.671875
8958,-13.671875
8959,-9.765625
8960,-5.859375
8961,-3.906250
8962,0.000000
8963,1.953125
8964,3.906250
8965,7.812500
8966,11.718750
8967,11.718750
8968,15.625000
8969,19.531250
8970,21.484375
8971,23.437500
8972,27.343750
8973,29.296875
8974,31.250000
8975,35.156250
8976,37.109375
8977,39.062500
8978,42.968750
8979,44.921875
8980,46.875000
8981,48.828125
8982,50.781250
8983,54.687500
8984,56.640625
8985,58.593750
8986,60.546875
8987,62.500000
8988,64.453125
8989,66.406250
8990,68.359375
8991,72.265625
8992,72.265625
8993,76.171875
8994,76.171875
8995,78.125000
8996,80.078125
8997,82.031250
8998,83.984375
8999,85.937500
9000,87.890625
9001,87.890625
9002,89.843750
9003,91.796875
9004,93.750000
9005,93.750000
9006,95.703125
9007,95.703125
9008,97.656250
9009,99.609375
9010,101.562500
9011,101.562500
9012,101.562500
9013,103.515625
9014,103.515625
9015,103.515625
9016,105.468750
9017,107.421875
9018,107.421875
9019,109.375000
9020,107.421875
9021,109.375000
9022,109.375000
9023,111.328125
9024,111.328125
9025,111.328125
9026,111.328125
9027,111.328125
9028,111.328125
9029,113.281250
9030,111.328125
9031,111.328125
9032,111.328125
9033,111.328125
9034,111.328125
9035,111.328125
9036,111.328125
9037,111.328125
9038,111.328125
9039,111.328125
9040,109.375000
9041,109.375000
9042,109.375000
9043,109.375000
9044,107.421875
9045,107.421875
9046,107.421875
9047,105.468750
9048,105.468750
9049,105.468750
9050,103.515625
9051,103.515625
9052,101.562500
9053,101.562500
9054,99.609375
9055,97.656250
9056,97.656250
9057,95.703125
9058,95.703125
9059,93.750000
9060,91.796875
9061,89.843750
9062,89.843750
9063,87.890625
9064,85.937500
9065,83.984375
9066,82.031250
9067,82.031250
9068,80.078125
9069,78.125000
9070,76.171875
9071,74.218750
9072,70.312500
9073,70.312500
9074,68.359375
9075,66.406250
9076,64.453125
9077,60.546875
9078,58.593750
9079,56.640625
9080,54.687500
9081,52.734375
9082,48.828125
9083,46.875000
9084,44.921875
9085,42.968750
9086,41.015625
9087,37.109375
9088,35.156250
9089,33.203125
9090,29.296875
9091,27.343750
9092,25.390625
9093,21.484375
9094,19.531250
9095,15.625000
9096,13.671875
9097,11.718750
9098,7.812500
9099,5.859375
9100,3.906250
9101,0.000000
9102,-1.953125
9103,-5.859375
9104,-7.812500
9105,-11.718750
9106,-13.671875
9107,-17.578125
9108,-19.531250
9109,-23.437500
9110,-25.390625
9111,-29.296875
9112,-31.250000
9113,-33.203125
9114,-37.109375
9115,-39.062500
9116,-42.968750
9117,-44.921875
9118,-48.828125
9119,-50.781250
9120,-54.687500
9121,-56.640625
9122,-58.593750
9123,-60.546875
9124,-64.453125
9125,-68.359375
9126,-70.312500
9127,-72.265625
9128,-74.218750
9129,-78.125000
9130,-80.078125
9131,-82.031250
9132,-85.937500
9133,-87.890625
9134,-89.843750
9135,-91.796875
9136,-93.750000
9137,-97.656250
9138,-99.609375
9139,-101.562500
9140,-103.515625
9141,-105.468750
9142,-107.421875
9143,-109.375000
9144,-111.328125
9145,-113.281250
9146,-115.234375
9147,-115.234375
9148,-117.187500
9149,-119.140625
9150,-121.093750
9151,-123.046875
9152,-123.046875
9153,-125.000000
9154,-126.953125
9155,-126.953125
9156,-128.906250
9157,-128.906250
9158,-130.859375
9159,-130.859375
9160,-132.812500
9161,-134.765625
9162,-134.765625
9163,-134.765625
9164,-136.718750
9165,-136.718750
9166,-136.718750
9167,-136.718750
9168,-136.718750
9169,-138.671875
9170,-138.671875
9171,-138.671875
9172,-138.671875
9173,-138.671875
9174,-138.671875
9175,-138.671875
9176,-138.671875
9177,-138.671875
9178,-136.718750
9179,-136.718750
9180,-136.718750
9181,-136.718750
9182,-134.765625
9183,-134.765625
9184,-132.812500
9185,-132.812500
9186,-132.812500
9187,-130.859375
9188,-128.906250
9189,-128.906250
9190,-126.953125
9191,-126.953125
9192,-125.000000
9193,-123.046875
9194,-123.046875
9195,-121.093750
9196,-119.140625
9197,-117.187500
9198,-117.187500
9199,-115.234375
9200,-113.281250
9201,-111.328125
9202,-109.375000
9203,-107.421875
9204,-105.468750
9205,-103.515625
9206,-101.562500
9207,-99.609375
9208,-97.656250
9209,-95.703125
9210,-93.750000
9211,-91.796875
9212,-87.890625
9213,-85.937500
9214,-83.984375
9215,-82.031250
9216,-78.125000
9217,-76.171875
9218,-74.218750
9219,-70.312500
9220,-68.359375
9221,-66.406250
9222,-62.500000
9223,-60.546875
9224,-58.593750
9225,-54.687500
9226,-52.734375
9227,-48.828125
9228,-46.875000
9229,-44.921875
9230,-41.015625
9231,-39.062500
9232,-35.156250
9233,-33.203125
9234,-31.250000
9235,-27.343750
9236,-23.437500
9237,-21.484375
9238,-19.531250
9239,-15.625000
9240,-13.671875
9241,-9.765625
9242,-5.859375
9243,-3.906250
9244,-1.953125
9245,1.953125
9246,3.906250
9247,7.812500
9248,9.765625
9249,11.718750
9250,15.625000
9251,17.578125
9252,21.484375
9253,23.437500
9254,25.390625
9255,29.296875
9256,31.250000
9257,33.203125
9258,35.156250
9259,39.062500
9260,41.015625
9261,42.968750
9262,44.921875
9263,48.828125
9264,50.781250
9265,52.734375
9266,54.687500
9267,56.640625
9268,58.593750
9269,60.546875
9270,64.453125
9271,66.406250
9272,68.359375
9273,70.312500
9274,72.265625
9275,74.218750
9276,76.171875
9277,76.171875
9278,80.078125
9279,82.031250
9280,82.031250
9281,83.984375
9282,85.937500
9283,87.890625
9284,89.843750
9285,91.796875
9286,91.796875
9287,93.750000
9288,95.703125
9289,95.703125
9290,95.703125
9291,97.656250
9292,99.609375
9293,101.562500
9294,101.562500
9295,103.515625
9296,103.515625
9297,105.468750
9298,105.468750
9299,107.421875
9300,107.421875
9301,107.421875
9302,109.375000
9303,109.375000
9304,109.375000
9305,109.375000
9306,111.328125
9307,111.328125
9308,111.328125
9309,111.328125
9310,113.281250
9311,113.281250
9312,113.281250
9313,111.328125
9314,111.328125
9315,113.281250
9316,113.281250
9317,111.328125
9318,113.281250
9319,111.328125
9320,111.328125
9321,111.328125
9322,111.328125
9323,109.375000
9324,109.375000
9325,109.375000
9326,109.375000
9327,107.421875
9328,105.468750
9329,107.421875
9330,105.468750
9331,105.468750
9332,103.515625
9333,103.515625
9334,103.515625
9335,99.609375
9336,99.609375
9337,99.609375
9338,97.656250
9339,95.703125
9340,95.703125
9341,93.750000
9342,91.796875
9343,91.796875
9344,89.843750
9345,87.890625
9346,85.937500
9347,85.937500
9348,83.984375
9349,82.031250
9350,80.078125
9351,78.125000
9352,76.171875
9353,74.218750
9354,72.265625
9355,70.312500
9356,66.406250
9357,66.406250
9358,64.453125
9359,62.500000
9360,60.546875
9361,56.640625
9362,54.687500
9363,52.734375
9364,50.781250
9365,48.828125
9366,46.875000
9367,44.921875
9368,41.015625
9369,39.062500
9370,35.156250
9371,33.203125
9372,31.250000
9373,29.296875
9374,25.390625
9375,23.437500
9376,21.484375
9377,17.578125
9378,15.625000
9379,11.718750
9380,9.765625
9381,5.859375
9382,3.906250
9383,1.953125
9384,-1.953125
9385,-3.906250
9386,-5.859375
9387,-9.765625
9388,-13.671875
9389,-15.625000
9390,-17.578125
9391,-23.437500
9392,-25.390625
9393,-27.343750
9394,-29.296875
9395,-33.203125
9396,-35.156250
9397,-41.015625
9398,-41.015625
9399,-44.921875
9400,-48.828125
9401,-50.781250
9402,-52.734375
9403,-54.687500
9404,-58.593750
9405,-60.546875
9406,-64.453125
9407,-66.406250
9408,-68.359375
9409,-74.218750
9410,-74.218750
9411,-76.171875
9412,-80.078125
9413,-83.984375
9414,-83.984375
9415,-85.937500
9416,-89.843750
9417,-91.796875
9418,-93.750000
9419,-95.703125
9420,-97.656250
9421,-101.562500
9422,-101.562500
9423,-103.515625
9424,-107.421875
9425,-107.421875
9426,-109.375000
9427,-111.328125
9428,-115.234375
9429,-115.234375
9430,-117.187500
9431,-119.140625
9432,-119.140625
9433,-121.093750
9434,-123.046875
9435,-125.000000
9436,-125.000000
9437,-126.953125
9438,-128.906250
9439,-128.906250
9440,-130.859375
9441,-130.859375
9442,-132.812500
9443,-132.812500
9444,-134.765625
9445,-134.765625
9446,-134.765625
9447,-136.718750
9448,-136.718750
9449,-136.718750
9450,-136.718750
9451,-136.718750
9452,-138.671875
9453,-138.671875
9454,-138.671875
9455,-138.671875
9456,-138.671875
9457,-138.671875
9458,-138.671875
9459,-138.671875
9460,-136.718750
9461,-136.718750
9462,-136.718750
9463,-134.765625
9464,-134.765625
9465,-134.765625
9466,-132.812500
9467,-132.812500
9468,-132.812500
9469,-130.859375
9470,-130.859375
9471,-128.906250
9472,-126.953125
9473,-126.953125
9474,-125.000000
9475,-125.000000
9476,-123.046875
9477,-121.093750
9478,-121.093750
9479,-119.140625
9480,-117.187500
9481,-115.234375
9482,-113.281250
9483,-111.328125
9484,-109.375000
9485,-107.421875
9486,-105.468750
9487,-103.515625
9488,-101.562500
9489,-99.609375
9490,-99.609375
9491,-95.703125
9492,-93.750000
9493,-91.796875
9494,-87.890625
9495,-85.937500
9496,-83.984375
9497,-82.031250
9498,-78.125000
9499,-76.171875
9500,-74.218750
9501,-72.265625
9502,-68.359375
9503,-66.406250
9504,-62.500000
9505,-60.546875
9506,-58.593750
9507,-54.687500
9508,-52.734375
9509,-48.828125
9510,-46.875000
9511,-44.921875
9512,-41.015625
9513,-39.062500
9514,-37.109375
9515,-33.203125
9516,-29.296875
9517,-27.343750
9518,-25.390625
9519,-21.484375
9520,-19.531250
9521,-15.625000
9522,-13.671875
9523,-9.765625
9524,-7.812500
9525,-3.906250
9526,-1.953125
9527,0.000000
9528,3.906250
9529,5.859375
9530,9.765625
9531,11.718750
9532,13.671875
9533,17.578125
9534,19.531250
9535,23.437500
9536,25.390625
9537,27.343750
9538,31.250000
9539,33.203125
9540,35.156250
9541,37.109375
9542,41.015625
9543,42.968750
9544,44.921875
9545,46.875000
9546,50.781250
9547,52.734375
9548,54.687500
9549,56.640625
9550,58.593750
9551,62.500000
9552,62.500000
9553,66.406250
9554,68.359375
9555,70.312500
9556,72.265625
9557,74.218750
9558,76.171875
9559,76.171875
9560,78.125000
9561,82.031250
9562,85.937500
9563,85.937500
9564,85.937500
9565,87.890625
9566,89.843750
9567,89.843750
9568,91.796875
9569,93.750000
9570,95.703125
9571,95.703125
9572,97.656250
9573,97.656250
9574,97.656250
9575,101.562500
9576,101.562500
9577,103.515625
9578,103.515625
9579,105.468750
9580,105.468750
9581,105.468750
9582,107.421875
9583,107.421875
9584,107.421875
9585,109.375000
9586,109.375000
9587,109.375000
9588,111.328125
9589,109.375000
9590,111.328125
9591,111.328125
9592,111.328125
9593,113.281250
9594,111.328125
9595,113.281250
9596,113.281250
9597,111.328125
9598,111.328125
9599,111.328125
9600,111.328125
9601,111.328125
9602,111.328125
9603,111.328125
9604,111.328125
9605,109.375000
9606,109.375000
9607,109.375000
9608,109.375000
9609,111.328125
9610,107.421875
9611,107.421875
9612,103.515625
9613,105.468750
9614,103.515625
9615,103.515625
9616,103.515625
9617,101.562500
9618,99.609375
9619,99.609375
9620,97.656250
9621,97.656250
9622,95.703125
9623,93.750000
9624,93.750000
9625,91.796875
9626,89.843750
9627,87.890625
9628,87.890625
9629,85.937500
9630,83.984375
9631,82.031250
9632,80.078125
9633,78.125000
9634,76.171875
9635,74.218750
9636,72.265625
9637,70.312500
9638,68.359375
9639,66.406250
9640,66.406250
9641,62.500000
9642,60.546875
9643,58.593750
9644,56.640625
9645,52.734375
9646,50.781250
9647,48.828125
9648,46.875000
9649,42.968750
9650,41.015625
9651,39.062500
9652,37.109375
9653,33.203125
9654,31.250000
9655,29.296875
9656,25.390625
9657,23.437500
9658,19.531250
9659,19.531250
9660,15.625000
9661,11.718750
9662,9.765625
9663,5.859375
9664,3.906250
9665,1.953125
9666,-1.953125
9667,-3.906250
9668,-7.812500
9669,-9.765625
9670,-13.671875
9671,-15.625000
9672,-17.578125
9673,-21.484375
9674,-25.390625
9675,-27.343750
9676,-29.296875
9677,-33.203125
9678,-35.156250
9679,-39.062500
9680,-41.015625
9681,-42.968750
9682,-48.828125
9683,-48.828125
9684,-52.734375
9685,-54.687500
9686,-56.640625
9687,-60.546875
9688,-64.453125
9689,-64.453125
9690,-68.359375
9691,-70.312500
9692,-74.218750
9693,-76.171875
9694,-78.125000
9695,-80.078125
9696,-83.984375
9697,-85.937500
9698,-87.890625
9699,-89.843750
9700,-91.796875
9701,-95.703125
9702,-97.656250
9703,-99.609375
9704,-101.562500
9705,-103.515625
9706,-105.468750
9707,-107.421875
9708,-111.328125
9709,-111.328125
9710,-113.281250
9711,-115.234375
9712,-115.234375
9713,-117.187500
9714,-119.140625
9715,-121.093750
9716,-123.046875
9717,-125.000000
9718,-125.000000
9719,-126.953125
9720,-126.953125
9721,-128.906250
9722,-130.859375
9723,-130.859375
9724,-132.812500
9725,-132.812500
9726,-134.765625
9727,-134.765625
9728,-134.765625
9729,-136.718750
9730,-136.718750
9731,-138.671875
9732,-136.718750
9733,-136.718750
9734,-138.671875
9735,-138.671875
9736,-138.671875
9737,-138.671875
9738,-138.671875
9739,-138.671875
9740,-138.671875
9741,-138.671875
9742,-136.718750
9743,-136.718750
9744,-136.718750
9745,-138.671875
9746,-134.765625
9747,-134.765625
9748,-134.765625
9749,-132.812500
9750,-128.906250
9751,-130.859375
9752,-130.859375
9753,-128.906250
9754,-128.906250
9755,-126.953125
9756,-125.000000
9757,-125.000000
9758,-123.046875
9759,-121.093750
9760,-121.093750
9761,-119.140625
9762,-117.187500
9763,-115.234375
9764,-113.281250
9765,-111.328125
9766,-109.375000
9767,-109.375000
9768,-107.421875
9769,-103.515625
9770,-101.562500
9771,-99.609375
9772,-97.656250
9773,-95.703125
9774,-93.750000
9775,-91.796875
9776,-89.843750
9777,-87.890625
9778,-83.984375
9779,-82.031250
9780,-80.078125
9781,-78.125000
9782,-76.171875
9783,-72.265625
9784,-70.312500
9785,-68.359375
9786,-64.453125
9787,-62.500000
9788,-58.593750
9789,-52.734375
9790,-54.687500
9791,-50.781250
9792,-48.828125
9793,-44.921875
9794,-42.968750
9795,-41.015625
9796,-37.109375
9797,-33.203125
9798,-31.250000
9799,-29.296875
9800,-25.390625
9801,-23.437500
9802,-19.531250
9803,-17.578125
9804,-13.671875
9805,-11.718750
9806,-7.812500
9807,-5.859375
9808,-3.906250
9809,0.000000
9810,1.953125
9811,5.859375
9812,7.812500
9813,11.718750
9814,13.671875
9815,17.578125
9816,17.578125
9817,21.484375
9818,25.390625
9819,27.343750
9820,29.296875
9821,33.203125
9822,35.156250
9823,37.109375
9824,41.015625
9825,42.968750
9826,44.921875
9827,46.875000
9828,50.781250
9829,52.734375
9830,54.687500
9831,56.640625
9832,60.546875
9833,60.546875
9834,62.500000
9835,66.406250
9836,68.359375
9837,68.359375
9838,70.312500
9839,74.218750
9840,76.171875
9841,78.125000
9842,78.125000
9843,80.078125
9844,82.031250
9845,83.984375
9846,85.937500
9847,85.937500
9848,87.890625
9849,91.796875
9850,91.796875
9851,91.796875
9852,93.750000
9853,95.703125
9854,97.656250
9855,97.656250
9856,99.609375
9857,101.562500
9858,101.562500
9859,103.515625
9860,103.515625
9861,103.515625
9862,105.468750
9863,105.468750
9864,107.421875
9865,107.421875
9866,107.421875
9867,109.375000
9868,109.375000
9869,109.375000
9870,109.375000
9871,111.328125
9872,111.328125
9873,111.328125
9874,111.328125
9875,111.328125
9876,111.328125
9877,111.328125
9878,113.281250
9879,113.281250
9880,111.328125
9881,113.281250
9882,113.281250
9883,111.328125
9884,111.328125
9885,111.328125
9886,111.328125
9887,109.375000
9888,109.375000
9889,109.375000
9890,109.375000
9891,109.375000
9892,107.421875
9893,107.421875
9894,107.421875
9895,105.468750
9896,105.468750
9897,103.515625
9898,103.515625
9899,101.562500
9900,103.515625
9901,101.562500
9902,97.656250
9903,97.656250
9904,97.656250
9905,95.703125
9906,93.750000
9907,91.796875
9908,91.796875
9909,89.843750
9910,87.890625
9911,85.937500
9912,83.984375
9913,82.031250
9914,82.031250
9915,80.078125
9916,76.171875
9917,74.218750
9918,74.218750
9919,72.265625
9920,70.312500
9921,68.359375
9922,64.453125
9923,62.500000
9924,60.546875
9925,58.593750
9926,56.640625
9927,54.687500
9928,50.781250
9929,48.828125
9930,46.875000
9931,44.921875
9932,42.968750
9933,39.062500
9934,37.109375
9935,35.156250
9936,33.203125
9937,29.296875
9938,27.343750
9939,25.390625
9940,19.531250
9941,19.531250
9942,15.625000
9943,13.671875
9944,11.718750
9945,9.765625
9946,5.859375
9947,1.953125
9948,0.000000
9949,-1.953125
9950,-5.859375
9951,-9.765625
9952,-11.718750
9953,-15.625000
9954,-17.578125
9955,-19.531250
9956,-21.484375
9957,-25.390625
9958,-29.296875
9959,-31.250000
9960,-33.203125
9961,-37.109375
9962,-39.062500
9963,-42.968750
9964,-44.921875
9965,-48.828125
9966,-50.781250
9967,-54.687500
9968,-56.640625
9969,-58.593750
9970,-62.500000
9971,-64.453125
9972,-68.359375
9973,-70.312500
9974,-74.218750
9975,-76.171875
9976,-78.125000
9977,-80.078125
9978,-82.031250
9979,-85.937500
9980,-87.890625
9981,-89.843750
9982,-91.796875
9983,-93.750000
9984,-97.656250
9985,-97.656250
9986,-99.609375
9987,-103.515625
9988,-105.468750
9989,-107.421875
9990,-109.375000
9991,-111.328125
9992,-111.328125
9993,-115.234375
9994,-117.187500
9995,-119.140625
9996,-119.140625
9997,-121.093750
9998,-123.046875
9999,-123.046875
10000,-126.953125
