Channel              :,CH1
Frequency            :,1.771kHz
Period               :,0.565ms
PK-PK                :,228.5mV
Probe attenuation    :,1X
Voltage per ADC value:,0.122070mV
Time interval        :,2.00000us

index,CH1_Voltage(mV)
1,97.656250
2,97.656250
3,97.656250
4,97.656250
5,97.656250
6,97.656250
7,97.656250
8,97.656250
9,95.703125
10,95.703125
11,95.703125
12,93.750000
13,93.750000
14,93.750000
15,91.796875
16,91.796875
17,91.796875
18,89.843750
19,89.843750
20,87.890625
21,87.890625
22,85.937500
23,85.937500
24,83.984375
25,83.984375
26,82.031250
27,80.078125
28,80.078125
29,78.125000
30,76.171875
31,76.171875
32,74.218750
33,72.265625
34,70.312500
35,68.359375
36,68.359375
37,66.406250
38,64.453125
39,62.500000
40,60.546875
41,58.593750
42,56.640625
43,54.687500
44,52.734375
45,50.781250
46,48.828125
47,46.875000
48,44.921875
49,42.968750
50,41.015625
51,39.062500
52,37.109375
53,35.156250
54,33.203125
55,29.296875
56,27.343750
57,25.390625
58,23.437500
59,21.484375
60,17.578125
61,15.625000
62,13.671875
63,11.718750
64,9.765625
65,5.859375
66,3.906250
67,1.953125
68,0.000000
69,-3.906250
70,-5.859375
71,-9.765625
72,-11.718750
73,-13.671875
74,-15.625000
75,-19.531250
76,-21.484375
77,-23.437500
78,-27.343750
79,-29.296875
80,-31.250000
81,-35.156250
82,-37.109375
83,-39.062500
84,-41.015625
85,-44.921875
86,-46.875000
87,-48.828125
88,-50.781250
89,-54.687500
90,-56.640625
91,-60.546875
92,-60.546875
93,-64.453125
94,-66.406250
95,-68.359375
96,-72.265625
97,-72.265625
98,-76.171875
99,-78.125000
100,-78.125000
101,-82.031250
102,-83.984375
103,-85.937500
104,-87.890625
105,-89.843750
106,-89.843750
107,-93.750000
108,-95.703125
109,-97.656250
110,-97.656250
111,-99.609375
112,-101.562500
113,-103.515625
114,-105.468750
115,-107.421875
116,-109.375000
117,-109.375000
118,-111.328125
119,-113.281250
120,-113.281250
121,-115.234375
122,-115.234375
123,-117.187500
124,-117.187500
125,-119.140625
126,-119.140625
127,-121.093750
128,-121.093750
129,-121.093750
130,-121.093750
131,-123.046875
132,-123.046875
133,-125.000000
134,-125.000000
135,-125.000000
136,-125.000000
137,-125.000000
138,-125.000000
139,-125.000000
140,-126.953125
141,-125.000000
142,-125.000000
143,-125.000000
144,-125.000000
145,-125.000000
146,-125.000000
147,-125.000000
148,-123.046875
149,-123.046875
150,-123.046875
151,-123.046875
152,-121.093750
153,-121.093750
154,-121.093750
155,-119.140625
156,-119.140625
157,-117.187500
158,-115.234375
159,-115.234375
160,-115.234375
161,-113.281250
162,-111.328125
163,-111.328125
164,-107.421875
165,-107.421875
166,-105.468750
167,-103.515625
168,-103.515625
169,-101.562500
170,-99.609375
171,-97.656250
172,-95.703125
173,-93.750000
174,-91.796875
175,-89.843750
176,-87.890625
177,-85.937500
178,-83.984375
179,-82.031250
180,-80.078125
181,-78.125000
182,-76.171875
183,-74.218750
184,-72.265625
185,-68.359375
186,-66.406250
187,-64.453125
188,-62.500000
189,-60.546875
190,-56.640625
191,-54.687500
192,-52.734375
193,-50.781250
194,-46.875000
195,-44.921875
196,-42.968750
197,-41.015625
198,-37.109375
199,-35.156250
200,-33.203125
201,-31.250000
202,-27.343750
203,-25.390625
204,-21.484375
205,-21.484375
206,-17.578125
207,-15.625000
208,-11.718750
209,-9.765625
210,-7.812500
211,-3.906250
212,-3.906250
213,0.000000
214,1.953125
215,3.906250
216,7.812500
217,9.765625
218,11.718750
219,13.671875
220,17.578125
221,19.531250
222,21.484375
223,23.437500
224,25.390625
225,27.343750
226,31.250000
227,33.203125
228,35.156250
229,37.109375
230,39.062500
231,41.015625
232,42.968750
233,44.921875
234,48.828125
235,50.781250
236,52.734375
237,54.687500
238,56.640625
239,58.593750
240,58.593750
241,62.500000
242,64.453125
243,64.453125
244,66.406250
245,68.359375
246,70.312500
247,72.265625
248,74.218750
249,74.218750
250,76.171875
251,78.125000
252,78.125000
253,80.078125
254,82.031250
255,82.031250
256,83.984375
257,83.984375
258,85.937500
259,87.890625
260,87.890625
261,87.890625
262,89.843750
263,89.843750
264,91.796875
265,91.796875
266,93.750000
267,93.750000
268,93.750000
269,95.703125
270,95.703125
271,95.703125
272,95.703125
273,97.656250
274,97.656250
275,97.656250
276,97.656250
277,97.656250
278,97.656250
279,97.656250
280,97.656250
281,99.609375
282,97.656250
283,97.656250
284,97.656250
285,97.656250
286,97.656250
287,97.656250
288,97.656250
289,97.656250
290,97.656250
291,95.703125
292,95.703125
293,95.703125
294,95.703125
295,93.750000
296,93.750000
297,93.750000
298,91.796875
299,91.796875
300,89.843750
301,89.843750
302,89.843750
303,87.890625
304,87.890625
305,85.937500
306,83.984375
307,83.984375
308,82.031250
309,82.031250
310,80.078125
311,78.125000
312,78.125000
313,76.171875
314,74.218750
315,72.265625
316,72.265625
317,70.312500
318,68.359375
319,66.406250
320,64.453125
321,62.500000
322,62.500000
323,60.546875
324,58.593750
325,56.640625
326,54.687500
327,52.734375
328,50.781250
329,48.828125
330,46.875000
331,42.968750
332,41.015625
333,39.062500
334,37.109375
335,35.156250
336,33.203125
337,31.250000
338,29.296875
339,25.390625
340,23.437500
341,21.484375
342,19.531250
343,15.625000
344,13.671875
345,11.718750
346,9.765625
347,5.859375
348,3.906250
349,1.953125
350,0.000000
351,-3.906250
352,-5.859375
353,-7.812500
354,-11.718750
355,-13.671875
356,-15.625000
357,-19.531250
358,-21.484375
359,-23.437500
360,-25.390625
361,-27.343750
362,-31.250000
363,-33.203125
364,-35.156250
365,-39.062500
366,-41.015625
367,-42.968750
368,-44.921875
369,-48.828125
370,-50.781250
371,-52.734375
372,-54.687500
373,-58.593750
374,-60.546875
375,-62.500000
376,-64.453125
377,-68.359375
378,-70.312500
379,-72.265625
380,-74.218750
381,-76.171875
382,-78.125000
383,-80.078125
384,-82.031250
385,-83.984375
386,-85.937500
387,-89.843750
388,-89.843750
389,-93.750000
390,-93.750000
391,-95.703125
392,-97.656250
393,-99.609375
394,-101.562500
395,-103.515625
396,-105.468750
397,-105.468750
398,-107.421875
399,-109.375000
400,-109.375000
401,-111.328125
402,-113.281250
403,-115.234375
404,-115.234375
405,-117.187500
406,-117.187500
407,-119.140625
408,-119.140625
409,-121.093750
410,-121.093750
411,-121.093750
412,-123.046875
413,-123.046875
414,-123.046875
415,-125.000000
416,-125.000000
417,-125.000000
418,-125.000000
419,-125.000000
420,-126.953125
421,-125.000000
422,-125.000000
423,-125.000000
424,-125.000000
425,-126.953125
426,-125.000000
427,-125.000000
428,-125.000000
429,-125.000000
430,-123.046875
431,-123.046875
432,-123.046875
433,-123.046875
434,-121.093750
435,-121.093750
436,-121.093750
437,-119.140625
438,-117.187500
439,-117.187500
440,-115.234375
441,-115.234375
442,-113.281250
443,-111.328125
444,-111.328125
445,-109.375000
446,-107.421875
447,-107.421875
448,-105.468750
449,-105.468750
450,-103.515625
451,-101.562500
452,-99.609375
453,-97.656250
454,-95.703125
455,-93.750000
456,-93.750000
457,-89.843750
458,-87.890625
459,-87.890625
460,-85.937500
461,-82.031250
462,-80.078125
463,-78.125000
464,-76.171875
465,-74.218750
466,-70.312500
467,-70.312500
468,-68.359375
469,-66.406250
470,-64.453125
471,-60.546875
472,-58.593750
473,-56.640625
474,-52.734375
475,-50.781250
476,-48.828125
477,-46.875000
478,-44.921875
479,-41.015625
480,-39.062500
481,-37.109375
482,-35.156250
483,-31.250000
484,-29.296875
485,-27.343750
486,-23.437500
487,-21.484375
488,-19.531250
489,-17.578125
490,-13.671875
491,-11.718750
492,-7.812500
493,-5.859375
494,-3.906250
495,-1.953125
496,1.953125
497,3.906250
498,5.859375
499,9.765625
500,11.718750
501,13.671875
502,15.625000
503,19.531250
504,21.484375
505,23.437500
506,25.390625
507,29.296875
508,29.296875
509,33.203125
510,35.156250
511,37.109375
512,39.062500
513,41.015625
514,42.968750
515,44.921875
516,46.875000
517,48.828125
518,50.781250
519,54.687500
520,54.687500
521,56.640625
522,58.593750
523,60.546875
524,62.500000
525,64.453125
526,66.406250
527,68.359375
528,68.359375
529,70.312500
530,72.265625
531,72.265625
532,76.171875
533,76.171875
534,78.125000
535,80.078125
536,80.078125
537,82.031250
538,83.984375
539,83.984375
540,85.937500
541,85.937500
542,87.890625
543,87.890625
544,89.843750
545,89.843750
546,91.796875
547,91.796875
548,91.796875
549,93.750000
550,93.750000
551,93.750000
552,95.703125
553,95.703125
554,95.703125
555,97.656250
556,97.656250
557,97.656250
558,97.656250
559,97.656250
560,97.656250
561,99.609375
562,99.609375
563,99.609375
564,97.656250
565,99.609375
566,99.609375
567,97.656250
568,99.609375
569,97.656250
570,97.656250
571,97.656250
572,97.656250
573,97.656250
574,97.656250
575,95.703125
576,95.703125
577,95.703125
578,93.750000
579,93.750000
580,93.750000
581,91.796875
582,91.796875
583,89.843750
584,89.843750
585,87.890625
586,85.937500
587,85.937500
588,85.937500
589,83.984375
590,83.984375
591,82.031250
592,80.078125
593,80.078125
594,78.125000
595,76.171875
596,74.218750
597,74.218750
598,72.265625
599,70.312500
600,68.359375
601,66.406250
602,66.406250
603,64.453125
604,62.500000
605,60.546875
606,58.593750
607,56.640625
608,54.687500
609,52.734375
610,50.781250
611,48.828125
612,46.875000
613,44.921875
614,42.968750
615,39.062500
616,39.062500
617,35.156250
618,35.156250
619,31.250000
620,29.296875
621,27.343750
622,25.390625
623,21.484375
624,19.531250
625,17.578125
626,15.625000
627,13.671875
628,11.718750
629,7.812500
630,5.859375
631,3.906250
632,0.000000
633,-1.953125
634,-3.906250
635,-7.812500
636,-9.765625
637,-11.718750
638,-13.671875
639,-17.578125
640,-19.531250
641,-21.484375
642,-25.390625
643,-27.343750
644,-29.296875
645,-33.203125
646,-35.156250
647,-37.109375
648,-39.062500
649,-42.968750
650,-44.921875
651,-48.828125
652,-48.828125
653,-52.734375
654,-54.687500
655,-56.640625
656,-60.546875
657,-62.500000
658,-64.453125
659,-66.406250
660,-68.359375
661,-70.312500
662,-74.218750
663,-76.171875
664,-78.125000
665,-80.078125
666,-82.031250
667,-83.984375
668,-85.937500
669,-87.890625
670,-89.843750
671,-93.750000
672,-93.750000
673,-95.703125
674,-97.656250
675,-97.656250
676,-101.562500
677,-101.562500
678,-103.515625
679,-105.468750
680,-107.421875
681,-109.375000
682,-109.375000
683,-111.328125
684,-113.281250
685,-113.281250
686,-115.234375
687,-115.234375
688,-117.187500
689,-117.187500
690,-119.140625
691,-119.140625
692,-121.093750
693,-121.093750
694,-121.093750
695,-123.046875
696,-123.046875
697,-123.046875
698,-123.046875
699,-123.046875
700,-125.000000
701,-125.000000
702,-125.000000
703,-125.000000
704,-125.000000
705,-125.000000
706,-126.953125
707,-125.000000
708,-125.000000
709,-125.000000
710,-125.000000
711,-125.000000
712,-125.000000
713,-123.046875
714,-123.046875
715,-123.046875
716,-123.046875
717,-121.093750
718,-121.093750
719,-119.140625
720,-119.140625
721,-117.187500
722,-117.187500
723,-115.234375
724,-115.234375
725,-113.281250
726,-111.328125
727,-111.328125
728,-109.375000
729,-107.421875
730,-107.421875
731,-105.468750
732,-103.515625
733,-103.515625
734,-99.609375
735,-97.656250
736,-97.656250
737,-95.703125
738,-93.750000
739,-91.796875
740,-89.843750
741,-87.890625
742,-85.937500
743,-83.984375
744,-82.031250
745,-80.078125
746,-78.125000
747,-76.171875
748,-72.265625
749,-70.312500
750,-68.359375
751,-66.406250
752,-64.453125
753,-62.500000
754,-58.593750
755,-56.640625
756,-54.687500
757,-52.734375
758,-48.828125
759,-46.875000
760,-44.921875
761,-41.015625
762,-39.062500
763,-37.109375
764,-35.156250
765,-31.250000
766,-29.296875
767,-27.343750
768,-23.437500
769,-21.484375
770,-19.531250
771,-17.578125
772,-13.671875
773,-11.718750
774,-9.765625
775,-7.812500
776,-3.906250
777,-1.953125
778,0.000000
779,1.953125
780,5.859375
781,7.812500
782,9.765625
783,13.671875
784,15.625000
785,17.578125
786,19.531250
787,23.437500
788,25.390625
789,27.343750
790,29.296875
791,31.250000
792,33.203125
793,35.156250
794,37.109375
795,39.062500
796,42.968750
797,44.921875
798,46.875000
799,48.828125
800,50.781250
801,52.734375
802,54.687500
803,56.640625
804,58.593750
805,60.546875
806,62.500000
807,62.500000
808,64.453125
809,66.406250
810,68.359375
811,70.312500
812,72.265625
813,74.218750
814,76.171875
815,76.171875
816,78.125000
817,78.125000
818,80.078125
819,82.031250
820,83.984375
821,83.984375
822,85.937500
823,85.937500
824,87.890625
825,87.890625
826,89.843750
827,89.843750
828,91.796875
829,91.796875
830,91.796875
831,93.750000
832,93.750000
833,93.750000
834,95.703125
835,95.703125
836,95.703125
837,95.703125
838,97.656250
839,97.656250
840,97.656250
841,97.656250
842,97.656250
843,97.656250
844,97.656250
845,99.609375
846,97.656250
847,99.609375
848,97.656250
849,97.656250
850,99.609375
851,97.656250
852,97.656250
853,97.656250
854,97.656250
855,97.656250
856,95.703125
857,95.703125
858,95.703125
859,95.703125
860,95.703125
861,93.750000
862,93.750000
863,91.796875
864,91.796875
865,89.843750
866,89.843750
867,89.843750
868,87.890625
869,85.937500
870,85.937500
871,83.984375
872,83.984375
873,82.031250
874,82.031250
875,80.078125
876,78.125000
877,76.171875
878,76.171875
879,74.218750
880,72.265625
881,70.312500
882,70.312500
883,68.359375
884,66.406250
885,64.453125
886,62.500000
887,60.546875
888,58.593750
889,56.640625
890,54.687500
891,52.734375
892,50.781250
893,50.781250
894,46.875000
895,44.921875
896,42.968750
897,41.015625
898,39.062500
899,37.109375
900,35.156250
901,33.203125
902,31.250000
903,27.343750
904,25.390625
905,23.437500
906,21.484375
907,17.578125
908,15.625000
909,13.671875
910,11.718750
911,9.765625
912,5.859375
913,3.906250
914,1.953125
915,-1.953125
916,-3.906250
917,-5.859375
918,-9.765625
919,-11.718750
920,-13.671875
921,-15.625000
922,-19.531250
923,-21.484375
924,-25.390625
925,-27.343750
926,-29.296875
927,-33.203125
928,-33.203125
929,-37.109375
930,-39.062500
931,-41.015625
932,-44.921875
933,-46.875000
934,-48.828125
935,-52.734375
936,-54.687500
937,-56.640625
938,-58.593750
939,-60.546875
940,-64.453125
941,-64.453125
942,-68.359375
943,-70.312500
944,-72.265625
945,-74.218750
946,-76.171875
947,-78.125000
948,-80.078125
949,-82.031250
950,-83.984375
951,-87.890625
952,-87.890625
953,-91.796875
954,-93.750000
955,-93.750000
956,-95.703125
957,-97.656250
958,-99.609375
959,-101.562500
960,-103.515625
961,-103.515625
962,-105.468750
963,-107.421875
964,-109.375000
965,-111.328125
966,-111.328125
967,-113.281250
968,-113.281250
969,-115.234375
970,-117.187500
971,-117.187500
972,-119.140625
973,-119.140625
974,-121.093750
975,-121.093750
976,-121.093750
977,-123.046875
978,-123.046875
979,-123.046875
980,-125.000000
981,-123.046875
982,-125.000000
983,-125.000000
984,-125.000000
985,-125.000000
986,-125.000000
987,-125.000000
988,-125.000000
989,-125.000000
990,-125.000000
991,-125.000000
992,-125.000000
993,-125.000000
994,-125.000000
995,-123.046875
996,-123.046875
997,-123.046875
998,-123.046875
999,-121.093750
1000,-121.093750
1001,-119.140625
1002,-119.140625
1003,-117.187500
1004,-117.187500
1005,-119.140625
1006,-115.234375
1007,-113.281250
1008,-113.281250
1009,-109.375000
1010,-109.375000
1011,-109.375000
1012,-103.515625
1013,-103.515625
1014,-103.515625
1015,-103.515625
1016,-101.562500
1017,-99.609375
1018,-97.656250
1019,-95.703125
1020,-93.750000
1021,-91.796875
1022,-89.843750
1023,-87.890625
1024,-87.890625
1025,-83.984375
1026,-82.031250
1027,-80.078125
1028,-80.078125
1029,-76.171875
1030,-74.218750
1031,-70.312500
1032,-70.312500
1033,-66.406250
1034,-64.453125
1035,-62.500000
1036,-60.546875
1037,-58.593750
1038,-54.687500
1039,-52.734375
1040,-50.781250
1041,-48.828125
1042,-44.921875
1043,-42.968750
1044,-41.015625
1045,-39.062500
1046,-35.156250
1047,-33.203125
1048,-29.296875
1049,-27.343750
1050,-25.390625
1051,-23.437500
1052,-19.531250
1053,-17.578125
1054,-15.625000
1055,-11.718750
1056,-9.765625
1057,-7.812500
1058,-5.859375
1059,-3.906250
1060,0.000000
1061,1.953125
1062,1.953125
1063,5.859375
1064,9.765625
1065,11.718750
1066,13.671875
1067,17.578125
1068,19.531250
1069,21.484375
1070,25.390625
1071,25.390625
1072,29.296875
1073,31.250000
1074,33.203125
1075,35.156250
1076,37.109375
1077,41.015625
1078,41.015625
1079,44.921875
1080,46.875000
1081,48.828125
1082,50.781250
1083,52.734375
1084,54.687500
1085,56.640625
1086,58.593750
1087,58.593750
1088,62.500000
1089,64.453125
1090,64.453125
1091,66.406250
1092,68.359375
1093,70.312500
1094,72.265625
1095,74.218750
1096,74.218750
1097,76.171875
1098,76.171875
1099,80.078125
1100,80.078125
1101,82.031250
1102,83.984375
1103,83.984375
1104,85.937500
1105,85.937500
1106,87.890625
1107,87.890625
1108,89.843750
1109,91.796875
1110,89.843750
1111,91.796875
1112,91.796875
1113,93.750000
1114,93.750000
1115,93.750000
1116,95.703125
1117,95.703125
1118,95.703125
1119,95.703125
1120,95.703125
1121,97.656250
1122,97.656250
1123,97.656250
1124,97.656250
1125,97.656250
1126,97.656250
1127,99.609375
1128,97.656250
1129,99.609375
1130,99.609375
1131,97.656250
1132,97.656250
1133,97.656250
1134,97.656250
1135,97.656250
1136,97.656250
1137,97.656250
1138,95.703125
1139,97.656250
1140,95.703125
1141,95.703125
1142,95.703125
1143,93.750000
1144,93.750000
1145,91.796875
1146,91.796875
1147,91.796875
1148,89.843750
1149,89.843750
1150,87.890625
1151,87.890625
1152,85.937500
1153,85.937500
1154,83.984375
1155,83.984375
1156,82.031250
1157,80.078125
1158,80.078125
1159,78.125000
1160,76.171875
1161,74.218750
1162,72.265625
1163,72.265625
1164,70.312500
1165,68.359375
1166,66.406250
1167,64.453125
1168,62.500000
1169,62.500000
1170,60.546875
1171,58.593750
1172,56.640625
1173,54.687500
1174,52.734375
1175,50.781250
1176,48.828125
1177,46.875000
1178,42.968750
1179,42.968750
1180,41.015625
1181,37.109375
1182,35.156250
1183,33.203125
1184,31.250000
1185,29.296875
1186,25.390625
1187,23.437500
1188,21.484375
1189,19.531250
1190,17.578125
1191,13.671875
1192,11.718750
1193,9.765625
1194,7.812500
1195,3.906250
1196,1.953125
1197,-1.953125
1198,-1.953125
1199,-5.859375
1200,-7.812500
1201,-9.765625
1202,-13.671875
1203,-15.625000
1204,-17.578125
1205,-19.531250
1206,-23.437500
1207,-25.390625
1208,-29.296875
1209,-31.250000
1210,-33.203125
1211,-35.156250
1212,-37.109375
1213,-41.015625
1214,-42.968750
1215,-44.921875
1216,-46.875000
1217,-50.781250
1218,-52.734375
1219,-56.640625
1220,-56.640625
1221,-60.546875
1222,-62.500000
1223,-64.453125
1224,-66.406250
1225,-70.312500
1226,-72.265625
1227,-74.218750
1228,-76.171875
1229,-78.125000
1230,-80.078125
1231,-82.031250
1232,-83.984375
1233,-85.937500
1234,-89.843750
1235,-91.796875
1236,-91.796875
1237,-93.750000
1238,-95.703125
1239,-97.656250
1240,-99.609375
1241,-101.562500
1242,-103.515625
1243,-103.515625
1244,-107.421875
1245,-107.421875
1246,-109.375000
1247,-107.421875
1248,-111.328125
1249,-113.281250
1250,-113.281250
1251,-115.234375
1252,-117.187500
1253,-117.187500
1254,-119.140625
1255,-119.140625
1256,-121.093750
1257,-121.093750
1258,-121.093750
1259,-123.046875
1260,-123.046875
1261,-123.046875
1262,-125.000000
1263,-125.000000
1264,-125.000000
1265,-125.000000
1266,-125.000000
1267,-125.000000
1268,-125.000000
1269,-126.953125
1270,-125.000000
1271,-125.000000
1272,-125.000000
1273,-125.000000
1274,-125.000000
1275,-125.000000
1276,-125.000000
1277,-125.000000
1278,-123.046875
1279,-123.046875
1280,-121.093750
1281,-123.046875
1282,-121.093750
1283,-121.093750
1284,-119.140625
1285,-117.187500
1286,-117.187500
1287,-117.187500
1288,-115.234375
1289,-113.281250
1290,-113.281250
1291,-111.328125
1292,-109.375000
1293,-109.375000
1294,-107.421875
1295,-105.468750
1296,-103.515625
1297,-103.515625
1298,-101.562500
1299,-99.609375
1300,-97.656250
1301,-97.656250
1302,-93.750000
1303,-91.796875
1304,-91.796875
1305,-89.843750
1306,-87.890625
1307,-85.937500
1308,-82.031250
1309,-80.078125
1310,-78.125000
1311,-76.171875
1312,-76.171875
1313,-72.265625
1314,-70.312500
1315,-66.406250
1316,-66.406250
1317,-64.453125
1318,-60.546875
1319,-58.593750
1320,-56.640625
1321,-52.734375
1322,-50.781250
1323,-48.828125
1324,-46.875000
1325,-44.921875
1326,-41.015625
1327,-39.062500
1328,-37.109375
1329,-33.203125
1330,-31.250000
1331,-29.296875
1332,-27.343750
1333,-23.437500
1334,-21.484375
1335,-17.578125
1336,-15.625000
1337,-13.671875
1338,-11.718750
1339,-7.812500
1340,-5.859375
1341,-3.906250
1342,-1.953125
1343,1.953125
1344,3.906250
1345,7.812500
1346,9.765625
1347,11.718750
1348,13.671875
1349,17.578125
1350,19.531250
1351,21.484375
1352,23.437500
1353,25.390625
1354,29.296875
1355,31.250000
1356,33.203125
1357,35.156250
1358,37.109375
1359,39.062500
1360,41.015625
1361,42.968750
1362,44.921875
1363,46.875000
1364,48.828125
1365,50.781250
1366,52.734375
1367,54.687500
1368,56.640625
1369,58.593750
1370,60.546875
1371,62.500000
1372,64.453125
1373,66.406250
1374,68.359375
1375,70.312500
1376,70.312500
1377,72.265625
1378,74.218750
1379,74.218750
1380,76.171875
1381,78.125000
1382,80.078125
1383,82.031250
1384,82.031250
1385,83.984375
1386,83.984375
1387,85.937500
1388,85.937500
1389,87.890625
1390,89.843750
1391,89.843750
1392,89.843750
1393,91.796875
1394,91.796875
1395,93.750000
1396,93.750000
1397,93.750000
1398,95.703125
1399,95.703125
1400,95.703125
1401,95.703125
1402,97.656250
1403,97.656250
1404,97.656250
1405,97.656250
1406,97.656250
1407,99.609375
1408,99.609375
1409,97.656250
1410,99.609375
1411,99.609375
1412,99.609375
1413,99.609375
1414,99.609375
1415,101.562500
1416,97.656250
1417,97.656250
1418,97.656250
1419,97.656250
1420,97.656250
1421,97.656250
1422,95.703125
1423,95.703125
1424,95.703125
1425,93.750000
1426,93.750000
1427,93.750000
1428,91.796875
1429,91.796875
1430,89.843750
1431,89.843750
1432,87.890625
1433,87.890625
1434,85.937500
1435,85.937500
1436,83.984375
1437,82.031250
1438,82.031250
1439,80.078125
1440,80.078125
1441,78.125000
1442,76.171875
1443,74.218750
1444,74.218750
1445,72.265625
1446,70.312500
1447,68.359375
1448,66.406250
1449,66.406250
1450,64.453125
1451,62.500000
1452,60.546875
1453,58.593750
1454,56.640625
1455,52.734375
1456,52.734375
1457,50.781250
1458,48.828125
1459,46.875000
1460,44.921875
1461,42.968750
1462,41.015625
1463,37.109375
1464,37.109375
1465,35.156250
1466,31.250000
1467,29.296875
1468,27.343750
1469,25.390625
1470,23.437500
1471,19.531250
1472,17.578125
1473,15.625000
1474,13.671875
1475,11.718750
1476,7.812500
1477,5.859375
1478,1.953125
1479,0.000000
1480,-1.953125
1481,-3.906250
1482,-7.812500
1483,-9.765625
1484,-11.718750
1485,-15.625000
1486,-17.578125
1487,-19.531250
1488,-21.484375
1489,-25.390625
1490,-27.343750
1491,-29.296875
1492,-33.203125
1493,-35.156250
1494,-37.109375
1495,-39.062500
1496,-42.968750
1497,-44.921875
1498,-46.875000
1499,-50.781250
1500,-52.734375
1501,-54.687500
1502,-56.640625
1503,-60.546875
1504,-62.500000
1505,-64.453125
1506,-66.406250
1507,-68.359375
1508,-70.312500
1509,-74.218750
1510,-76.171875
1511,-78.125000
1512,-80.078125
1513,-82.031250
1514,-83.984375
1515,-85.937500
1516,-87.890625
1517,-89.843750
1518,-91.796875
1519,-93.750000
1520,-95.703125
1521,-97.656250
1522,-99.609375
1523,-99.609375
1524,-101.562500
1525,-103.515625
1526,-105.468750
1527,-107.421875
1528,-107.421875
1529,-109.375000
1530,-111.328125
1531,-111.328125
1532,-113.281250
1533,-115.234375
1534,-115.234375
1535,-115.234375
1536,-117.187500
1537,-119.140625
1538,-119.140625
1539,-119.140625
1540,-121.093750
1541,-121.093750
1542,-123.046875
1543,-123.046875
1544,-123.046875
1545,-123.046875
1546,-123.046875
1547,-125.000000
1548,-125.000000
1549,-125.000000
1550,-125.000000
1551,-125.000000
1552,-125.000000
1553,-125.000000
1554,-125.000000
1555,-125.000000
1556,-125.000000
1557,-125.000000
1558,-125.000000
1559,-123.046875
1560,-123.046875
1561,-123.046875
1562,-123.046875
1563,-121.093750
1564,-121.093750
1565,-119.140625
1566,-119.140625
1567,-119.140625
1568,-117.187500
1569,-117.187500
1570,-115.234375
1571,-115.234375
1572,-113.281250
1573,-111.328125
1574,-111.328125
1575,-109.375000
1576,-107.421875
1577,-107.421875
1578,-105.468750
1579,-103.515625
1580,-101.562500
1581,-99.609375
1582,-97.656250
1583,-95.703125
1584,-95.703125
1585,-93.750000
1586,-91.796875
1587,-89.843750
1588,-87.890625
1589,-85.937500
1590,-83.984375
1591,-80.078125
1592,-80.078125
1593,-78.125000
1594,-76.171875
1595,-72.265625
1596,-70.312500
1597,-68.359375
1598,-66.406250
1599,-64.453125
1600,-60.546875
1601,-58.593750
1602,-56.640625
1603,-54.687500
1604,-52.734375
1605,-48.828125
1606,-46.875000
1607,-44.921875
1608,-41.015625
1609,-39.062500
1610,-37.109375
1611,-35.156250
1612,-31.250000
1613,-29.296875
1614,-27.343750
1615,-23.437500
1616,-23.437500
1617,-19.531250
1618,-17.578125
1619,-13.671875
1620,-11.718750
1621,-9.765625
1622,-5.859375
1623,-3.906250
1624,-1.953125
1625,0.000000
1626,3.906250
1627,5.859375
1628,7.812500
1629,9.765625
1630,13.671875
1631,15.625000
1632,17.578125
1633,23.437500
1634,25.390625
1635,27.343750
1636,27.343750
1637,29.296875
1638,31.250000
1639,33.203125
1640,35.156250
1641,39.062500
1642,41.015625
1643,41.015625
1644,44.921875
1645,46.875000
1646,48.828125
1647,50.781250
1648,52.734375
1649,54.687500
1650,56.640625
1651,58.593750
1652,60.546875
1653,62.500000
1654,64.453125
1655,66.406250
1656,66.406250
1657,68.359375
1658,70.312500
1659,72.265625
1660,74.218750
1661,74.218750
1662,76.171875
1663,78.125000
1664,80.078125
1665,80.078125
1666,82.031250
1667,83.984375
1668,83.984375
1669,83.984375
1670,85.937500
1671,87.890625
1672,87.890625
1673,89.843750
1674,91.796875
1675,91.796875
1676,91.796875
1677,91.796875
1678,93.750000
1679,93.750000
1680,95.703125
1681,95.703125
1682,97.656250
1683,95.703125
1684,97.656250
1685,97.656250
1686,97.656250
1687,97.656250
1688,97.656250
1689,97.656250
1690,97.656250
1691,99.609375
1692,101.562500
1693,97.656250
1694,99.609375
1695,97.656250
1696,99.609375
1697,99.609375
1698,99.609375
1699,97.656250
1700,97.656250
1701,97.656250
1702,97.656250
1703,97.656250
1704,95.703125
1705,95.703125
1706,95.703125
1707,93.750000
1708,93.750000
1709,91.796875
1710,91.796875
1711,91.796875
1712,89.843750
1713,89.843750
1714,87.890625
1715,87.890625
1716,87.890625
1717,85.937500
1718,83.984375
1719,83.984375
1720,82.031250
1721,80.078125
1722,80.078125
1723,78.125000
1724,76.171875
1725,76.171875
1726,76.171875
1727,72.265625
1728,70.312500
1729,70.312500
1730,68.359375
1731,66.406250
1732,64.453125
1733,62.500000
1734,60.546875
1735,58.593750
1736,56.640625
1737,56.640625
1738,54.687500
1739,50.781250
1740,50.781250
1741,46.875000
1742,44.921875
1743,42.968750
1744,41.015625
1745,39.062500
1746,37.109375
1747,35.156250
1748,33.203125
1749,31.250000
1750,27.343750
1751,25.390625
1752,23.437500
1753,21.484375
1754,17.578125
1755,15.625000
1756,13.671875
1757,11.718750
1758,9.765625
1759,5.859375
1760,3.906250
1761,1.953125
1762,-1.953125
1763,-3.906250
1764,-5.859375
1765,-7.812500
1766,-11.718750
1767,-13.671875
1768,-17.578125
1769,-19.531250
1770,-21.484375
1771,-23.437500
1772,-27.343750
1773,-29.296875
1774,-31.250000
1775,-35.156250
1776,-33.203125
1777,-39.062500
1778,-41.015625
1779,-44.921875
1780,-46.875000
1781,-48.828125
1782,-50.781250
1783,-54.687500
1784,-56.640625
1785,-60.546875
1786,-60.546875
1787,-64.453125
1788,-66.406250
1789,-68.359375
1790,-70.312500
1791,-72.265625
1792,-74.218750
1793,-78.125000
1794,-82.031250
1795,-82.031250
1796,-83.984375
1797,-85.937500
1798,-87.890625
1799,-89.843750
1800,-91.796875
1801,-93.750000
1802,-95.703125
1803,-95.703125
1804,-97.656250
1805,-99.609375
1806,-101.562500
1807,-103.515625
1808,-103.515625
1809,-105.468750
1810,-107.421875
1811,-109.375000
1812,-111.328125
1813,-111.328125
1814,-113.281250
1815,-113.281250
1816,-115.234375
1817,-115.234375
1818,-121.093750
1819,-119.140625
1820,-119.140625
1821,-119.140625
1822,-121.093750
1823,-123.046875
1824,-123.046875
1825,-123.046875
1826,-123.046875
1827,-125.000000
1828,-125.000000
1829,-125.000000
1830,-125.000000
1831,-125.000000
1832,-126.953125
1833,-125.000000
1834,-125.000000
1835,-126.953125
1836,-125.000000
1837,-125.000000
1838,-125.000000
1839,-125.000000
1840,-125.000000
1841,-125.000000
1842,-125.000000
1843,-123.046875
1844,-123.046875
1845,-121.093750
1846,-121.093750
1847,-121.093750
1848,-121.093750
1849,-119.140625
1850,-117.187500
1851,-117.187500
1852,-117.187500
1853,-115.234375
1854,-113.281250
1855,-113.281250
1856,-111.328125
1857,-109.375000
1858,-107.421875
1859,-107.421875
1860,-105.468750
1861,-103.515625
1862,-101.562500
1863,-101.562500
1864,-99.609375
1865,-97.656250
1866,-95.703125
1867,-93.750000
1868,-91.796875
1869,-89.843750
1870,-87.890625
1871,-85.937500
1872,-83.984375
1873,-82.031250
1874,-80.078125
1875,-78.125000
1876,-76.171875
1877,-74.218750
1878,-72.265625
1879,-68.359375
1880,-66.406250
1881,-64.453125
1882,-62.500000
1883,-60.546875
1884,-58.593750
1885,-54.687500
1886,-52.734375
1887,-48.828125
1888,-48.828125
1889,-44.921875
1890,-42.968750
1891,-41.015625
1892,-39.062500
1893,-35.156250
1894,-33.203125
1895,-29.296875
1896,-27.343750
1897,-25.390625
1898,-23.437500
1899,-19.531250
1900,-17.578125
1901,-15.625000
1902,-13.671875
1903,-9.765625
1904,-7.812500
1905,-5.859375
1906,-3.906250
1907,0.000000
1908,1.953125
1909,5.859375
1910,7.812500
1911,9.765625
1912,11.718750
1913,13.671875
1914,17.578125
1915,19.531250
1916,21.484375
1917,25.390625
1918,27.343750
1919,29.296875
1920,31.250000
1921,33.203125
1922,35.156250
1923,37.109375
1924,39.062500
1925,42.968750
1926,46.875000
1927,46.875000
1928,48.828125
1929,50.781250
1930,52.734375
1931,54.687500
1932,56.640625
1933,58.593750
1934,60.546875
1935,62.500000
1936,62.500000
1937,64.453125
1938,66.406250
1939,68.359375
1940,70.312500
1941,72.265625
1942,72.265625
1943,76.171875
1944,76.171875
1945,78.125000
1946,78.125000
1947,80.078125
1948,80.078125
1949,82.031250
1950,83.984375
1951,85.937500
1952,85.937500
1953,87.890625
1954,89.843750
1955,87.890625
1956,89.843750
1957,91.796875
1958,91.796875
1959,91.796875
1960,93.750000
1961,93.750000
1962,95.703125
1963,95.703125
1964,95.703125
1965,95.703125
1966,95.703125
1967,97.656250
1968,97.656250
1969,97.656250
1970,97.656250
1971,97.656250
1972,97.656250
1973,97.656250
1974,99.609375
1975,99.609375
1976,99.609375
1977,97.656250
1978,99.609375
1979,99.609375
1980,97.656250
1981,97.656250
1982,97.656250
1983,97.656250
1984,97.656250
1985,95.703125
1986,95.703125
1987,95.703125
1988,95.703125
1989,93.750000
1990,93.750000
1991,93.750000
1992,93.750000
1993,91.796875
1994,91.796875
1995,91.796875
1996,89.843750
1997,87.890625
1998,87.890625
1999,85.937500
2000,85.937500
2001,83.984375
2002,83.984375
2003,82.031250
2004,80.078125
2005,80.078125
2006,78.125000
2007,76.171875
2008,74.218750
2009,72.265625
2010,72.265625
2011,70.312500
2012,68.359375
2013,68.359375
2014,64.453125
2015,62.500000
2016,60.546875
2017,60.546875
2018,58.593750
2019,56.640625
2020,54.687500
2021,50.781250
2022,50.781250
2023,48.828125
2024,46.875000
2025,44.921875
2026,41.015625
2027,39.062500
2028,37.109375
2029,35.156250
2030,33.203125
2031,31.250000
2032,29.296875
2033,25.390625
2034,23.437500
2035,21.484375
2036,19.531250
2037,17.578125
2038,13.671875
2039,11.718750
2040,9.765625
2041,5.859375
2042,3.906250
2043,1.953125
2044,0.000000
2045,-3.906250
2046,-5.859375
2047,-7.812500
2048,-9.765625
2049,-11.718750
2050,-15.625000
2051,-17.578125
2052,-21.484375
2053,-23.437500
2054,-25.390625
2055,-27.343750
2056,-29.296875
2057,-33.203125
2058,-35.156250
2059,-39.062500
2060,-41.015625
2061,-42.968750
2062,-44.921875
2063,-48.828125
2064,-50.781250
2065,-52.734375
2066,-56.640625
2067,-58.593750
2068,-60.546875
2069,-62.500000
2070,-64.453125
2071,-66.406250
2072,-70.312500
2073,-72.265625
2074,-74.218750
2075,-76.171875
2076,-78.125000
2077,-80.078125
2078,-82.031250
2079,-83.984375
2080,-85.937500
2081,-87.890625
2082,-89.843750
2083,-93.750000
2084,-93.750000
2085,-95.703125
2086,-97.656250
2087,-99.609375
2088,-101.562500
2089,-101.562500
2090,-103.515625
2091,-105.468750
2092,-107.421875
2093,-109.375000
2094,-109.375000
2095,-113.281250
2096,-113.281250
2097,-113.281250
2098,-115.234375
2099,-117.187500
2100,-117.187500
2101,-117.187500
2102,-119.140625
2103,-121.093750
2104,-121.093750
2105,-121.093750
2106,-123.046875
2107,-123.046875
2108,-123.046875
2109,-123.046875
2110,-125.000000
2111,-125.000000
2112,-123.046875
2113,-125.000000
2114,-125.000000
2115,-125.000000
2116,-125.000000
2117,-125.000000
2118,-125.000000
2119,-125.000000
2120,-125.000000
2121,-125.000000
2122,-125.000000
2123,-123.046875
2124,-123.046875
2125,-123.046875
2126,-123.046875
2127,-123.046875
2128,-121.093750
2129,-121.093750
2130,-119.140625
2131,-119.140625
2132,-117.187500
2133,-117.187500
2134,-115.234375
2135,-115.234375
2136,-113.281250
2137,-111.328125
2138,-111.328125
2139,-109.375000
2140,-109.375000
2141,-107.421875
2142,-105.468750
2143,-103.515625
2144,-103.515625
2145,-101.562500
2146,-99.609375
2147,-97.656250
2148,-95.703125
2149,-93.750000
2150,-93.750000
2151,-89.843750
2152,-87.890625
2153,-87.890625
2154,-85.937500
2155,-83.984375
2156,-82.031250
2157,-78.125000
2158,-76.171875
2159,-74.218750
2160,-72.265625
2161,-70.312500
2162,-68.359375
2163,-66.406250
2164,-62.500000
2165,-60.546875
2166,-58.593750
2167,-56.640625
2168,-54.687500
2169,-50.781250
2170,-48.828125
2171,-46.875000
2172,-42.968750
2173,-44.921875
2174,-39.062500
2175,-37.109375
2176,-33.203125
2177,-31.250000
2178,-29.296875
2179,-25.390625
2180,-23.437500
2181,-21.484375
2182,-17.578125
2183,-17.578125
2184,-13.671875
2185,-11.718750
2186,-7.812500
2187,-5.859375
2188,-3.906250
2189,0.000000
2190,0.000000
2191,3.906250
2192,5.859375
2193,9.765625
2194,11.718750
2195,13.671875
2196,17.578125
2197,19.531250
2198,21.484375
2199,23.437500
2200,25.390625
2201,27.343750
2202,29.296875
2203,31.250000
2204,33.203125
2205,37.109375
2206,41.015625
2207,41.015625
2208,42.968750
2209,44.921875
2210,46.875000
2211,48.828125
2212,48.828125
2213,52.734375
2214,54.687500
2215,56.640625
2216,56.640625
2217,60.546875
2218,62.500000
2219,62.500000
2220,66.406250
2221,68.359375
2222,70.312500
2223,70.312500
2224,72.265625
2225,74.218750
2226,76.171875
2227,76.171875
2228,78.125000
2229,78.125000
2230,80.078125
2231,82.031250
2232,83.984375
2233,83.984375
2234,85.937500
2235,85.937500
2236,87.890625
2237,87.890625
2238,89.843750
2239,89.843750
2240,91.796875
2241,91.796875
2242,93.750000
2243,93.750000
2244,93.750000
2245,95.703125
2246,95.703125
2247,95.703125
2248,97.656250
2249,97.656250
2250,97.656250
2251,97.656250
2252,97.656250
2253,97.656250
2254,97.656250
2255,99.609375
2256,99.609375
2257,99.609375
2258,99.609375
2259,97.656250
2260,99.609375
2261,99.609375
2262,97.656250
2263,97.656250
2264,97.656250
2265,97.656250
2266,97.656250
2267,97.656250
2268,95.703125
2269,95.703125
2270,95.703125
2271,95.703125
2272,93.750000
2273,93.750000
2274,93.750000
2275,91.796875
2276,89.843750
2277,89.843750
2278,89.843750
2279,87.890625
2280,87.890625
2281,87.890625
2282,85.937500
2283,83.984375
2284,83.984375
2285,82.031250
2286,80.078125
2287,78.125000
2288,78.125000
2289,76.171875
2290,74.218750
2291,74.218750
2292,72.265625
2293,70.312500
2294,68.359375
2295,68.359375
2296,66.406250
2297,64.453125
2298,62.500000
2299,60.546875
2300,58.593750
2301,56.640625
2302,54.687500
2303,52.734375
2304,50.781250
2305,48.828125
2306,46.875000
2307,44.921875
2308,42.968750
2309,41.015625
2310,39.062500
2311,37.109375
2312,33.203125
2313,33.203125
2314,29.296875
2315,27.343750
2316,25.390625
2317,23.437500
2318,21.484375
2319,19.531250
2320,15.625000
2321,13.671875
2322,9.765625
2323,7.812500
2324,5.859375
2325,3.906250
2326,0.000000
2327,-1.953125
2328,-3.906250
2329,-7.812500
2330,-9.765625
2331,-11.718750
2332,-13.671875
2333,-17.578125
2334,-19.531250
2335,-23.437500
2336,-25.390625
2337,-27.343750
2338,-29.296875
2339,-33.203125
2340,-35.156250
2341,-37.109375
2342,-41.015625
2343,-42.968750
2344,-44.921875
2345,-48.828125
2346,-50.781250
2347,-52.734375
2348,-54.687500
2349,-56.640625
2350,-58.593750
2351,-62.500000
2352,-64.453125
2353,-66.406250
2354,-68.359375
2355,-72.265625
2356,-72.265625
2357,-76.171875
2358,-78.125000
2359,-80.078125
2360,-82.031250
2361,-83.984375
2362,-85.937500
2363,-87.890625
2364,-89.843750
2365,-91.796875
2366,-93.750000
2367,-95.703125
2368,-97.656250
2369,-99.609375
2370,-99.609375
2371,-101.562500
2372,-103.515625
2373,-105.468750
2374,-107.421875
2375,-107.421875
2376,-109.375000
2377,-111.328125
2378,-111.328125
2379,-113.281250
2380,-115.234375
2381,-117.187500
2382,-117.187500
2383,-119.140625
2384,-119.140625
2385,-119.140625
2386,-121.093750
2387,-121.093750
2388,-121.093750
2389,-123.046875
2390,-121.093750
2391,-123.046875
2392,-123.046875
2393,-123.046875
2394,-125.000000
2395,-125.000000
2396,-125.000000
2397,-125.000000
2398,-125.000000
2399,-123.046875
2400,-125.000000
2401,-125.000000
2402,-125.000000
2403,-125.000000
2404,-125.000000
2405,-125.000000
2406,-123.046875
2407,-123.046875
2408,-123.046875
2409,-123.046875
2410,-123.046875
2411,-121.093750
2412,-121.093750
2413,-121.093750
2414,-119.140625
2415,-119.140625
2416,-117.187500
2417,-115.234375
2418,-115.234375
2419,-113.281250
2420,-113.281250
2421,-111.328125
2422,-109.375000
2423,-107.421875
2424,-107.421875
2425,-105.468750
2426,-103.515625
2427,-101.562500
2428,-101.562500
2429,-99.609375
2430,-97.656250
2431,-95.703125
2432,-91.796875
2433,-91.796875
2434,-89.843750
2435,-87.890625
2436,-85.937500
2437,-83.984375
2438,-82.031250
2439,-80.078125
2440,-76.171875
2441,-76.171875
2442,-74.218750
2443,-70.312500
2444,-68.359375
2445,-66.406250
2446,-64.453125
2447,-60.546875
2448,-58.593750
2449,-56.640625
2450,-54.687500
2451,-52.734375
2452,-48.828125
2453,-46.875000
2454,-44.921875
2455,-41.015625
2456,-39.062500
2457,-37.109375
2458,-35.156250
2459,-31.250000
2460,-29.296875
2461,-25.390625
2462,-23.437500
2463,-21.484375
2464,-19.531250
2465,-17.578125
2466,-13.671875
2467,-11.718750
2468,-9.765625
2469,-5.859375
2470,-3.906250
2471,-1.953125
2472,0.000000
2473,3.906250
2474,5.859375
2475,7.812500
2476,9.765625
2477,13.671875
2478,15.625000
2479,17.578125
2480,19.531250
2481,23.437500
2482,25.390625
2483,27.343750
2484,29.296875
2485,31.250000
2486,35.156250
2487,37.109375
2488,39.062500
2489,41.015625
2490,42.968750
2491,44.921875
2492,46.875000
2493,48.828125
2494,50.781250
2495,52.734375
2496,54.687500
2497,56.640625
2498,58.593750
2499,60.546875
2500,62.500000
2501,64.453125
2502,66.406250
2503,68.359375
2504,70.312500
2505,70.312500
2506,72.265625
2507,72.265625
2508,76.171875
2509,76.171875
2510,78.125000
2511,80.078125
2512,80.078125
2513,82.031250
2514,82.031250
2515,83.984375
2516,85.937500
2517,87.890625
2518,87.890625
2519,87.890625
2520,89.843750
2521,89.843750
2522,89.843750
2523,91.796875
2524,93.750000
2525,93.750000
2526,93.750000
2527,95.703125
2528,95.703125
2529,95.703125
2530,97.656250
2531,95.703125
2532,95.703125
2533,97.656250
2534,97.656250
2535,97.656250
2536,97.656250
2537,97.656250
2538,99.609375
2539,99.609375
2540,99.609375
2541,97.656250
2542,99.609375
2543,99.609375
2544,97.656250
2545,97.656250
2546,97.656250
2547,97.656250
2548,97.656250
2549,97.656250
2550,97.656250
2551,95.703125
2552,95.703125
2553,95.703125
2554,95.703125
2555,93.750000
2556,93.750000
2557,91.796875
2558,91.796875
2559,91.796875
2560,89.843750
2561,87.890625
2562,87.890625
2563,87.890625
2564,85.937500
2565,82.031250
2566,83.984375
2567,82.031250
2568,82.031250
2569,80.078125
2570,78.125000
2571,78.125000
2572,76.171875
2573,74.218750
2574,72.265625
2575,70.312500
2576,70.312500
2577,68.359375
2578,66.406250
2579,64.453125
2580,62.500000
2581,60.546875
2582,58.593750
2583,58.593750
2584,56.640625
2585,52.734375
2586,52.734375
2587,48.828125
2588,46.875000
2589,44.921875
2590,42.968750
2591,41.015625
2592,37.109375
2593,37.109375
2594,35.156250
2595,33.203125
2596,31.250000
2597,27.343750
2598,25.390625
2599,23.437500
2600,21.484375
2601,19.531250
2602,15.625000
2603,15.625000
2604,11.718750
2605,9.765625
2606,5.859375
2607,3.906250
2608,0.000000
2609,-1.953125
2610,-3.906250
2611,-5.859375
2612,-7.812500
2613,-11.718750
2614,-13.671875
2615,-15.625000
2616,-19.531250
2617,-21.484375
2618,-25.390625
2619,-25.390625
2620,-29.296875
2621,-31.250000
2622,-35.156250
2623,-37.109375
2624,-41.015625
2625,-42.968750
2626,-44.921875
2627,-46.875000
2628,-48.828125
2629,-50.781250
2630,-54.687500
2631,-56.640625
2632,-58.593750
2633,-60.546875
2634,-64.453125
2635,-66.406250
2636,-68.359375
2637,-70.312500
2638,-72.265625
2639,-74.218750
2640,-76.171875
2641,-80.078125
2642,-82.031250
2643,-83.984375
2644,-85.937500
2645,-87.890625
2646,-89.843750
2647,-91.796875
2648,-93.750000
2649,-95.703125
2650,-97.656250
2651,-99.609375
2652,-99.609375
2653,-101.562500
2654,-103.515625
2655,-105.468750
2656,-107.421875
2657,-107.421875
2658,-109.375000
2659,-109.375000
2660,-111.328125
2661,-113.281250
2662,-115.234375
2663,-115.234375
2664,-117.187500
2665,-117.187500
2666,-119.140625
2667,-119.140625
2668,-121.093750
2669,-121.093750
2670,-123.046875
2671,-121.093750
2672,-123.046875
2673,-123.046875
2674,-125.000000
2675,-125.000000
2676,-125.000000
2677,-125.000000
2678,-125.000000
2679,-125.000000
2680,-126.953125
2681,-125.000000
2682,-126.953125
2683,-125.000000
2684,-125.000000
2685,-125.000000
2686,-125.000000
2687,-125.000000
2688,-125.000000
2689,-123.046875
2690,-123.046875
2691,-123.046875
2692,-123.046875
2693,-121.093750
2694,-121.093750
2695,-121.093750
2696,-119.140625
2697,-117.187500
2698,-117.187500
2699,-115.234375
2700,-115.234375
2701,-113.281250
2702,-111.328125
2703,-111.328125
2704,-109.375000
2705,-107.421875
2706,-107.421875
2707,-105.468750
2708,-103.515625
2709,-101.562500
2710,-99.609375
2711,-99.609375
2712,-97.656250
2713,-95.703125
2714,-93.750000
2715,-91.796875
2716,-89.843750
2717,-87.890625
2718,-85.937500
2719,-83.984375
2720,-82.031250
2721,-80.078125
2722,-78.125000
2723,-76.171875
2724,-74.218750
2725,-72.265625
2726,-70.312500
2727,-68.359375
2728,-64.453125
2729,-62.500000
2730,-60.546875
2731,-58.593750
2732,-54.687500
2733,-52.734375
2734,-50.781250
2735,-48.828125
2736,-44.921875
2737,-42.968750
2738,-41.015625
2739,-39.062500
2740,-35.156250
2741,-33.203125
2742,-29.296875
2743,-29.296875
2744,-25.390625
2745,-23.437500
2746,-19.531250
2747,-17.578125
2748,-15.625000
2749,-13.671875
2750,-9.765625
2751,-7.812500
2752,-5.859375
2753,-3.906250
2754,0.000000
2755,1.953125
2756,5.859375
2757,7.812500
2758,9.765625
2759,11.718750
2760,15.625000
2761,17.578125
2762,19.531250
2763,21.484375
2764,25.390625
2765,25.390625
2766,29.296875
2767,31.250000
2768,33.203125
2769,35.156250
2770,39.062500
2771,41.015625
2772,42.968750
2773,44.921875
2774,44.921875
2775,48.828125
2776,50.781250
2777,52.734375
2778,54.687500
2779,56.640625
2780,58.593750
2781,60.546875
2782,60.546875
2783,64.453125
2784,64.453125
2785,66.406250
2786,68.359375
2787,70.312500
2788,72.265625
2789,74.218750
2790,74.218750
2791,76.171875
2792,76.171875
2793,78.125000
2794,80.078125
2795,82.031250
2796,83.984375
2797,83.984375
2798,83.984375
2799,85.937500
2800,87.890625
2801,87.890625
2802,89.843750
2803,89.843750
2804,89.843750
2805,91.796875
2806,91.796875
2807,91.796875
2808,93.750000
2809,93.750000
2810,95.703125
2811,95.703125
2812,95.703125
2813,95.703125
2814,97.656250
2815,97.656250
2816,97.656250
2817,97.656250
2818,97.656250
2819,97.656250
2820,99.609375
2821,99.609375
2822,99.609375
2823,99.609375
2824,97.656250
2825,99.609375
2826,99.609375
2827,97.656250
2828,99.609375
2829,97.656250
2830,97.656250
2831,97.656250
2832,97.656250
2833,97.656250
2834,93.750000
2835,95.703125
2836,95.703125
2837,93.750000
2838,93.750000
2839,91.796875
2840,91.796875
2841,89.843750
2842,89.843750
2843,89.843750
2844,89.843750
2845,85.937500
2846,85.937500
2847,85.937500
2848,83.984375
2849,82.031250
2850,82.031250
2851,80.078125
2852,80.078125
2853,78.125000
2854,76.171875
2855,74.218750
2856,72.265625
2857,72.265625
2858,70.312500
2859,68.359375
2860,66.406250
2861,64.453125
2862,62.500000
2863,62.500000
2864,60.546875
2865,56.640625
2866,56.640625
2867,54.687500
2868,52.734375
2869,50.781250
2870,48.828125
2871,46.875000
2872,42.968750
2873,41.015625
2874,39.062500
2875,37.109375
2876,35.156250
2877,33.203125
2878,29.296875
2879,29.296875
2880,25.390625
2881,23.437500
2882,21.484375
2883,19.531250
2884,15.625000
2885,13.671875
2886,11.718750
2887,9.765625
2888,7.812500
2889,3.906250
2890,1.953125
2891,0.000000
2892,-1.953125
2893,-3.906250
2894,-7.812500
2895,-9.765625
2896,-13.671875
2897,-15.625000
2898,-17.578125
2899,-19.531250
2900,-21.484375
2901,-25.390625
2902,-27.343750
2903,-31.250000
2904,-33.203125
2905,-35.156250
2906,-37.109375
2907,-41.015625
2908,-42.968750
2909,-44.921875
2910,-48.828125
2911,-50.781250
2912,-54.687500
2913,-54.687500
2914,-58.593750
2915,-60.546875
2916,-62.500000
2917,-64.453125
2918,-66.406250
2919,-70.312500
2920,-72.265625
2921,-74.218750
2922,-76.171875
2923,-78.125000
2924,-80.078125
2925,-83.984375
2926,-83.984375
2927,-87.890625
2928,-87.890625
2929,-89.843750
2930,-91.796875
2931,-93.750000
2932,-95.703125
2933,-97.656250
2934,-99.609375
2935,-99.609375
2936,-103.515625
2937,-105.468750
2938,-105.468750
2939,-107.421875
2940,-107.421875
2941,-109.375000
2942,-111.328125
2943,-113.281250
2944,-113.281250
2945,-119.140625
2946,-115.234375
2947,-117.187500
2948,-119.140625
2949,-119.140625
2950,-119.140625
2951,-121.093750
2952,-121.093750
2953,-121.093750
2954,-123.046875
2955,-123.046875
2956,-123.046875
2957,-125.000000
2958,-125.000000
2959,-125.000000
2960,-125.000000
2961,-125.000000
2962,-123.046875
2963,-125.000000
2964,-125.000000
2965,-125.000000
2966,-125.000000
2967,-125.000000
2968,-123.046875
2969,-125.000000
2970,-125.000000
2971,-123.046875
2972,-123.046875
2973,-123.046875
2974,-123.046875
2975,-121.093750
2976,-121.093750
2977,-119.140625
2978,-119.140625
2979,-117.187500
2980,-117.187500
2981,-117.187500
2982,-115.234375
2983,-113.281250
2984,-113.281250
2985,-111.328125
2986,-109.375000
2987,-109.375000
2988,-107.421875
2989,-105.468750
2990,-105.468750
2991,-103.515625
2992,-101.562500
2993,-99.609375
2994,-99.609375
2995,-93.750000
2996,-95.703125
2997,-93.750000
2998,-91.796875
2999,-89.843750
3000,-87.890625
3001,-83.984375
3002,-83.984375
3003,-82.031250
3004,-78.125000
3005,-76.171875
3006,-74.218750
3007,-72.265625
3008,-70.312500
3009,-68.359375
3010,-66.406250
3011,-64.453125
3012,-60.546875
3013,-56.640625
3014,-56.640625
3015,-52.734375
3016,-50.781250
3017,-48.828125
3018,-46.875000
3019,-42.968750
3020,-41.015625
3021,-37.109375
3022,-37.109375
3023,-33.203125
3024,-31.250000
3025,-29.296875
3026,-25.390625
3027,-23.437500
3028,-21.484375
3029,-17.578125
3030,-15.625000
3031,-13.671875
3032,-9.765625
3033,-7.812500
3034,-5.859375
3035,-1.953125
3036,0.000000
3037,1.953125
3038,3.906250
3039,7.812500
3040,9.765625
3041,11.718750
3042,13.671875
3043,15.625000
3044,17.578125
3045,21.484375
3046,23.437500
3047,25.390625
3048,29.296875
3049,31.250000
3050,33.203125
3051,35.156250
3052,37.109375
3053,39.062500
3054,41.015625
3055,42.968750
3056,44.921875
3057,46.875000
3058,48.828125
3059,52.734375
3060,52.734375
3061,56.640625
3062,56.640625
3063,58.593750
3064,60.546875
3065,62.500000
3066,64.453125
3067,66.406250
3068,66.406250
3069,68.359375
3070,70.312500
3071,72.265625
3072,74.218750
3073,76.171875
3074,76.171875
3075,78.125000
3076,80.078125
3077,82.031250
3078,82.031250
3079,83.984375
3080,83.984375
3081,85.937500
3082,87.890625
3083,89.843750
3084,89.843750
3085,89.843750
3086,91.796875
3087,91.796875
3088,91.796875
3089,93.750000
3090,93.750000
3091,93.750000
3092,95.703125
3093,95.703125
3094,95.703125
3095,97.656250
3096,97.656250
3097,97.656250
3098,97.656250
3099,97.656250
3100,97.656250
3101,97.656250
3102,99.609375
3103,97.656250
3104,99.609375
3105,99.609375
3106,99.609375
3107,99.609375
3108,97.656250
3109,97.656250
3110,97.656250
3111,97.656250
3112,99.609375
3113,97.656250
3114,97.656250
3115,97.656250
3116,95.703125
3117,95.703125
3118,93.750000
3119,93.750000
3120,93.750000
3121,91.796875
3122,91.796875
3123,89.843750
3124,89.843750
3125,89.843750
3126,87.890625
3127,87.890625
3128,85.937500
3129,85.937500
3130,83.984375
3131,83.984375
3132,82.031250
3133,80.078125
3134,78.125000
3135,78.125000
3136,76.171875
3137,74.218750
3138,72.265625
3139,70.312500
3140,70.312500
3141,70.312500
3142,64.453125
3143,64.453125
3144,64.453125
3145,62.500000
3146,58.593750
3147,58.593750
3148,56.640625
3149,54.687500
3150,52.734375
3151,50.781250
3152,48.828125
3153,46.875000
3154,44.921875
3155,42.968750
3156,41.015625
3157,39.062500
3158,37.109375
3159,33.203125
3160,31.250000
3161,29.296875
3162,27.343750
3163,25.390625
3164,23.437500
3165,19.531250
3166,17.578125
3167,15.625000
3168,13.671875
3169,9.765625
3170,7.812500
3171,5.859375
3172,3.906250
3173,0.000000
3174,-1.953125
3175,-3.906250
3176,-7.812500
3177,-9.765625
3178,-11.718750
3179,-15.625000
3180,-17.578125
3181,-19.531250
3182,-23.437500
3183,-25.390625
3184,-27.343750
3185,-31.250000
3186,-33.203125
3187,-35.156250
3188,-37.109375
3189,-41.015625
3190,-42.968750
3191,-44.921875
3192,-48.828125
3193,-50.781250
3194,-52.734375
3195,-56.640625
3196,-56.640625
3197,-60.546875
3198,-62.500000
3199,-64.453125
3200,-66.406250
3201,-68.359375
3202,-72.265625
3203,-74.218750
3204,-76.171875
3205,-78.125000
3206,-80.078125
3207,-82.031250
3208,-83.984375
3209,-85.937500
3210,-89.843750
3211,-89.843750
3212,-91.796875
3213,-93.750000
3214,-97.656250
3215,-97.656250
3216,-99.609375
3217,-99.609375
3218,-101.562500
3219,-103.515625
3220,-105.468750
3221,-107.421875
3222,-107.421875
3223,-109.375000
3224,-111.328125
3225,-113.281250
3226,-113.281250
3227,-115.234375
3228,-115.234375
3229,-117.187500
3230,-117.187500
3231,-119.140625
3232,-121.093750
3233,-121.093750
3234,-121.093750
3235,-121.093750
3236,-123.046875
3237,-123.046875
3238,-123.046875
3239,-125.000000
3240,-125.000000
3241,-125.000000
3242,-125.000000
3243,-125.000000
3244,-125.000000
3245,-125.000000
3246,-125.000000
3247,-126.953125
3248,-125.000000
3249,-125.000000
3250,-125.000000
3251,-125.000000
3252,-125.000000
3253,-125.000000
3254,-123.046875
3255,-123.046875
3256,-123.046875
3257,-123.046875
3258,-121.093750
3259,-121.093750
3260,-119.140625
3261,-119.140625
3262,-117.187500
3263,-117.187500
3264,-117.187500
3265,-115.234375
3266,-113.281250
3267,-111.328125
3268,-111.328125
3269,-109.375000
3270,-109.375000
3271,-107.421875
3272,-105.468750
3273,-103.515625
3274,-101.562500
3275,-101.562500
3276,-97.656250
3277,-97.656250
3278,-95.703125
3279,-93.750000
3280,-91.796875
3281,-89.843750
3282,-87.890625
3283,-85.937500
3284,-83.984375
3285,-80.078125
3286,-80.078125
3287,-76.171875
3288,-74.218750
3289,-72.265625
3290,-68.359375
3291,-68.359375
3292,-66.406250
3293,-62.500000
3294,-60.546875
3295,-58.593750
3296,-56.640625
3297,-54.687500
3298,-50.781250
3299,-48.828125
3300,-46.875000
3301,-44.921875
3302,-42.968750
3303,-39.062500
3304,-37.109375
3305,-33.203125
3306,-33.203125
3307,-29.296875
3308,-27.343750
3309,-25.390625
3310,-21.484375
3311,-19.531250
3312,-17.578125
3313,-15.625000
3314,-11.718750
3315,-9.765625
3316,-7.812500
3317,-3.906250
3318,-1.953125
3319,1.953125
3320,3.906250
3321,5.859375
3322,7.812500
3323,9.765625
3324,11.718750
3325,15.625000
3326,17.578125
3327,19.531250
3328,23.437500
3329,25.390625
3330,27.343750
3331,29.296875
3332,31.250000
3333,33.203125
3334,35.156250
3335,39.062500
3336,41.015625
3337,42.968750
3338,44.921875
3339,46.875000
3340,48.828125
3341,50.781250
3342,52.734375
3343,54.687500
3344,56.640625
3345,58.593750
3346,60.546875
3347,62.500000
3348,64.453125
3349,64.453125
3350,68.359375
3351,68.359375
3352,70.312500
3353,72.265625
3354,74.218750
3355,76.171875
3356,76.171875
3357,78.125000
3358,80.078125
3359,82.031250
3360,82.031250
3361,83.984375
3362,83.984375
3363,85.937500
3364,85.937500
3365,87.890625
3366,87.890625
3367,89.843750
3368,89.843750
3369,89.843750
3370,91.796875
3371,91.796875
3372,93.750000
3373,93.750000
3374,95.703125
3375,95.703125
3376,95.703125
3377,93.750000
3378,95.703125
3379,97.656250
3380,97.656250
3381,97.656250
3382,97.656250
3383,101.562500
3384,97.656250
3385,99.609375
3386,97.656250
3387,97.656250
3388,97.656250
3389,97.656250
3390,99.609375
3391,97.656250
3392,97.656250
3393,97.656250
3394,97.656250
3395,97.656250
3396,97.656250
3397,95.703125
3398,95.703125
3399,95.703125
3400,95.703125
3401,95.703125
3402,93.750000
3403,93.750000
3404,91.796875
3405,91.796875
3406,91.796875
3407,89.843750
3408,89.843750
3409,87.890625
3410,87.890625
3411,85.937500
3412,85.937500
3413,83.984375
3414,82.031250
3415,82.031250
3416,80.078125
3417,78.125000
3418,76.171875
3419,76.171875
3420,74.218750
3421,72.265625
3422,72.265625
3423,70.312500
3424,68.359375
3425,66.406250
3426,64.453125
3427,62.500000
3428,62.500000
3429,58.593750
3430,58.593750
3431,54.687500
3432,52.734375
3433,52.734375
3434,48.828125
3435,48.828125
3436,44.921875
3437,42.968750
3438,41.015625
3439,39.062500
3440,37.109375
3441,35.156250
3442,31.250000
3443,31.250000
3444,27.343750
3445,25.390625
3446,23.437500
3447,21.484375
3448,17.578125
3449,15.625000
3450,11.718750
3451,11.718750
3452,7.812500
3453,5.859375
3454,3.906250
3455,1.953125
3456,0.000000
3457,-3.906250
3458,-5.859375
3459,-7.812500
3460,-11.718750
3461,-13.671875
3462,-15.625000
3463,-17.578125
3464,-21.484375
3465,-23.437500
3466,-25.390625
3467,-29.296875
3468,-31.250000
3469,-33.203125
3470,-37.109375
3471,-39.062500
3472,-42.968750
3473,-42.968750
3474,-46.875000
3475,-48.828125
3476,-50.781250
3477,-54.687500
3478,-56.640625
3479,-58.593750
3480,-60.546875
3481,-62.500000
3482,-66.406250
3483,-68.359375
3484,-70.312500
3485,-72.265625
3486,-74.218750
3487,-76.171875
3488,-78.125000
3489,-80.078125
3490,-82.031250
3491,-85.937500
3492,-87.890625
3493,-89.843750
3494,-91.796875
3495,-93.750000
3496,-95.703125
3497,-97.656250
3498,-97.656250
3499,-99.609375
3500,-101.562500
3501,-103.515625
3502,-105.468750
3503,-107.421875
3504,-107.421875
3505,-109.375000
3506,-109.375000
3507,-111.328125
3508,-113.281250
3509,-115.234375
3510,-115.234375
3511,-117.187500
3512,-117.187500
3513,-119.140625
3514,-119.140625
3515,-119.140625
3516,-121.093750
3517,-121.093750
3518,-123.046875
3519,-123.046875
3520,-123.046875
3521,-125.000000
3522,-123.046875
3523,-128.906250
3524,-125.000000
3525,-125.000000
3526,-125.000000
3527,-125.000000
3528,-125.000000
3529,-125.000000
3530,-125.000000
3531,-125.000000
3532,-125.000000
3533,-125.000000
3534,-121.093750
3535,-125.000000
3536,-123.046875
3537,-123.046875
3538,-123.046875
3539,-121.093750
3540,-121.093750
3541,-121.093750
3542,-119.140625
3543,-119.140625
3544,-117.187500
3545,-117.187500
3546,-117.187500
3547,-115.234375
3548,-113.281250
3549,-111.328125
3550,-111.328125
3551,-109.375000
3552,-109.375000
3553,-107.421875
3554,-105.468750
3555,-105.468750
3556,-103.515625
3557,-101.562500
3558,-99.609375
3559,-97.656250
3560,-95.703125
3561,-93.750000
3562,-91.796875
3563,-89.843750
3564,-87.890625
3565,-85.937500
3566,-83.984375
3567,-82.031250
3568,-80.078125
3569,-78.125000
3570,-76.171875
3571,-74.218750
3572,-72.265625
3573,-68.359375
3574,-66.406250
3575,-64.453125
3576,-62.500000
3577,-60.546875
3578,-56.640625
3579,-54.687500
3580,-52.734375
3581,-50.781250
3582,-46.875000
3583,-44.921875
3584,-42.968750
3585,-41.015625
3586,-37.109375
3587,-35.156250
3588,-33.203125
3589,-29.296875
3590,-27.343750
3591,-25.390625
3592,-21.484375
3593,-19.531250
3594,-17.578125
3595,-15.625000
3596,-11.718750
3597,-9.765625
3598,-7.812500
3599,-3.906250
3600,-1.953125
3601,0.000000
3602,1.953125
3603,5.859375
3604,7.812500
3605,9.765625
3606,11.718750
3607,15.625000
3608,17.578125
3609,19.531250
3610,21.484375
3611,23.437500
3612,25.390625
3613,29.296875
3614,31.250000
3615,33.203125
3616,35.156250
3617,37.109375
3618,39.062500
3619,42.968750
3620,44.921875
3621,46.875000
3622,46.875000
3623,50.781250
3624,52.734375
3625,54.687500
3626,54.687500
3627,58.593750
3628,60.546875
3629,62.500000
3630,62.500000
3631,64.453125
3632,66.406250
3633,68.359375
3634,70.312500
3635,72.265625
3636,72.265625
3637,74.218750
3638,76.171875
3639,78.125000
3640,78.125000
3641,80.078125
3642,82.031250
3643,82.031250
3644,83.984375
3645,83.984375
3646,85.937500
3647,85.937500
3648,87.890625
3649,89.843750
3650,89.843750
3651,89.843750
3652,91.796875
3653,91.796875
3654,93.750000
3655,93.750000
3656,93.750000
3657,95.703125
3658,95.703125
3659,95.703125
3660,95.703125
3661,97.656250
3662,97.656250
3663,97.656250
3664,97.656250
3665,99.609375
3666,99.609375
3667,97.656250
3668,99.609375
3669,99.609375
3670,99.609375
3671,99.609375
3672,99.609375
3673,99.609375
3674,99.609375
3675,99.609375
3676,97.656250
3677,97.656250
3678,97.656250
3679,97.656250
3680,95.703125
3681,95.703125
3682,95.703125
3683,95.703125
3684,95.703125
3685,93.750000
3686,93.750000
3687,91.796875
3688,91.796875
3689,89.843750
3690,89.843750
3691,87.890625
3692,87.890625
3693,85.937500
3694,85.937500
3695,83.984375
3696,83.984375
3697,82.031250
3698,80.078125
3699,78.125000
3700,78.125000
3701,76.171875
3702,74.218750
3703,72.265625
3704,72.265625
3705,70.312500
3706,68.359375
3707,66.406250
3708,64.453125
3709,62.500000
3710,62.500000
3711,60.546875
3712,58.593750
3713,56.640625
3714,54.687500
3715,52.734375
3716,50.781250
3717,48.828125
3718,46.875000
3719,42.968750
3720,41.015625
3721,41.015625
3722,37.109375
3723,35.156250
3724,33.203125
3725,33.203125
3726,29.296875
3727,25.390625
3728,25.390625
3729,21.484375
3730,19.531250
3731,17.578125
3732,15.625000
3733,11.718750
3734,9.765625
3735,7.812500
3736,3.906250
3737,1.953125
3738,0.000000
3739,-3.906250
3740,-3.906250
3741,-7.812500
3742,-9.765625
3743,-13.671875
3744,-15.625000
3745,-17.578125
3746,-19.531250
3747,-23.437500
3748,-25.390625
3749,-27.343750
3750,-31.250000
3751,-33.203125
3752,-35.156250
3753,-35.156250
3754,-41.015625
3755,-42.968750
3756,-44.921875
3757,-48.828125
3758,-50.781250
3759,-52.734375
3760,-56.640625
3761,-58.593750
3762,-60.546875
3763,-62.500000
3764,-66.406250
3765,-68.359375
3766,-70.312500
3767,-72.265625
3768,-76.171875
3769,-76.171875
3770,-78.125000
3771,-82.031250
3772,-82.031250
3773,-85.937500
3774,-85.937500
3775,-89.843750
3776,-89.843750
3777,-93.750000
3778,-95.703125
3779,-95.703125
3780,-97.656250
3781,-99.609375
3782,-101.562500
3783,-103.515625
3784,-103.515625
3785,-105.468750
3786,-107.421875
3787,-109.375000
3788,-109.375000
3789,-111.328125
3790,-113.281250
3791,-113.281250
3792,-115.234375
3793,-117.187500
3794,-117.187500
3795,-119.140625
3796,-119.140625
3797,-119.140625
3798,-121.093750
3799,-121.093750
3800,-121.093750
3801,-123.046875
3802,-123.046875
3803,-123.046875
3804,-123.046875
3805,-125.000000
3806,-125.000000
3807,-125.000000
3808,-125.000000
3809,-125.000000
3810,-125.000000
3811,-125.000000
3812,-125.000000
3813,-125.000000
3814,-125.000000
3815,-125.000000
3816,-123.046875
3817,-125.000000
3818,-123.046875
3819,-123.046875
3820,-123.046875
3821,-121.093750
3822,-121.093750
3823,-121.093750
3824,-119.140625
3825,-119.140625
3826,-119.140625
3827,-117.187500
3828,-117.187500
3829,-115.234375
3830,-113.281250
3831,-113.281250
3832,-111.328125
3833,-111.328125
3834,-109.375000
3835,-107.421875
3836,-105.468750
3837,-105.468750
3838,-103.515625
3839,-101.562500
3840,-99.609375
3841,-97.656250
3842,-95.703125
3843,-93.750000
3844,-91.796875
3845,-89.843750
3846,-87.890625
3847,-85.937500
3848,-83.984375
3849,-83.984375
3850,-80.078125
3851,-78.125000
3852,-76.171875
3853,-76.171875
3854,-72.265625
3855,-70.312500
3856,-68.359375
3857,-64.453125
3858,-62.500000
3859,-60.546875
3860,-58.593750
3861,-54.687500
3862,-54.687500
3863,-50.781250
3864,-48.828125
3865,-44.921875
3866,-42.968750
3867,-41.015625
3868,-39.062500
3869,-35.156250
3870,-33.203125
3871,-31.250000
3872,-27.343750
3873,-25.390625
3874,-23.437500
3875,-21.484375
3876,-19.531250
3877,-15.625000
3878,-13.671875
3879,-11.718750
3880,-7.812500
3881,-5.859375
3882,-1.953125
3883,0.000000
3884,1.953125
3885,3.906250
3886,5.859375
3887,9.765625
3888,11.718750
3889,13.671875
3890,15.625000
3891,19.531250
3892,21.484375
3893,23.437500
3894,25.390625
3895,27.343750
3896,29.296875
3897,33.203125
3898,35.156250
3899,37.109375
3900,39.062500
3901,41.015625
3902,42.968750
3903,44.921875
3904,46.875000
3905,50.781250
3906,50.781250
3907,52.734375
3908,56.640625
3909,56.640625
3910,58.593750
3911,60.546875
3912,62.500000
3913,64.453125
3914,66.406250
3915,68.359375
3916,70.312500
3917,70.312500
3918,72.265625
3919,74.218750
3920,76.171875
3921,78.125000
3922,78.125000
3923,80.078125
3924,82.031250
3925,82.031250
3926,83.984375
3927,83.984375
3928,85.937500
3929,85.937500
3930,87.890625
3931,89.843750
3932,89.843750
3933,89.843750
3934,91.796875
3935,91.796875
3936,93.750000
3937,93.750000
3938,95.703125
3939,95.703125
3940,95.703125
3941,97.656250
3942,97.656250
3943,97.656250
3944,97.656250
3945,97.656250
3946,97.656250
3947,99.609375
3948,97.656250
3949,97.656250
3950,99.609375
3951,99.609375
3952,97.656250
3953,99.609375
3954,99.609375
3955,97.656250
3956,97.656250
3957,97.656250
3958,97.656250
3959,97.656250
3960,97.656250
3961,97.656250
3962,97.656250
3963,95.703125
3964,95.703125
3965,95.703125
3966,93.750000
3967,93.750000
3968,93.750000
3969,91.796875
3970,91.796875
3971,89.843750
3972,89.843750
3973,87.890625
3974,87.890625
3975,85.937500
3976,85.937500
3977,83.984375
3978,83.984375
3979,82.031250
3980,82.031250
3981,80.078125
3982,78.125000
3983,76.171875
3984,74.218750
3985,74.218750
3986,72.265625
3987,72.265625
3988,68.359375
3989,68.359375
3990,66.406250
3991,64.453125
3992,62.500000
3993,60.546875
3994,58.593750
3995,56.640625
3996,54.687500
3997,52.734375
3998,50.781250
3999,48.828125
4000,46.875000
4001,44.921875
4002,42.968750
4003,41.015625
4004,39.062500
4005,37.109375
4006,35.156250
4007,31.250000
4008,29.296875
4009,27.343750
4010,25.390625
4011,21.484375
4012,19.531250
4013,17.578125
4014,15.625000
4015,11.718750
4016,9.765625
4017,7.812500
4018,5.859375
4019,3.906250
4020,0.000000
4021,-1.953125
4022,-3.906250
4023,-7.812500
4024,-9.765625
4025,-11.718750
4026,-15.625000
4027,-17.578125
4028,-19.531250
4029,-23.437500
4030,-25.390625
4031,-27.343750
4032,-29.296875
4033,-33.203125
4034,-35.156250
4035,-37.109375
4036,-41.015625
4037,-41.015625
4038,-44.921875
4039,-46.875000
4040,-50.781250
4041,-52.734375
4042,-54.687500
4043,-56.640625
4044,-60.546875
4045,-62.500000
4046,-64.453125
4047,-66.406250
4048,-68.359375
4049,-70.312500
4050,-72.265625
4051,-74.218750
4052,-78.125000
4053,-80.078125
4054,-82.031250
4055,-83.984375
4056,-85.937500
4057,-87.890625
4058,-89.843750
4059,-91.796875
4060,-93.750000
4061,-95.703125
4062,-97.656250
4063,-99.609375
4064,-99.609375
4065,-101.562500
4066,-103.515625
4067,-103.515625
4068,-107.421875
4069,-107.421875
4070,-109.375000
4071,-111.328125
4072,-111.328125
4073,-113.281250
4074,-115.234375
4075,-115.234375
4076,-117.187500
4077,-117.187500
4078,-119.140625
4079,-119.140625
4080,-121.093750
4081,-121.093750
4082,-121.093750
4083,-123.046875
4084,-123.046875
4085,-123.046875
4086,-125.000000
4087,-123.046875
4088,-126.953125
4089,-125.000000
4090,-125.000000
4091,-125.000000
4092,-125.000000
4093,-126.953125
4094,-125.000000
4095,-125.000000
4096,-125.000000
4097,-125.000000
4098,-125.000000
4099,-125.000000
4100,-123.046875
4101,-125.000000
4102,-123.046875
4103,-121.093750
4104,-123.046875
4105,-117.187500
4106,-119.140625
4107,-119.140625
4108,-119.140625
4109,-117.187500
4110,-115.234375
4111,-115.234375
4112,-115.234375
4113,-113.281250
4114,-111.328125
4115,-109.375000
4116,-109.375000
4117,-107.421875
4118,-105.468750
4119,-105.468750
4120,-103.515625
4121,-101.562500
4122,-99.609375
4123,-97.656250
4124,-95.703125
4125,-95.703125
4126,-93.750000
4127,-89.843750
4128,-89.843750
4129,-85.937500
4130,-85.937500
4131,-82.031250
4132,-82.031250
4133,-80.078125
4134,-76.171875
4135,-74.218750
4136,-72.265625
4137,-70.312500
4138,-68.359375
4139,-66.406250
4140,-64.453125
4141,-60.546875
4142,-58.593750
4143,-56.640625
4144,-54.687500
4145,-52.734375
4146,-48.828125
4147,-44.921875
4148,-44.921875
4149,-42.968750
4150,-39.062500
4151,-37.109375
4152,-35.156250
4153,-31.250000
4154,-29.296875
4155,-29.296875
4156,-23.437500
4157,-21.484375
4158,-19.531250
4159,-17.578125
4160,-15.625000
4161,-11.718750
4162,-9.765625
4163,-7.812500
4164,-3.906250
4165,-1.953125
4166,1.953125
4167,1.953125
4168,5.859375
4169,7.812500
4170,11.718750
4171,13.671875
4172,15.625000
4173,17.578125
4174,19.531250
4175,23.437500
4176,25.390625
4177,27.343750
4178,29.296875
4179,31.250000
4180,33.203125
4181,37.109375
4182,39.062500
4183,41.015625
4184,42.968750
4185,44.921875
4186,46.875000
4187,48.828125
4188,50.781250
4189,52.734375
4190,54.687500
4191,56.640625
4192,58.593750
4193,60.546875
4194,62.500000
4195,64.453125
4196,66.406250
4197,68.359375
4198,70.312500
4199,70.312500
4200,72.265625
4201,74.218750
4202,76.171875
4203,76.171875
4204,78.125000
4205,78.125000
4206,80.078125
4207,82.031250
4208,82.031250
4209,83.984375
4210,85.937500
4211,85.937500
4212,87.890625
4213,87.890625
4214,89.843750
4215,89.843750
4216,91.796875
4217,91.796875
4218,91.796875
4219,93.750000
4220,93.750000
4221,93.750000
4222,95.703125
4223,95.703125
4224,95.703125
4225,97.656250
4226,97.656250
4227,97.656250
4228,97.656250
4229,97.656250
4230,97.656250
4231,99.609375
4232,99.609375
4233,99.609375
4234,99.609375
4235,99.609375
4236,99.609375
4237,99.609375
4238,97.656250
4239,97.656250
4240,97.656250
4241,97.656250
4242,97.656250
4243,97.656250
4244,97.656250
4245,95.703125
4246,95.703125
4247,95.703125
4248,93.750000
4249,95.703125
4250,93.750000
4251,93.750000
4252,91.796875
4253,91.796875
4254,89.843750
4255,89.843750
4256,87.890625
4257,87.890625
4258,85.937500
4259,85.937500
4260,83.984375
4261,82.031250
4262,82.031250
4263,82.031250
4264,78.125000
4265,76.171875
4266,76.171875
4267,74.218750
4268,72.265625
4269,70.312500
4270,68.359375
4271,68.359375
4272,66.406250
4273,64.453125
4274,62.500000
4275,60.546875
4276,58.593750
4277,56.640625
4278,54.687500
4279,54.687500
4280,50.781250
4281,48.828125
4282,46.875000
4283,44.921875
4284,44.921875
4285,41.015625
4286,39.062500
4287,37.109375
4288,35.156250
4289,33.203125
4290,29.296875
4291,27.343750
4292,25.390625
4293,23.437500
4294,21.484375
4295,17.578125
4296,17.578125
4297,13.671875
4298,11.718750
4299,9.765625
4300,5.859375
4301,3.906250
4302,0.000000
4303,0.000000
4304,-3.906250
4305,-5.859375
4306,-9.765625
4307,-11.718750
4308,-13.671875
4309,-15.625000
4310,-19.531250
4311,-21.484375
4312,-23.437500
4313,-27.343750
4314,-29.296875
4315,-31.250000
4316,-35.156250
4317,-37.109375
4318,-39.062500
4319,-41.015625
4320,-42.968750
4321,-46.875000
4322,-48.828125
4323,-50.781250
4324,-52.734375
4325,-56.640625
4326,-58.593750
4327,-60.546875
4328,-62.500000
4329,-66.406250
4330,-68.359375
4331,-70.312500
4332,-72.265625
4333,-74.218750
4334,-76.171875
4335,-80.078125
4336,-80.078125
4337,-82.031250
4338,-85.937500
4339,-87.890625
4340,-89.843750
4341,-91.796875
4342,-93.750000
4343,-95.703125
4344,-97.656250
4345,-99.609375
4346,-99.609375
4347,-101.562500
4348,-103.515625
4349,-105.468750
4350,-107.421875
4351,-109.375000
4352,-109.375000
4353,-111.328125
4354,-113.281250
4355,-113.281250
4356,-113.281250
4357,-115.234375
4358,-117.187500
4359,-117.187500
4360,-119.140625
4361,-119.140625
4362,-119.140625
4363,-121.093750
4364,-121.093750
4365,-121.093750
4366,-123.046875
4367,-123.046875
4368,-123.046875
4369,-123.046875
4370,-125.000000
4371,-125.000000
4372,-125.000000
4373,-125.000000
4374,-125.000000
4375,-125.000000
4376,-125.000000
4377,-125.000000
4378,-125.000000
4379,-125.000000
4380,-125.000000
4381,-125.000000
4382,-125.000000
4383,-123.046875
4384,-123.046875
4385,-123.046875
4386,-121.093750
4387,-121.093750
4388,-119.140625
4389,-119.140625
4390,-119.140625
4391,-117.187500
4392,-117.187500
4393,-115.234375
4394,-115.234375
4395,-113.281250
4396,-113.281250
4397,-111.328125
4398,-109.375000
4399,-109.375000
4400,-107.421875
4401,-105.468750
4402,-105.468750
4403,-103.515625
4404,-101.562500
4405,-99.609375
4406,-97.656250
4407,-95.703125
4408,-93.750000
4409,-91.796875
4410,-89.843750
4411,-87.890625
4412,-85.937500
4413,-83.984375
4414,-82.031250
4415,-80.078125
4416,-78.125000
4417,-76.171875
4418,-74.218750
4419,-72.265625
4420,-68.359375
4421,-66.406250
4422,-64.453125
4423,-62.500000
4424,-58.593750
4425,-58.593750
4426,-54.687500
4427,-52.734375
4428,-50.781250
4429,-46.875000
4430,-44.921875
4431,-42.968750
4432,-41.015625
4433,-37.109375
4434,-35.156250
4435,-33.203125
4436,-31.250000
4437,-27.343750
4438,-25.390625
4439,-21.484375
4440,-19.531250
4441,-17.578125
4442,-15.625000
4443,-11.718750
4444,-9.765625
4445,-7.812500
4446,-5.859375
4447,-1.953125
4448,1.953125
4449,3.906250
4450,5.859375
4451,7.812500
4452,9.765625
4453,11.718750
4454,15.625000
4455,17.578125
4456,19.531250
4457,21.484375
4458,23.437500
4459,25.390625
4460,29.296875
4461,31.250000
4462,33.203125
4463,35.156250
4464,37.109375
4465,41.015625
4466,41.015625
4467,42.968750
4468,46.875000
4469,48.828125
4470,50.781250
4471,52.734375
4472,54.687500
4473,56.640625
4474,56.640625
4475,60.546875
4476,60.546875
4477,62.500000
4478,64.453125
4479,66.406250
4480,68.359375
4481,70.312500
4482,72.265625
4483,72.265625
4484,74.218750
4485,76.171875
4486,78.125000
4487,80.078125
4488,80.078125
4489,82.031250
4490,82.031250
4491,83.984375
4492,85.937500
4493,85.937500
4494,85.937500
4495,87.890625
4496,89.843750
4497,89.843750
4498,87.890625
4499,91.796875
4500,91.796875
4501,91.796875
4502,93.750000
4503,93.750000
4504,95.703125
4505,95.703125
4506,95.703125
4507,95.703125
4508,97.656250
4509,101.562500
4510,97.656250
4511,97.656250
4512,99.609375
4513,99.609375
4514,97.656250
4515,99.609375
4516,99.609375
4517,99.609375
4518,99.609375
4519,97.656250
4520,99.609375
4521,99.609375
4522,97.656250
4523,97.656250
4524,99.609375
4525,97.656250
4526,97.656250
4527,95.703125
4528,95.703125
4529,95.703125
4530,95.703125
4531,93.750000
4532,91.796875
4533,91.796875
4534,91.796875
4535,91.796875
4536,89.843750
4537,89.843750
4538,87.890625
4539,85.937500
4540,85.937500
4541,85.937500
4542,83.984375
4543,80.078125
4544,82.031250
4545,80.078125
4546,80.078125
4547,78.125000
4548,76.171875
4549,74.218750
4550,74.218750
4551,72.265625
4552,70.312500
4553,68.359375
4554,66.406250
4555,64.453125
4556,62.500000
4557,60.546875
4558,60.546875
4559,58.593750
4560,56.640625
4561,54.687500
4562,52.734375
4563,50.781250
4564,48.828125
4565,46.875000
4566,44.921875
4567,41.015625
4568,39.062500
4569,39.062500
4570,35.156250
4571,33.203125
4572,31.250000
4573,29.296875
4574,27.343750
4575,23.437500
4576,23.437500
4577,19.531250
4578,17.578125
4579,13.671875
4580,13.671875
4581,9.765625
4582,5.859375
4583,3.906250
4584,3.906250
4585,0.000000
4586,-1.953125
4587,-5.859375
4588,-7.812500
4589,-9.765625
4590,-11.718750
4591,-15.625000
4592,-17.578125
4593,-21.484375
4594,-23.437500
4595,-25.390625
4596,-27.343750
4597,-31.250000
4598,-33.203125
4599,-35.156250
4600,-39.062500
4601,-41.015625
4602,-42.968750
4603,-44.921875
4604,-48.828125
4605,-50.781250
4606,-52.734375
4607,-56.640625
4608,-58.593750
4609,-60.546875
4610,-62.500000
4611,-66.406250
4612,-68.359375
4613,-70.312500
4614,-72.265625
4615,-74.218750
4616,-76.171875
4617,-78.125000
4618,-80.078125
4619,-82.031250
4620,-83.984375
4621,-85.937500
4622,-87.890625
4623,-89.843750
4624,-91.796875
4625,-93.750000
4626,-95.703125
4627,-97.656250
4628,-99.609375
4629,-101.562500
4630,-103.515625
4631,-103.515625
4632,-105.468750
4633,-107.421875
4634,-107.421875
4635,-109.375000
4636,-111.328125
4637,-113.281250
4638,-113.281250
4639,-115.234375
4640,-115.234375
4641,-117.187500
4642,-117.187500
4643,-119.140625
4644,-119.140625
4645,-119.140625
4646,-121.093750
4647,-121.093750
4648,-123.046875
4649,-123.046875
4650,-123.046875
4651,-125.000000
4652,-123.046875
4653,-125.000000
4654,-125.000000
4655,-123.046875
4656,-126.953125
4657,-125.000000
4658,-125.000000
4659,-123.046875
4660,-125.000000
4661,-125.000000
4662,-125.000000
4663,-125.000000
4664,-123.046875
4665,-123.046875
4666,-123.046875
4667,-123.046875
4668,-123.046875
4669,-121.093750
4670,-121.093750
4671,-121.093750
4672,-119.140625
4673,-119.140625
4674,-117.187500
4675,-117.187500
4676,-115.234375
4677,-113.281250
4678,-113.281250
4679,-111.328125
4680,-111.328125
4681,-109.375000
4682,-107.421875
4683,-105.468750
4684,-103.515625
4685,-103.515625
4686,-101.562500
4687,-99.609375
4688,-97.656250
4689,-95.703125
4690,-95.703125
4691,-91.796875
4692,-91.796875
4693,-85.937500
4694,-85.937500
4695,-83.984375
4696,-82.031250
4697,-80.078125
4698,-78.125000
4699,-76.171875
4700,-74.218750
4701,-72.265625
4702,-70.312500
4703,-68.359375
4704,-64.453125
4705,-62.500000
4706,-60.546875
4707,-58.593750
4708,-54.687500
4709,-52.734375
4710,-50.781250
4711,-46.875000
4712,-46.875000
4713,-42.968750
4714,-41.015625
4715,-39.062500
4716,-35.156250
4717,-33.203125
4718,-31.250000
4719,-29.296875
4720,-25.390625
4721,-23.437500
4722,-21.484375
4723,-17.578125
4724,-15.625000
4725,-13.671875
4726,-11.718750
4727,-7.812500
4728,-5.859375
4729,-3.906250
4730,0.000000
4731,1.953125
4732,3.906250
4733,5.859375
4734,9.765625
4735,11.718750
4736,13.671875
4737,15.625000
4738,17.578125
4739,21.484375
4740,23.437500
4741,25.390625
4742,27.343750
4743,29.296875
4744,33.203125
4745,33.203125
4746,37.109375
4747,39.062500
4748,41.015625
4749,42.968750
4750,44.921875
4751,46.875000
4752,48.828125
4753,50.781250
4754,52.734375
4755,54.687500
4756,56.640625
4757,58.593750
4758,60.546875
4759,62.500000
4760,64.453125
4761,66.406250
4762,68.359375
4763,70.312500
4764,70.312500
4765,72.265625
4766,74.218750
4767,76.171875
4768,76.171875
4769,78.125000
4770,80.078125
4771,82.031250
4772,82.031250
4773,83.984375
4774,83.984375
4775,85.937500
4776,87.890625
4777,87.890625
4778,89.843750
4779,89.843750
4780,91.796875
4781,91.796875
4782,91.796875
4783,93.750000
4784,93.750000
4785,95.703125
4786,95.703125
4787,95.703125
4788,95.703125
4789,95.703125
4790,97.656250
4791,97.656250
4792,97.656250
4793,97.656250
4794,97.656250
4795,97.656250
4796,97.656250
4797,97.656250
4798,97.656250
4799,99.609375
4800,97.656250
4801,99.609375
4802,97.656250
4803,97.656250
4804,97.656250
4805,97.656250
4806,97.656250
4807,97.656250
4808,95.703125
4809,97.656250
4810,95.703125
4811,95.703125
4812,93.750000
4813,93.750000
4814,93.750000
4815,93.750000
4816,91.796875
4817,91.796875
4818,89.843750
4819,91.796875
4820,87.890625
4821,87.890625
4822,85.937500
4823,85.937500
4824,85.937500
4825,83.984375
4826,82.031250
4827,80.078125
4828,80.078125
4829,78.125000
4830,76.171875
4831,76.171875
4832,74.218750
4833,72.265625
4834,70.312500
4835,68.359375
4836,66.406250
4837,66.406250
4838,64.453125
4839,62.500000
4840,60.546875
4841,58.593750
4842,58.593750
4843,56.640625
4844,52.734375
4845,50.781250
4846,48.828125
4847,46.875000
4848,44.921875
4849,42.968750
4850,41.015625
4851,39.062500
4852,35.156250
4853,33.203125
4854,31.250000
4855,29.296875
4856,27.343750
4857,23.437500
4858,23.437500
4859,19.531250
4860,17.578125
4861,15.625000
4862,13.671875
4863,9.765625
4864,7.812500
4865,5.859375
4866,3.906250
4867,0.000000
4868,-1.953125
4869,-5.859375
4870,-7.812500
4871,-9.765625
4872,-11.718750
4873,-15.625000
4874,-17.578125
4875,-19.531250
4876,-23.437500
4877,-25.390625
4878,-27.343750
4879,-31.250000
4880,-33.203125
4881,-35.156250
4882,-37.109375
4883,-39.062500
4884,-42.968750
4885,-44.921875
4886,-46.875000
4887,-48.828125
4888,-52.734375
4889,-54.687500
4890,-52.734375
4891,-60.546875
4892,-62.500000
4893,-64.453125
4894,-66.406250
4895,-68.359375
4896,-72.265625
4897,-72.265625
4898,-76.171875
4899,-78.125000
4900,-80.078125
4901,-82.031250
4902,-83.984375
4903,-85.937500
4904,-87.890625
4905,-89.843750
4906,-91.796875
4907,-93.750000
4908,-95.703125
4909,-97.656250
4910,-97.656250
4911,-99.609375
4912,-101.562500
4913,-103.515625
4914,-105.468750
4915,-107.421875
4916,-109.375000
4917,-109.375000
4918,-111.328125
4919,-111.328125
4920,-113.281250
4921,-115.234375
4922,-115.234375
4923,-117.187500
4924,-119.140625
4925,-119.140625
4926,-119.140625
4927,-121.093750
4928,-121.093750
4929,-121.093750
4930,-125.000000
4931,-123.046875
4932,-123.046875
4933,-123.046875
4934,-125.000000
4935,-125.000000
4936,-125.000000
4937,-125.000000
4938,-125.000000
4939,-126.953125
4940,-125.000000
4941,-125.000000
4942,-126.953125
4943,-125.000000
4944,-125.000000
4945,-125.000000
4946,-123.046875
4947,-125.000000
4948,-123.046875
4949,-123.046875
4950,-121.093750
4951,-121.093750
4952,-121.093750
4953,-119.140625
4954,-119.140625
4955,-119.140625
4956,-117.187500
4957,-115.234375
4958,-115.234375
4959,-115.234375
4960,-113.281250
4961,-111.328125
4962,-109.375000
4963,-109.375000
4964,-107.421875
4965,-105.468750
4966,-105.468750
4967,-103.515625
4968,-101.562500
4969,-99.609375
4970,-97.656250
4971,-95.703125
4972,-95.703125
4973,-93.750000
4974,-91.796875
4975,-89.843750
4976,-87.890625
4977,-85.937500
4978,-83.984375
4979,-82.031250
4980,-80.078125
4981,-78.125000
4982,-74.218750
4983,-72.265625
4984,-70.312500
4985,-68.359375
4986,-66.406250
4987,-64.453125
4988,-60.546875
4989,-58.593750
4990,-56.640625
4991,-54.687500
4992,-52.734375
4993,-50.781250
4994,-46.875000
4995,-44.921875
4996,-41.015625
4997,-39.062500
4998,-37.109375
4999,-35.156250
5000,-33.203125
5001,-29.296875
5002,-27.343750
5003,-23.437500
5004,-21.484375
5005,-19.531250
5006,-17.578125
5007,-11.718750
5008,-11.718750
5009,-9.765625
5010,-7.812500
5011,-3.906250
5012,-1.953125
5013,0.000000
5014,3.906250
5015,5.859375
5016,7.812500
5017,11.718750
5018,13.671875
5019,15.625000
5020,19.531250
5021,19.531250
5022,23.437500
5023,25.390625
5024,27.343750
5025,29.296875
5026,33.203125
5027,35.156250
5028,37.109375
5029,39.062500
5030,41.015625
5031,42.968750
5032,44.921875
5033,46.875000
5034,48.828125
5035,50.781250
5036,52.734375
5037,54.687500
5038,56.640625
5039,60.546875
5040,60.546875
5041,62.500000
5042,66.406250
5043,64.453125
5044,66.406250
5045,68.359375
5046,70.312500
5047,72.265625
5048,72.265625
5049,76.171875
5050,78.125000
5051,78.125000
5052,78.125000
5053,80.078125
5054,82.031250
5055,82.031250
5056,83.984375
5057,83.984375
5058,85.937500
5059,87.890625
5060,87.890625
5061,89.843750
5062,89.843750
5063,91.796875
5064,91.796875
5065,93.750000
5066,93.750000
5067,93.750000
5068,95.703125
5069,95.703125
5070,95.703125
5071,95.703125
5072,95.703125
5073,97.656250
5074,97.656250
5075,97.656250
5076,97.656250
5077,99.609375
5078,97.656250
5079,99.609375
5080,99.609375
5081,99.609375
5082,99.609375
5083,99.609375
5084,99.609375
5085,99.609375
5086,97.656250
5087,97.656250
5088,97.656250
5089,97.656250
5090,97.656250
5091,97.656250
5092,95.703125
5093,97.656250
5094,95.703125
5095,93.750000
5096,93.750000
5097,93.750000
5098,93.750000
5099,91.796875
5100,91.796875
5101,89.843750
5102,87.890625
5103,87.890625
5104,87.890625
5105,85.937500
5106,85.937500
5107,83.984375
5108,82.031250
5109,82.031250
5110,80.078125
5111,80.078125
5112,76.171875
5113,76.171875
5114,74.218750
5115,72.265625
5116,70.312500
5117,70.312500
5118,68.359375
5119,66.406250
5120,64.453125
5121,62.500000
5122,60.546875
5123,58.593750
5124,56.640625
5125,56.640625
5126,52.734375
5127,52.734375
5128,48.828125
5129,46.875000
5130,44.921875
5131,42.968750
5132,41.015625
5133,39.062500
5134,37.109375
5135,35.156250
5136,31.250000
5137,31.250000
5138,27.343750
5139,25.390625
5140,23.437500
5141,21.484375
5142,19.531250
5143,15.625000
5144,13.671875
5145,11.718750
5146,9.765625
5147,5.859375
5148,3.906250
5149,1.953125
5150,0.000000
5151,-3.906250
5152,-5.859375
5153,-7.812500
5154,-11.718750
5155,-13.671875
5156,-15.625000
5157,-19.531250
5158,-21.484375
5159,-23.437500
5160,-25.390625
5161,-29.296875
5162,-31.250000
5163,-33.203125
5164,-35.156250
5165,-39.062500
5166,-41.015625
5167,-44.921875
5168,-46.875000
5169,-48.828125
5170,-50.781250
5171,-54.687500
5172,-56.640625
5173,-58.593750
5174,-60.546875
5175,-62.500000
5176,-64.453125
5177,-68.359375
5178,-70.312500
5179,-72.265625
5180,-74.218750
5181,-76.171875
5182,-78.125000
5183,-82.031250
5184,-83.984375
5185,-85.937500
5186,-87.890625
5187,-89.843750
5188,-89.843750
5189,-91.796875
5190,-93.750000
5191,-97.656250
5192,-97.656250
5193,-99.609375
5194,-101.562500
5195,-103.515625
5196,-105.468750
5197,-105.468750
5198,-107.421875
5199,-109.375000
5200,-109.375000
5201,-111.328125
5202,-113.281250
5203,-115.234375
5204,-115.234375
5205,-117.187500
5206,-117.187500
5207,-119.140625
5208,-119.140625
5209,-119.140625
5210,-121.093750
5211,-121.093750
5212,-123.046875
5213,-123.046875
5214,-123.046875
5215,-123.046875
5216,-125.000000
5217,-125.000000
5218,-125.000000
5219,-125.000000
5220,-125.000000
5221,-125.000000
5222,-125.000000
5223,-125.000000
5224,-125.000000
5225,-125.000000
5226,-125.000000
5227,-125.000000
5228,-125.000000
5229,-125.000000
5230,-123.046875
5231,-123.046875
5232,-123.046875
5233,-123.046875
5234,-121.093750
5235,-119.140625
5236,-119.140625
5237,-119.140625
5238,-119.140625
5239,-117.187500
5240,-115.234375
5241,-113.281250
5242,-113.281250
5243,-113.281250
5244,-111.328125
5245,-109.375000
5246,-107.421875
5247,-107.421875
5248,-105.468750
5249,-103.515625
5250,-101.562500
5251,-101.562500
5252,-99.609375
5253,-97.656250
5254,-95.703125
5255,-93.750000
5256,-91.796875
5257,-89.843750
5258,-87.890625
5259,-85.937500
5260,-83.984375
5261,-82.031250
5262,-80.078125
5263,-78.125000
5264,-76.171875
5265,-74.218750
5266,-70.312500
5267,-68.359375
5268,-66.406250
5269,-64.453125
5270,-60.546875
5271,-60.546875
5272,-56.640625
5273,-54.687500
5274,-52.734375
5275,-48.828125
5276,-46.875000
5277,-44.921875
5278,-42.968750
5279,-39.062500
5280,-37.109375
5281,-35.156250
5282,-33.203125
5283,-29.296875
5284,-27.343750
5285,-25.390625
5286,-23.437500
5287,-19.531250
5288,-17.578125
5289,-13.671875
5290,-13.671875
5291,-9.765625
5292,-7.812500
5293,-3.906250
5294,-1.953125
5295,0.000000
5296,1.953125
5297,5.859375
5298,7.812500
5299,9.765625
5300,11.718750
5301,15.625000
5302,17.578125
5303,19.531250
5304,23.437500
5305,25.390625
5306,25.390625
5307,29.296875
5308,31.250000
5309,33.203125
5310,35.156250
5311,37.109375
5312,41.015625
5313,41.015625
5314,42.968750
5315,46.875000
5316,48.828125
5317,50.781250
5318,52.734375
5319,54.687500
5320,56.640625
5321,58.593750
5322,58.593750
5323,62.500000
5324,62.500000
5325,64.453125
5326,66.406250
5327,68.359375
5328,70.312500
5329,70.312500
5330,72.265625
5331,74.218750
5332,76.171875
5333,78.125000
5334,78.125000
5335,80.078125
5336,82.031250
5337,82.031250
5338,83.984375
5339,85.937500
5340,85.937500
5341,87.890625
5342,87.890625
5343,89.843750
5344,89.843750
5345,91.796875
5346,91.796875
5347,91.796875
5348,93.750000
5349,93.750000
5350,95.703125
5351,95.703125
5352,95.703125
5353,95.703125
5354,97.656250
5355,97.656250
5356,97.656250
5357,97.656250
5358,97.656250
5359,99.609375
5360,97.656250
5361,99.609375
5362,99.609375
5363,99.609375
5364,99.609375
5365,99.609375
5366,99.609375
5367,99.609375
5368,97.656250
5369,97.656250
5370,97.656250
5371,97.656250
5372,97.656250
5373,97.656250
5374,95.703125
5375,95.703125
5376,95.703125
5377,93.750000
5378,93.750000
5379,93.750000
5380,91.796875
5381,91.796875
5382,91.796875
5383,89.843750
5384,89.843750
5385,87.890625
5386,87.890625
5387,85.937500
5388,85.937500
5389,83.984375
5390,82.031250
5391,82.031250
5392,80.078125
5393,80.078125
5394,78.125000
5395,76.171875
5396,74.218750
5397,74.218750
5398,72.265625
5399,70.312500
5400,68.359375
5401,66.406250
5402,66.406250
5403,64.453125
5404,62.500000
5405,60.546875
5406,58.593750
5407,56.640625
5408,54.687500
5409,52.734375
5410,50.781250
5411,48.828125
5412,46.875000
5413,44.921875
5414,42.968750
5415,41.015625
5416,37.109375
5417,35.156250
5418,33.203125
5419,31.250000
5420,29.296875
5421,27.343750
5422,25.390625
5423,21.484375
5424,19.531250
5425,17.578125
5426,15.625000
5427,13.671875
5428,9.765625
5429,7.812500
5430,5.859375
5431,1.953125
5432,0.000000
5433,-1.953125
5434,-3.906250
5435,-7.812500
5436,-9.765625
5437,-11.718750
5438,-15.625000
5439,-17.578125
5440,-19.531250
5441,-23.437500
5442,-25.390625
5443,-27.343750
5444,-31.250000
5445,-33.203125
5446,-35.156250
5447,-39.062500
5448,-41.015625
5449,-42.968750
5450,-44.921875
5451,-46.875000
5452,-50.781250
5453,-52.734375
5454,-54.687500
5455,-56.640625
5456,-60.546875
5457,-62.500000
5458,-64.453125
5459,-66.406250
5460,-70.312500
5461,-72.265625
5462,-72.265625
5463,-76.171875
5464,-78.125000
5465,-80.078125
5466,-82.031250
5467,-83.984375
5468,-85.937500
5469,-87.890625
5470,-89.843750
5471,-91.796875
5472,-93.750000
5473,-95.703125
5474,-97.656250
5475,-99.609375
5476,-101.562500
5477,-101.562500
5478,-103.515625
5479,-105.468750
5480,-107.421875
5481,-107.421875
5482,-109.375000
5483,-111.328125
5484,-111.328125
5485,-113.281250
5486,-115.234375
5487,-115.234375
5488,-117.187500
5489,-117.187500
5490,-119.140625
5491,-119.140625
5492,-121.093750
5493,-121.093750
5494,-121.093750
5495,-123.046875
5496,-125.000000
5497,-123.046875
5498,-123.046875
5499,-125.000000
5500,-125.000000
5501,-125.000000
5502,-125.000000
5503,-125.000000
5504,-125.000000
5505,-125.000000
5506,-125.000000
5507,-123.046875
5508,-125.000000
5509,-125.000000
5510,-125.000000
5511,-125.000000
5512,-123.046875
5513,-123.046875
5514,-123.046875
5515,-121.093750
5516,-121.093750
5517,-121.093750
5518,-119.140625
5519,-119.140625
5520,-117.187500
5521,-117.187500
5522,-115.234375
5523,-115.234375
5524,-113.281250
5525,-113.281250
5526,-111.328125
5527,-111.328125
5528,-109.375000
5529,-107.421875
5530,-105.468750
5531,-105.468750
5532,-103.515625
5533,-101.562500
5534,-99.609375
5535,-97.656250
5536,-95.703125
5537,-93.750000
5538,-93.750000
5539,-89.843750
5540,-87.890625
5541,-85.937500
5542,-85.937500
5543,-82.031250
5544,-80.078125
5545,-78.125000
5546,-76.171875
5547,-74.218750
5548,-70.312500
5549,-70.312500
5550,-68.359375
5551,-64.453125
5552,-62.500000
5553,-60.546875
5554,-58.593750
5555,-56.640625
5556,-52.734375
5557,-50.781250
5558,-48.828125
5559,-44.921875
5560,-42.968750
5561,-41.015625
5562,-39.062500
5563,-35.156250
5564,-33.203125
5565,-31.250000
5566,-29.296875
5567,-25.390625
5568,-23.437500
5569,-21.484375
5570,-17.578125
5571,-15.625000
5572,-13.671875
5573,-11.718750
5574,-7.812500
5575,-5.859375
5576,-3.906250
5577,0.000000
5578,1.953125
5579,3.906250
5580,5.859375
5581,7.812500
5582,11.718750
5583,13.671875
5584,15.625000
5585,19.531250
5586,21.484375
5587,23.437500
5588,27.343750
5589,27.343750
5590,31.250000
5591,33.203125
5592,35.156250
5593,37.109375
5594,39.062500
5595,42.968750
5596,42.968750
5597,44.921875
5598,46.875000
5599,48.828125
5600,52.734375
5601,52.734375
5602,54.687500
5603,58.593750
5604,60.546875
5605,60.546875
5606,62.500000
5607,64.453125
5608,66.406250
5609,68.359375
5610,70.312500
5611,72.265625
5612,72.265625
5613,74.218750
5614,76.171875
5615,78.125000
5616,78.125000
5617,80.078125
5618,80.078125
5619,82.031250
5620,83.984375
5621,85.937500
5622,85.937500
5623,85.937500
5624,87.890625
5625,89.843750
5626,89.843750
5627,89.843750
5628,91.796875
5629,91.796875
5630,93.750000
5631,93.750000
5632,93.750000
5633,93.750000
5634,95.703125
5635,95.703125
5636,95.703125
5637,97.656250
5638,97.656250
5639,97.656250
5640,99.609375
5641,97.656250
5642,97.656250
5643,97.656250
5644,99.609375
5645,99.609375
5646,97.656250
5647,97.656250
5648,99.609375
5649,99.609375
5650,97.656250
5651,97.656250
5652,97.656250
5653,97.656250
5654,97.656250
5655,95.703125
5656,95.703125
5657,97.656250
5658,95.703125
5659,95.703125
5660,93.750000
5661,93.750000
5662,93.750000
5663,91.796875
5664,91.796875
5665,91.796875
5666,89.843750
5667,89.843750
5668,87.890625
5669,87.890625
5670,85.937500
5671,83.984375
5672,83.984375
5673,82.031250
5674,82.031250
5675,80.078125
5676,78.125000
5677,76.171875
5678,76.171875
5679,74.218750
5680,72.265625
5681,70.312500
5682,68.359375
5683,68.359375
5684,66.406250
5685,64.453125
5686,62.500000
5687,60.546875
5688,58.593750
5689,56.640625
5690,56.640625
5691,52.734375
5692,50.781250
5693,48.828125
5694,46.875000
5695,44.921875
5696,42.968750
5697,41.015625
5698,39.062500
5699,35.156250
5700,33.203125
5701,31.250000
5702,29.296875
5703,27.343750
5704,23.437500
5705,23.437500
5706,19.531250
5707,17.578125
5708,15.625000
5709,13.671875
5710,9.765625
5711,7.812500
5712,5.859375
5713,1.953125
5714,0.000000
5715,-1.953125
5716,-3.906250
5717,-5.859375
5718,-9.765625
5719,-11.718750
5720,-15.625000
5721,-15.625000
5722,-19.531250
5723,-21.484375
5724,-23.437500
5725,-27.343750
5726,-29.296875
5727,-31.250000
5728,-35.156250
5729,-37.109375
5730,-39.062500
5731,-41.015625
5732,-44.921875
5733,-46.875000
5734,-48.828125
5735,-52.734375
5736,-54.687500
5737,-56.640625
5738,-58.593750
5739,-62.500000
5740,-64.453125
5741,-66.406250
5742,-68.359375
5743,-70.312500
5744,-74.218750
5745,-74.218750
5746,-76.171875
5747,-80.078125
5748,-82.031250
5749,-83.984375
5750,-85.937500
5751,-87.890625
5752,-89.843750
5753,-91.796875
5754,-93.750000
5755,-95.703125
5756,-97.656250
5757,-99.609375
5758,-99.609375
5759,-101.562500
5760,-103.515625
5761,-105.468750
5762,-107.421875
5763,-109.375000
5764,-109.375000
5765,-109.375000
5766,-113.281250
5767,-113.281250
5768,-115.234375
5769,-115.234375
5770,-117.187500
5771,-119.140625
5772,-119.140625
5773,-119.140625
5774,-121.093750
5775,-121.093750
5776,-121.093750
5777,-123.046875
5778,-123.046875
5779,-123.046875
5780,-125.000000
5781,-125.000000
5782,-125.000000
5783,-125.000000
5784,-125.000000
5785,-125.000000
5786,-126.953125
5787,-125.000000
5788,-125.000000
5789,-125.000000
5790,-125.000000
5791,-125.000000
5792,-125.000000
5793,-125.000000
5794,-123.046875
5795,-123.046875
5796,-123.046875
5797,-121.093750
5798,-121.093750
5799,-121.093750
5800,-121.093750
5801,-119.140625
5802,-117.187500
5803,-117.187500
5804,-115.234375
5805,-115.234375
5806,-113.281250
5807,-113.281250
5808,-111.328125
5809,-111.328125
5810,-109.375000
5811,-107.421875
5812,-105.468750
5813,-103.515625
5814,-103.515625
5815,-101.562500
5816,-99.609375
5817,-97.656250
5818,-95.703125
5819,-95.703125
5820,-93.750000
5821,-91.796875
5822,-89.843750
5823,-85.937500
5824,-85.937500
5825,-83.984375
5826,-80.078125
5827,-80.078125
5828,-78.125000
5829,-76.171875
5830,-72.265625
5831,-70.312500
5832,-68.359375
5833,-66.406250
5834,-64.453125
5835,-60.546875
5836,-58.593750
5837,-56.640625
5838,-54.687500
5839,-52.734375
5840,-48.828125
5841,-46.875000
5842,-44.921875
5843,-41.015625
5844,-41.015625
5845,-37.109375
5846,-35.156250
5847,-31.250000
5848,-29.296875
5849,-25.390625
5850,-25.390625
5851,-21.484375
5852,-19.531250
5853,-15.625000
5854,-13.671875
5855,-11.718750
5856,-9.765625
5857,-5.859375
5858,-3.906250
5859,-1.953125
5860,1.953125
5861,3.906250
5862,5.859375
5863,7.812500
5864,11.718750
5865,13.671875
5866,15.625000
5867,17.578125
5868,21.484375
5869,23.437500
5870,25.390625
5871,27.343750
5872,29.296875
5873,33.203125
5874,35.156250
5875,37.109375
5876,39.062500
5877,41.015625
5878,42.968750
5879,44.921875
5880,48.828125
5881,48.828125
5882,50.781250
5883,52.734375
5884,54.687500
5885,56.640625
5886,58.593750
5887,62.500000
5888,62.500000
5889,64.453125
5890,66.406250
5891,66.406250
5892,68.359375
5893,70.312500
5894,72.265625
5895,74.218750
5896,78.125000
5897,76.171875
5898,78.125000
5899,80.078125
5900,80.078125
5901,83.984375
5902,82.031250
5903,83.984375
5904,85.937500
5905,85.937500
5906,87.890625
5907,87.890625
5908,87.890625
5909,89.843750
5910,89.843750
5911,91.796875
5912,93.750000
5913,93.750000
5914,93.750000
5915,95.703125
5916,95.703125
5917,95.703125
5918,97.656250
5919,97.656250
5920,97.656250
5921,97.656250
5922,99.609375
5923,97.656250
5924,99.609375
5925,99.609375
5926,99.609375
5927,99.609375
5928,99.609375
5929,99.609375
5930,97.656250
5931,99.609375
5932,99.609375
5933,97.656250
5934,97.656250
5935,97.656250
5936,97.656250
5937,97.656250
5938,97.656250
5939,95.703125
5940,95.703125
5941,95.703125
5942,93.750000
5943,93.750000
5944,93.750000
5945,91.796875
5946,91.796875
5947,91.796875
5948,89.843750
5949,89.843750
5950,87.890625
5951,85.937500
5952,85.937500
5953,85.937500
5954,83.984375
5955,82.031250
5956,82.031250
5957,80.078125
5958,78.125000
5959,78.125000
5960,74.218750
5961,74.218750
5962,72.265625
5963,72.265625
5964,70.312500
5965,68.359375
5966,66.406250
5967,64.453125
5968,62.500000
5969,60.546875
5970,58.593750
5971,56.640625
5972,56.640625
5973,52.734375
5974,50.781250
5975,48.828125
5976,46.875000
5977,44.921875
5978,42.968750
5979,41.015625
5980,39.062500
5981,37.109375
5982,35.156250
5983,33.203125
5984,31.250000
5985,27.343750
5986,25.390625
5987,23.437500
5988,21.484375
5989,19.531250
5990,17.578125
5991,13.671875
5992,11.718750
5993,9.765625
5994,7.812500
5995,3.906250
5996,1.953125
5997,-1.953125
5998,-3.906250
5999,-5.859375
6000,-7.812500
6001,-11.718750
6002,-13.671875
6003,-15.625000
6004,-17.578125
6005,-21.484375
6006,-23.437500
6007,-25.390625
6008,-29.296875
6009,-31.250000
6010,-33.203125
6011,-37.109375
6012,-39.062500
6013,-41.015625
6014,-44.921875
6015,-46.875000
6016,-48.828125
6017,-50.781250
6018,-54.687500
6019,-56.640625
6020,-58.593750
6021,-60.546875
6022,-62.500000
6023,-66.406250
6024,-68.359375
6025,-70.312500
6026,-72.265625
6027,-74.218750
6028,-76.171875
6029,-80.078125
6030,-82.031250
6031,-83.984375
6032,-83.984375
6033,-87.890625
6034,-89.843750
6035,-91.796875
6036,-91.796875
6037,-93.750000
6038,-95.703125
6039,-97.656250
6040,-99.609375
6041,-101.562500
6042,-103.515625
6043,-105.468750
6044,-105.468750
6045,-107.421875
6046,-107.421875
6047,-111.328125
6048,-111.328125
6049,-113.281250
6050,-113.281250
6051,-115.234375
6052,-117.187500
6053,-117.187500
6054,-117.187500
6055,-119.140625
6056,-119.140625
6057,-121.093750
6058,-121.093750
6059,-121.093750
6060,-123.046875
6061,-123.046875
6062,-123.046875
6063,-123.046875
6064,-125.000000
6065,-125.000000
6066,-125.000000
6067,-125.000000
6068,-125.000000
6069,-125.000000
6070,-125.000000
6071,-125.000000
6072,-125.000000
6073,-125.000000
6074,-123.046875
6075,-123.046875
6076,-123.046875
6077,-123.046875
6078,-123.046875
6079,-123.046875
6080,-117.187500
6081,-121.093750
6082,-121.093750
6083,-119.140625
6084,-119.140625
6085,-117.187500
6086,-117.187500
6087,-117.187500
6088,-115.234375
6089,-113.281250
6090,-113.281250
6091,-111.328125
6092,-109.375000
6093,-109.375000
6094,-107.421875
6095,-105.468750
6096,-103.515625
6097,-105.468750
6098,-101.562500
6099,-99.609375
6100,-95.703125
6101,-95.703125
6102,-93.750000
6103,-91.796875
6104,-89.843750
6105,-87.890625
6106,-85.937500
6107,-83.984375
6108,-82.031250
6109,-80.078125
6110,-78.125000
6111,-76.171875
6112,-74.218750
6113,-70.312500
6114,-68.359375
6115,-66.406250
6116,-64.453125
6117,-62.500000
6118,-60.546875
6119,-56.640625
6120,-54.687500
6121,-52.734375
6122,-50.781250
6123,-46.875000
6124,-44.921875
6125,-42.968750
6126,-41.015625
6127,-37.109375
6128,-35.156250
6129,-33.203125
6130,-29.296875
6131,-27.343750
6132,-25.390625
6133,-23.437500
6134,-19.531250
6135,-17.578125
6136,-15.625000
6137,-11.718750
6138,-9.765625
6139,-7.812500
6140,-3.906250
6141,-1.953125
6142,0.000000
6143,1.953125
6144,5.859375
6145,7.812500
6146,9.765625
6147,11.718750
6148,15.625000
6149,17.578125
6150,19.531250
6151,21.484375
6152,25.390625
6153,27.343750
6154,29.296875
6155,31.250000
6156,33.203125
6157,35.156250
6158,37.109375
6159,39.062500
6160,41.015625
6161,44.921875
6162,46.875000
6163,46.875000
6164,50.781250
6165,50.781250
6166,54.687500
6167,56.640625
6168,58.593750
6169,60.546875
6170,62.500000
6171,62.500000
6172,64.453125
6173,68.359375
6174,68.359375
6175,70.312500
6176,72.265625
6177,74.218750
6178,74.218750
6179,76.171875
6180,78.125000
6181,80.078125
6182,80.078125
6183,82.031250
6184,82.031250
6185,83.984375
6186,85.937500
6187,85.937500
6188,85.937500
6189,87.890625
6190,89.843750
6191,89.843750
6192,91.796875
6193,91.796875
6194,93.750000
6195,93.750000
6196,93.750000
6197,93.750000
6198,91.796875
6199,95.703125
6200,97.656250
6201,97.656250
6202,97.656250
6203,97.656250
6204,97.656250
6205,97.656250
6206,97.656250
6207,99.609375
6208,99.609375
6209,99.609375
6210,99.609375
6211,99.609375
6212,99.609375
6213,99.609375
6214,97.656250
6215,99.609375
6216,97.656250
6217,97.656250
6218,97.656250
6219,97.656250
6220,97.656250
6221,95.703125
6222,95.703125
6223,95.703125
6224,95.703125
6225,93.750000
6226,93.750000
6227,91.796875
6228,91.796875
6229,91.796875
6230,87.890625
6231,89.843750
6232,87.890625
6233,87.890625
6234,85.937500
6235,83.984375
6236,83.984375
6237,83.984375
6238,82.031250
6239,80.078125
6240,78.125000
6241,78.125000
6242,76.171875
6243,74.218750
6244,72.265625
6245,72.265625
6246,70.312500
6247,68.359375
6248,66.406250
6249,64.453125
6250,64.453125
6251,62.500000
6252,60.546875
6253,58.593750
6254,56.640625
6255,54.687500
6256,52.734375
6257,50.781250
6258,48.828125
6259,46.875000
6260,44.921875
6261,41.015625
6262,41.015625
6263,39.062500
6264,35.156250
6265,33.203125
6266,31.250000
6267,29.296875
6268,27.343750
6269,23.437500
6270,21.484375
6271,19.531250
6272,17.578125
6273,13.671875
6274,11.718750
6275,9.765625
6276,7.812500
6277,3.906250
6278,1.953125
6279,0.000000
6280,-1.953125
6281,-3.906250
6282,-7.812500
6283,-9.765625
6284,-13.671875
6285,-15.625000
6286,-17.578125
6287,-21.484375
6288,-23.437500
6289,-25.390625
6290,-27.343750
6291,-31.250000
6292,-33.203125
6293,-35.156250
6294,-37.109375
6295,-41.015625
6296,-42.968750
6297,-44.921875
6298,-48.828125
6299,-50.781250
6300,-52.734375
6301,-54.687500
6302,-58.593750
6303,-60.546875
6304,-62.500000
6305,-64.453125
6306,-68.359375
6307,-68.359375
6308,-72.265625
6309,-74.218750
6310,-76.171875
6311,-78.125000
6312,-80.078125
6313,-82.031250
6314,-83.984375
6315,-85.937500
6316,-87.890625
6317,-89.843750
6318,-91.796875
6319,-93.750000
6320,-95.703125
6321,-97.656250
6322,-99.609375
6323,-101.562500
6324,-101.562500
6325,-103.515625
6326,-105.468750
6327,-107.421875
6328,-107.421875
6329,-109.375000
6330,-111.328125
6331,-113.281250
6332,-113.281250
6333,-115.234375
6334,-115.234375
6335,-117.187500
6336,-117.187500
6337,-119.140625
6338,-119.140625
6339,-121.093750
6340,-121.093750
6341,-123.046875
6342,-123.046875
6343,-123.046875
6344,-123.046875
6345,-123.046875
6346,-125.000000
6347,-125.000000
6348,-125.000000
6349,-125.000000
6350,-125.000000
6351,-125.000000
6352,-125.000000
6353,-125.000000
6354,-125.000000
6355,-125.000000
6356,-125.000000
6357,-125.000000
6358,-125.000000
6359,-123.046875
6360,-123.046875
6361,-123.046875
6362,-123.046875
6363,-123.046875
6364,-119.140625
6365,-119.140625
6366,-119.140625
6367,-119.140625
6368,-117.187500
6369,-115.234375
6370,-115.234375
6371,-113.281250
6372,-113.281250
6373,-111.328125
6374,-109.375000
6375,-109.375000
6376,-107.421875
6377,-105.468750
6378,-103.515625
6379,-101.562500
6380,-101.562500
6381,-99.609375
6382,-97.656250
6383,-95.703125
6384,-93.750000
6385,-91.796875
6386,-89.843750
6387,-87.890625
6388,-85.937500
6389,-83.984375
6390,-82.031250
6391,-80.078125
6392,-78.125000
6393,-76.171875
6394,-74.218750
6395,-72.265625
6396,-68.359375
6397,-68.359375
6398,-66.406250
6399,-62.500000
6400,-60.546875
6401,-58.593750
6402,-54.687500
6403,-54.687500
6404,-50.781250
6405,-48.828125
6406,-44.921875
6407,-42.968750
6408,-41.015625
6409,-39.062500
6410,-35.156250
6411,-33.203125
6412,-31.250000
6413,-29.296875
6414,-25.390625
6415,-23.437500
6416,-21.484375
6417,-17.578125
6418,-15.625000
6419,-13.671875
6420,-11.718750
6421,-7.812500
6422,-5.859375
6423,-3.906250
6424,-1.953125
6425,1.953125
6426,3.906250
6427,5.859375
6428,9.765625
6429,11.718750
6430,13.671875
6431,15.625000
6432,17.578125
6433,21.484375
6434,23.437500
6435,25.390625
6436,27.343750
6437,31.250000
6438,33.203125
6439,35.156250
6440,37.109375
6441,39.062500
6442,41.015625
6443,42.968750
6444,44.921875
6445,46.875000
6446,48.828125
6447,52.734375
6448,54.687500
6449,54.687500
6450,56.640625
6451,58.593750
6452,62.500000
6453,62.500000
6454,64.453125
6455,66.406250
6456,68.359375
6457,70.312500
6458,72.265625
6459,72.265625
6460,74.218750
6461,76.171875
6462,78.125000
6463,78.125000
6464,80.078125
6465,80.078125
6466,82.031250
6467,83.984375
6468,83.984375
6469,85.937500
6470,85.937500
6471,89.843750
6472,89.843750
6473,91.796875
6474,89.843750
6475,91.796875
6476,91.796875
6477,93.750000
6478,93.750000
6479,93.750000
6480,95.703125
6481,95.703125
6482,95.703125
6483,95.703125
6484,97.656250
6485,97.656250
6486,97.656250
6487,97.656250
6488,97.656250
6489,97.656250
6490,99.609375
6491,99.609375
6492,97.656250
6493,99.609375
6494,99.609375
6495,99.609375
6496,99.609375
6497,97.656250
6498,97.656250
6499,99.609375
6500,97.656250
6501,97.656250
6502,95.703125
6503,97.656250
6504,97.656250
6505,95.703125
6506,93.750000
6507,93.750000
6508,93.750000
6509,93.750000
6510,91.796875
6511,91.796875
6512,91.796875
6513,89.843750
6514,89.843750
6515,87.890625
6516,87.890625
6517,85.937500
6518,83.984375
6519,83.984375
6520,82.031250
6521,82.031250
6522,80.078125
6523,78.125000
6524,76.171875
6525,76.171875
6526,74.218750
6527,72.265625
6528,70.312500
6529,70.312500
6530,68.359375
6531,66.406250
6532,64.453125
6533,62.500000
6534,60.546875
6535,58.593750
6536,56.640625
6537,54.687500
6538,52.734375
6539,50.781250
6540,48.828125
6541,46.875000
6542,44.921875
6543,42.968750
6544,41.015625
6545,39.062500
6546,37.109375
6547,33.203125
6548,31.250000
6549,29.296875
6550,27.343750
6551,25.390625
6552,23.437500
6553,19.531250
6554,17.578125
6555,15.625000
6556,13.671875
6557,11.718750
6558,7.812500
6559,5.859375
6560,3.906250
6561,0.000000
6562,-1.953125
6563,-5.859375
6564,-5.859375
6565,-9.765625
6566,-11.718750
6567,-13.671875
6568,-17.578125
6569,-19.531250
6570,-21.484375
6571,-25.390625
6572,-27.343750
6573,-29.296875
6574,-31.250000
6575,-35.156250
6576,-37.109375
6577,-39.062500
6578,-41.015625
6579,-44.921875
6580,-46.875000
6581,-48.828125
6582,-50.781250
6583,-54.687500
6584,-56.640625
6585,-58.593750
6586,-62.500000
6587,-64.453125
6588,-66.406250
6589,-68.359375
6590,-70.312500
6591,-72.265625
6592,-76.171875
6593,-76.171875
6594,-80.078125
6595,-82.031250
6596,-83.984375
6597,-85.937500
6598,-87.890625
6599,-89.843750
6600,-91.796875
6601,-93.750000
6602,-95.703125
6603,-97.656250
6604,-99.609375
6605,-101.562500
6606,-101.562500
6607,-103.515625
6608,-105.468750
6609,-107.421875
6610,-107.421875
6611,-109.375000
6612,-111.328125
6613,-111.328125
6614,-113.281250
6615,-113.281250
6616,-115.234375
6617,-117.187500
6618,-117.187500
6619,-117.187500
6620,-119.140625
6621,-121.093750
6622,-121.093750
6623,-121.093750
6624,-123.046875
6625,-123.046875
6626,-123.046875
6627,-125.000000
6628,-123.046875
6629,-123.046875
6630,-125.000000
6631,-125.000000
6632,-125.000000
6633,-125.000000
6634,-125.000000
6635,-125.000000
6636,-125.000000
6637,-125.000000
6638,-125.000000
6639,-125.000000
6640,-123.046875
6641,-123.046875
6642,-123.046875
6643,-123.046875
6644,-121.093750
6645,-121.093750
6646,-121.093750
6647,-119.140625
6648,-119.140625
6649,-117.187500
6650,-117.187500
6651,-117.187500
6652,-115.234375
6653,-113.281250
6654,-113.281250
6655,-111.328125
6656,-111.328125
6657,-109.375000
6658,-107.421875
6659,-105.468750
6660,-105.468750
6661,-103.515625
6662,-101.562500
6663,-99.609375
6664,-97.656250
6665,-97.656250
6666,-95.703125
6667,-93.750000
6668,-91.796875
6669,-89.843750
6670,-87.890625
6671,-85.937500
6672,-83.984375
6673,-82.031250
6674,-80.078125
6675,-78.125000
6676,-74.218750
6677,-74.218750
6678,-70.312500
6679,-68.359375
6680,-66.406250
6681,-64.453125
6682,-62.500000
6683,-58.593750
6684,-56.640625
6685,-54.687500
6686,-52.734375
6687,-50.781250
6688,-46.875000
6689,-44.921875
6690,-42.968750
6691,-39.062500
6692,-37.109375
6693,-35.156250
6694,-31.250000
6695,-29.296875
6696,-27.343750
6697,-23.437500
6698,-21.484375
6699,-19.531250
6700,-17.578125
6701,-13.671875
6702,-11.718750
6703,-9.765625
6704,-5.859375
6705,-3.906250
6706,-1.953125
6707,0.000000
6708,3.906250
6709,5.859375
6710,7.812500
6711,9.765625
6712,13.671875
6713,15.625000
6714,17.578125
6715,19.531250
6716,23.437500
6717,25.390625
6718,27.343750
6719,29.296875
6720,31.250000
6721,35.156250
6722,37.109375
6723,39.062500
6724,41.015625
6725,42.968750
6726,44.921875
6727,46.875000
6728,48.828125
6729,50.781250
6730,52.734375
6731,54.687500
6732,56.640625
6733,58.593750
6734,60.546875
6735,62.500000
6736,64.453125
6737,64.453125
6738,68.359375
6739,68.359375
6740,70.312500
6741,72.265625
6742,74.218750
6743,76.171875
6744,76.171875
6745,78.125000
6746,80.078125
6747,80.078125
6748,82.031250
6749,83.984375
6750,83.984375
6751,85.937500
6752,87.890625
6753,87.890625
6754,87.890625
6755,89.843750
6756,89.843750
6757,91.796875
6758,91.796875
6759,91.796875
6760,93.750000
6761,93.750000
6762,95.703125
6763,95.703125
6764,95.703125
6765,95.703125
6766,97.656250
6767,97.656250
6768,97.656250
6769,99.609375
6770,99.609375
6771,99.609375
6772,99.609375
6773,99.609375
6774,99.609375
6775,99.609375
6776,99.609375
6777,99.609375
6778,99.609375
6779,99.609375
6780,97.656250
6781,97.656250
6782,97.656250
6783,97.656250
6784,95.703125
6785,97.656250
6786,95.703125
6787,95.703125
6788,95.703125
6789,95.703125
6790,93.750000
6791,93.750000
6792,91.796875
6793,91.796875
6794,91.796875
6795,89.843750
6796,87.890625
6797,87.890625
6798,87.890625
6799,85.937500
6800,83.984375
6801,83.984375
6802,82.031250
6803,82.031250
6804,80.078125
6805,78.125000
6806,78.125000
6807,76.171875
6808,74.218750
6809,72.265625
6810,70.312500
6811,70.312500
6812,68.359375
6813,66.406250
6814,64.453125
6815,62.500000
6816,60.546875
6817,60.546875
6818,58.593750
6819,56.640625
6820,52.734375
6821,52.734375
6822,50.781250
6823,48.828125
6824,44.921875
6825,42.968750
6826,42.968750
6827,39.062500
6828,37.109375
6829,35.156250
6830,33.203125
6831,31.250000
6832,29.296875
6833,25.390625
6834,23.437500
6835,21.484375
6836,19.531250
6837,17.578125
6838,13.671875
6839,11.718750
6840,9.765625
6841,7.812500
6842,3.906250
6843,1.953125
6844,-1.953125
6845,-3.906250
6846,-5.859375
6847,-7.812500
6848,-9.765625
6849,-13.671875
6850,-15.625000
6851,-19.531250
6852,-21.484375
6853,-23.437500
6854,-27.343750
6855,-29.296875
6856,-31.250000
6857,-33.203125
6858,-37.109375
6859,-39.062500
6860,-41.015625
6861,-42.968750
6862,-46.875000
6863,-48.828125
6864,-50.781250
6865,-52.734375
6866,-56.640625
6867,-58.593750
6868,-60.546875
6869,-62.500000
6870,-64.453125
6871,-68.359375
6872,-70.312500
6873,-72.265625
6874,-74.218750
6875,-76.171875
6876,-80.078125
6877,-82.031250
6878,-83.984375
6879,-85.937500
6880,-87.890625
6881,-89.843750
6882,-91.796875
6883,-93.750000
6884,-93.750000
6885,-95.703125
6886,-97.656250
6887,-99.609375
6888,-101.562500
6889,-103.515625
6890,-103.515625
6891,-107.421875
6892,-107.421875
6893,-109.375000
6894,-111.328125
6895,-111.328125
6896,-113.281250
6897,-113.281250
6898,-115.234375
6899,-117.187500
6900,-117.187500
6901,-119.140625
6902,-119.140625
6903,-119.140625
6904,-121.093750
6905,-121.093750
6906,-121.093750
6907,-123.046875
6908,-123.046875
6909,-123.046875
6910,-125.000000
6911,-125.000000
6912,-125.000000
6913,-125.000000
6914,-125.000000
6915,-125.000000
6916,-125.000000
6917,-125.000000
6918,-125.000000
6919,-125.000000
6920,-125.000000
6921,-125.000000
6922,-125.000000
6923,-123.046875
6924,-125.000000
6925,-123.046875
6926,-123.046875
6927,-121.093750
6928,-121.093750
6929,-121.093750
6930,-119.140625
6931,-119.140625
6932,-119.140625
6933,-117.187500
6934,-115.234375
6935,-115.234375
6936,-113.281250
6937,-113.281250
6938,-111.328125
6939,-109.375000
6940,-109.375000
6941,-107.421875
6942,-105.468750
6943,-103.515625
6944,-103.515625
6945,-101.562500
6946,-99.609375
6947,-97.656250
6948,-95.703125
6949,-93.750000
6950,-91.796875
6951,-89.843750
6952,-87.890625
6953,-85.937500
6954,-83.984375
6955,-82.031250
6956,-80.078125
6957,-78.125000
6958,-76.171875
6959,-74.218750
6960,-70.312500
6961,-68.359375
6962,-66.406250
6963,-64.453125
6964,-62.500000
6965,-58.593750
6966,-56.640625
6967,-54.687500
6968,-52.734375
6969,-48.828125
6970,-46.875000
6971,-44.921875
6972,-42.968750
6973,-39.062500
6974,-37.109375
6975,-35.156250
6976,-33.203125
6977,-29.296875
6978,-27.343750
6979,-25.390625
6980,-21.484375
6981,-19.531250
6982,-17.578125
6983,-15.625000
6984,-11.718750
6985,-9.765625
6986,-7.812500
6987,-3.906250
6988,-1.953125
6989,0.000000
6990,1.953125
6991,5.859375
6992,7.812500
6993,9.765625
6994,11.718750
6995,13.671875
6996,17.578125
6997,19.531250
6998,21.484375
6999,23.437500
7000,27.343750
7001,29.296875
7002,31.250000
7003,33.203125
7004,35.156250
7005,37.109375
7006,39.062500
7007,41.015625
7008,44.921875
7009,46.875000
7010,48.828125
7011,50.781250
7012,52.734375
7013,54.687500
7014,56.640625
7015,56.640625
7016,58.593750
7017,60.546875
7018,64.453125
7019,64.453125
7020,66.406250
7021,68.359375
7022,70.312500
7023,72.265625
7024,72.265625
7025,74.218750
7026,76.171875
7027,78.125000
7028,78.125000
7029,80.078125
7030,82.031250
7031,82.031250
7032,83.984375
7033,83.984375
7034,85.937500
7035,87.890625
7036,87.890625
7037,89.843750
7038,89.843750
7039,91.796875
7040,91.796875
7041,91.796875
7042,93.750000
7043,93.750000
7044,93.750000
7045,95.703125
7046,95.703125
7047,95.703125
7048,97.656250
7049,97.656250
7050,97.656250
7051,97.656250
7052,97.656250
7053,97.656250
7054,97.656250
7055,97.656250
7056,99.609375
7057,99.609375
7058,99.609375
7059,97.656250
7060,99.609375
7061,97.656250
7062,97.656250
7063,97.656250
7064,97.656250
7065,97.656250
7066,97.656250
7067,95.703125
7068,95.703125
7069,95.703125
7070,95.703125
7071,93.750000
7072,93.750000
7073,93.750000
7074,91.796875
7075,91.796875
7076,91.796875
7077,89.843750
7078,87.890625
7079,87.890625
7080,87.890625
7081,85.937500
7082,85.937500
7083,83.984375
7084,82.031250
7085,82.031250
7086,80.078125
7087,78.125000
7088,78.125000
7089,76.171875
7090,74.218750
7091,74.218750
7092,72.265625
7093,70.312500
7094,70.312500
7095,68.359375
7096,66.406250
7097,62.500000
7098,62.500000
7099,60.546875
7100,58.593750
7101,56.640625
7102,54.687500
7103,52.734375
7104,50.781250
7105,48.828125
7106,46.875000
7107,44.921875
7108,42.968750
7109,41.015625
7110,37.109375
7111,35.156250
7112,33.203125
7113,31.250000
7114,29.296875
7115,25.390625
7116,23.437500
7117,21.484375
7118,19.531250
7119,17.578125
7120,13.671875
7121,13.671875
7122,9.765625
7123,7.812500
7124,3.906250
7125,1.953125
7126,0.000000
7127,-1.953125
7128,-5.859375
7129,-7.812500
7130,-9.765625
7131,-13.671875
7132,-15.625000
7133,-17.578125
7134,-19.531250
7135,-23.437500
7136,-25.390625
7137,-27.343750
7138,-31.250000
7139,-33.203125
7140,-35.156250
7141,-37.109375
7142,-41.015625
7143,-42.968750
7144,-44.921875
7145,-46.875000
7146,-50.781250
7147,-52.734375
7148,-54.687500
7149,-56.640625
7150,-60.546875
7151,-62.500000
7152,-64.453125
7153,-66.406250
7154,-68.359375
7155,-70.312500
7156,-74.218750
7157,-76.171875
7158,-78.125000
7159,-80.078125
7160,-82.031250
7161,-83.984375
7162,-85.937500
7163,-87.890625
7164,-89.843750
7165,-91.796875
7166,-93.750000
7167,-95.703125
7168,-97.656250
7169,-99.609375
7170,-99.609375
7171,-101.562500
7172,-103.515625
7173,-105.468750
7174,-107.421875
7175,-107.421875
7176,-109.375000
7177,-111.328125
7178,-113.281250
7179,-113.281250
7180,-115.234375
7181,-115.234375
7182,-117.187500
7183,-117.187500
7184,-119.140625
7185,-119.140625
7186,-121.093750
7187,-121.093750
7188,-121.093750
7189,-123.046875
7190,-123.046875
7191,-123.046875
7192,-123.046875
7193,-125.000000
7194,-125.000000
7195,-125.000000
7196,-125.000000
7197,-125.000000
7198,-125.000000
7199,-126.953125
7200,-125.000000
7201,-125.000000
7202,-125.000000
7203,-125.000000
7204,-125.000000
7205,-125.000000
7206,-123.046875
7207,-123.046875
7208,-123.046875
7209,-121.093750
7210,-121.093750
7211,-121.093750
7212,-119.140625
7213,-119.140625
7214,-117.187500
7215,-117.187500
7216,-115.234375
7217,-115.234375
7218,-113.281250
7219,-113.281250
7220,-111.328125
7221,-109.375000
7222,-107.421875
7223,-107.421875
7224,-105.468750
7225,-103.515625
7226,-101.562500
7227,-101.562500
7228,-99.609375
7229,-97.656250
7230,-95.703125
7231,-93.750000
7232,-91.796875
7233,-89.843750
7234,-87.890625
7235,-85.937500
7236,-85.937500
7237,-82.031250
7238,-80.078125
7239,-78.125000
7240,-76.171875
7241,-74.218750
7242,-72.265625
7243,-70.312500
7244,-68.359375
7245,-66.406250
7246,-62.500000
7247,-60.546875
7248,-58.593750
7249,-56.640625
7250,-54.687500
7251,-50.781250
7252,-48.828125
7253,-46.875000
7254,-42.968750
7255,-41.015625
7256,-39.062500
7257,-35.156250
7258,-33.203125
7259,-31.250000
7260,-29.296875
7261,-27.343750
7262,-23.437500
7263,-21.484375
7264,-17.578125
7265,-15.625000
7266,-13.671875
7267,-11.718750
7268,-9.765625
7269,-5.859375
7270,-3.906250
7271,0.000000
7272,1.953125
7273,3.906250
7274,7.812500
7275,9.765625
7276,11.718750
7277,13.671875
7278,17.578125
7279,17.578125
7280,21.484375
7281,23.437500
7282,25.390625
7283,29.296875
7284,31.250000
7285,33.203125
7286,35.156250
7287,37.109375
7288,39.062500
7289,41.015625
7290,42.968750
7291,44.921875
7292,46.875000
7293,50.781250
7294,52.734375
7295,52.734375
7296,54.687500
7297,56.640625
7298,58.593750
7299,60.546875
7300,62.500000
7301,64.453125
7302,66.406250
7303,68.359375
7304,70.312500
7305,72.265625
7306,72.265625
7307,74.218750
7308,76.171875
7309,76.171875
7310,78.125000
7311,80.078125
7312,80.078125
7313,82.031250
7314,83.984375
7315,83.984375
7316,85.937500
7317,87.890625
7318,87.890625
7319,87.890625
7320,89.843750
7321,91.796875
7322,91.796875
7323,91.796875
7324,91.796875
7325,93.750000
7326,93.750000
7327,93.750000
7328,95.703125
7329,95.703125
7330,97.656250
7331,95.703125
7332,97.656250
7333,97.656250
7334,97.656250
7335,97.656250
7336,99.609375
7337,99.609375
7338,99.609375
7339,97.656250
7340,99.609375
7341,99.609375
7342,99.609375
7343,99.609375
7344,97.656250
7345,99.609375
7346,97.656250
7347,97.656250
7348,97.656250
7349,97.656250
7350,97.656250
7351,95.703125
7352,95.703125
7353,95.703125
7354,93.750000
7355,93.750000
7356,93.750000
7357,93.750000
7358,91.796875
7359,89.843750
7360,89.843750
7361,89.843750
7362,87.890625
7363,87.890625
7364,85.937500
7365,83.984375
7366,83.984375
7367,82.031250
7368,82.031250
7369,80.078125
7370,78.125000
7371,76.171875
7372,76.171875
7373,74.218750
7374,72.265625
7375,70.312500
7376,68.359375
7377,68.359375
7378,66.406250
7379,64.453125
7380,62.500000
7381,60.546875
7382,58.593750
7383,56.640625
7384,54.687500
7385,52.734375
7386,50.781250
7387,48.828125
7388,46.875000
7389,44.921875
7390,42.968750
7391,41.015625
7392,39.062500
7393,35.156250
7394,35.156250
7395,31.250000
7396,29.296875
7397,27.343750
7398,25.390625
7399,23.437500
7400,19.531250
7401,17.578125
7402,15.625000
7403,11.718750
7404,11.718750
7405,7.812500
7406,5.859375
7407,3.906250
7408,0.000000
7409,-1.953125
7410,-3.906250
7411,-7.812500
7412,-7.812500
7413,-11.718750
7414,-13.671875
7415,-17.578125
7416,-19.531250
7417,-21.484375
7418,-23.437500
7419,-27.343750
7420,-29.296875
7421,-31.250000
7422,-33.203125
7423,-37.109375
7424,-39.062500
7425,-42.968750
7426,-44.921875
7427,-46.875000
7428,-48.828125
7429,-52.734375
7430,-54.687500
7431,-56.640625
7432,-58.593750
7433,-62.500000
7434,-64.453125
7435,-66.406250
7436,-68.359375
7437,-70.312500
7438,-74.218750
7439,-74.218750
7440,-76.171875
7441,-80.078125
7442,-82.031250
7443,-83.984375
7444,-85.937500
7445,-87.890625
7446,-89.843750
7447,-91.796875
7448,-93.750000
7449,-95.703125
7450,-97.656250
7451,-99.609375
7452,-101.562500
7453,-101.562500
7454,-103.515625
7455,-105.468750
7456,-107.421875
7457,-109.375000
7458,-109.375000
7459,-109.375000
7460,-111.328125
7461,-113.281250
7462,-115.234375
7463,-115.234375
7464,-115.234375
7465,-117.187500
7466,-119.140625
7467,-119.140625
7468,-119.140625
7469,-121.093750
7470,-121.093750
7471,-123.046875
7472,-123.046875
7473,-123.046875
7474,-123.046875
7475,-125.000000
7476,-123.046875
7477,-125.000000
7478,-125.000000
7479,-125.000000
7480,-125.000000
7481,-125.000000
7482,-125.000000
7483,-125.000000
7484,-125.000000
7485,-125.000000
7486,-123.046875
7487,-125.000000
7488,-123.046875
7489,-123.046875
7490,-123.046875
7491,-121.093750
7492,-121.093750
7493,-121.093750
7494,-119.140625
7495,-119.140625
7496,-117.187500
7497,-117.187500
7498,-117.187500
7499,-115.234375
7500,-115.234375
7501,-113.281250
7502,-111.328125
7503,-111.328125
7504,-109.375000
7505,-107.421875
7506,-107.421875
7507,-105.468750
7508,-103.515625
7509,-101.562500
7510,-99.609375
7511,-99.609375
7512,-97.656250
7513,-95.703125
7514,-93.750000
7515,-91.796875
7516,-89.843750
7517,-87.890625
7518,-85.937500
7519,-83.984375
7520,-82.031250
7521,-78.125000
7522,-78.125000
7523,-74.218750
7524,-72.265625
7525,-70.312500
7526,-68.359375
7527,-66.406250
7528,-64.453125
7529,-62.500000
7530,-58.593750
7531,-56.640625
7532,-54.687500
7533,-50.781250
7534,-48.828125
7535,-46.875000
7536,-44.921875
7537,-41.015625
7538,-39.062500
7539,-37.109375
7540,-35.156250
7541,-31.250000
7542,-29.296875
7543,-27.343750
7544,-23.437500
7545,-21.484375
7546,-19.531250
7547,-17.578125
7548,-13.671875
7549,-11.718750
7550,-9.765625
7551,-7.812500
7552,-3.906250
7553,-1.953125
7554,0.000000
7555,1.953125
7556,5.859375
7557,9.765625
7558,9.765625
7559,13.671875
7560,15.625000
7561,19.531250
7562,19.531250
7563,23.437500
7564,25.390625
7565,27.343750
7566,29.296875
7567,31.250000
7568,33.203125
7569,35.156250
7570,39.062500
7571,41.015625
7572,42.968750
7573,44.921875
7574,46.875000
7575,48.828125
7576,50.781250
7577,52.734375
7578,54.687500
7579,56.640625
7580,58.593750
7581,60.546875
7582,62.500000
7583,64.453125
7584,64.453125
7585,66.406250
7586,68.359375
7587,70.312500
7588,72.265625
7589,74.218750
7590,76.171875
7591,78.125000
7592,78.125000
7593,80.078125
7594,80.078125
7595,82.031250
7596,83.984375
7597,83.984375
7598,85.937500
7599,85.937500
7600,87.890625
7601,89.843750
7602,89.843750
7603,89.843750
7604,91.796875
7605,91.796875
7606,93.750000
7607,93.750000
7608,95.703125
7609,95.703125
7610,95.703125
7611,95.703125
7612,95.703125
7613,97.656250
7614,97.656250
7615,97.656250
7616,97.656250
7617,97.656250
7618,97.656250
7619,99.609375
7620,99.609375
7621,99.609375
7622,97.656250
7623,99.609375
7624,99.609375
7625,99.609375
7626,99.609375
7627,99.609375
7628,97.656250
7629,97.656250
7630,97.656250
7631,97.656250
7632,97.656250
7633,95.703125
7634,95.703125
7635,95.703125
7636,95.703125
7637,93.750000
7638,91.796875
7639,91.796875
7640,91.796875
7641,89.843750
7642,89.843750
7643,87.890625
7644,87.890625
7645,87.890625
7646,85.937500
7647,83.984375
7648,83.984375
7649,82.031250
7650,80.078125
7651,80.078125
7652,78.125000
7653,78.125000
7654,76.171875
7655,74.218750
7656,72.265625
7657,72.265625
7658,70.312500
7659,68.359375
7660,66.406250
7661,64.453125
7662,62.500000
7663,60.546875
7664,58.593750
7665,58.593750
7666,56.640625
7667,54.687500
7668,52.734375
7669,48.828125
7670,48.828125
7671,46.875000
7672,42.968750
7673,42.968750
7674,39.062500
7675,37.109375
7676,35.156250
7677,33.203125
7678,31.250000
7679,27.343750
7680,25.390625
7681,23.437500
7682,21.484375
7683,19.531250
7684,15.625000
7685,13.671875
7686,11.718750
7687,9.765625
7688,7.812500
7689,3.906250
7690,1.953125
7691,0.000000
7692,-3.906250
7693,-5.859375
7694,-7.812500
7695,-11.718750
7696,-13.671875
7697,-15.625000
7698,-19.531250
7699,-21.484375
7700,-23.437500
7701,-25.390625
7702,-29.296875
7703,-31.250000
7704,-35.156250
7705,-37.109375
7706,-39.062500
7707,-41.015625
7708,-44.921875
7709,-46.875000
7710,-48.828125
7711,-50.781250
7712,-54.687500
7713,-56.640625
7714,-58.593750
7715,-60.546875
7716,-64.453125
7717,-66.406250
7718,-68.359375
7719,-70.312500
7720,-72.265625
7721,-74.218750
7722,-76.171875
7723,-80.078125
7724,-80.078125
7725,-82.031250
7726,-83.984375
7727,-85.937500
7728,-89.843750
7729,-89.843750
7730,-91.796875
7731,-93.750000
7732,-95.703125
7733,-97.656250
7734,-99.609375
7735,-101.562500
7736,-103.515625
7737,-103.515625
7738,-105.468750
7739,-107.421875
7740,-109.375000
7741,-109.375000
7742,-111.328125
7743,-113.281250
7744,-113.281250
7745,-115.234375
7746,-117.187500
7747,-117.187500
7748,-117.187500
7749,-119.140625
7750,-119.140625
7751,-121.093750
7752,-121.093750
7753,-121.093750
7754,-119.140625
7755,-123.046875
7756,-123.046875
7757,-125.000000
7758,-125.000000
7759,-125.000000
7760,-125.000000
7761,-125.000000
7762,-125.000000
7763,-125.000000
7764,-125.000000
7765,-125.000000
7766,-125.000000
7767,-125.000000
7768,-125.000000
7769,-125.000000
7770,-123.046875
7771,-123.046875
7772,-123.046875
7773,-123.046875
7774,-121.093750
7775,-121.093750
7776,-121.093750
7777,-121.093750
7778,-119.140625
7779,-117.187500
7780,-117.187500
7781,-115.234375
7782,-115.234375
7783,-113.281250
7784,-113.281250
7785,-111.328125
7786,-109.375000
7787,-107.421875
7788,-107.421875
7789,-105.468750
7790,-103.515625
7791,-103.515625
7792,-101.562500
7793,-97.656250
7794,-95.703125
7795,-95.703125
7796,-93.750000
7797,-91.796875
7798,-89.843750
7799,-87.890625
7800,-85.937500
7801,-83.984375
7802,-85.937500
7803,-80.078125
7804,-78.125000
7805,-76.171875
7806,-72.265625
7807,-70.312500
7808,-68.359375
7809,-66.406250
7810,-64.453125
7811,-60.546875
7812,-60.546875
7813,-56.640625
7814,-54.687500
7815,-52.734375
7816,-48.828125
7817,-46.875000
7818,-44.921875
7819,-42.968750
7820,-41.015625
7821,-37.109375
7822,-35.156250
7823,-33.203125
7824,-29.296875
7825,-27.343750
7826,-25.390625
7827,-21.484375
7828,-19.531250
7829,-17.578125
7830,-15.625000
7831,-13.671875
7832,-9.765625
7833,-7.812500
7834,-5.859375
7835,-3.906250
7836,0.000000
7837,1.953125
7838,5.859375
7839,7.812500
7840,9.765625
7841,11.718750
7842,13.671875
7843,17.578125
7844,19.531250
7845,21.484375
7846,23.437500
7847,25.390625
7848,29.296875
7849,31.250000
7850,33.203125
7851,35.156250
7852,37.109375
7853,39.062500
7854,42.968750
7855,44.921875
7856,46.875000
7857,46.875000
7858,50.781250
7859,52.734375
7860,54.687500
7861,54.687500
7862,56.640625
7863,60.546875
7864,60.546875
7865,62.500000
7866,64.453125
7867,66.406250
7868,68.359375
7869,70.312500
7870,72.265625
7871,72.265625
7872,74.218750
7873,76.171875
7874,78.125000
7875,78.125000
7876,80.078125
7877,82.031250
7878,83.984375
7879,82.031250
7880,83.984375
7881,85.937500
7882,87.890625
7883,87.890625
7884,89.843750
7885,89.843750
7886,91.796875
7887,89.843750
7888,91.796875
7889,93.750000
7890,93.750000
7891,93.750000
7892,95.703125
7893,95.703125
7894,95.703125
7895,97.656250
7896,95.703125
7897,97.656250
7898,97.656250
7899,97.656250
7900,97.656250
7901,99.609375
7902,97.656250
7903,99.609375
7904,99.609375
7905,97.656250
7906,99.609375
7907,99.609375
7908,99.609375
7909,97.656250
7910,97.656250
7911,97.656250
7912,95.703125
7913,97.656250
7914,95.703125
7915,95.703125
7916,95.703125
7917,95.703125
7918,95.703125
7919,91.796875
7920,93.750000
7921,93.750000
7922,91.796875
7923,91.796875
7924,89.843750
7925,89.843750
7926,89.843750
7927,87.890625
7928,85.937500
7929,83.984375
7930,83.984375
7931,83.984375
7932,82.031250
7933,80.078125
7934,80.078125
7935,78.125000
7936,76.171875
7937,74.218750
7938,72.265625
7939,72.265625
7940,70.312500
7941,68.359375
7942,66.406250
7943,64.453125
7944,64.453125
7945,64.453125
7946,60.546875
7947,58.593750
7948,56.640625
7949,54.687500
7950,52.734375
7951,50.781250
7952,48.828125
7953,46.875000
7954,44.921875
7955,42.968750
7956,39.062500
7957,37.109375
7958,35.156250
7959,33.203125
7960,31.250000
7961,27.343750
7962,27.343750
7963,23.437500
7964,21.484375
7965,19.531250
7966,15.625000
7967,15.625000
7968,13.671875
7969,9.765625
7970,7.812500
7971,3.906250
7972,1.953125
7973,0.000000
7974,-3.906250
7975,-5.859375
7976,-7.812500
7977,-9.765625
7978,-11.718750
7979,-15.625000
7980,-15.625000
7981,-19.531250
7982,-25.390625
7983,-25.390625
7984,-29.296875
7985,-29.296875
7986,-29.296875
7987,-35.156250
7988,-39.062500
7989,-39.062500
7990,-42.968750
7991,-44.921875
7992,-48.828125
7993,-50.781250
7994,-52.734375
7995,-54.687500
7996,-58.593750
7997,-60.546875
7998,-62.500000
7999,-64.453125
8000,-66.406250
8001,-68.359375
8002,-72.265625
8003,-74.218750
8004,-76.171875
8005,-78.125000
8006,-80.078125
8007,-82.031250
8008,-83.984375
8009,-85.937500
8010,-87.890625
8011,-89.843750
8012,-91.796875
8013,-93.750000
8014,-95.703125
8015,-97.656250
8016,-99.609375
8017,-101.562500
8018,-103.515625
8019,-103.515625
8020,-105.468750
8021,-107.421875
8022,-109.375000
8023,-109.375000
8024,-111.328125
8025,-113.281250
8026,-113.281250
8027,-115.234375
8028,-115.234375
8029,-117.187500
8030,-117.187500
8031,-119.140625
8032,-119.140625
8033,-121.093750
8034,-121.093750
8035,-123.046875
8036,-123.046875
8037,-123.046875
8038,-125.000000
8039,-125.000000
8040,-125.000000
8041,-125.000000
8042,-125.000000
8043,-125.000000
8044,-125.000000
8045,-125.000000
8046,-125.000000
8047,-125.000000
8048,-125.000000
8049,-125.000000
8050,-125.000000
8051,-125.000000
8052,-125.000000
8053,-123.046875
8054,-123.046875
8055,-123.046875
8056,-121.093750
8057,-121.093750
8058,-121.093750
8059,-119.140625
8060,-119.140625
8061,-117.187500
8062,-117.187500
8063,-115.234375
8064,-115.234375
8065,-113.281250
8066,-113.281250
8067,-109.375000
8068,-109.375000
8069,-109.375000
8070,-107.421875
8071,-105.468750
8072,-103.515625
8073,-103.515625
8074,-101.562500
8075,-99.609375
8076,-97.656250
8077,-95.703125
8078,-93.750000
8079,-91.796875
8080,-89.843750
8081,-87.890625
8082,-85.937500
8083,-85.937500
8084,-82.031250
8085,-80.078125
8086,-78.125000
8087,-76.171875
8088,-74.218750
8089,-72.265625
8090,-70.312500
8091,-68.359375
8092,-66.406250
8093,-62.500000
8094,-60.546875
8095,-58.593750
8096,-56.640625
8097,-52.734375
8098,-50.781250
8099,-48.828125
8100,-46.875000
8101,-42.968750
8102,-41.015625
8103,-39.062500
8104,-37.109375
8105,-35.156250
8106,-31.250000
8107,-29.296875
8108,-25.390625
8109,-23.437500
8110,-21.484375
8111,-17.578125
8112,-15.625000
8113,-13.671875
8114,-9.765625
8115,-7.812500
8116,-5.859375
8117,-1.953125
8118,-1.953125
8119,1.953125
8120,3.906250
8121,7.812500
8122,9.765625
8123,11.718750
8124,13.671875
8125,17.578125
8126,19.531250
8127,21.484375
8128,23.437500
8129,27.343750
8130,29.296875
8131,29.296875
8132,33.203125
8133,35.156250
8134,37.109375
8135,41.015625
8136,41.015625
8137,44.921875
8138,46.875000
8139,46.875000
8140,48.828125
8141,52.734375
8142,54.687500
8143,54.687500
8144,56.640625
8145,58.593750
8146,60.546875
8147,62.500000
8148,64.453125
8149,66.406250
8150,68.359375
8151,70.312500
8152,72.265625
8153,72.265625
8154,74.218750
8155,76.171875
8156,76.171875
8157,78.125000
8158,80.078125
8159,80.078125
8160,82.031250
8161,83.984375
8162,83.984375
8163,85.937500
8164,87.890625
8165,87.890625
8166,87.890625
8167,89.843750
8168,89.843750
8169,91.796875
8170,91.796875
8171,91.796875
8172,93.750000
8173,93.750000
8174,95.703125
8175,95.703125
8176,95.703125
8177,97.656250
8178,97.656250
8179,97.656250
8180,97.656250
8181,97.656250
8182,97.656250
8183,97.656250
8184,97.656250
8185,99.609375
8186,99.609375
8187,97.656250
8188,99.609375
8189,99.609375
8190,99.609375
8191,99.609375
8192,97.656250
8193,97.656250
8194,97.656250
8195,97.656250
8196,97.656250
8197,97.656250
8198,95.703125
8199,95.703125
8200,95.703125
8201,93.750000
8202,93.750000
8203,93.750000
8204,91.796875
8205,91.796875
8206,91.796875
8207,89.843750
8208,87.890625
8209,87.890625
8210,85.937500
8211,85.937500
8212,83.984375
8213,83.984375
8214,82.031250
8215,80.078125
8216,80.078125
8217,78.125000
8218,76.171875
8219,76.171875
8220,74.218750
8221,72.265625
8222,72.265625
8223,68.359375
8224,66.406250
8225,66.406250
8226,64.453125
8227,62.500000
8228,60.546875
8229,58.593750
8230,56.640625
8231,54.687500
8232,52.734375
8233,50.781250
8234,48.828125
8235,46.875000
8236,44.921875
8237,42.968750
8238,41.015625
8239,39.062500
8240,37.109375
8241,33.203125
8242,31.250000
8243,31.250000
8244,27.343750
8245,25.390625
8246,23.437500
8247,21.484375
8248,17.578125
8249,15.625000
8250,13.671875
8251,11.718750
8252,7.812500
8253,5.859375
8254,3.906250
8255,1.953125
8256,-1.953125
8257,-3.906250
8258,-5.859375
8259,-9.765625
8260,-11.718750
8261,-13.671875
8262,-17.578125
8263,-19.531250
8264,-21.484375
8265,-25.390625
8266,-27.343750
8267,-29.296875
8268,-31.250000
8269,-35.156250
8270,-37.109375
8271,-39.062500
8272,-42.968750
8273,-44.921875
8274,-46.875000
8275,-50.781250
8276,-52.734375
8277,-54.687500
8278,-58.593750
8279,-58.593750
8280,-62.500000
8281,-64.453125
8282,-66.406250
8283,-70.312500
8284,-72.265625
8285,-74.218750
8286,-76.171875
8287,-76.171875
8288,-80.078125
8289,-82.031250
8290,-83.984375
8291,-85.937500
8292,-87.890625
8293,-89.843750
8294,-91.796875
8295,-93.750000
8296,-95.703125
8297,-97.656250
8298,-99.609375
8299,-99.609375
8300,-101.562500
8301,-103.515625
8302,-105.468750
8303,-107.421875
8304,-107.421875
8305,-109.375000
8306,-111.328125
8307,-111.328125
8308,-113.281250
8309,-113.281250
8310,-115.234375
8311,-117.187500
8312,-117.187500
8313,-117.187500
8314,-119.140625
8315,-121.093750
8316,-121.093750
8317,-121.093750
8318,-121.093750
8319,-123.046875
8320,-123.046875
8321,-123.046875
8322,-123.046875
8323,-125.000000
8324,-125.000000
8325,-125.000000
8326,-125.000000
8327,-125.000000
8328,-125.000000
8329,-125.000000
8330,-125.000000
8331,-125.000000
8332,-125.000000
8333,-125.000000
8334,-125.000000
8335,-125.000000
8336,-123.046875
8337,-123.046875
8338,-121.093750
8339,-121.093750
8340,-121.093750
8341,-121.093750
8342,-119.140625
8343,-119.140625
8344,-117.187500
8345,-115.234375
8346,-115.234375
8347,-115.234375
8348,-113.281250
8349,-111.328125
8350,-111.328125
8351,-109.375000
8352,-107.421875
8353,-107.421875
8354,-105.468750
8355,-103.515625
8356,-101.562500
8357,-99.609375
8358,-99.609375
8359,-95.703125
8360,-95.703125
8361,-93.750000
8362,-91.796875
8363,-89.843750
8364,-87.890625
8365,-85.937500
8366,-83.984375
8367,-80.078125
8368,-78.125000
8369,-78.125000
8370,-74.218750
8371,-72.265625
8372,-70.312500
8373,-68.359375
8374,-66.406250
8375,-64.453125
8376,-60.546875
8377,-58.593750
8378,-56.640625
8379,-54.687500
8380,-52.734375
8381,-48.828125
8382,-46.875000
8383,-44.921875
8384,-41.015625
8385,-39.062500
8386,-37.109375
8387,-33.203125
8388,-31.250000
8389,-29.296875
8390,-27.343750
8391,-25.390625
8392,-21.484375
8393,-19.531250
8394,-15.625000
8395,-15.625000
8396,-11.718750
8397,-9.765625
8398,-7.812500
8399,-3.906250
8400,-1.953125
8401,0.000000
8402,3.906250
8403,5.859375
8404,9.765625
8405,9.765625
8406,11.718750
8407,15.625000
8408,17.578125
8409,19.531250
8410,21.484375
8411,25.390625
8412,27.343750
8413,29.296875
8414,31.250000
8415,33.203125
8416,35.156250
8417,39.062500
8418,41.015625
8419,41.015625
8420,44.921875
8421,46.875000
8422,48.828125
8423,50.781250
8424,52.734375
8425,54.687500
8426,56.640625
8427,58.593750
8428,60.546875
8429,62.500000
8430,64.453125
8431,66.406250
8432,66.406250
8433,70.312500
8434,70.312500
8435,72.265625
8436,74.218750
8437,74.218750
8438,76.171875
8439,78.125000
8440,80.078125
8441,80.078125
8442,82.031250
8443,82.031250
8444,83.984375
8445,85.937500
8446,85.937500
8447,87.890625
8448,87.890625
8449,89.843750
8450,91.796875
8451,91.796875
8452,91.796875
8453,93.750000
8454,93.750000
8455,93.750000
8456,95.703125
8457,95.703125
8458,95.703125
8459,95.703125
8460,97.656250
8461,97.656250
8462,97.656250
8463,97.656250
8464,97.656250
8465,97.656250
8466,99.609375
8467,99.609375
8468,99.609375
8469,99.609375
8470,99.609375
8471,99.609375
8472,99.609375
8473,97.656250
8474,97.656250
8475,97.656250
8476,97.656250
8477,97.656250
8478,97.656250
8479,95.703125
8480,95.703125
8481,97.656250
8482,95.703125
8483,93.750000
8484,93.750000
8485,93.750000
8486,91.796875
8487,91.796875
8488,91.796875
8489,89.843750
8490,87.890625
8491,87.890625
8492,87.890625
8493,85.937500
8494,83.984375
8495,83.984375
8496,82.031250
8497,82.031250
8498,80.078125
8499,78.125000
8500,76.171875
8501,76.171875
8502,74.218750
8503,74.218750
8504,72.265625
8505,70.312500
8506,68.359375
8507,66.406250
8508,66.406250
8509,64.453125
8510,62.500000
8511,58.593750
8512,58.593750
8513,56.640625
8514,54.687500
8515,52.734375
8516,48.828125
8517,46.875000
8518,46.875000
8519,44.921875
8520,41.015625
8521,39.062500
8522,37.109375
8523,35.156250
8524,33.203125
8525,31.250000
8526,29.296875
8527,27.343750
8528,23.437500
8529,21.484375
8530,19.531250
8531,15.625000
8532,13.671875
8533,11.718750
8534,9.765625
8535,7.812500
8536,3.906250
8537,1.953125
8538,0.000000
8539,-3.906250
8540,-5.859375
8541,-7.812500
8542,-11.718750
8543,-13.671875
8544,-15.625000
8545,-19.531250
8546,-21.484375
8547,-23.437500
8548,-27.343750
8549,-29.296875
8550,-31.250000
8551,-33.203125
8552,-37.109375
8553,-39.062500
8554,-41.015625
8555,-42.968750
8556,-46.875000
8557,-48.828125
8558,-50.781250
8559,-54.687500
8560,-56.640625
8561,-58.593750
8562,-60.546875
8563,-62.500000
8564,-66.406250
8565,-68.359375
8566,-70.312500
8567,-72.265625
8568,-74.218750
8569,-76.171875
8570,-78.125000
8571,-80.078125
8572,-83.984375
8573,-83.984375
8574,-87.890625
8575,-87.890625
8576,-89.843750
8577,-91.796875
8578,-95.703125
8579,-95.703125
8580,-97.656250
8581,-99.609375
8582,-101.562500
8583,-103.515625
8584,-103.515625
8585,-105.468750
8586,-107.421875
8587,-109.375000
8588,-109.375000
8589,-111.328125
8590,-113.281250
8591,-113.281250
8592,-115.234375
8593,-115.234375
8594,-117.187500
8595,-119.140625
8596,-119.140625
8597,-119.140625
8598,-121.093750
8599,-121.093750
8600,-123.046875
8601,-123.046875
8602,-123.046875
8603,-123.046875
8604,-125.000000
8605,-125.000000
8606,-125.000000
8607,-125.000000
8608,-125.000000
8609,-125.000000
8610,-125.000000
8611,-125.000000
8612,-125.000000
8613,-125.000000
8614,-125.000000
8615,-125.000000
8616,-125.000000
8617,-123.046875
8618,-123.046875
8619,-123.046875
8620,-123.046875
8621,-121.093750
8622,-121.093750
8623,-121.093750
8624,-119.140625
8625,-119.140625
8626,-119.140625
8627,-117.187500
8628,-115.234375
8629,-115.234375
8630,-113.281250
8631,-111.328125
8632,-111.328125
8633,-109.375000
8634,-107.421875
8635,-107.421875
8636,-105.468750
8637,-103.515625
8638,-103.515625
8639,-99.609375
8640,-99.609375
8641,-95.703125
8642,-95.703125
8643,-93.750000
8644,-91.796875
8645,-89.843750
8646,-87.890625
8647,-85.937500
8648,-83.984375
8649,-82.031250
8650,-80.078125
8651,-78.125000
8652,-76.171875
8653,-74.218750
8654,-70.312500
8655,-68.359375
8656,-66.406250
8657,-64.453125
8658,-62.500000
8659,-60.546875
8660,-56.640625
8661,-54.687500
8662,-52.734375
8663,-50.781250
8664,-46.875000
8665,-44.921875
8666,-42.968750
8667,-41.015625
8668,-37.109375
8669,-35.156250
8670,-33.203125
8671,-31.250000
8672,-27.343750
8673,-25.390625
8674,-23.437500
8675,-19.531250
8676,-17.578125
8677,-15.625000
8678,-11.718750
8679,-9.765625
8680,-7.812500
8681,-5.859375
8682,-1.953125
8683,0.000000
8684,1.953125
8685,3.906250
8686,7.812500
8687,9.765625
8688,11.718750
8689,13.671875
8690,17.578125
8691,19.531250
8692,21.484375
8693,23.437500
8694,27.343750
8695,29.296875
8696,31.250000
8697,33.203125
8698,37.109375
8699,37.109375
8700,41.015625
8701,42.968750
8702,44.921875
8703,46.875000
8704,48.828125
8705,50.781250
8706,52.734375
8707,54.687500
8708,56.640625
8709,58.593750
8710,60.546875
8711,62.500000
8712,64.453125
8713,64.453125
8714,66.406250
8715,68.359375
8716,70.312500
8717,72.265625
8718,74.218750
8719,74.218750
8720,76.171875
8721,78.125000
8722,78.125000
8723,80.078125
8724,82.031250
8725,82.031250
8726,83.984375
8727,85.937500
8728,85.937500
8729,87.890625
8730,87.890625
8731,89.843750
8732,89.843750
8733,89.843750
8734,91.796875
8735,93.750000
8736,93.750000
8737,93.750000
8738,93.750000
8739,95.703125
8740,97.656250
8741,97.656250
8742,97.656250
8743,97.656250
8744,97.656250
8745,97.656250
8746,97.656250
8747,99.609375
8748,97.656250
8749,97.656250
8750,99.609375
8751,99.609375
8752,99.609375
8753,97.656250
8754,97.656250
8755,97.656250
8756,97.656250
8757,99.609375
8758,97.656250
8759,97.656250
8760,97.656250
8761,97.656250
8762,95.703125
8763,97.656250
8764,95.703125
8765,95.703125
8766,93.750000
8767,93.750000
8768,93.750000
8769,91.796875
8770,91.796875
8771,89.843750
8772,89.843750
8773,87.890625
8774,87.890625
8775,85.937500
8776,85.937500
8777,83.984375
8778,83.984375
8779,82.031250
8780,80.078125
8781,80.078125
8782,78.125000
8783,76.171875
8784,74.218750
8785,74.218750
8786,72.265625
8787,70.312500
8788,68.359375
8789,66.406250
8790,64.453125
8791,62.500000
8792,62.500000
8793,60.546875
8794,58.593750
8795,56.640625
8796,54.687500
8797,52.734375
8798,50.781250
8799,48.828125
8800,46.875000
8801,44.921875
8802,41.015625
8803,39.062500
8804,39.062500
8805,35.156250
8806,33.203125
8807,31.250000
8808,29.296875
8809,27.343750
8810,23.437500
8811,21.484375
8812,19.531250
8813,17.578125
8814,13.671875
8815,11.718750
8816,9.765625
8817,7.812500
8818,5.859375
8819,3.906250
8820,0.000000
8821,-1.953125
8822,-3.906250
8823,-7.812500
8824,-9.765625
8825,-13.671875
8826,-13.671875
8827,-17.578125
8828,-21.484375
8829,-23.437500
8830,-25.390625
8831,-27.343750
8832,-29.296875
8833,-33.203125
8834,-35.156250
8835,-39.062500
8836,-41.015625
8837,-42.968750
8838,-44.921875
8839,-46.875000
8840,-50.781250
8841,-52.734375
8842,-54.687500
8843,-56.640625
8844,-60.546875
8845,-62.500000
8846,-64.453125
8847,-66.406250
8848,-70.312500
8849,-70.312500
8850,-72.265625
8851,-76.171875
8852,-78.125000
8853,-80.078125
8854,-82.031250
8855,-83.984375
8856,-85.937500
8857,-87.890625
8858,-89.843750
8859,-91.796875
8860,-93.750000
8861,-95.703125
8862,-97.656250
8863,-99.609375
8864,-101.562500
8865,-103.515625
8866,-103.515625
8867,-105.468750
8868,-107.421875
8869,-107.421875
8870,-109.375000
8871,-111.328125
8872,-113.281250
8873,-113.281250
8874,-115.234375
8875,-115.234375
8876,-117.187500
8877,-117.187500
8878,-119.140625
8879,-119.140625
8880,-121.093750
8881,-121.093750
8882,-123.046875
8883,-123.046875
8884,-123.046875
8885,-123.046875
8886,-123.046875
8887,-125.000000
8888,-125.000000
8889,-125.000000
8890,-125.000000
8891,-125.000000
8892,-125.000000
8893,-125.000000
8894,-125.000000
8895,-125.000000
8896,-125.000000
8897,-125.000000
8898,-125.000000
8899,-123.046875
8900,-123.046875
8901,-123.046875
8902,-123.046875
8903,-121.093750
8904,-121.093750
8905,-121.093750
8906,-119.140625
8907,-119.140625
8908,-117.187500
8909,-117.187500
8910,-115.234375
8911,-115.234375
8912,-113.281250
8913,-113.281250
8914,-111.328125
8915,-109.375000
8916,-109.375000
8917,-107.421875
8918,-105.468750
8919,-103.515625
8920,-103.515625
8921,-101.562500
8922,-99.609375
8923,-97.656250
8924,-95.703125
8925,-95.703125
8926,-93.750000
8927,-89.843750
8928,-87.890625
8929,-85.937500
8930,-85.937500
8931,-82.031250
8932,-80.078125
8933,-78.125000
8934,-76.171875
8935,-74.218750
8936,-72.265625
8937,-70.312500
8938,-68.359375
8939,-64.453125
8940,-62.500000
8941,-60.546875
8942,-58.593750
8943,-56.640625
8944,-54.687500
8945,-50.781250
8946,-48.828125
8947,-46.875000
8948,-42.968750
8949,-41.015625
8950,-39.062500
8951,-35.156250
8952,-33.203125
8953,-31.250000
8954,-29.296875
8955,-25.390625
8956,-23.437500
8957,-21.484375
8958,-17.578125
8959,-15.625000
8960,-13.671875
8961,-9.765625
8962,-7.812500
8963,-5.859375
8964,-3.906250
8965,0.000000
8966,1.953125
8967,3.906250
8968,7.812500
8969,9.765625
8970,11.718750
8971,13.671875
8972,17.578125
8973,19.531250
8974,21.484375
8975,23.437500
8976,25.390625
8977,27.343750
8978,31.250000
8979,33.203125
8980,35.156250
8981,37.109375
8982,39.062500
8983,41.015625
8984,42.968750
8985,44.921875
8986,46.875000
8987,50.781250
8988,50.781250
8989,52.734375
8990,56.640625
8991,56.640625
8992,58.593750
8993,60.546875
8994,62.500000
8995,64.453125
8996,66.406250
8997,68.359375
8998,68.359375
8999,70.312500
9000,72.265625
9001,74.218750
9002,74.218750
9003,76.171875
9004,78.125000
9005,80.078125
9006,82.031250
9007,82.031250
9008,82.031250
9009,83.984375
9010,85.937500
9011,85.937500
9012,87.890625
9013,87.890625
9014,89.843750
9015,89.843750
9016,91.796875
9017,91.796875
9018,91.796875
9019,93.750000
9020,95.703125
9021,95.703125
9022,95.703125
9023,95.703125
9024,95.703125
9025,97.656250
9026,97.656250
9027,97.656250
9028,97.656250
9029,97.656250
9030,99.609375
9031,99.609375
9032,99.609375
9033,99.609375
9034,99.609375
9035,99.609375
9036,99.609375
9037,99.609375
9038,99.609375
9039,97.656250
9040,97.656250
9041,97.656250
9042,97.656250
9043,97.656250
9044,97.656250
9045,95.703125
9046,95.703125
9047,95.703125
9048,93.750000
9049,93.750000
9050,91.796875
9051,91.796875
9052,91.796875
9053,91.796875
9054,89.843750
9055,87.890625
9056,87.890625
9057,85.937500
9058,85.937500
9059,83.984375
9060,82.031250
9061,82.031250
9062,80.078125
9063,80.078125
9064,78.125000
9065,76.171875
9066,74.218750
9067,74.218750
9068,72.265625
9069,70.312500
9070,70.312500
9071,68.359375
9072,66.406250
9073,64.453125
9074,62.500000
9075,60.546875
9076,58.593750
9077,56.640625
9078,54.687500
9079,52.734375
9080,50.781250
9081,48.828125
9082,46.875000
9083,44.921875
9084,42.968750
9085,41.015625
9086,39.062500
9087,37.109375
9088,35.156250
9089,31.250000
9090,29.296875
9091,27.343750
9092,25.390625
9093,23.437500
9094,19.531250
9095,17.578125
9096,15.625000
9097,13.671875
9098,11.718750
9099,9.765625
9100,5.859375
9101,3.906250
9102,1.953125
9103,-1.953125
9104,-3.906250
9105,-5.859375
9106,-9.765625
9107,-11.718750
9108,-13.671875
9109,-17.578125
9110,-19.531250
9111,-21.484375
9112,-25.390625
9113,-27.343750
9114,-29.296875
9115,-33.203125
9116,-33.203125
9117,-37.109375
9118,-39.062500
9119,-41.015625
9120,-44.921875
9121,-46.875000
9122,-48.828125
9123,-52.734375
9124,-54.687500
9125,-56.640625
9126,-58.593750
9127,-62.500000
9128,-64.453125
9129,-66.406250
9130,-68.359375
9131,-70.312500
9132,-72.265625
9133,-76.171875
9134,-78.125000
9135,-80.078125
9136,-82.031250
9137,-83.984375
9138,-85.937500
9139,-89.843750
9140,-89.843750
9141,-91.796875
9142,-93.750000
9143,-95.703125
9144,-97.656250
9145,-97.656250
9146,-97.656250
9147,-101.562500
9148,-103.515625
9149,-105.468750
9150,-105.468750
9151,-107.421875
9152,-109.375000
9153,-111.328125
9154,-111.328125
9155,-111.328125
9156,-113.281250
9157,-115.234375
9158,-117.187500
9159,-117.187500
9160,-117.187500
9161,-119.140625
9162,-121.093750
9163,-121.093750
9164,-121.093750
9165,-121.093750
9166,-123.046875
9167,-123.046875
9168,-123.046875
9169,-125.000000
9170,-125.000000
9171,-125.000000
9172,-125.000000
9173,-125.000000
9174,-125.000000
9175,-125.000000
9176,-125.000000
9177,-125.000000
9178,-125.000000
9179,-125.000000
9180,-125.000000
9181,-125.000000
9182,-125.000000
9183,-123.046875
9184,-123.046875
9185,-121.093750
9186,-123.046875
9187,-121.093750
9188,-121.093750
9189,-119.140625
9190,-119.140625
9191,-119.140625
9192,-117.187500
9193,-115.234375
9194,-115.234375
9195,-113.281250
9196,-111.328125
9197,-111.328125
9198,-109.375000
9199,-107.421875
9200,-107.421875
9201,-105.468750
9202,-103.515625
9203,-101.562500
9204,-101.562500
9205,-97.656250
9206,-95.703125
9207,-93.750000
9208,-91.796875
9209,-91.796875
9210,-89.843750
9211,-87.890625
9212,-83.984375
9213,-83.984375
9214,-80.078125
9215,-80.078125
9216,-76.171875
9217,-74.218750
9218,-72.265625
9219,-70.312500
9220,-68.359375
9221,-66.406250
9222,-62.500000
9223,-60.546875
9224,-58.593750
9225,-56.640625
9226,-54.687500
9227,-52.734375
9228,-48.828125
9229,-46.875000
9230,-44.921875
9231,-42.968750
9232,-39.062500
9233,-37.109375
9234,-33.203125
9235,-31.250000
9236,-31.250000
9237,-27.343750
9238,-23.437500
9239,-21.484375
9240,-19.531250
9241,-15.625000
9242,-13.671875
9243,-11.718750
9244,-9.765625
9245,-5.859375
9246,-3.906250
9247,-1.953125
9248,0.000000
9249,1.953125
9250,5.859375
9251,9.765625
9252,9.765625
9253,13.671875
9254,15.625000
9255,17.578125
9256,19.531250
9257,23.437500
9258,25.390625
9259,27.343750
9260,29.296875
9261,31.250000
9262,35.156250
9263,37.109375
9264,37.109375
9265,41.015625
9266,42.968750
9267,44.921875
9268,46.875000
9269,48.828125
9270,50.781250
9271,52.734375
9272,54.687500
9273,56.640625
9274,58.593750
9275,60.546875
9276,62.500000
9277,64.453125
9278,66.406250
9279,66.406250
9280,68.359375
9281,70.312500
9282,72.265625
9283,74.218750
9284,74.218750
9285,76.171875
9286,78.125000
9287,80.078125
9288,80.078125
9289,82.031250
9290,82.031250
9291,83.984375
9292,85.937500
9293,87.890625
9294,85.937500
9295,87.890625
9296,89.843750
9297,89.843750
9298,91.796875
9299,91.796875
9300,93.750000
9301,93.750000
9302,93.750000
9303,95.703125
9304,95.703125
9305,95.703125
9306,97.656250
9307,95.703125
9308,97.656250
9309,97.656250
9310,97.656250
9311,97.656250
9312,99.609375
9313,99.609375
9314,97.656250
9315,99.609375
9316,99.609375
9317,99.609375
9318,97.656250
9319,99.609375
9320,99.609375
9321,97.656250
9322,97.656250
9323,97.656250
9324,97.656250
9325,95.703125
9326,97.656250
9327,97.656250
9328,95.703125
9329,95.703125
9330,93.750000
9331,93.750000
9332,93.750000
9333,91.796875
9334,91.796875
9335,91.796875
9336,89.843750
9337,89.843750
9338,87.890625
9339,85.937500
9340,85.937500
9341,83.984375
9342,83.984375
9343,83.984375
9344,82.031250
9345,80.078125
9346,80.078125
9347,78.125000
9348,76.171875
9349,74.218750
9350,72.265625
9351,72.265625
9352,70.312500
9353,68.359375
9354,66.406250
9355,64.453125
9356,62.500000
9357,60.546875
9358,58.593750
9359,58.593750
9360,56.640625
9361,54.687500
9362,52.734375
9363,50.781250
9364,46.875000
9365,44.921875
9366,42.968750
9367,41.015625
9368,39.062500
9369,37.109375
9370,35.156250
9371,33.203125
9372,29.296875
9373,27.343750
9374,25.390625
9375,23.437500
9376,21.484375
9377,19.531250
9378,15.625000
9379,13.671875
9380,11.718750
9381,9.765625
9382,5.859375
9383,3.906250
9384,1.953125
9385,0.000000
9386,-3.906250
9387,-5.859375
9388,-7.812500
9389,-11.718750
9390,-13.671875
9391,-15.625000
9392,-19.531250
9393,-21.484375
9394,-23.437500
9395,-25.390625
9396,-29.296875
9397,-31.250000
9398,-33.203125
9399,-37.109375
9400,-39.062500
9401,-41.015625
9402,-44.921875
9403,-46.875000
9404,-48.828125
9405,-50.781250
9406,-54.687500
9407,-56.640625
9408,-58.593750
9409,-60.546875
9410,-62.500000
9411,-66.406250
9412,-68.359375
9413,-70.312500
9414,-72.265625
9415,-74.218750
9416,-76.171875
9417,-78.125000
9418,-80.078125
9419,-82.031250
9420,-85.937500
9421,-87.890625
9422,-87.890625
9423,-89.843750
9424,-91.796875
9425,-93.750000
9426,-95.703125
9427,-97.656250
9428,-99.609375
9429,-101.562500
9430,-101.562500
9431,-105.468750
9432,-105.468750
9433,-107.421875
9434,-109.375000
9435,-111.328125
9436,-111.328125
9437,-113.281250
9438,-113.281250
9439,-115.234375
9440,-115.234375
9441,-117.187500
9442,-117.187500
9443,-119.140625
9444,-119.140625
9445,-121.093750
9446,-121.093750
9447,-123.046875
9448,-123.046875
9449,-123.046875
9450,-123.046875
9451,-125.000000
9452,-125.000000
9453,-125.000000
9454,-125.000000
9455,-125.000000
9456,-125.000000
9457,-125.000000
9458,-125.000000
9459,-125.000000
9460,-125.000000
9461,-125.000000
9462,-125.000000
9463,-125.000000
9464,-123.046875
9465,-123.046875
9466,-123.046875
9467,-123.046875
9468,-123.046875
9469,-121.093750
9470,-119.140625
9471,-119.140625
9472,-119.140625
9473,-117.187500
9474,-117.187500
9475,-115.234375
9476,-115.234375
9477,-113.281250
9478,-111.328125
9479,-109.375000
9480,-109.375000
9481,-109.375000
9482,-107.421875
9483,-105.468750
9484,-103.515625
9485,-101.562500
9486,-101.562500
9487,-99.609375
9488,-97.656250
9489,-95.703125
9490,-93.750000
9491,-91.796875
9492,-89.843750
9493,-87.890625
9494,-85.937500
9495,-83.984375
9496,-82.031250
9497,-80.078125
9498,-78.125000
9499,-76.171875
9500,-72.265625
9501,-72.265625
9502,-68.359375
9503,-66.406250
9504,-64.453125
9505,-62.500000
9506,-60.546875
9507,-56.640625
9508,-54.687500
9509,-52.734375
9510,-48.828125
9511,-48.828125
9512,-44.921875
9513,-42.968750
9514,-41.015625
9515,-37.109375
9516,-35.156250
9517,-33.203125
9518,-31.250000
9519,-29.296875
9520,-25.390625
9521,-21.484375
9522,-19.531250
9523,-17.578125
9524,-15.625000
9525,-11.718750
9526,-9.765625
9527,-5.859375
9528,-5.859375
9529,-1.953125
9530,0.000000
9531,1.953125
9532,5.859375
9533,7.812500
9534,9.765625
9535,13.671875
9536,13.671875
9537,17.578125
9538,19.531250
9539,21.484375
9540,23.437500
9541,27.343750
9542,29.296875
9543,31.250000
9544,35.156250
9545,35.156250
9546,39.062500
9547,41.015625
9548,41.015625
9549,44.921875
9550,46.875000
9551,48.828125
9552,50.781250
9553,52.734375
9554,54.687500
9555,56.640625
9556,58.593750
9557,60.546875
9558,60.546875
9559,62.500000
9560,64.453125
9561,68.359375
9562,68.359375
9563,70.312500
9564,70.312500
9565,74.218750
9566,74.218750
9567,76.171875
9568,78.125000
9569,78.125000
9570,80.078125
9571,82.031250
9572,82.031250
9573,83.984375
9574,85.937500
9575,85.937500
9576,87.890625
9577,87.890625
9578,89.843750
9579,89.843750
9580,89.843750
9581,91.796875
9582,91.796875
9583,93.750000
9584,93.750000
9585,95.703125
9586,93.750000
9587,95.703125
9588,95.703125
9589,95.703125
9590,97.656250
9591,97.656250
9592,97.656250
9593,97.656250
9594,97.656250
9595,97.656250
9596,99.609375
9597,99.609375
9598,99.609375
9599,99.609375
9600,99.609375
9601,99.609375
9602,99.609375
9603,97.656250
9604,97.656250
9605,97.656250
9606,97.656250
9607,97.656250
9608,97.656250
9609,97.656250
9610,95.703125
9611,95.703125
9612,95.703125
9613,93.750000
9614,93.750000
9615,93.750000
9616,91.796875
9617,91.796875
9618,89.843750
9619,89.843750
9620,87.890625
9621,87.890625
9622,85.937500
9623,85.937500
9624,83.984375
9625,83.984375
9626,82.031250
9627,80.078125
9628,80.078125
9629,78.125000
9630,76.171875
9631,74.218750
9632,74.218750
9633,72.265625
9634,70.312500
9635,68.359375
9636,66.406250
9637,66.406250
9638,62.500000
9639,60.546875
9640,60.546875
9641,58.593750
9642,56.640625
9643,54.687500
9644,52.734375
9645,50.781250
9646,48.828125
9647,46.875000
9648,44.921875
9649,41.015625
9650,41.015625
9651,37.109375
9652,35.156250
9653,33.203125
9654,31.250000
9655,29.296875
9656,27.343750
9657,25.390625
9658,21.484375
9659,19.531250
9660,17.578125
9661,15.625000
9662,11.718750
9663,9.765625
9664,7.812500
9665,3.906250
9666,3.906250
9667,0.000000
9668,-1.953125
9669,-3.906250
9670,-7.812500
9671,-9.765625
9672,-11.718750
9673,-13.671875
9674,-17.578125
9675,-19.531250
9676,-21.484375
9677,-25.390625
9678,-27.343750
9679,-29.296875
9680,-33.203125
9681,-35.156250
9682,-37.109375
9683,-39.062500
9684,-42.968750
9685,-44.921875
9686,-46.875000
9687,-50.781250
9688,-52.734375
9689,-54.687500
9690,-58.593750
9691,-60.546875
9692,-62.500000
9693,-64.453125
9694,-66.406250
9695,-68.359375
9696,-72.265625
9697,-74.218750
9698,-74.218750
9699,-78.125000
9700,-80.078125
9701,-82.031250
9702,-83.984375
9703,-85.937500
9704,-87.890625
9705,-89.843750
9706,-91.796875
9707,-93.750000
9708,-95.703125
9709,-97.656250
9710,-99.609375
9711,-99.609375
9712,-101.562500
9713,-103.515625
9714,-105.468750
9715,-107.421875
9716,-107.421875
9717,-109.375000
9718,-111.328125
9719,-113.281250
9720,-113.281250
9721,-115.234375
9722,-115.234375
9723,-117.187500
9724,-117.187500
9725,-119.140625
9726,-119.140625
9727,-119.140625
9728,-121.093750
9729,-121.093750
9730,-123.046875
9731,-123.046875
9732,-123.046875
9733,-123.046875
9734,-125.000000
9735,-125.000000
9736,-125.000000
9737,-125.000000
9738,-125.000000
9739,-125.000000
9740,-125.000000
9741,-125.000000
9742,-125.000000
9743,-125.000000
9744,-125.000000
9745,-123.046875
9746,-123.046875
9747,-123.046875
9748,-123.046875
9749,-123.046875
9750,-123.046875
9751,-121.093750
9752,-121.093750
9753,-119.140625
9754,-119.140625
9755,-119.140625
9756,-117.187500
9757,-115.234375
9758,-115.234375
9759,-113.281250
9760,-113.281250
9761,-109.375000
9762,-109.375000
9763,-109.375000
9764,-107.421875
9765,-105.468750
9766,-105.468750
9767,-103.515625
9768,-99.609375
9769,-99.609375
9770,-97.656250
9771,-97.656250
9772,-95.703125
9773,-93.750000
9774,-89.843750
9775,-87.890625
9776,-87.890625
9777,-85.937500
9778,-82.031250
9779,-80.078125
9780,-80.078125
9781,-76.171875
9782,-74.218750
9783,-72.265625
9784,-70.312500
9785,-68.359375
9786,-66.406250
9787,-64.453125
9788,-60.546875
9789,-58.593750
9790,-56.640625
9791,-52.734375
9792,-52.734375
9793,-48.828125
9794,-46.875000
9795,-42.968750
9796,-41.015625
9797,-39.062500
9798,-35.156250
9799,-33.203125
9800,-31.250000
9801,-29.296875
9802,-27.343750
9803,-23.437500
9804,-21.484375
9805,-17.578125
9806,-15.625000
9807,-13.671875
9808,-11.718750
9809,-7.812500
9810,-5.859375
9811,-3.906250
9812,0.000000
9813,1.953125
9814,3.906250
9815,7.812500
9816,9.765625
9817,11.718750
9818,13.671875
9819,15.625000
9820,19.531250
9821,21.484375
9822,25.390625
9823,25.390625
9824,27.343750
9825,31.250000
9826,33.203125
9827,35.156250
9828,37.109375
9829,39.062500
9830,42.968750
9831,42.968750
9832,44.921875
9833,46.875000
9834,48.828125
9835,50.781250
9836,54.687500
9837,54.687500
9838,56.640625
9839,58.593750
9840,60.546875
9841,62.500000
9842,64.453125
9843,64.453125
9844,68.359375
9845,68.359375
9846,72.265625
9847,72.265625
9848,74.218750
9849,74.218750
9850,76.171875
9851,78.125000
9852,80.078125
9853,80.078125
9854,82.031250
9855,83.984375
9856,85.937500
9857,85.937500
9858,85.937500
9859,87.890625
9860,89.843750
9861,89.843750
9862,89.843750
9863,91.796875
9864,93.750000
9865,93.750000
9866,93.750000
9867,93.750000
9868,95.703125
9869,95.703125
9870,95.703125
9871,97.656250
9872,97.656250
9873,97.656250
9874,97.656250
9875,99.609375
9876,99.609375
9877,99.609375
9878,99.609375
9879,99.609375
9880,99.609375
9881,97.656250
9882,99.609375
9883,97.656250
9884,99.609375
9885,99.609375
9886,97.656250
9887,99.609375
9888,97.656250
9889,97.656250
9890,97.656250
9891,95.703125
9892,95.703125
9893,95.703125
9894,95.703125
9895,93.750000
9896,93.750000
9897,93.750000
9898,91.796875
9899,91.796875
9900,89.843750
9901,89.843750
9902,89.843750
9903,87.890625
9904,85.937500
9905,85.937500
9906,83.984375
9907,83.984375
9908,82.031250
9909,82.031250
9910,78.125000
9911,80.078125
9912,76.171875
9913,76.171875
9914,72.265625
9915,72.265625
9916,70.312500
9917,66.406250
9918,72.265625
9919,66.406250
9920,64.453125
9921,62.500000
9922,58.593750
9923,60.546875
9924,56.640625
9925,54.687500
9926,52.734375
9927,50.781250
9928,48.828125
9929,46.875000
9930,46.875000
9931,42.968750
9932,41.015625
9933,39.062500
9934,37.109375
9935,35.156250
9936,31.250000
9937,29.296875
9938,29.296875
9939,25.390625
9940,23.437500
9941,21.484375
9942,17.578125
9943,15.625000
9944,13.671875
9945,9.765625
9946,7.812500
9947,5.859375
9948,3.906250
9949,1.953125
9950,-1.953125
9951,-3.906250
9952,-7.812500
9953,-9.765625
9954,-11.718750
9955,-13.671875
9956,-15.625000
9957,-19.531250
9958,-21.484375
9959,-23.437500
9960,-27.343750
9961,-29.296875
9962,-33.203125
9963,-35.156250
9964,-37.109375
9965,-39.062500
9966,-42.968750
9967,-44.921875
9968,-50.781250
9969,-48.828125
9970,-50.781250
9971,-54.687500
9972,-56.640625
9973,-58.593750
9974,-60.546875
9975,-62.500000
9976,-66.406250
9977,-68.359375
9978,-72.265625
9979,-72.265625
9980,-74.218750
9981,-76.171875
9982,-78.125000
9983,-82.031250
9984,-83.984375
9985,-85.937500
9986,-87.890625
9987,-89.843750
9988,-91.796875
9989,-93.750000
9990,-95.703125
9991,-97.656250
9992,-97.656250
9993,-99.609375
9994,-101.562500
9995,-103.515625
9996,-105.468750
9997,-105.468750
9998,-107.421875
9999,-109.375000
10000,-111.328125
