Channel              :,CH1
Frequency            :,1.771kHz
Period               :,0.565ms
PK-PK                :,39.06mV
Probe attenuation    :,1X
Voltage per ADC value:,0.122070mV
Time interval        :,2.00000us

index,CH1_Voltage(mV)
1,11.718750
2,11.718750
3,9.765625
4,9.765625
5,9.765625
6,9.765625
7,11.718750
8,9.765625
9,11.718750
10,9.765625
11,11.718750
12,9.765625
13,11.718750
14,11.718750
15,11.718750
16,11.718750
17,11.718750
18,11.718750
19,11.718750
20,11.718750
21,11.718750
22,11.718750
23,9.765625
24,9.765625
25,11.718750
26,11.718750
27,11.718750
28,9.765625
29,9.765625
30,9.765625
31,9.765625
32,9.765625
33,9.765625
34,9.765625
35,9.765625
36,9.765625
37,9.765625
38,9.765625
39,7.812500
40,7.812500
41,9.765625
42,7.812500
43,7.812500
44,7.812500
45,7.812500
46,7.812500
47,7.812500
48,7.812500
49,7.812500
50,7.812500
51,5.859375
52,5.859375
53,5.859375
54,5.859375
55,5.859375
56,5.859375
57,5.859375
58,3.906250
59,3.906250
60,3.906250
61,3.906250
62,1.953125
63,1.953125
64,3.906250
65,1.953125
66,1.953125
67,1.953125
68,1.953125
69,1.953125
70,0.000000
71,0.000000
72,0.000000
73,0.000000
74,-1.953125
75,-1.953125
76,-1.953125
77,-1.953125
78,-1.953125
79,-3.906250
80,-3.906250
81,-3.906250
82,-3.906250
83,-3.906250
84,-5.859375
85,-5.859375
86,-5.859375
87,-5.859375
88,-5.859375
89,-7.812500
90,-7.812500
91,-7.812500
92,-7.812500
93,-9.765625
94,-9.765625
95,-9.765625
96,-9.765625
97,-9.765625
98,-9.765625
99,-9.765625
100,-11.718750
101,-11.718750
102,-11.718750
103,-11.718750
104,-11.718750
105,-13.671875
106,-13.671875
107,-13.671875
108,-13.671875
109,-13.671875
110,-15.625000
111,-15.625000
112,-15.625000
113,-15.625000
114,-15.625000
115,-15.625000
116,-15.625000
117,-17.578125
118,-17.578125
119,-17.578125
120,-17.578125
121,-19.531250
122,-17.578125
123,-19.531250
124,-17.578125
125,-17.578125
126,-19.531250
127,-19.531250
128,-19.531250
129,-19.531250
130,-21.484375
131,-21.484375
132,-21.484375
133,-21.484375
134,-21.484375
135,-21.484375
136,-21.484375
137,-21.484375
138,-21.484375
139,-21.484375
140,-21.484375
141,-21.484375
142,-23.437500
143,-23.437500
144,-23.437500
145,-23.437500
146,-23.437500
147,-23.437500
148,-23.437500
149,-23.437500
150,-23.437500
151,-23.437500
152,-23.437500
153,-23.437500
154,-23.437500
155,-23.437500
156,-23.437500
157,-23.437500
158,-23.437500
159,-23.437500
160,-23.437500
161,-23.437500
162,-23.437500
163,-23.437500
164,-23.437500
165,-23.437500
166,-23.437500
167,-23.437500
168,-23.437500
169,-21.484375
170,-23.437500
171,-21.484375
172,-21.484375
173,-23.437500
174,-21.484375
175,-21.484375
176,-21.484375
177,-21.484375
178,-21.484375
179,-21.484375
180,-19.531250
181,-19.531250
182,-21.484375
183,-19.531250
184,-19.531250
185,-19.531250
186,-19.531250
187,-19.531250
188,-17.578125
189,-17.578125
190,-19.531250
191,-17.578125
192,-17.578125
193,-17.578125
194,-17.578125
195,-17.578125
196,-15.625000
197,-17.578125
198,-15.625000
199,-15.625000
200,-15.625000
201,-15.625000
202,-15.625000
203,-13.671875
204,-13.671875
205,-13.671875
206,-13.671875
207,-13.671875
208,-13.671875
209,-13.671875
210,-11.718750
211,-11.718750
212,-11.718750
213,-11.718750
214,-9.765625
215,-9.765625
216,-9.765625
217,-9.765625
218,-9.765625
219,-9.765625
220,-7.812500
221,-7.812500
222,-7.812500
223,-5.859375
224,-7.812500
225,-7.812500
226,-5.859375
227,-5.859375
228,-5.859375
229,-5.859375
230,-5.859375
231,-3.906250
232,-3.906250
233,-3.906250
234,-3.906250
235,-1.953125
236,-1.953125
237,-1.953125
238,0.000000
239,0.000000
240,0.000000
241,0.000000
242,0.000000
243,0.000000
244,0.000000
245,1.953125
246,1.953125
247,1.953125
248,1.953125
249,1.953125
250,1.953125
251,1.953125
252,1.953125
253,3.906250
254,3.906250
255,3.906250
256,3.906250
257,3.906250
258,5.859375
259,5.859375
260,5.859375
261,5.859375
262,5.859375
263,5.859375
264,5.859375
265,7.812500
266,7.812500
267,7.812500
268,7.812500
269,7.812500
270,7.812500
271,7.812500
272,7.812500
273,9.765625
274,7.812500
275,9.765625
276,9.765625
277,9.765625
278,9.765625
279,9.765625
280,9.765625
281,9.765625
282,9.765625
283,9.765625
284,9.765625
285,9.765625
286,9.765625
287,9.765625
288,11.718750
289,9.765625
290,9.765625
291,11.718750
292,9.765625
293,11.718750
294,9.765625
295,9.765625
296,11.718750
297,11.718750
298,11.718750
299,11.718750
300,11.718750
301,11.718750
302,11.718750
303,11.718750
304,9.765625
305,11.718750
306,11.718750
307,11.718750
308,9.765625
309,11.718750
310,9.765625
311,9.765625
312,11.718750
313,9.765625
314,9.765625
315,9.765625
316,9.765625
317,9.765625
318,9.765625
319,9.765625
320,9.765625
321,9.765625
322,9.765625
323,7.812500
324,7.812500
325,9.765625
326,7.812500
327,7.812500
328,7.812500
329,7.812500
330,7.812500
331,7.812500
332,5.859375
333,5.859375
334,5.859375
335,5.859375
336,5.859375
337,5.859375
338,5.859375
339,3.906250
340,3.906250
341,3.906250
342,3.906250
343,1.953125
344,1.953125
345,1.953125
346,1.953125
347,1.953125
348,1.953125
349,0.000000
350,1.953125
351,0.000000
352,0.000000
353,0.000000
354,0.000000
355,-1.953125
356,-1.953125
357,-1.953125
358,-1.953125
359,-1.953125
360,-1.953125
361,-3.906250
362,-3.906250
363,-3.906250
364,-3.906250
365,-3.906250
366,-3.906250
367,-5.859375
368,-5.859375
369,-5.859375
370,-5.859375
371,-5.859375
372,-7.812500
373,-7.812500
374,-7.812500
375,-7.812500
376,-7.812500
377,-9.765625
378,-9.765625
379,-9.765625
380,-9.765625
381,-9.765625
382,-11.718750
383,-11.718750
384,-11.718750
385,-11.718750
386,-11.718750
387,-11.718750
388,-13.671875
389,-13.671875
390,-13.671875
391,-13.671875
392,-15.625000
393,-15.625000
394,-15.625000
395,-15.625000
396,-15.625000
397,-15.625000
398,-15.625000
399,-17.578125
400,-17.578125
401,-17.578125
402,-17.578125
403,-17.578125
404,-19.531250
405,-19.531250
406,-17.578125
407,-19.531250
408,-19.531250
409,-19.531250
410,-19.531250
411,-19.531250
412,-21.484375
413,-21.484375
414,-21.484375
415,-21.484375
416,-21.484375
417,-21.484375
418,-21.484375
419,-21.484375
420,-21.484375
421,-21.484375
422,-21.484375
423,-23.437500
424,-21.484375
425,-23.437500
426,-23.437500
427,-21.484375
428,-23.437500
429,-23.437500
430,-23.437500
431,-23.437500
432,-23.437500
433,-23.437500
434,-23.437500
435,-23.437500
436,-23.437500
437,-23.437500
438,-23.437500
439,-23.437500
440,-23.437500
441,-23.437500
442,-23.437500
443,-23.437500
444,-23.437500
445,-23.437500
446,-23.437500
447,-23.437500
448,-21.484375
449,-21.484375
450,-21.484375
451,-23.437500
452,-23.437500
453,-21.484375
454,-21.484375
455,-21.484375
456,-21.484375
457,-21.484375
458,-21.484375
459,-21.484375
460,-21.484375
461,-21.484375
462,-21.484375
463,-21.484375
464,-19.531250
465,-19.531250
466,-19.531250
467,-19.531250
468,-21.484375
469,-19.531250
470,-19.531250
471,-19.531250
472,-19.531250
473,-17.578125
474,-17.578125
475,-17.578125
476,-17.578125
477,-17.578125
478,-17.578125
479,-15.625000
480,-15.625000
481,-15.625000
482,-15.625000
483,-15.625000
484,-15.625000
485,-15.625000
486,-13.671875
487,-13.671875
488,-13.671875
489,-13.671875
490,-13.671875
491,-11.718750
492,-11.718750
493,-11.718750
494,-11.718750
495,-11.718750
496,-9.765625
497,-9.765625
498,-9.765625
499,-9.765625
500,-9.765625
501,-9.765625
502,-7.812500
503,-7.812500
504,-7.812500
505,-7.812500
506,-7.812500
507,-5.859375
508,-5.859375
509,-5.859375
510,-3.906250
511,-5.859375
512,-3.906250
513,-3.906250
514,-3.906250
515,-3.906250
516,-3.906250
517,-3.906250
518,-1.953125
519,0.000000
520,-1.953125
521,-1.953125
522,-1.953125
523,0.000000
524,0.000000
525,0.000000
526,0.000000
527,0.000000
528,0.000000
529,0.000000
530,1.953125
531,1.953125
532,1.953125
533,1.953125
534,1.953125
535,3.906250
536,3.906250
537,3.906250
538,3.906250
539,3.906250
540,3.906250
541,5.859375
542,3.906250
543,5.859375
544,5.859375
545,5.859375
546,5.859375
547,5.859375
548,7.812500
549,5.859375
550,7.812500
551,7.812500
552,7.812500
553,7.812500
554,7.812500
555,7.812500
556,7.812500
557,9.765625
558,9.765625
559,9.765625
560,9.765625
561,9.765625
562,9.765625
563,9.765625
564,9.765625
565,9.765625
566,9.765625
567,9.765625
568,9.765625
569,9.765625
570,11.718750
571,9.765625
572,9.765625
573,9.765625
574,11.718750
575,11.718750
576,11.718750
577,11.718750
578,11.718750
579,11.718750
580,11.718750
581,11.718750
582,11.718750
583,11.718750
584,9.765625
585,11.718750
586,11.718750
587,11.718750
588,11.718750
589,11.718750
590,9.765625
591,9.765625
592,9.765625
593,9.765625
594,9.765625
595,9.765625
596,9.765625
597,9.765625
598,9.765625
599,9.765625
600,9.765625
601,9.765625
602,9.765625
603,9.765625
604,7.812500
605,7.812500
606,7.812500
607,7.812500
608,7.812500
609,7.812500
610,7.812500
611,7.812500
612,7.812500
613,5.859375
614,5.859375
615,5.859375
616,5.859375
617,5.859375
618,5.859375
619,5.859375
620,5.859375
621,3.906250
622,3.906250
623,3.906250
624,3.906250
625,3.906250
626,3.906250
627,3.906250
628,1.953125
629,1.953125
630,1.953125
631,1.953125
632,1.953125
633,1.953125
634,0.000000
635,0.000000
636,0.000000
637,0.000000
638,-1.953125
639,-1.953125
640,-1.953125
641,-1.953125
642,-1.953125
643,-3.906250
644,-3.906250
645,-3.906250
646,-3.906250
647,-3.906250
648,-5.859375
649,-5.859375
650,-5.859375
651,-5.859375
652,-7.812500
653,-5.859375
654,-5.859375
655,-7.812500
656,-7.812500
657,-7.812500
658,-9.765625
659,-9.765625
660,-9.765625
661,-9.765625
662,-9.765625
663,-11.718750
664,-9.765625
665,-11.718750
666,-11.718750
667,-11.718750
668,-11.718750
669,-11.718750
670,-13.671875
671,-13.671875
672,-13.671875
673,-13.671875
674,-13.671875
675,-15.625000
676,-15.625000
677,-15.625000
678,-15.625000
679,-15.625000
680,-17.578125
681,-17.578125
682,-17.578125
683,-17.578125
684,-17.578125
685,-19.531250
686,-17.578125
687,-19.531250
688,-19.531250
689,-19.531250
690,-19.531250
691,-17.578125
692,-19.531250
693,-19.531250
694,-19.531250
695,-19.531250
696,-21.484375
697,-21.484375
698,-21.484375
699,-21.484375
700,-21.484375
701,-21.484375
702,-21.484375
703,-21.484375
704,-21.484375
705,-21.484375
706,-23.437500
707,-21.484375
708,-23.437500
709,-21.484375
710,-23.437500
711,-21.484375
712,-23.437500
713,-23.437500
714,-23.437500
715,-23.437500
716,-23.437500
717,-23.437500
718,-23.437500
719,-23.437500
720,-23.437500
721,-23.437500
722,-23.437500
723,-23.437500
724,-23.437500
725,-23.437500
726,-23.437500
727,-23.437500
728,-23.437500
729,-23.437500
730,-23.437500
731,-23.437500
732,-21.484375
733,-23.437500
734,-21.484375
735,-21.484375
736,-21.484375
737,-23.437500
738,-21.484375
739,-21.484375
740,-21.484375
741,-21.484375
742,-21.484375
743,-21.484375
744,-21.484375
745,-21.484375
746,-21.484375
747,-21.484375
748,-19.531250
749,-19.531250
750,-19.531250
751,-19.531250
752,-19.531250
753,-19.531250
754,-17.578125
755,-19.531250
756,-17.578125
757,-17.578125
758,-17.578125
759,-17.578125
760,-17.578125
761,-15.625000
762,-15.625000
763,-15.625000
764,-15.625000
765,-15.625000
766,-13.671875
767,-15.625000
768,-15.625000
769,-13.671875
770,-13.671875
771,-13.671875
772,-13.671875
773,-11.718750
774,-13.671875
775,-11.718750
776,-11.718750
777,-11.718750
778,-11.718750
779,-9.765625
780,-9.765625
781,-9.765625
782,-9.765625
783,-9.765625
784,-9.765625
785,-7.812500
786,-7.812500
787,-7.812500
788,-7.812500
789,-5.859375
790,-5.859375
791,-5.859375
792,-5.859375
793,-5.859375
794,-5.859375
795,-3.906250
796,-3.906250
797,-3.906250
798,-3.906250
799,-1.953125
800,-3.906250
801,-1.953125
802,-1.953125
803,-1.953125
804,0.000000
805,0.000000
806,0.000000
807,0.000000
808,0.000000
809,0.000000
810,1.953125
811,1.953125
812,1.953125
813,1.953125
814,1.953125
815,1.953125
816,3.906250
817,3.906250
818,3.906250
819,3.906250
820,3.906250
821,3.906250
822,3.906250
823,5.859375
824,5.859375
825,5.859375
826,5.859375
827,7.812500
828,5.859375
829,7.812500
830,7.812500
831,7.812500
832,7.812500
833,7.812500
834,7.812500
835,7.812500
836,9.765625
837,7.812500
838,7.812500
839,9.765625
840,9.765625
841,9.765625
842,9.765625
843,9.765625
844,9.765625
845,9.765625
846,9.765625
847,9.765625
848,9.765625
849,9.765625
850,9.765625
851,11.718750
852,11.718750
853,9.765625
854,11.718750
855,11.718750
856,11.718750
857,11.718750
858,9.765625
859,11.718750
860,11.718750
861,11.718750
862,11.718750
863,11.718750
864,11.718750
865,9.765625
866,11.718750
867,11.718750
868,9.765625
869,11.718750
870,9.765625
871,9.765625
872,9.765625
873,9.765625
874,9.765625
875,9.765625
876,9.765625
877,9.765625
878,9.765625
879,9.765625
880,9.765625
881,9.765625
882,9.765625
883,9.765625
884,9.765625
885,9.765625
886,9.765625
887,9.765625
888,7.812500
889,7.812500
890,9.765625
891,7.812500
892,7.812500
893,7.812500
894,7.812500
895,7.812500
896,5.859375
897,5.859375
898,5.859375
899,5.859375
900,5.859375
901,5.859375
902,3.906250
903,5.859375
904,3.906250
905,3.906250
906,3.906250
907,3.906250
908,5.859375
909,1.953125
910,1.953125
911,3.906250
912,1.953125
913,1.953125
914,1.953125
915,1.953125
916,0.000000
917,0.000000
918,0.000000
919,0.000000
920,-1.953125
921,-1.953125
922,-1.953125
923,-1.953125
924,-1.953125
925,-3.906250
926,-3.906250
927,-3.906250
928,-3.906250
929,-3.906250
930,-5.859375
931,-5.859375
932,-5.859375
933,-5.859375
934,-5.859375
935,-7.812500
936,-7.812500
937,-7.812500
938,-7.812500
939,-7.812500
940,-7.812500
941,-9.765625
942,-9.765625
943,-9.765625
944,-11.718750
945,-9.765625
946,-9.765625
947,-11.718750
948,-11.718750
949,-11.718750
950,-13.671875
951,-11.718750
952,-13.671875
953,-13.671875
954,-13.671875
955,-13.671875
956,-15.625000
957,-13.671875
958,-15.625000
959,-15.625000
960,-15.625000
961,-15.625000
962,-15.625000
963,-15.625000
964,-15.625000
965,-17.578125
966,-17.578125
967,-17.578125
968,-17.578125
969,-17.578125
970,-17.578125
971,-19.531250
972,-19.531250
973,-19.531250
974,-19.531250
975,-19.531250
976,-19.531250
977,-19.531250
978,-21.484375
979,-21.484375
980,-19.531250
981,-21.484375
982,-21.484375
983,-21.484375
984,-21.484375
985,-21.484375
986,-21.484375
987,-21.484375
988,-21.484375
989,-23.437500
990,-23.437500
991,-23.437500
992,-23.437500
993,-23.437500
994,-23.437500
995,-23.437500
996,-23.437500
997,-23.437500
998,-23.437500
999,-23.437500
1000,-23.437500
1001,-23.437500
1002,-23.437500
1003,-23.437500
1004,-23.437500
1005,-23.437500
1006,-23.437500
1007,-23.437500
1008,-23.437500
1009,-23.437500
1010,-23.437500
1011,-21.484375
1012,-23.437500
1013,-23.437500
1014,-21.484375
1015,-21.484375
1016,-23.437500
1017,-21.484375
1018,-21.484375
1019,-21.484375
1020,-23.437500
1021,-21.484375
1022,-21.484375
1023,-21.484375
1024,-21.484375
1025,-21.484375
1026,-19.531250
1027,-21.484375
1028,-21.484375
1029,-19.531250
1030,-19.531250
1031,-19.531250
1032,-19.531250
1033,-19.531250
1034,-19.531250
1035,-19.531250
1036,-19.531250
1037,-17.578125
1038,-17.578125
1039,-17.578125
1040,-17.578125
1041,-17.578125
1042,-17.578125
1043,-15.625000
1044,-17.578125
1045,-15.625000
1046,-15.625000
1047,-15.625000
1048,-15.625000
1049,-15.625000
1050,-15.625000
1051,-13.671875
1052,-13.671875
1053,-13.671875
1054,-13.671875
1055,-11.718750
1056,-13.671875
1057,-11.718750
1058,-11.718750
1059,-11.718750
1060,-11.718750
1061,-9.765625
1062,-9.765625
1063,-9.765625
1064,-9.765625
1065,-7.812500
1066,-7.812500
1067,-7.812500
1068,-7.812500
1069,-7.812500
1070,-5.859375
1071,-7.812500
1072,-5.859375
1073,-7.812500
1074,-5.859375
1075,-5.859375
1076,-5.859375
1077,-3.906250
1078,-3.906250
1079,-3.906250
1080,-1.953125
1081,-1.953125
1082,-1.953125
1083,-1.953125
1084,-1.953125
1085,-1.953125
1086,0.000000
1087,0.000000
1088,0.000000
1089,0.000000
1090,0.000000
1091,0.000000
1092,0.000000
1093,1.953125
1094,1.953125
1095,1.953125
1096,1.953125
1097,1.953125
1098,3.906250
1099,1.953125
1100,1.953125
1101,3.906250
1102,3.906250
1103,3.906250
1104,3.906250
1105,5.859375
1106,3.906250
1107,5.859375
1108,5.859375
1109,5.859375
1110,5.859375
1111,5.859375
1112,7.812500
1113,5.859375
1114,5.859375
1115,7.812500
1116,7.812500
1117,7.812500
1118,7.812500
1119,7.812500
1120,9.765625
1121,7.812500
1122,9.765625
1123,7.812500
1124,9.765625
1125,9.765625
1126,9.765625
1127,9.765625
1128,9.765625
1129,9.765625
1130,9.765625
1131,9.765625
1132,9.765625
1133,9.765625
1134,11.718750
1135,9.765625
1136,9.765625
1137,9.765625
1138,11.718750
1139,11.718750
1140,9.765625
1141,11.718750
1142,11.718750
1143,11.718750
1144,11.718750
1145,11.718750
1146,11.718750
1147,11.718750
1148,11.718750
1149,11.718750
1150,11.718750
1151,11.718750
1152,9.765625
1153,11.718750
1154,11.718750
1155,9.765625
1156,9.765625
1157,9.765625
1158,9.765625
1159,9.765625
1160,9.765625
1161,9.765625
1162,9.765625
1163,9.765625
1164,9.765625
1165,9.765625
1166,9.765625
1167,9.765625
1168,9.765625
1169,7.812500
1170,7.812500
1171,7.812500
1172,7.812500
1173,7.812500
1174,7.812500
1175,7.812500
1176,7.812500
1177,5.859375
1178,5.859375
1179,5.859375
1180,5.859375
1181,5.859375
1182,5.859375
1183,5.859375
1184,5.859375
1185,5.859375
1186,3.906250
1187,3.906250
1188,3.906250
1189,3.906250
1190,3.906250
1191,1.953125
1192,1.953125
1193,1.953125
1194,1.953125
1195,1.953125
1196,1.953125
1197,1.953125
1198,0.000000
1199,0.000000
1200,0.000000
1201,0.000000
1202,-1.953125
1203,-1.953125
1204,-1.953125
1205,-1.953125
1206,-1.953125
1207,-3.906250
1208,-3.906250
1209,-3.906250
1210,-3.906250
1211,-3.906250
1212,-3.906250
1213,-5.859375
1214,-3.906250
1215,-5.859375
1216,-5.859375
1217,-5.859375
1218,-7.812500
1219,-5.859375
1220,-7.812500
1221,-7.812500
1222,-7.812500
1223,-7.812500
1224,-9.765625
1225,-9.765625
1226,-9.765625
1227,-9.765625
1228,-11.718750
1229,-11.718750
1230,-11.718750
1231,-11.718750
1232,-11.718750
1233,-13.671875
1234,-13.671875
1235,-13.671875
1236,-13.671875
1237,-13.671875
1238,-13.671875
1239,-15.625000
1240,-15.625000
1241,-15.625000
1242,-15.625000
1243,-15.625000
1244,-15.625000
1245,-17.578125
1246,-17.578125
1247,-17.578125
1248,-17.578125
1249,-17.578125
1250,-17.578125
1251,-19.531250
1252,-19.531250
1253,-19.531250
1254,-19.531250
1255,-19.531250
1256,-19.531250
1257,-19.531250
1258,-21.484375
1259,-19.531250
1260,-21.484375
1261,-21.484375
1262,-21.484375
1263,-21.484375
1264,-21.484375
1265,-21.484375
1266,-21.484375
1267,-21.484375
1268,-21.484375
1269,-21.484375
1270,-21.484375
1271,-21.484375
1272,-23.437500
1273,-23.437500
1274,-23.437500
1275,-23.437500
1276,-23.437500
1277,-23.437500
1278,-23.437500
1279,-23.437500
1280,-23.437500
1281,-23.437500
1282,-23.437500
1283,-23.437500
1284,-23.437500
1285,-23.437500
1286,-23.437500
1287,-23.437500
1288,-23.437500
1289,-23.437500
1290,-23.437500
1291,-23.437500
1292,-23.437500
1293,-23.437500
1294,-23.437500
1295,-23.437500
1296,-23.437500
1297,-23.437500
1298,-23.437500
1299,-23.437500
1300,-21.484375
1301,-23.437500
1302,-23.437500
1303,-21.484375
1304,-23.437500
1305,-21.484375
1306,-21.484375
1307,-21.484375
1308,-21.484375
1309,-21.484375
1310,-21.484375
1311,-21.484375
1312,-21.484375
1313,-19.531250
1314,-19.531250
1315,-19.531250
1316,-19.531250
1317,-19.531250
1318,-19.531250
1319,-19.531250
1320,-17.578125
1321,-17.578125
1322,-17.578125
1323,-17.578125
1324,-17.578125
1325,-17.578125
1326,-17.578125
1327,-15.625000
1328,-17.578125
1329,-15.625000
1330,-15.625000
1331,-15.625000
1332,-15.625000
1333,-15.625000
1334,-13.671875
1335,-13.671875
1336,-13.671875
1337,-11.718750
1338,-11.718750
1339,-11.718750
1340,-11.718750
1341,-9.765625
1342,-11.718750
1343,-11.718750
1344,-9.765625
1345,-9.765625
1346,-9.765625
1347,-9.765625
1348,-9.765625
1349,-7.812500
1350,-7.812500
1351,-7.812500
1352,-5.859375
1353,-7.812500
1354,-5.859375
1355,-5.859375
1356,-5.859375
1357,-5.859375
1358,-3.906250
1359,-3.906250
1360,-3.906250
1361,-3.906250
1362,-3.906250
1363,-1.953125
1364,-3.906250
1365,-1.953125
1366,-1.953125
1367,-1.953125
1368,-1.953125
1369,0.000000
1370,-1.953125
1371,0.000000
1372,0.000000
1373,0.000000
1374,0.000000
1375,0.000000
1376,1.953125
1377,1.953125
1378,1.953125
1379,1.953125
1380,3.906250
1381,1.953125
1382,3.906250
1383,3.906250
1384,3.906250
1385,3.906250
1386,3.906250
1387,3.906250
1388,5.859375
1389,5.859375
1390,5.859375
1391,5.859375
1392,5.859375
1393,5.859375
1394,5.859375
1395,7.812500
1396,7.812500
1397,7.812500
1398,7.812500
1399,7.812500
1400,7.812500
1401,7.812500
1402,9.765625
1403,9.765625
1404,7.812500
1405,9.765625
1406,9.765625
1407,9.765625
1408,9.765625
1409,9.765625
1410,9.765625
1411,9.765625
1412,9.765625
1413,9.765625
1414,9.765625
1415,11.718750
1416,11.718750
1417,9.765625
1418,9.765625
1419,11.718750
1420,11.718750
1421,11.718750
1422,11.718750
1423,11.718750
1424,11.718750
1425,11.718750
1426,9.765625
1427,9.765625
1428,11.718750
1429,11.718750
1430,11.718750
1431,11.718750
1432,11.718750
1433,11.718750
1434,9.765625
1435,9.765625
1436,11.718750
1437,9.765625
1438,9.765625
1439,9.765625
1440,9.765625
1441,9.765625
1442,9.765625
1443,9.765625
1444,9.765625
1445,9.765625
1446,9.765625
1447,9.765625
1448,9.765625
1449,7.812500
1450,9.765625
1451,7.812500
1452,7.812500
1453,7.812500
1454,7.812500
1455,7.812500
1456,7.812500
1457,7.812500
1458,7.812500
1459,7.812500
1460,5.859375
1461,7.812500
1462,5.859375
1463,5.859375
1464,5.859375
1465,5.859375
1466,5.859375
1467,5.859375
1468,3.906250
1469,5.859375
1470,3.906250
1471,3.906250
1472,3.906250
1473,3.906250
1474,3.906250
1475,1.953125
1476,1.953125
1477,1.953125
1478,1.953125
1479,1.953125
1480,0.000000
1481,0.000000
1482,0.000000
1483,0.000000
1484,0.000000
1485,0.000000
1486,-1.953125
1487,-1.953125
1488,-1.953125
1489,-1.953125
1490,-1.953125
1491,-3.906250
1492,-3.906250
1493,-3.906250
1494,-5.859375
1495,-3.906250
1496,-3.906250
1497,-5.859375
1498,-5.859375
1499,-7.812500
1500,-5.859375
1501,-7.812500
1502,-5.859375
1503,-7.812500
1504,-9.765625
1505,-9.765625
1506,-9.765625
1507,-9.765625
1508,-9.765625
1509,-9.765625
1510,-11.718750
1511,-11.718750
1512,-11.718750
1513,-11.718750
1514,-11.718750
1515,-11.718750
1516,-13.671875
1517,-13.671875
1518,-13.671875
1519,-13.671875
1520,-13.671875
1521,-13.671875
1522,-15.625000
1523,-15.625000
1524,-15.625000
1525,-15.625000
1526,-17.578125
1527,-15.625000
1528,-15.625000
1529,-17.578125
1530,-17.578125
1531,-17.578125
1532,-17.578125
1533,-17.578125
1534,-17.578125
1535,-19.531250
1536,-19.531250
1537,-19.531250
1538,-19.531250
1539,-19.531250
1540,-19.531250
1541,-19.531250
1542,-19.531250
1543,-21.484375
1544,-21.484375
1545,-21.484375
1546,-21.484375
1547,-21.484375
1548,-21.484375
1549,-21.484375
1550,-21.484375
1551,-21.484375
1552,-21.484375
1553,-21.484375
1554,-21.484375
1555,-23.437500
1556,-23.437500
1557,-23.437500
1558,-23.437500
1559,-23.437500
1560,-23.437500
1561,-23.437500
1562,-23.437500
1563,-23.437500
1564,-23.437500
1565,-23.437500
1566,-23.437500
1567,-23.437500
1568,-23.437500
1569,-23.437500
1570,-23.437500
1571,-23.437500
1572,-23.437500
1573,-23.437500
1574,-23.437500
1575,-23.437500
1576,-23.437500
1577,-23.437500
1578,-23.437500
1579,-25.390625
1580,-23.437500
1581,-23.437500
1582,-23.437500
1583,-21.484375
1584,-23.437500
1585,-21.484375
1586,-21.484375
1587,-21.484375
1588,-21.484375
1589,-21.484375
1590,-21.484375
1591,-21.484375
1592,-21.484375
1593,-19.531250
1594,-19.531250
1595,-19.531250
1596,-19.531250
1597,-19.531250
1598,-19.531250
1599,-19.531250
1600,-17.578125
1601,-19.531250
1602,-17.578125
1603,-17.578125
1604,-17.578125
1605,-17.578125
1606,-17.578125
1607,-17.578125
1608,-17.578125
1609,-15.625000
1610,-15.625000
1611,-15.625000
1612,-15.625000
1613,-13.671875
1614,-15.625000
1615,-13.671875
1616,-13.671875
1617,-13.671875
1618,-13.671875
1619,-13.671875
1620,-13.671875
1621,-11.718750
1622,-11.718750
1623,-11.718750
1624,-11.718750
1625,-9.765625
1626,-9.765625
1627,-11.718750
1628,-9.765625
1629,-9.765625
1630,-9.765625
1631,-7.812500
1632,-7.812500
1633,-7.812500
1634,-7.812500
1635,-7.812500
1636,-5.859375
1637,-5.859375
1638,-5.859375
1639,-5.859375
1640,-5.859375
1641,-5.859375
1642,-3.906250
1643,-3.906250
1644,-3.906250
1645,-3.906250
1646,-3.906250
1647,-5.859375
1648,-1.953125
1649,-1.953125
1650,-1.953125
1651,-1.953125
1652,-1.953125
1653,0.000000
1654,0.000000
1655,0.000000
1656,0.000000
1657,0.000000
1658,1.953125
1659,1.953125
1660,1.953125
1661,1.953125
1662,1.953125
1663,1.953125
1664,3.906250
1665,3.906250
1666,3.906250
1667,3.906250
1668,3.906250
1669,3.906250
1670,5.859375
1671,5.859375
1672,5.859375
1673,5.859375
1674,5.859375
1675,5.859375
1676,5.859375
1677,7.812500
1678,7.812500
1679,7.812500
1680,7.812500
1681,7.812500
1682,7.812500
1683,7.812500
1684,9.765625
1685,7.812500
1686,7.812500
1687,9.765625
1688,9.765625
1689,9.765625
1690,9.765625
1691,9.765625
1692,9.765625
1693,9.765625
1694,9.765625
1695,11.718750
1696,9.765625
1697,9.765625
1698,9.765625
1699,9.765625
1700,9.765625
1701,9.765625
1702,9.765625
1703,11.718750
1704,11.718750
1705,11.718750
1706,9.765625
1707,9.765625
1708,11.718750
1709,11.718750
1710,9.765625
1711,11.718750
1712,11.718750
1713,11.718750
1714,9.765625
1715,9.765625
1716,11.718750
1717,9.765625
1718,9.765625
1719,11.718750
1720,11.718750
1721,9.765625
1722,11.718750
1723,11.718750
1724,9.765625
1725,9.765625
1726,9.765625
1727,9.765625
1728,9.765625
1729,9.765625
1730,9.765625
1731,9.765625
1732,9.765625
1733,9.765625
1734,7.812500
1735,9.765625
1736,7.812500
1737,7.812500
1738,7.812500
1739,7.812500
1740,7.812500
1741,7.812500
1742,5.859375
1743,5.859375
1744,5.859375
1745,7.812500
1746,5.859375
1747,5.859375
1748,5.859375
1749,5.859375
1750,3.906250
1751,3.906250
1752,3.906250
1753,3.906250
1754,3.906250
1755,3.906250
1756,3.906250
1757,3.906250
1758,1.953125
1759,1.953125
1760,1.953125
1761,0.000000
1762,0.000000
1763,0.000000
1764,0.000000
1765,0.000000
1766,0.000000
1767,0.000000
1768,-1.953125
1769,-1.953125
1770,-1.953125
1771,-1.953125
1772,-3.906250
1773,-3.906250
1774,-3.906250
1775,-3.906250
1776,-3.906250
1777,-3.906250
1778,-5.859375
1779,-5.859375
1780,-5.859375
1781,-5.859375
1782,-5.859375
1783,-5.859375
1784,-7.812500
1785,-7.812500
1786,-7.812500
1787,-7.812500
1788,-9.765625
1789,-9.765625
1790,-9.765625
1791,-9.765625
1792,-9.765625
1793,-9.765625
1794,-11.718750
1795,-11.718750
1796,-11.718750
1797,-11.718750
1798,-13.671875
1799,-13.671875
1800,-13.671875
1801,-13.671875
1802,-13.671875
1803,-13.671875
1804,-15.625000
1805,-15.625000
1806,-15.625000
1807,-15.625000
1808,-15.625000
1809,-15.625000
1810,-17.578125
1811,-17.578125
1812,-17.578125
1813,-17.578125
1814,-17.578125
1815,-17.578125
1816,-17.578125
1817,-19.531250
1818,-19.531250
1819,-19.531250
1820,-19.531250
1821,-19.531250
1822,-19.531250
1823,-21.484375
1824,-19.531250
1825,-21.484375
1826,-21.484375
1827,-21.484375
1828,-21.484375
1829,-23.437500
1830,-21.484375
1831,-21.484375
1832,-23.437500
1833,-21.484375
1834,-21.484375
1835,-23.437500
1836,-23.437500
1837,-21.484375
1838,-23.437500
1839,-23.437500
1840,-23.437500
1841,-23.437500
1842,-23.437500
1843,-23.437500
1844,-23.437500
1845,-23.437500
1846,-23.437500
1847,-23.437500
1848,-23.437500
1849,-23.437500
1850,-23.437500
1851,-23.437500
1852,-23.437500
1853,-23.437500
1854,-23.437500
1855,-23.437500
1856,-23.437500
1857,-23.437500
1858,-21.484375
1859,-23.437500
1860,-23.437500
1861,-21.484375
1862,-23.437500
1863,-23.437500
1864,-21.484375
1865,-21.484375
1866,-21.484375
1867,-21.484375
1868,-21.484375
1869,-21.484375
1870,-21.484375
1871,-21.484375
1872,-21.484375
1873,-21.484375
1874,-21.484375
1875,-19.531250
1876,-21.484375
1877,-19.531250
1878,-19.531250
1879,-19.531250
1880,-19.531250
1881,-19.531250
1882,-19.531250
1883,-19.531250
1884,-17.578125
1885,-19.531250
1886,-17.578125
1887,-17.578125
1888,-17.578125
1889,-17.578125
1890,-17.578125
1891,-15.625000
1892,-15.625000
1893,-15.625000
1894,-15.625000
1895,-15.625000
1896,-15.625000
1897,-15.625000
1898,-13.671875
1899,-13.671875
1900,-13.671875
1901,-13.671875
1902,-11.718750
1903,-13.671875
1904,-11.718750
1905,-11.718750
1906,-11.718750
1907,-11.718750
1908,-9.765625
1909,-9.765625
1910,-9.765625
1911,-9.765625
1912,-9.765625
1913,-9.765625
1914,-7.812500
1915,-7.812500
1916,-7.812500
1917,-7.812500
1918,-5.859375
1919,-5.859375
1920,-5.859375
1921,-5.859375
1922,-5.859375
1923,-3.906250
1924,-3.906250
1925,-3.906250
1926,-3.906250
1927,-3.906250
1928,-3.906250
1929,-1.953125
1930,-1.953125
1931,-1.953125
1932,-1.953125
1933,0.000000
1934,-1.953125
1935,0.000000
1936,0.000000
1937,0.000000
1938,0.000000
1939,0.000000
1940,1.953125
1941,1.953125
1942,1.953125
1943,1.953125
1944,1.953125
1945,1.953125
1946,3.906250
1947,3.906250
1948,3.906250
1949,3.906250
1950,3.906250
1951,3.906250
1952,3.906250
1953,5.859375
1954,5.859375
1955,5.859375
1956,5.859375
1957,5.859375
1958,5.859375
1959,7.812500
1960,5.859375
1961,7.812500
1962,7.812500
1963,7.812500
1964,7.812500
1965,7.812500
1966,7.812500
1967,7.812500
1968,7.812500
1969,9.765625
1970,9.765625
1971,9.765625
1972,9.765625
1973,9.765625
1974,9.765625
1975,9.765625
1976,9.765625
1977,9.765625
1978,11.718750
1979,9.765625
1980,11.718750
1981,11.718750
1982,11.718750
1983,11.718750
1984,11.718750
1985,11.718750
1986,11.718750
1987,11.718750
1988,11.718750
1989,11.718750
1990,11.718750
1991,11.718750
1992,11.718750
1993,11.718750
1994,11.718750
1995,11.718750
1996,11.718750
1997,11.718750
1998,11.718750
1999,11.718750
2000,11.718750
2001,11.718750
2002,11.718750
2003,9.765625
2004,9.765625
2005,11.718750
2006,9.765625
2007,9.765625
2008,9.765625
2009,9.765625
2010,9.765625
2011,9.765625
2012,9.765625
2013,9.765625
2014,9.765625
2015,7.812500
2016,7.812500
2017,9.765625
2018,7.812500
2019,7.812500
2020,7.812500
2021,7.812500
2022,7.812500
2023,7.812500
2024,5.859375
2025,5.859375
2026,5.859375
2027,5.859375
2028,5.859375
2029,5.859375
2030,3.906250
2031,3.906250
2032,3.906250
2033,3.906250
2034,3.906250
2035,3.906250
2036,3.906250
2037,3.906250
2038,3.906250
2039,1.953125
2040,1.953125
2041,1.953125
2042,1.953125
2043,1.953125
2044,1.953125
2045,0.000000
2046,0.000000
2047,0.000000
2048,0.000000
2049,0.000000
2050,0.000000
2051,0.000000
2052,-1.953125
2053,-1.953125
2054,-1.953125
2055,-1.953125
2056,-3.906250
2057,-3.906250
2058,-3.906250
2059,-3.906250
2060,-3.906250
2061,-5.859375
2062,-5.859375
2063,-5.859375
2064,-5.859375
2065,-5.859375
2066,-5.859375
2067,-7.812500
2068,-7.812500
2069,-7.812500
2070,-7.812500
2071,-9.765625
2072,-9.765625
2073,-9.765625
2074,-9.765625
2075,-9.765625
2076,-11.718750
2077,-11.718750
2078,-11.718750
2079,-11.718750
2080,-11.718750
2081,-13.671875
2082,-13.671875
2083,-13.671875
2084,-13.671875
2085,-13.671875
2086,-15.625000
2087,-15.625000
2088,-15.625000
2089,-15.625000
2090,-15.625000
2091,-17.578125
2092,-17.578125
2093,-17.578125
2094,-17.578125
2095,-17.578125
2096,-19.531250
2097,-17.578125
2098,-17.578125
2099,-19.531250
2100,-19.531250
2101,-19.531250
2102,-19.531250
2103,-19.531250
2104,-19.531250
2105,-19.531250
2106,-19.531250
2107,-21.484375
2108,-21.484375
2109,-21.484375
2110,-21.484375
2111,-21.484375
2112,-21.484375
2113,-21.484375
2114,-21.484375
2115,-21.484375
2116,-21.484375
2117,-21.484375
2118,-21.484375
2119,-21.484375
2120,-23.437500
2121,-23.437500
2122,-23.437500
2123,-21.484375
2124,-23.437500
2125,-23.437500
2126,-23.437500
2127,-23.437500
2128,-23.437500
2129,-23.437500
2130,-23.437500
2131,-23.437500
2132,-23.437500
2133,-23.437500
2134,-23.437500
2135,-23.437500
2136,-23.437500
2137,-23.437500
2138,-23.437500
2139,-23.437500
2140,-23.437500
2141,-23.437500
2142,-23.437500
2143,-23.437500
2144,-23.437500
2145,-23.437500
2146,-23.437500
2147,-21.484375
2148,-21.484375
2149,-21.484375
2150,-21.484375
2151,-21.484375
2152,-21.484375
2153,-21.484375
2154,-21.484375
2155,-21.484375
2156,-21.484375
2157,-19.531250
2158,-21.484375
2159,-19.531250
2160,-19.531250
2161,-21.484375
2162,-19.531250
2163,-19.531250
2164,-19.531250
2165,-19.531250
2166,-17.578125
2167,-17.578125
2168,-17.578125
2169,-17.578125
2170,-17.578125
2171,-17.578125
2172,-17.578125
2173,-15.625000
2174,-15.625000
2175,-15.625000
2176,-15.625000
2177,-15.625000
2178,-15.625000
2179,-13.671875
2180,-13.671875
2181,-13.671875
2182,-13.671875
2183,-13.671875
2184,-11.718750
2185,-11.718750
2186,-11.718750
2187,-11.718750
2188,-11.718750
2189,-9.765625
2190,-9.765625
2191,-9.765625
2192,-9.765625
2193,-9.765625
2194,-7.812500
2195,-7.812500
2196,-9.765625
2197,-7.812500
2198,-7.812500
2199,-7.812500
2200,-5.859375
2201,-5.859375
2202,-5.859375
2203,-5.859375
2204,-3.906250
2205,-5.859375
2206,-3.906250
2207,-3.906250
2208,-3.906250
2209,-3.906250
2210,-1.953125
2211,-1.953125
2212,-1.953125
2213,-1.953125
2214,-1.953125
2215,-1.953125
2216,-1.953125
2217,-1.953125
2218,0.000000
2219,0.000000
2220,0.000000
2221,0.000000
2222,1.953125
2223,1.953125
2224,1.953125
2225,0.000000
2226,1.953125
2227,1.953125
2228,3.906250
2229,3.906250
2230,3.906250
2231,3.906250
2232,3.906250
2233,5.859375
2234,5.859375
2235,5.859375
2236,5.859375
2237,5.859375
2238,5.859375
2239,5.859375
2240,7.812500
2241,5.859375
2242,7.812500
2243,7.812500
2244,7.812500
2245,7.812500
2246,7.812500
2247,7.812500
2248,7.812500
2249,9.765625
2250,9.765625
2251,9.765625
2252,9.765625
2253,9.765625
2254,9.765625
2255,9.765625
2256,9.765625
2257,9.765625
2258,9.765625
2259,9.765625
2260,9.765625
2261,11.718750
2262,11.718750
2263,9.765625
2264,11.718750
2265,9.765625
2266,11.718750
2267,11.718750
2268,11.718750
2269,11.718750
2270,11.718750
2271,11.718750
2272,11.718750
2273,9.765625
2274,9.765625
2275,11.718750
2276,11.718750
2277,9.765625
2278,11.718750
2279,9.765625
2280,11.718750
2281,9.765625
2282,9.765625
2283,9.765625
2284,9.765625
2285,9.765625
2286,9.765625
2287,9.765625
2288,9.765625
2289,9.765625
2290,9.765625
2291,9.765625
2292,9.765625
2293,9.765625
2294,9.765625
2295,9.765625
2296,7.812500
2297,9.765625
2298,7.812500
2299,9.765625
2300,7.812500
2301,7.812500
2302,7.812500
2303,7.812500
2304,7.812500
2305,7.812500
2306,7.812500
2307,7.812500
2308,5.859375
2309,5.859375
2310,5.859375
2311,5.859375
2312,5.859375
2313,5.859375
2314,5.859375
2315,3.906250
2316,3.906250
2317,3.906250
2318,3.906250
2319,3.906250
2320,3.906250
2321,3.906250
2322,1.953125
2323,1.953125
2324,1.953125
2325,1.953125
2326,1.953125
2327,0.000000
2328,0.000000
2329,0.000000
2330,0.000000
2331,0.000000
2332,0.000000
2333,-1.953125
2334,-1.953125
2335,-1.953125
2336,-1.953125
2337,-1.953125
2338,-3.906250
2339,-3.906250
2340,-3.906250
2341,-3.906250
2342,-3.906250
2343,-5.859375
2344,-5.859375
2345,-5.859375
2346,-5.859375
2347,-7.812500
2348,-5.859375
2349,-7.812500
2350,-7.812500
2351,-7.812500
2352,-7.812500
2353,-9.765625
2354,-9.765625
2355,-9.765625
2356,-11.718750
2357,-9.765625
2358,-9.765625
2359,-11.718750
2360,-11.718750
2361,-11.718750
2362,-13.671875
2363,-13.671875
2364,-11.718750
2365,-13.671875
2366,-13.671875
2367,-13.671875
2368,-13.671875
2369,-13.671875
2370,-15.625000
2371,-15.625000
2372,-15.625000
2373,-15.625000
2374,-15.625000
2375,-15.625000
2376,-17.578125
2377,-17.578125
2378,-17.578125
2379,-17.578125
2380,-17.578125
2381,-17.578125
2382,-17.578125
2383,-19.531250
2384,-19.531250
2385,-19.531250
2386,-19.531250
2387,-19.531250
2388,-19.531250
2389,-21.484375
2390,-23.437500
2391,-21.484375
2392,-19.531250
2393,-21.484375
2394,-21.484375
2395,-21.484375
2396,-21.484375
2397,-21.484375
2398,-21.484375
2399,-21.484375
2400,-21.484375
2401,-23.437500
2402,-21.484375
2403,-23.437500
2404,-23.437500
2405,-23.437500
2406,-23.437500
2407,-23.437500
2408,-23.437500
2409,-23.437500
2410,-23.437500
2411,-23.437500
2412,-25.390625
2413,-23.437500
2414,-23.437500
2415,-23.437500
2416,-23.437500
2417,-23.437500
2418,-23.437500
2419,-23.437500
2420,-23.437500
2421,-23.437500
2422,-23.437500
2423,-23.437500
2424,-25.390625
2425,-21.484375
2426,-23.437500
2427,-23.437500
2428,-21.484375
2429,-21.484375
2430,-21.484375
2431,-21.484375
2432,-21.484375
2433,-21.484375
2434,-21.484375
2435,-21.484375
2436,-21.484375
2437,-21.484375
2438,-21.484375
2439,-21.484375
2440,-21.484375
2441,-19.531250
2442,-19.531250
2443,-19.531250
2444,-19.531250
2445,-19.531250
2446,-19.531250
2447,-19.531250
2448,-17.578125
2449,-17.578125
2450,-17.578125
2451,-19.531250
2452,-17.578125
2453,-17.578125
2454,-17.578125
2455,-17.578125
2456,-15.625000
2457,-15.625000
2458,-17.578125
2459,-15.625000
2460,-15.625000
2461,-17.578125
2462,-13.671875
2463,-13.671875
2464,-13.671875
2465,-13.671875
2466,-13.671875
2467,-11.718750
2468,-11.718750
2469,-11.718750
2470,-11.718750
2471,-11.718750
2472,-9.765625
2473,-9.765625
2474,-9.765625
2475,-9.765625
2476,-9.765625
2477,-9.765625
2478,-7.812500
2479,-7.812500
2480,-7.812500
2481,-7.812500
2482,-7.812500
2483,-5.859375
2484,-5.859375
2485,-5.859375
2486,-5.859375
2487,-5.859375
2488,-3.906250
2489,-3.906250
2490,-3.906250
2491,-3.906250
2492,-3.906250
2493,-1.953125
2494,-1.953125
2495,-1.953125
2496,-1.953125
2497,-1.953125
2498,0.000000
2499,0.000000
2500,0.000000
2501,0.000000
2502,0.000000
2503,0.000000
2504,0.000000
2505,1.953125
2506,1.953125
2507,1.953125
2508,3.906250
2509,1.953125
2510,1.953125
2511,3.906250
2512,3.906250
2513,3.906250
2514,3.906250
2515,3.906250
2516,5.859375
2517,3.906250
2518,5.859375
2519,5.859375
2520,5.859375
2521,5.859375
2522,5.859375
2523,5.859375
2524,5.859375
2525,7.812500
2526,7.812500
2527,7.812500
2528,7.812500
2529,7.812500
2530,7.812500
2531,7.812500
2532,7.812500
2533,7.812500
2534,9.765625
2535,9.765625
2536,9.765625
2537,7.812500
2538,9.765625
2539,9.765625
2540,9.765625
2541,9.765625
2542,9.765625
2543,9.765625
2544,9.765625
2545,9.765625
2546,9.765625
2547,11.718750
2548,11.718750
2549,11.718750
2550,11.718750
2551,9.765625
2552,9.765625
2553,9.765625
2554,9.765625
2555,11.718750
2556,11.718750
2557,9.765625
2558,11.718750
2559,11.718750
2560,11.718750
2561,11.718750
2562,11.718750
2563,11.718750
2564,11.718750
2565,11.718750
2566,9.765625
2567,9.765625
2568,9.765625
2569,9.765625
2570,9.765625
2571,9.765625
2572,9.765625
2573,9.765625
2574,9.765625
2575,9.765625
2576,9.765625
2577,9.765625
2578,9.765625
2579,9.765625
2580,9.765625
2581,9.765625
2582,7.812500
2583,7.812500
2584,7.812500
2585,7.812500
2586,9.765625
2587,7.812500
2588,7.812500
2589,7.812500
2590,7.812500
2591,5.859375
2592,5.859375
2593,5.859375
2594,5.859375
2595,3.906250
2596,5.859375
2597,5.859375
2598,3.906250
2599,3.906250
2600,3.906250
2601,3.906250
2602,3.906250
2603,1.953125
2604,1.953125
2605,1.953125
2606,1.953125
2607,1.953125
2608,1.953125
2609,0.000000
2610,0.000000
2611,0.000000
2612,0.000000
2613,0.000000
2614,0.000000
2615,0.000000
2616,-1.953125
2617,-1.953125
2618,-1.953125
2619,-1.953125
2620,-3.906250
2621,-3.906250
2622,-3.906250
2623,-3.906250
2624,-3.906250
2625,-5.859375
2626,-5.859375
2627,-5.859375
2628,-5.859375
2629,-7.812500
2630,-5.859375
2631,-5.859375
2632,-7.812500
2633,-7.812500
2634,-9.765625
2635,-9.765625
2636,-7.812500
2637,-9.765625
2638,-9.765625
2639,-9.765625
2640,-9.765625
2641,-11.718750
2642,-11.718750
2643,-11.718750
2644,-11.718750
2645,-13.671875
2646,-13.671875
2647,-13.671875
2648,-15.625000
2649,-13.671875
2650,-13.671875
2651,-13.671875
2652,-13.671875
2653,-13.671875
2654,-15.625000
2655,-15.625000
2656,-15.625000
2657,-17.578125
2658,-17.578125
2659,-17.578125
2660,-17.578125
2661,-17.578125
2662,-17.578125
2663,-17.578125
2664,-21.484375
2665,-19.531250
2666,-19.531250
2667,-19.531250
2668,-21.484375
2669,-19.531250
2670,-19.531250
2671,-21.484375
2672,-21.484375
2673,-21.484375
2674,-21.484375
2675,-21.484375
2676,-21.484375
2677,-21.484375
2678,-21.484375
2679,-21.484375
2680,-23.437500
2681,-21.484375
2682,-21.484375
2683,-23.437500
2684,-23.437500
2685,-23.437500
2686,-23.437500
2687,-23.437500
2688,-23.437500
2689,-23.437500
2690,-23.437500
2691,-23.437500
2692,-23.437500
2693,-21.484375
2694,-23.437500
2695,-23.437500
2696,-23.437500
2697,-25.390625
2698,-23.437500
2699,-23.437500
2700,-23.437500
2701,-23.437500
2702,-23.437500
2703,-23.437500
2704,-23.437500
2705,-23.437500
2706,-23.437500
2707,-23.437500
2708,-23.437500
2709,-21.484375
2710,-23.437500
2711,-21.484375
2712,-21.484375
2713,-21.484375
2714,-21.484375
2715,-21.484375
2716,-21.484375
2717,-21.484375
2718,-21.484375
2719,-21.484375
2720,-21.484375
2721,-21.484375
2722,-19.531250
2723,-19.531250
2724,-19.531250
2725,-19.531250
2726,-19.531250
2727,-19.531250
2728,-19.531250
2729,-19.531250
2730,-19.531250
2731,-19.531250
2732,-19.531250
2733,-17.578125
2734,-17.578125
2735,-17.578125
2736,-17.578125
2737,-17.578125
2738,-15.625000
2739,-15.625000
2740,-15.625000
2741,-15.625000
2742,-15.625000
2743,-15.625000
2744,-15.625000
2745,-13.671875
2746,-13.671875
2747,-15.625000
2748,-13.671875
2749,-11.718750
2750,-13.671875
2751,-11.718750
2752,-11.718750
2753,-11.718750
2754,-9.765625
2755,-9.765625
2756,-9.765625
2757,-9.765625
2758,-9.765625
2759,-9.765625
2760,-7.812500
2761,-7.812500
2762,-7.812500
2763,-7.812500
2764,-7.812500
2765,-5.859375
2766,-5.859375
2767,-5.859375
2768,-5.859375
2769,-5.859375
2770,-5.859375
2771,-3.906250
2772,-3.906250
2773,-3.906250
2774,-3.906250
2775,-1.953125
2776,-1.953125
2777,-1.953125
2778,-1.953125
2779,-1.953125
2780,0.000000
2781,0.000000
2782,0.000000
2783,0.000000
2784,0.000000
2785,0.000000
2786,0.000000
2787,0.000000
2788,1.953125
2789,1.953125
2790,1.953125
2791,1.953125
2792,1.953125
2793,3.906250
2794,3.906250
2795,3.906250
2796,3.906250
2797,3.906250
2798,3.906250
2799,3.906250
2800,5.859375
2801,5.859375
2802,5.859375
2803,5.859375
2804,5.859375
2805,5.859375
2806,5.859375
2807,7.812500
2808,7.812500
2809,7.812500
2810,7.812500
2811,7.812500
2812,7.812500
2813,7.812500
2814,7.812500
2815,9.765625
2816,7.812500
2817,9.765625
2818,9.765625
2819,9.765625
2820,9.765625
2821,9.765625
2822,11.718750
2823,9.765625
2824,9.765625
2825,9.765625
2826,11.718750
2827,9.765625
2828,11.718750
2829,11.718750
2830,9.765625
2831,11.718750
2832,11.718750
2833,9.765625
2834,11.718750
2835,11.718750
2836,11.718750
2837,9.765625
2838,11.718750
2839,11.718750
2840,11.718750
2841,11.718750
2842,11.718750
2843,11.718750
2844,9.765625
2845,11.718750
2846,11.718750
2847,9.765625
2848,9.765625
2849,11.718750
2850,9.765625
2851,9.765625
2852,9.765625
2853,9.765625
2854,9.765625
2855,13.671875
2856,9.765625
2857,9.765625
2858,9.765625
2859,9.765625
2860,9.765625
2861,7.812500
2862,9.765625
2863,7.812500
2864,7.812500
2865,7.812500
2866,7.812500
2867,7.812500
2868,7.812500
2869,5.859375
2870,7.812500
2871,7.812500
2872,5.859375
2873,5.859375
2874,5.859375
2875,5.859375
2876,5.859375
2877,5.859375
2878,5.859375
2879,3.906250
2880,5.859375
2881,3.906250
2882,3.906250
2883,3.906250
2884,3.906250
2885,1.953125
2886,1.953125
2887,1.953125
2888,1.953125
2889,1.953125
2890,1.953125
2891,0.000000
2892,0.000000
2893,1.953125
2894,0.000000
2895,0.000000
2896,0.000000
2897,-1.953125
2898,-1.953125
2899,-1.953125
2900,-1.953125
2901,-1.953125
2902,-1.953125
2903,-1.953125
2904,-3.906250
2905,-3.906250
2906,-3.906250
2907,-3.906250
2908,-5.859375
2909,-5.859375
2910,-5.859375
2911,-5.859375
2912,-5.859375
2913,-7.812500
2914,-7.812500
2915,-7.812500
2916,-7.812500
2917,-9.765625
2918,-9.765625
2919,-9.765625
2920,-9.765625
2921,-9.765625
2922,-11.718750
2923,-11.718750
2924,-11.718750
2925,-11.718750
2926,-11.718750
2927,-11.718750
2928,-13.671875
2929,-13.671875
2930,-13.671875
2931,-15.625000
2932,-15.625000
2933,-13.671875
2934,-15.625000
2935,-15.625000
2936,-15.625000
2937,-15.625000
2938,-15.625000
2939,-17.578125
2940,-17.578125
2941,-17.578125
2942,-17.578125
2943,-17.578125
2944,-17.578125
2945,-17.578125
2946,-19.531250
2947,-19.531250
2948,-19.531250
2949,-19.531250
2950,-19.531250
2951,-19.531250
2952,-19.531250
2953,-19.531250
2954,-21.484375
2955,-19.531250
2956,-21.484375
2957,-21.484375
2958,-21.484375
2959,-21.484375
2960,-21.484375
2961,-21.484375
2962,-21.484375
2963,-23.437500
2964,-21.484375
2965,-21.484375
2966,-21.484375
2967,-21.484375
2968,-21.484375
2969,-23.437500
2970,-23.437500
2971,-23.437500
2972,-23.437500
2973,-23.437500
2974,-23.437500
2975,-23.437500
2976,-23.437500
2977,-23.437500
2978,-23.437500
2979,-23.437500
2980,-23.437500
2981,-23.437500
2982,-23.437500
2983,-23.437500
2984,-23.437500
2985,-23.437500
2986,-23.437500
2987,-23.437500
2988,-23.437500
2989,-23.437500
2990,-23.437500
2991,-23.437500
2992,-21.484375
2993,-23.437500
2994,-23.437500
2995,-21.484375
2996,-23.437500
2997,-23.437500
2998,-21.484375
2999,-21.484375
3000,-21.484375
3001,-21.484375
3002,-21.484375
3003,-21.484375
3004,-21.484375
3005,-21.484375
3006,-21.484375
3007,-19.531250
3008,-19.531250
3009,-19.531250
3010,-19.531250
3011,-17.578125
3012,-19.531250
3013,-17.578125
3014,-19.531250
3015,-17.578125
3016,-17.578125
3017,-17.578125
3018,-17.578125
3019,-17.578125
3020,-17.578125
3021,-15.625000
3022,-15.625000
3023,-15.625000
3024,-15.625000
3025,-15.625000
3026,-13.671875
3027,-13.671875
3028,-13.671875
3029,-13.671875
3030,-13.671875
3031,-11.718750
3032,-13.671875
3033,-13.671875
3034,-11.718750
3035,-11.718750
3036,-11.718750
3037,-11.718750
3038,-9.765625
3039,-9.765625
3040,-11.718750
3041,-9.765625
3042,-9.765625
3043,-7.812500
3044,-7.812500
3045,-7.812500
3046,-7.812500
3047,-5.859375
3048,-5.859375
3049,-5.859375
3050,-5.859375
3051,-5.859375
3052,-5.859375
3053,-5.859375
3054,-5.859375
3055,-3.906250
3056,-3.906250
3057,-3.906250
3058,-3.906250
3059,-1.953125
3060,-1.953125
3061,-1.953125
3062,-1.953125
3063,-1.953125
3064,0.000000
3065,0.000000
3066,0.000000
3067,0.000000
3068,0.000000
3069,1.953125
3070,1.953125
3071,1.953125
3072,1.953125
3073,1.953125
3074,1.953125
3075,3.906250
3076,3.906250
3077,3.906250
3078,3.906250
3079,3.906250
3080,3.906250
3081,3.906250
3082,5.859375
3083,5.859375
3084,5.859375
3085,5.859375
3086,5.859375
3087,5.859375
3088,5.859375
3089,7.812500
3090,7.812500
3091,7.812500
3092,7.812500
3093,7.812500
3094,7.812500
3095,7.812500
3096,7.812500
3097,9.765625
3098,9.765625
3099,9.765625
3100,7.812500
3101,9.765625
3102,9.765625
3103,9.765625
3104,9.765625
3105,9.765625
3106,9.765625
3107,9.765625
3108,9.765625
3109,9.765625
3110,9.765625
3111,11.718750
3112,9.765625
3113,11.718750
3114,9.765625
3115,11.718750
3116,11.718750
3117,9.765625
3118,9.765625
3119,11.718750
3120,9.765625
3121,11.718750
3122,9.765625
3123,11.718750
3124,11.718750
3125,9.765625
3126,9.765625
3127,11.718750
3128,11.718750
3129,9.765625
3130,9.765625
3131,11.718750
3132,11.718750
3133,9.765625
3134,9.765625
3135,9.765625
3136,11.718750
3137,9.765625
3138,9.765625
3139,9.765625
3140,9.765625
3141,9.765625
3142,9.765625
3143,9.765625
3144,9.765625
3145,7.812500
3146,9.765625
3147,9.765625
3148,7.812500
3149,7.812500
3150,7.812500
3151,7.812500
3152,7.812500
3153,5.859375
3154,5.859375
3155,7.812500
3156,5.859375
3157,5.859375
3158,5.859375
3159,5.859375
3160,5.859375
3161,5.859375
3162,3.906250
3163,3.906250
3164,3.906250
3165,3.906250
3166,3.906250
3167,3.906250
3168,1.953125
3169,3.906250
3170,1.953125
3171,1.953125
3172,1.953125
3173,0.000000
3174,0.000000
3175,0.000000
3176,0.000000
3177,0.000000
3178,0.000000
3179,-1.953125
3180,-1.953125
3181,-1.953125
3182,-1.953125
3183,-1.953125
3184,-3.906250
3185,-3.906250
3186,-3.906250
3187,-3.906250
3188,-3.906250
3189,-5.859375
3190,-5.859375
3191,-5.859375
3192,-5.859375
3193,-5.859375
3194,-5.859375
3195,-7.812500
3196,-7.812500
3197,-7.812500
3198,-7.812500
3199,-9.765625
3200,-9.765625
3201,-9.765625
3202,-9.765625
3203,-9.765625
3204,-11.718750
3205,-11.718750
3206,-9.765625
3207,-11.718750
3208,-13.671875
3209,-11.718750
3210,-13.671875
3211,-11.718750
3212,-13.671875
3213,-13.671875
3214,-13.671875
3215,-13.671875
3216,-13.671875
3217,-15.625000
3218,-15.625000
3219,-15.625000
3220,-15.625000
3221,-17.578125
3222,-17.578125
3223,-15.625000
3224,-15.625000
3225,-17.578125
3226,-17.578125
3227,-17.578125
3228,-17.578125
3229,-19.531250
3230,-19.531250
3231,-19.531250
3232,-19.531250
3233,-19.531250
3234,-19.531250
3235,-21.484375
3236,-19.531250
3237,-21.484375
3238,-21.484375
3239,-21.484375
3240,-21.484375
3241,-21.484375
3242,-23.437500
3243,-25.390625
3244,-19.531250
3245,-21.484375
3246,-21.484375
3247,-21.484375
3248,-23.437500
3249,-21.484375
3250,-23.437500
3251,-21.484375
3252,-23.437500
3253,-23.437500
3254,-23.437500
3255,-23.437500
3256,-23.437500
3257,-23.437500
3258,-23.437500
3259,-23.437500
3260,-23.437500
3261,-23.437500
3262,-23.437500
3263,-23.437500
3264,-23.437500
3265,-23.437500
3266,-23.437500
3267,-23.437500
3268,-23.437500
3269,-23.437500
3270,-23.437500
3271,-23.437500
3272,-23.437500
3273,-23.437500
3274,-23.437500
3275,-21.484375
3276,-21.484375
3277,-23.437500
3278,-23.437500
3279,-23.437500
3280,-21.484375
3281,-21.484375
3282,-21.484375
3283,-21.484375
3284,-21.484375
3285,-21.484375
3286,-19.531250
3287,-19.531250
3288,-19.531250
3289,-21.484375
3290,-19.531250
3291,-19.531250
3292,-19.531250
3293,-19.531250
3294,-19.531250
3295,-19.531250
3296,-17.578125
3297,-17.578125
3298,-17.578125
3299,-17.578125
3300,-17.578125
3301,-17.578125
3302,-17.578125
3303,-15.625000
3304,-15.625000
3305,-15.625000
3306,-15.625000
3307,-15.625000
3308,-15.625000
3309,-15.625000
3310,-13.671875
3311,-13.671875
3312,-13.671875
3313,-13.671875
3314,-13.671875
3315,-13.671875
3316,-11.718750
3317,-11.718750
3318,-11.718750
3319,-11.718750
3320,-9.765625
3321,-9.765625
3322,-9.765625
3323,-9.765625
3324,-9.765625
3325,-9.765625
3326,-7.812500
3327,-7.812500
3328,-7.812500
3329,-7.812500
3330,-5.859375
3331,-5.859375
3332,-5.859375
3333,-5.859375
3334,-5.859375
3335,-5.859375
3336,-3.906250
3337,-3.906250
3338,-3.906250
3339,-3.906250
3340,-3.906250
3341,-1.953125
3342,-1.953125
3343,-1.953125
3344,-1.953125
3345,-1.953125
3346,0.000000
3347,0.000000
3348,0.000000
3349,0.000000
3350,0.000000
3351,0.000000
3352,1.953125
3353,1.953125
3354,1.953125
3355,1.953125
3356,1.953125
3357,3.906250
3358,3.906250
3359,3.906250
3360,3.906250
3361,3.906250
3362,3.906250
3363,3.906250
3364,5.859375
3365,5.859375
3366,5.859375
3367,5.859375
3368,5.859375
3369,5.859375
3370,5.859375
3371,5.859375
3372,7.812500
3373,7.812500
3374,7.812500
3375,7.812500
3376,7.812500
3377,7.812500
3378,7.812500
3379,7.812500
3380,9.765625
3381,9.765625
3382,9.765625
3383,9.765625
3384,9.765625
3385,9.765625
3386,9.765625
3387,9.765625
3388,9.765625
3389,9.765625
3390,9.765625
3391,9.765625
3392,9.765625
3393,11.718750
3394,11.718750
3395,11.718750
3396,9.765625
3397,11.718750
3398,9.765625
3399,9.765625
3400,11.718750
3401,11.718750
3402,9.765625
3403,11.718750
3404,9.765625
3405,9.765625
3406,9.765625
3407,11.718750
3408,11.718750
3409,11.718750
3410,11.718750
3411,11.718750
3412,11.718750
3413,9.765625
3414,11.718750
3415,9.765625
3416,9.765625
3417,13.671875
3418,9.765625
3419,9.765625
3420,9.765625
3421,11.718750
3422,9.765625
3423,9.765625
3424,9.765625
3425,9.765625
3426,9.765625
3427,9.765625
3428,7.812500
3429,7.812500
3430,7.812500
3431,7.812500
3432,7.812500
3433,7.812500
3434,7.812500
3435,5.859375
3436,5.859375
3437,5.859375
3438,5.859375
3439,5.859375
3440,5.859375
3441,5.859375
3442,5.859375
3443,3.906250
3444,3.906250
3445,3.906250
3446,3.906250
3447,3.906250
3448,1.953125
3449,3.906250
3450,1.953125
3451,1.953125
3452,1.953125
3453,1.953125
3454,1.953125
3455,1.953125
3456,0.000000
3457,0.000000
3458,0.000000
3459,0.000000
3460,-1.953125
3461,-1.953125
3462,-1.953125
3463,-1.953125
3464,-1.953125
3465,-1.953125
3466,-3.906250
3467,-3.906250
3468,-3.906250
3469,-3.906250
3470,-3.906250
3471,-5.859375
3472,-5.859375
3473,-5.859375
3474,-5.859375
3475,-5.859375
3476,-5.859375
3477,-5.859375
3478,-7.812500
3479,-7.812500
3480,-7.812500
3481,-7.812500
3482,-9.765625
3483,-9.765625
3484,-9.765625
3485,-9.765625
3486,-11.718750
3487,-11.718750
3488,-11.718750
3489,-11.718750
3490,-11.718750
3491,-11.718750
3492,-13.671875
3493,-13.671875
3494,-13.671875
3495,-13.671875
3496,-13.671875
3497,-13.671875
3498,-15.625000
3499,-13.671875
3500,-15.625000
3501,-15.625000
3502,-15.625000
3503,-15.625000
3504,-17.578125
3505,-17.578125
3506,-17.578125
3507,-17.578125
3508,-17.578125
3509,-19.531250
3510,-19.531250
3511,-19.531250
3512,-19.531250
3513,-19.531250
3514,-19.531250
3515,-19.531250
3516,-19.531250
3517,-21.484375
3518,-21.484375
3519,-21.484375
3520,-19.531250
3521,-21.484375
3522,-19.531250
3523,-21.484375
3524,-21.484375
3525,-21.484375
3526,-21.484375
3527,-21.484375
3528,-21.484375
3529,-21.484375
3530,-21.484375
3531,-21.484375
3532,-23.437500
3533,-23.437500
3534,-21.484375
3535,-23.437500
3536,-23.437500
3537,-23.437500
3538,-23.437500
3539,-23.437500
3540,-23.437500
3541,-23.437500
3542,-23.437500
3543,-23.437500
3544,-23.437500
3545,-23.437500
3546,-23.437500
3547,-23.437500
3548,-23.437500
3549,-23.437500
3550,-23.437500
3551,-23.437500
3552,-23.437500
3553,-23.437500
3554,-21.484375
3555,-23.437500
3556,-23.437500
3557,-23.437500
3558,-21.484375
3559,-23.437500
3560,-21.484375
3561,-21.484375
3562,-21.484375
3563,-21.484375
3564,-21.484375
3565,-21.484375
3566,-21.484375
3567,-21.484375
3568,-21.484375
3569,-21.484375
3570,-19.531250
3571,-21.484375
3572,-21.484375
3573,-19.531250
3574,-19.531250
3575,-19.531250
3576,-19.531250
3577,-19.531250
3578,-19.531250
3579,-17.578125
3580,-17.578125
3581,-17.578125
3582,-17.578125
3583,-17.578125
3584,-17.578125
3585,-17.578125
3586,-15.625000
3587,-15.625000
3588,-17.578125
3589,-15.625000
3590,-15.625000
3591,-13.671875
3592,-13.671875
3593,-13.671875
3594,-13.671875
3595,-13.671875
3596,-11.718750
3597,-11.718750
3598,-11.718750
3599,-11.718750
3600,-11.718750
3601,-11.718750
3602,-9.765625
3603,-9.765625
3604,-9.765625
3605,-9.765625
3606,-9.765625
3607,-9.765625
3608,-7.812500
3609,-7.812500
3610,-7.812500
3611,-7.812500
3612,-5.859375
3613,-5.859375
3614,-5.859375
3615,-5.859375
3616,-5.859375
3617,-5.859375
3618,-3.906250
3619,-3.906250
3620,-3.906250
3621,-3.906250
3622,-3.906250
3623,-1.953125
3624,-1.953125
3625,-1.953125
3626,-1.953125
3627,-1.953125
3628,-1.953125
3629,0.000000
3630,0.000000
3631,0.000000
3632,0.000000
3633,0.000000
3634,1.953125
3635,1.953125
3636,1.953125
3637,1.953125
3638,1.953125
3639,1.953125
3640,1.953125
3641,3.906250
3642,3.906250
3643,3.906250
3644,3.906250
3645,3.906250
3646,3.906250
3647,5.859375
3648,5.859375
3649,5.859375
3650,5.859375
3651,5.859375
3652,5.859375
3653,7.812500
3654,5.859375
3655,7.812500
3656,7.812500
3657,7.812500
3658,7.812500
3659,9.765625
3660,7.812500
3661,7.812500
3662,9.765625
3663,9.765625
3664,9.765625
3665,9.765625
3666,9.765625
3667,9.765625
3668,9.765625
3669,9.765625
3670,9.765625
3671,11.718750
3672,9.765625
3673,9.765625
3674,9.765625
3675,9.765625
3676,11.718750
3677,11.718750
3678,9.765625
3679,11.718750
3680,11.718750
3681,11.718750
3682,11.718750
3683,11.718750
3684,9.765625
3685,11.718750
3686,11.718750
3687,11.718750
3688,9.765625
3689,11.718750
3690,11.718750
3691,11.718750
3692,11.718750
3693,9.765625
3694,9.765625
3695,11.718750
3696,9.765625
3697,9.765625
3698,9.765625
3699,9.765625
3700,9.765625
3701,9.765625
3702,9.765625
3703,9.765625
3704,9.765625
3705,9.765625
3706,9.765625
3707,9.765625
3708,9.765625
3709,7.812500
3710,7.812500
3711,7.812500
3712,7.812500
3713,7.812500
3714,7.812500
3715,7.812500
3716,7.812500
3717,7.812500
3718,7.812500
3719,7.812500
3720,5.859375
3721,5.859375
3722,5.859375
3723,5.859375
3724,5.859375
3725,5.859375
3726,5.859375
3727,5.859375
3728,3.906250
3729,3.906250
3730,3.906250
3731,3.906250
3732,1.953125
3733,1.953125
3734,1.953125
3735,1.953125
3736,1.953125
3737,1.953125
3738,1.953125
3739,0.000000
3740,0.000000
3741,0.000000
3742,0.000000
3743,-1.953125
3744,0.000000
3745,-1.953125
3746,-1.953125
3747,-1.953125
3748,-1.953125
3749,-1.953125
3750,-3.906250
3751,-3.906250
3752,-3.906250
3753,-3.906250
3754,-3.906250
3755,-5.859375
3756,-5.859375
3757,-5.859375
3758,-5.859375
3759,-7.812500
3760,-5.859375
3761,-7.812500
3762,-7.812500
3763,-7.812500
3764,-9.765625
3765,-9.765625
3766,-9.765625
3767,-9.765625
3768,-9.765625
3769,-11.718750
3770,-11.718750
3771,-11.718750
3772,-11.718750
3773,-13.671875
3774,-13.671875
3775,-13.671875
3776,-13.671875
3777,-13.671875
3778,-13.671875
3779,-15.625000
3780,-15.625000
3781,-15.625000
3782,-15.625000
3783,-15.625000
3784,-15.625000
3785,-15.625000
3786,-17.578125
3787,-17.578125
3788,-17.578125
3789,-17.578125
3790,-17.578125
3791,-21.484375
3792,-17.578125
3793,-19.531250
3794,-19.531250
3795,-19.531250
3796,-19.531250
3797,-19.531250
3798,-19.531250
3799,-19.531250
3800,-19.531250
3801,-21.484375
3802,-21.484375
3803,-19.531250
3804,-19.531250
3805,-21.484375
3806,-21.484375
3807,-21.484375
3808,-21.484375
3809,-21.484375
3810,-21.484375
3811,-21.484375
3812,-21.484375
3813,-23.437500
3814,-23.437500
3815,-23.437500
3816,-23.437500
3817,-23.437500
3818,-23.437500
3819,-23.437500
3820,-23.437500
3821,-23.437500
3822,-23.437500
3823,-23.437500
3824,-23.437500
3825,-23.437500
3826,-23.437500
3827,-23.437500
3828,-23.437500
3829,-23.437500
3830,-25.390625
3831,-23.437500
3832,-23.437500
3833,-23.437500
3834,-23.437500
3835,-23.437500
3836,-23.437500
3837,-23.437500
3838,-23.437500
3839,-23.437500
3840,-23.437500
3841,-23.437500
3842,-23.437500
3843,-21.484375
3844,-21.484375
3845,-21.484375
3846,-23.437500
3847,-21.484375
3848,-21.484375
3849,-21.484375
3850,-21.484375
3851,-19.531250
3852,-21.484375
3853,-19.531250
3854,-19.531250
3855,-19.531250
3856,-19.531250
3857,-19.531250
3858,-19.531250
3859,-19.531250
3860,-19.531250
3861,-19.531250
3862,-17.578125
3863,-17.578125
3864,-17.578125
3865,-17.578125
3866,-17.578125
3867,-17.578125
3868,-15.625000
3869,-15.625000
3870,-15.625000
3871,-15.625000
3872,-15.625000
3873,-13.671875
3874,-13.671875
3875,-13.671875
3876,-13.671875
3877,-13.671875
3878,-13.671875
3879,-13.671875
3880,-11.718750
3881,-11.718750
3882,-11.718750
3883,-11.718750
3884,-9.765625
3885,-11.718750
3886,-9.765625
3887,-9.765625
3888,-9.765625
3889,-7.812500
3890,-7.812500
3891,-7.812500
3892,-7.812500
3893,-7.812500
3894,-7.812500
3895,-7.812500
3896,-5.859375
3897,-5.859375
3898,-5.859375
3899,-5.859375
3900,-5.859375
3901,-3.906250
3902,-3.906250
3903,-3.906250
3904,-3.906250
3905,-3.906250
3906,-3.906250
3907,-1.953125
3908,-1.953125
3909,-1.953125
3910,-1.953125
3911,0.000000
3912,0.000000
3913,0.000000
3914,0.000000
3915,0.000000
3916,1.953125
3917,1.953125
3918,1.953125
3919,1.953125
3920,1.953125
3921,3.906250
3922,3.906250
3923,3.906250
3924,3.906250
3925,3.906250
3926,3.906250
3927,5.859375
3928,5.859375
3929,5.859375
3930,5.859375
3931,5.859375
3932,5.859375
3933,5.859375
3934,5.859375
3935,7.812500
3936,5.859375
3937,7.812500
3938,7.812500
3939,7.812500
3940,7.812500
3941,7.812500
3942,7.812500
3943,7.812500
3944,9.765625
3945,9.765625
3946,7.812500
3947,9.765625
3948,9.765625
3949,9.765625
3950,9.765625
3951,9.765625
3952,9.765625
3953,11.718750
3954,9.765625
3955,9.765625
3956,9.765625
3957,9.765625
3958,11.718750
3959,9.765625
3960,9.765625
3961,9.765625
3962,11.718750
3963,9.765625
3964,11.718750
3965,9.765625
3966,11.718750
3967,11.718750
3968,9.765625
3969,11.718750
3970,9.765625
3971,9.765625
3972,9.765625
3973,9.765625
3974,11.718750
3975,11.718750
3976,9.765625
3977,9.765625
3978,9.765625
3979,9.765625
3980,11.718750
3981,11.718750
3982,11.718750
3983,9.765625
3984,9.765625
3985,9.765625
3986,9.765625
3987,9.765625
3988,9.765625
3989,11.718750
3990,9.765625
3991,9.765625
3992,9.765625
3993,9.765625
3994,7.812500
3995,7.812500
3996,7.812500
3997,7.812500
3998,7.812500
3999,7.812500
4000,7.812500
4001,7.812500
4002,7.812500
4003,7.812500
4004,5.859375
4005,5.859375
4006,5.859375
4007,5.859375
4008,5.859375
4009,3.906250
4010,3.906250
4011,3.906250
4012,3.906250
4013,3.906250
4014,3.906250
4015,1.953125
4016,1.953125
4017,1.953125
4018,1.953125
4019,0.000000
4020,0.000000
4021,0.000000
4022,0.000000
4023,0.000000
4024,-1.953125
4025,-1.953125
4026,-1.953125
4027,-1.953125
4028,-1.953125
4029,-1.953125
4030,-3.906250
4031,-3.906250
4032,-3.906250
4033,-3.906250
4034,-3.906250
4035,-5.859375
4036,-5.859375
4037,-5.859375
4038,-5.859375
4039,-5.859375
4040,-5.859375
4041,-5.859375
4042,-7.812500
4043,-7.812500
4044,-7.812500
4045,-7.812500
4046,-9.765625
4047,-9.765625
4048,-9.765625
4049,-9.765625
4050,-9.765625
4051,-9.765625
4052,-11.718750
4053,-11.718750
4054,-11.718750
4055,-11.718750
4056,-11.718750
4057,-13.671875
4058,-13.671875
4059,-13.671875
4060,-13.671875
4061,-13.671875
4062,-15.625000
4063,-15.625000
4064,-15.625000
4065,-15.625000
4066,-15.625000
4067,-15.625000
4068,-15.625000
4069,-17.578125
4070,-15.625000
4071,-17.578125
4072,-17.578125
4073,-17.578125
4074,-17.578125
4075,-17.578125
4076,-19.531250
4077,-19.531250
4078,-19.531250
4079,-19.531250
4080,-19.531250
4081,-19.531250
4082,-21.484375
4083,-21.484375
4084,-19.531250
4085,-21.484375
4086,-21.484375
4087,-21.484375
4088,-21.484375
4089,-21.484375
4090,-23.437500
4091,-21.484375
4092,-23.437500
4093,-21.484375
4094,-23.437500
4095,-23.437500
4096,-23.437500
4097,-23.437500
4098,-23.437500
4099,-23.437500
4100,-23.437500
4101,-23.437500
4102,-23.437500
4103,-23.437500
4104,-23.437500
4105,-23.437500
4106,-23.437500
4107,-23.437500
4108,-23.437500
4109,-23.437500
4110,-23.437500
4111,-23.437500
4112,-23.437500
4113,-23.437500
4114,-23.437500
4115,-23.437500
4116,-23.437500
4117,-23.437500
4118,-21.484375
4119,-23.437500
4120,-23.437500
4121,-23.437500
4122,-21.484375
4123,-21.484375
4124,-21.484375
4125,-21.484375
4126,-21.484375
4127,-21.484375
4128,-21.484375
4129,-21.484375
4130,-21.484375
4131,-21.484375
4132,-21.484375
4133,-21.484375
4134,-19.531250
4135,-19.531250
4136,-19.531250
4137,-19.531250
4138,-21.484375
4139,-19.531250
4140,-19.531250
4141,-19.531250
4142,-17.578125
4143,-17.578125
4144,-19.531250
4145,-17.578125
4146,-17.578125
4147,-17.578125
4148,-17.578125
4149,-17.578125
4150,-15.625000
4151,-15.625000
4152,-15.625000
4153,-15.625000
4154,-15.625000
4155,-15.625000
4156,-15.625000
4157,-13.671875
4158,-13.671875
4159,-13.671875
4160,-13.671875
4161,-13.671875
4162,-11.718750
4163,-11.718750
4164,-11.718750
4165,-11.718750
4166,-9.765625
4167,-11.718750
4168,-7.812500
4169,-9.765625
4170,-9.765625
4171,-9.765625
4172,-9.765625
4173,-7.812500
4174,-7.812500
4175,-7.812500
4176,-7.812500
4177,-5.859375
4178,-5.859375
4179,-5.859375
4180,-5.859375
4181,-5.859375
4182,-3.906250
4183,-3.906250
4184,-3.906250
4185,-3.906250
4186,-3.906250
4187,-1.953125
4188,-1.953125
4189,-1.953125
4190,-1.953125
4191,-1.953125
4192,-1.953125
4193,0.000000
4194,0.000000
4195,0.000000
4196,1.953125
4197,0.000000
4198,0.000000
4199,1.953125
4200,1.953125
4201,1.953125
4202,1.953125
4203,1.953125
4204,1.953125
4205,3.906250
4206,3.906250
4207,3.906250
4208,3.906250
4209,3.906250
4210,1.953125
4211,3.906250
4212,5.859375
4213,5.859375
4214,5.859375
4215,5.859375
4216,5.859375
4217,5.859375
4218,5.859375
4219,5.859375
4220,5.859375
4221,7.812500
4222,7.812500
4223,7.812500
4224,7.812500
4225,9.765625
4226,7.812500
4227,7.812500
4228,9.765625
4229,9.765625
4230,7.812500
4231,9.765625
4232,9.765625
4233,9.765625
4234,9.765625
4235,9.765625
4236,9.765625
4237,9.765625
4238,9.765625
4239,9.765625
4240,9.765625
4241,11.718750
4242,9.765625
4243,11.718750
4244,11.718750
4245,9.765625
4246,11.718750
4247,11.718750
4248,9.765625
4249,11.718750
4250,11.718750
4251,11.718750
4252,9.765625
4253,11.718750
4254,11.718750
4255,11.718750
4256,11.718750
4257,11.718750
4258,9.765625
4259,9.765625
4260,11.718750
4261,9.765625
4262,9.765625
4263,9.765625
4264,9.765625
4265,9.765625
4266,9.765625
4267,9.765625
4268,9.765625
4269,9.765625
4270,9.765625
4271,9.765625
4272,9.765625
4273,9.765625
4274,7.812500
4275,7.812500
4276,7.812500
4277,7.812500
4278,7.812500
4279,7.812500
4280,7.812500
4281,7.812500
4282,5.859375
4283,5.859375
4284,5.859375
4285,5.859375
4286,5.859375
4287,5.859375
4288,5.859375
4289,5.859375
4290,3.906250
4291,3.906250
4292,3.906250
4293,3.906250
4294,3.906250
4295,3.906250
4296,1.953125
4297,1.953125
4298,3.906250
4299,1.953125
4300,1.953125
4301,1.953125
4302,1.953125
4303,0.000000
4304,0.000000
4305,0.000000
4306,0.000000
4307,0.000000
4308,0.000000
4309,-1.953125
4310,-1.953125
4311,-1.953125
4312,-1.953125
4313,-1.953125
4314,-3.906250
4315,-3.906250
4316,-3.906250
4317,-3.906250
4318,-5.859375
4319,-5.859375
4320,-5.859375
4321,-5.859375
4322,-5.859375
4323,-5.859375
4324,-5.859375
4325,-7.812500
4326,-7.812500
4327,-7.812500
4328,-7.812500
4329,-9.765625
4330,-9.765625
4331,-9.765625
4332,-9.765625
4333,-9.765625
4334,-11.718750
4335,-9.765625
4336,-11.718750
4337,-11.718750
4338,-13.671875
4339,-13.671875
4340,-11.718750
4341,-13.671875
4342,-13.671875
4343,-13.671875
4344,-13.671875
4345,-13.671875
4346,-15.625000
4347,-15.625000
4348,-15.625000
4349,-15.625000
4350,-15.625000
4351,-17.578125
4352,-17.578125
4353,-17.578125
4354,-17.578125
4355,-17.578125
4356,-17.578125
4357,-19.531250
4358,-19.531250
4359,-19.531250
4360,-19.531250
4361,-19.531250
4362,-19.531250
4363,-19.531250
4364,-19.531250
4365,-21.484375
4366,-21.484375
4367,-21.484375
4368,-21.484375
4369,-21.484375
4370,-21.484375
4371,-21.484375
4372,-23.437500
4373,-21.484375
4374,-21.484375
4375,-21.484375
4376,-21.484375
4377,-23.437500
4378,-23.437500
4379,-23.437500
4380,-21.484375
4381,-21.484375
4382,-23.437500
4383,-23.437500
4384,-23.437500
4385,-23.437500
4386,-23.437500
4387,-23.437500
4388,-23.437500
4389,-23.437500
4390,-23.437500
4391,-23.437500
4392,-23.437500
4393,-23.437500
4394,-23.437500
4395,-23.437500
4396,-23.437500
4397,-23.437500
4398,-23.437500
4399,-23.437500
4400,-21.484375
4401,-23.437500
4402,-23.437500
4403,-23.437500
4404,-21.484375
4405,-21.484375
4406,-23.437500
4407,-23.437500
4408,-21.484375
4409,-21.484375
4410,-21.484375
4411,-21.484375
4412,-21.484375
4413,-21.484375
4414,-21.484375
4415,-21.484375
4416,-21.484375
4417,-21.484375
4418,-19.531250
4419,-21.484375
4420,-19.531250
4421,-19.531250
4422,-19.531250
4423,-19.531250
4424,-19.531250
4425,-19.531250
4426,-17.578125
4427,-17.578125
4428,-17.578125
4429,-17.578125
4430,-17.578125
4431,-17.578125
4432,-17.578125
4433,-15.625000
4434,-15.625000
4435,-15.625000
4436,-15.625000
4437,-15.625000
4438,-15.625000
4439,-13.671875
4440,-13.671875
4441,-13.671875
4442,-13.671875
4443,-13.671875
4444,-11.718750
4445,-11.718750
4446,-11.718750
4447,-11.718750
4448,-11.718750
4449,-9.765625
4450,-9.765625
4451,-9.765625
4452,-9.765625
4453,-9.765625
4454,-9.765625
4455,-9.765625
4456,-7.812500
4457,-7.812500
4458,-7.812500
4459,-5.859375
4460,-5.859375
4461,-5.859375
4462,-5.859375
4463,-5.859375
4464,-5.859375
4465,-3.906250
4466,-3.906250
4467,-3.906250
4468,-3.906250
4469,-3.906250
4470,-1.953125
4471,-3.906250
4472,-3.906250
4473,-1.953125
4474,-1.953125
4475,-1.953125
4476,0.000000
4477,0.000000
4478,0.000000
4479,0.000000
4480,0.000000
4481,1.953125
4482,0.000000
4483,0.000000
4484,1.953125
4485,1.953125
4486,3.906250
4487,3.906250
4488,3.906250
4489,3.906250
4490,3.906250
4491,3.906250
4492,3.906250
4493,3.906250
4494,5.859375
4495,5.859375
4496,5.859375
4497,5.859375
4498,5.859375
4499,5.859375
4500,7.812500
4501,7.812500
4502,7.812500
4503,7.812500
4504,7.812500
4505,7.812500
4506,7.812500
4507,7.812500
4508,7.812500
4509,9.765625
4510,9.765625
4511,9.765625
4512,9.765625
4513,9.765625
4514,9.765625
4515,9.765625
4516,9.765625
4517,9.765625
4518,9.765625
4519,9.765625
4520,9.765625
4521,11.718750
4522,11.718750
4523,9.765625
4524,9.765625
4525,11.718750
4526,9.765625
4527,9.765625
4528,11.718750
4529,11.718750
4530,11.718750
4531,11.718750
4532,9.765625
4533,11.718750
4534,11.718750
4535,11.718750
4536,11.718750
4537,11.718750
4538,11.718750
4539,11.718750
4540,11.718750
4541,9.765625
4542,9.765625
4543,9.765625
4544,9.765625
4545,9.765625
4546,9.765625
4547,9.765625
4548,9.765625
4549,9.765625
4550,9.765625
4551,9.765625
4552,9.765625
4553,9.765625
4554,9.765625
4555,7.812500
4556,7.812500
4557,7.812500
4558,7.812500
4559,5.859375
4560,7.812500
4561,7.812500
4562,7.812500
4563,7.812500
4564,7.812500
4565,5.859375
4566,5.859375
4567,5.859375
4568,5.859375
4569,5.859375
4570,5.859375
4571,5.859375
4572,5.859375
4573,5.859375
4574,3.906250
4575,3.906250
4576,3.906250
4577,3.906250
4578,3.906250
4579,3.906250
4580,1.953125
4581,1.953125
4582,1.953125
4583,1.953125
4584,1.953125
4585,0.000000
4586,-1.953125
4587,0.000000
4588,0.000000
4589,0.000000
4590,0.000000
4591,-1.953125
4592,-1.953125
4593,-1.953125
4594,-1.953125
4595,-1.953125
4596,-3.906250
4597,-3.906250
4598,-3.906250
4599,-3.906250
4600,-5.859375
4601,-5.859375
4602,-5.859375
4603,-5.859375
4604,-5.859375
4605,-5.859375
4606,-7.812500
4607,-7.812500
4608,-7.812500
4609,-7.812500
4610,-7.812500
4611,-9.765625
4612,-9.765625
4613,-9.765625
4614,-9.765625
4615,-9.765625
4616,-11.718750
4617,-11.718750
4618,-11.718750
4619,-11.718750
4620,-11.718750
4621,-13.671875
4622,-13.671875
4623,-13.671875
4624,-13.671875
4625,-13.671875
4626,-15.625000
4627,-15.625000
4628,-15.625000
4629,-15.625000
4630,-15.625000
4631,-15.625000
4632,-15.625000
4633,-17.578125
4634,-17.578125
4635,-17.578125
4636,-17.578125
4637,-17.578125
4638,-17.578125
4639,-17.578125
4640,-19.531250
4641,-19.531250
4642,-19.531250
4643,-19.531250
4644,-19.531250
4645,-19.531250
4646,-19.531250
4647,-21.484375
4648,-19.531250
4649,-21.484375
4650,-21.484375
4651,-21.484375
4652,-21.484375
4653,-21.484375
4654,-21.484375
4655,-21.484375
4656,-21.484375
4657,-23.437500
4658,-21.484375
4659,-23.437500
4660,-23.437500
4661,-21.484375
4662,-23.437500
4663,-23.437500
4664,-23.437500
4665,-23.437500
4666,-23.437500
4667,-23.437500
4668,-23.437500
4669,-23.437500
4670,-23.437500
4671,-23.437500
4672,-23.437500
4673,-23.437500
4674,-23.437500
4675,-23.437500
4676,-23.437500
4677,-23.437500
4678,-23.437500
4679,-23.437500
4680,-23.437500
4681,-23.437500
4682,-23.437500
4683,-23.437500
4684,-23.437500
4685,-23.437500
4686,-23.437500
4687,-23.437500
4688,-23.437500
4689,-23.437500
4690,-21.484375
4691,-21.484375
4692,-23.437500
4693,-21.484375
4694,-21.484375
4695,-21.484375
4696,-21.484375
4697,-21.484375
4698,-19.531250
4699,-19.531250
4700,-19.531250
4701,-19.531250
4702,-19.531250
4703,-19.531250
4704,-19.531250
4705,-19.531250
4706,-19.531250
4707,-19.531250
4708,-17.578125
4709,-17.578125
4710,-17.578125
4711,-17.578125
4712,-17.578125
4713,-15.625000
4714,-17.578125
4715,-15.625000
4716,-15.625000
4717,-15.625000
4718,-15.625000
4719,-15.625000
4720,-15.625000
4721,-13.671875
4722,-13.671875
4723,-13.671875
4724,-13.671875
4725,-13.671875
4726,-13.671875
4727,-11.718750
4728,-11.718750
4729,-11.718750
4730,-9.765625
4731,-11.718750
4732,-11.718750
4733,-11.718750
4734,-9.765625
4735,-9.765625
4736,-9.765625
4737,-7.812500
4738,-7.812500
4739,-7.812500
4740,-7.812500
4741,-7.812500
4742,-7.812500
4743,-5.859375
4744,-5.859375
4745,-5.859375
4746,-5.859375
4747,-5.859375
4748,-3.906250
4749,-3.906250
4750,-3.906250
4751,-3.906250
4752,-3.906250
4753,-1.953125
4754,-1.953125
4755,-1.953125
4756,-1.953125
4757,-3.906250
4758,0.000000
4759,0.000000
4760,-1.953125
4761,0.000000
4762,1.953125
4763,1.953125
4764,0.000000
4765,1.953125
4766,1.953125
4767,1.953125
4768,1.953125
4769,1.953125
4770,3.906250
4771,3.906250
4772,7.812500
4773,3.906250
4774,3.906250
4775,3.906250
4776,5.859375
4777,5.859375
4778,5.859375
4779,5.859375
4780,5.859375
4781,5.859375
4782,5.859375
4783,7.812500
4784,7.812500
4785,7.812500
4786,7.812500
4787,7.812500
4788,7.812500
4789,7.812500
4790,7.812500
4791,7.812500
4792,9.765625
4793,7.812500
4794,9.765625
4795,9.765625
4796,9.765625
4797,9.765625
4798,9.765625
4799,9.765625
4800,9.765625
4801,9.765625
4802,9.765625
4803,9.765625
4804,9.765625
4805,9.765625
4806,9.765625
4807,11.718750
4808,9.765625
4809,11.718750
4810,11.718750
4811,9.765625
4812,9.765625
4813,9.765625
4814,9.765625
4815,9.765625
4816,9.765625
4817,11.718750
4818,11.718750
4819,11.718750
4820,11.718750
4821,9.765625
4822,9.765625
4823,11.718750
4824,11.718750
4825,11.718750
4826,9.765625
4827,9.765625
4828,9.765625
4829,9.765625
4830,9.765625
4831,9.765625
4832,9.765625
4833,9.765625
4834,9.765625
4835,9.765625
4836,9.765625
4837,7.812500
4838,9.765625
4839,9.765625
4840,9.765625
4841,7.812500
4842,7.812500
4843,7.812500
4844,7.812500
4845,7.812500
4846,7.812500
4847,5.859375
4848,7.812500
4849,5.859375
4850,5.859375
4851,5.859375
4852,5.859375
4853,5.859375
4854,3.906250
4855,5.859375
4856,3.906250
4857,3.906250
4858,3.906250
4859,3.906250
4860,3.906250
4861,1.953125
4862,1.953125
4863,1.953125
4864,1.953125
4865,1.953125
4866,1.953125
4867,0.000000
4868,0.000000
4869,0.000000
4870,0.000000
4871,0.000000
4872,-1.953125
4873,-1.953125
4874,-1.953125
4875,-1.953125
4876,-1.953125
4877,-3.906250
4878,-3.906250
4879,-3.906250
4880,-3.906250
4881,-3.906250
4882,-3.906250
4883,-5.859375
4884,-5.859375
4885,-5.859375
4886,-5.859375
4887,-5.859375
4888,-5.859375
4889,-5.859375
4890,-7.812500
4891,-7.812500
4892,-7.812500
4893,-9.765625
4894,-9.765625
4895,-7.812500
4896,-9.765625
4897,-9.765625
4898,-9.765625
4899,-9.765625
4900,-11.718750
4901,-11.718750
4902,-11.718750
4903,-11.718750
4904,-13.671875
4905,-13.671875
4906,-13.671875
4907,-13.671875
4908,-15.625000
4909,-15.625000
4910,-15.625000
4911,-15.625000
4912,-15.625000
4913,-15.625000
4914,-15.625000
4915,-17.578125
4916,-17.578125
4917,-17.578125
4918,-17.578125
4919,-17.578125
4920,-17.578125
4921,-19.531250
4922,-19.531250
4923,-19.531250
4924,-19.531250
4925,-19.531250
4926,-19.531250
4927,-19.531250
4928,-21.484375
4929,-21.484375
4930,-21.484375
4931,-21.484375
4932,-21.484375
4933,-21.484375
4934,-21.484375
4935,-21.484375
4936,-21.484375
4937,-21.484375
4938,-21.484375
4939,-23.437500
4940,-21.484375
4941,-21.484375
4942,-23.437500
4943,-23.437500
4944,-23.437500
4945,-23.437500
4946,-23.437500
4947,-23.437500
4948,-23.437500
4949,-23.437500
4950,-23.437500
4951,-23.437500
4952,-23.437500
4953,-23.437500
4954,-23.437500
4955,-23.437500
4956,-23.437500
4957,-23.437500
4958,-23.437500
4959,-23.437500
4960,-23.437500
4961,-23.437500
4962,-23.437500
4963,-21.484375
4964,-21.484375
4965,-23.437500
4966,-23.437500
4967,-23.437500
4968,-23.437500
4969,-23.437500
4970,-23.437500
4971,-21.484375
4972,-21.484375
4973,-21.484375
4974,-21.484375
4975,-21.484375
4976,-21.484375
4977,-21.484375
4978,-21.484375
4979,-21.484375
4980,-21.484375
4981,-21.484375
4982,-19.531250
4983,-19.531250
4984,-19.531250
4985,-19.531250
4986,-19.531250
4987,-19.531250
4988,-19.531250
4989,-19.531250
4990,-19.531250
4991,-17.578125
4992,-17.578125
4993,-17.578125
4994,-17.578125
4995,-17.578125
4996,-17.578125
4997,-17.578125
4998,-17.578125
4999,-15.625000
5000,-15.625000
5001,-15.625000
5002,-15.625000
5003,-13.671875
5004,-13.671875
5005,-13.671875
5006,-13.671875
5007,-13.671875
5008,-11.718750
5009,-11.718750
5010,-11.718750
5011,-11.718750
5012,-11.718750
5013,-11.718750
5014,-11.718750
5015,-11.718750
5016,-9.765625
5017,-9.765625
5018,-7.812500
5019,-7.812500
5020,-7.812500
5021,-7.812500
5022,-7.812500
5023,-7.812500
5024,-7.812500
5025,-5.859375
5026,-5.859375
5027,-5.859375
5028,-5.859375
5029,-3.906250
5030,-3.906250
5031,-3.906250
5032,-3.906250
5033,-1.953125
5034,-3.906250
5035,-1.953125
5036,-1.953125
5037,-1.953125
5038,-1.953125
5039,-1.953125
5040,-1.953125
5041,0.000000
5042,0.000000
5043,0.000000
5044,0.000000
5045,1.953125
5046,1.953125
5047,1.953125
5048,1.953125
5049,1.953125
5050,1.953125
5051,1.953125
5052,3.906250
5053,3.906250
5054,3.906250
5055,3.906250
5056,3.906250
5057,3.906250
5058,3.906250
5059,5.859375
5060,5.859375
5061,5.859375
5062,5.859375
5063,5.859375
5064,5.859375
5065,5.859375
5066,7.812500
5067,5.859375
5068,7.812500
5069,7.812500
5070,7.812500
5071,7.812500
5072,7.812500
5073,7.812500
5074,7.812500
5075,9.765625
5076,7.812500
5077,9.765625
5078,9.765625
5079,9.765625
5080,9.765625
5081,9.765625
5082,9.765625
5083,9.765625
5084,9.765625
5085,9.765625
5086,11.718750
5087,9.765625
5088,11.718750
5089,9.765625
5090,9.765625
5091,11.718750
5092,11.718750
5093,11.718750
5094,9.765625
5095,9.765625
5096,11.718750
5097,11.718750
5098,11.718750
5099,11.718750
5100,11.718750
5101,11.718750
5102,11.718750
5103,11.718750
5104,9.765625
5105,9.765625
5106,11.718750
5107,11.718750
5108,9.765625
5109,11.718750
5110,9.765625
5111,9.765625
5112,9.765625
5113,9.765625
5114,9.765625
5115,9.765625
5116,9.765625
5117,9.765625
5118,9.765625
5119,7.812500
5120,9.765625
5121,9.765625
5122,9.765625
5123,7.812500
5124,7.812500
5125,7.812500
5126,7.812500
5127,7.812500
5128,7.812500
5129,5.859375
5130,7.812500
5131,5.859375
5132,5.859375
5133,5.859375
5134,5.859375
5135,5.859375
5136,5.859375
5137,3.906250
5138,5.859375
5139,3.906250
5140,3.906250
5141,3.906250
5142,3.906250
5143,3.906250
5144,1.953125
5145,1.953125
5146,1.953125
5147,1.953125
5148,1.953125
5149,0.000000
5150,0.000000
5151,0.000000
5152,0.000000
5153,0.000000
5154,0.000000
5155,0.000000
5156,-1.953125
5157,-1.953125
5158,-1.953125
5159,-1.953125
5160,-1.953125
5161,-3.906250
5162,-3.906250
5163,-3.906250
5164,-3.906250
5165,-3.906250
5166,-3.906250
5167,-5.859375
5168,-5.859375
5169,-5.859375
5170,-5.859375
5171,-7.812500
5172,-7.812500
5173,-7.812500
5174,-7.812500
5175,-7.812500
5176,-7.812500
5177,-9.765625
5178,-9.765625
5179,-9.765625
5180,-9.765625
5181,-11.718750
5182,-11.718750
5183,-11.718750
5184,-11.718750
5185,-11.718750
5186,-11.718750
5187,-13.671875
5188,-13.671875
5189,-13.671875
5190,-13.671875
5191,-13.671875
5192,-15.625000
5193,-15.625000
5194,-15.625000
5195,-15.625000
5196,-15.625000
5197,-15.625000
5198,-17.578125
5199,-17.578125
5200,-17.578125
5201,-17.578125
5202,-17.578125
5203,-17.578125
5204,-17.578125
5205,-17.578125
5206,-19.531250
5207,-19.531250
5208,-19.531250
5209,-21.484375
5210,-19.531250
5211,-21.484375
5212,-19.531250
5213,-21.484375
5214,-21.484375
5215,-21.484375
5216,-21.484375
5217,-21.484375
5218,-21.484375
5219,-21.484375
5220,-23.437500
5221,-21.484375
5222,-21.484375
5223,-21.484375
5224,-21.484375
5225,-23.437500
5226,-23.437500
5227,-23.437500
5228,-23.437500
5229,-21.484375
5230,-23.437500
5231,-23.437500
5232,-23.437500
5233,-23.437500
5234,-23.437500
5235,-23.437500
5236,-23.437500
5237,-23.437500
5238,-23.437500
5239,-23.437500
5240,-23.437500
5241,-23.437500
5242,-23.437500
5243,-23.437500
5244,-21.484375
5245,-23.437500
5246,-23.437500
5247,-23.437500
5248,-23.437500
5249,-23.437500
5250,-23.437500
5251,-21.484375
5252,-21.484375
5253,-21.484375
5254,-21.484375
5255,-21.484375
5256,-23.437500
5257,-21.484375
5258,-21.484375
5259,-21.484375
5260,-21.484375
5261,-21.484375
5262,-21.484375
5263,-21.484375
5264,-21.484375
5265,-21.484375
5266,-19.531250
5267,-19.531250
5268,-19.531250
5269,-19.531250
5270,-19.531250
5271,-17.578125
5272,-19.531250
5273,-17.578125
5274,-17.578125
5275,-17.578125
5276,-17.578125
5277,-17.578125
5278,-17.578125
5279,-17.578125
5280,-15.625000
5281,-15.625000
5282,-15.625000
5283,-15.625000
5284,-15.625000
5285,-13.671875
5286,-13.671875
5287,-13.671875
5288,-13.671875
5289,-13.671875
5290,-11.718750
5291,-11.718750
5292,-11.718750
5293,-11.718750
5294,-11.718750
5295,-11.718750
5296,-11.718750
5297,-9.765625
5298,-9.765625
5299,-9.765625
5300,-9.765625
5301,-7.812500
5302,-7.812500
5303,-7.812500
5304,-5.859375
5305,-7.812500
5306,-7.812500
5307,-7.812500
5308,-5.859375
5309,-5.859375
5310,-5.859375
5311,-3.906250
5312,-3.906250
5313,-3.906250
5314,-3.906250
5315,-3.906250
5316,-3.906250
5317,-3.906250
5318,-1.953125
5319,-1.953125
5320,-1.953125
5321,-1.953125
5322,0.000000
5323,0.000000
5324,0.000000
5325,0.000000
5326,0.000000
5327,0.000000
5328,1.953125
5329,1.953125
5330,1.953125
5331,1.953125
5332,3.906250
5333,1.953125
5334,3.906250
5335,3.906250
5336,3.906250
5337,3.906250
5338,3.906250
5339,3.906250
5340,5.859375
5341,5.859375
5342,5.859375
5343,7.812500
5344,5.859375
5345,5.859375
5346,5.859375
5347,5.859375
5348,5.859375
5349,7.812500
5350,7.812500
5351,7.812500
5352,7.812500
5353,7.812500
5354,9.765625
5355,7.812500
5356,7.812500
5357,7.812500
5358,7.812500
5359,9.765625
5360,9.765625
5361,9.765625
5362,9.765625
5363,9.765625
5364,9.765625
5365,9.765625
5366,11.718750
5367,9.765625
5368,9.765625
5369,9.765625
5370,9.765625
5371,11.718750
5372,11.718750
5373,9.765625
5374,11.718750
5375,11.718750
5376,11.718750
5377,11.718750
5378,9.765625
5379,9.765625
5380,11.718750
5381,11.718750
5382,11.718750
5383,9.765625
5384,11.718750
5385,11.718750
5386,9.765625
5387,11.718750
5388,9.765625
5389,9.765625
5390,9.765625
5391,9.765625
5392,11.718750
5393,11.718750
5394,9.765625
5395,9.765625
5396,9.765625
5397,9.765625
5398,9.765625
5399,9.765625
5400,9.765625
5401,9.765625
5402,9.765625
5403,9.765625
5404,7.812500
5405,7.812500
5406,7.812500
5407,7.812500
5408,7.812500
5409,7.812500
5410,7.812500
5411,7.812500
5412,7.812500
5413,7.812500
5414,5.859375
5415,5.859375
5416,5.859375
5417,5.859375
5418,5.859375
5419,5.859375
5420,3.906250
5421,5.859375
5422,3.906250
5423,3.906250
5424,3.906250
5425,3.906250
5426,1.953125
5427,3.906250
5428,1.953125
5429,1.953125
5430,1.953125
5431,1.953125
5432,1.953125
5433,0.000000
5434,0.000000
5435,0.000000
5436,0.000000
5437,0.000000
5438,-1.953125
5439,-1.953125
5440,-1.953125
5441,-3.906250
5442,-1.953125
5443,-3.906250
5444,-3.906250
5445,-3.906250
5446,-3.906250
5447,-3.906250
5448,-5.859375
5449,-5.859375
5450,-5.859375
5451,-5.859375
5452,-5.859375
5453,-5.859375
5454,-7.812500
5455,-7.812500
5456,-7.812500
5457,-7.812500
5458,-9.765625
5459,-9.765625
5460,-9.765625
5461,-9.765625
5462,-9.765625
5463,-9.765625
5464,-11.718750
5465,-11.718750
5466,-11.718750
5467,-11.718750
5468,-13.671875
5469,-13.671875
5470,-13.671875
5471,-13.671875
5472,-13.671875
5473,-13.671875
5474,-15.625000
5475,-15.625000
5476,-15.625000
5477,-15.625000
5478,-15.625000
5479,-15.625000
5480,-17.578125
5481,-17.578125
5482,-17.578125
5483,-17.578125
5484,-17.578125
5485,-17.578125
5486,-17.578125
5487,-17.578125
5488,-17.578125
5489,-19.531250
5490,-19.531250
5491,-19.531250
5492,-19.531250
5493,-19.531250
5494,-19.531250
5495,-19.531250
5496,-21.484375
5497,-21.484375
5498,-21.484375
5499,-21.484375
5500,-21.484375
5501,-21.484375
5502,-21.484375
5503,-21.484375
5504,-21.484375
5505,-21.484375
5506,-23.437500
5507,-23.437500
5508,-23.437500
5509,-23.437500
5510,-23.437500
5511,-23.437500
5512,-23.437500
5513,-23.437500
5514,-23.437500
5515,-23.437500
5516,-23.437500
5517,-23.437500
5518,-23.437500
5519,-23.437500
5520,-23.437500
5521,-23.437500
5522,-23.437500
5523,-23.437500
5524,-23.437500
5525,-23.437500
5526,-23.437500
5527,-23.437500
5528,-23.437500
5529,-23.437500
5530,-23.437500
5531,-23.437500
5532,-23.437500
5533,-21.484375
5534,-23.437500
5535,-23.437500
5536,-21.484375
5537,-23.437500
5538,-21.484375
5539,-21.484375
5540,-21.484375
5541,-21.484375
5542,-21.484375
5543,-21.484375
5544,-19.531250
5545,-21.484375
5546,-21.484375
5547,-19.531250
5548,-19.531250
5549,-19.531250
5550,-19.531250
5551,-19.531250
5552,-19.531250
5553,-17.578125
5554,-19.531250
5555,-19.531250
5556,-17.578125
5557,-17.578125
5558,-17.578125
5559,-17.578125
5560,-17.578125
5561,-15.625000
5562,-15.625000
5563,-15.625000
5564,-15.625000
5565,-15.625000
5566,-15.625000
5567,-15.625000
5568,-13.671875
5569,-13.671875
5570,-13.671875
5571,-13.671875
5572,-13.671875
5573,-11.718750
5574,-13.671875
5575,-11.718750
5576,-11.718750
5577,-11.718750
5578,-11.718750
5579,-9.765625
5580,-11.718750
5581,-9.765625
5582,-9.765625
5583,-9.765625
5584,-7.812500
5585,-9.765625
5586,-7.812500
5587,-7.812500
5588,-7.812500
5589,-5.859375
5590,-5.859375
5591,-5.859375
5592,-5.859375
5593,-5.859375
5594,-5.859375
5595,-3.906250
5596,-3.906250
5597,-3.906250
5598,-3.906250
5599,-1.953125
5600,-1.953125
5601,-1.953125
5602,-1.953125
5603,-1.953125
5604,-1.953125
5605,0.000000
5606,0.000000
5607,0.000000
5608,0.000000
5609,0.000000
5610,1.953125
5611,1.953125
5612,1.953125
5613,1.953125
5614,1.953125
5615,1.953125
5616,1.953125
5617,3.906250
5618,3.906250
5619,3.906250
5620,3.906250
5621,5.859375
5622,3.906250
5623,5.859375
5624,5.859375
5625,5.859375
5626,5.859375
5627,5.859375
5628,5.859375
5629,5.859375
5630,7.812500
5631,7.812500
5632,7.812500
5633,7.812500
5634,7.812500
5635,7.812500
5636,7.812500
5637,7.812500
5638,7.812500
5639,7.812500
5640,9.765625
5641,7.812500
5642,9.765625
5643,9.765625
5644,9.765625
5645,9.765625
5646,9.765625
5647,9.765625
5648,9.765625
5649,9.765625
5650,9.765625
5651,9.765625
5652,9.765625
5653,11.718750
5654,9.765625
5655,9.765625
5656,11.718750
5657,9.765625
5658,9.765625
5659,11.718750
5660,11.718750
5661,11.718750
5662,11.718750
5663,11.718750
5664,11.718750
5665,11.718750
5666,9.765625
5667,11.718750
5668,11.718750
5669,11.718750
5670,9.765625
5671,9.765625
5672,11.718750
5673,11.718750
5674,9.765625
5675,11.718750
5676,11.718750
5677,11.718750
5678,9.765625
5679,9.765625
5680,9.765625
5681,9.765625
5682,9.765625
5683,9.765625
5684,9.765625
5685,9.765625
5686,9.765625
5687,7.812500
5688,7.812500
5689,7.812500
5690,7.812500
5691,7.812500
5692,7.812500
5693,7.812500
5694,7.812500
5695,5.859375
5696,5.859375
5697,5.859375
5698,5.859375
5699,5.859375
5700,5.859375
5701,5.859375
5702,3.906250
5703,3.906250
5704,3.906250
5705,3.906250
5706,3.906250
5707,3.906250
5708,3.906250
5709,1.953125
5710,1.953125
5711,1.953125
5712,1.953125
5713,0.000000
5714,1.953125
5715,0.000000
5716,0.000000
5717,0.000000
5718,0.000000
5719,0.000000
5720,-1.953125
5721,-1.953125
5722,-1.953125
5723,0.000000
5724,-3.906250
5725,-1.953125
5726,-3.906250
5727,-3.906250
5728,-3.906250
5729,-3.906250
5730,-3.906250
5731,-5.859375
5732,-3.906250
5733,-5.859375
5734,-5.859375
5735,-5.859375
5736,-7.812500
5737,-5.859375
5738,-7.812500
5739,-7.812500
5740,-9.765625
5741,-7.812500
5742,-7.812500
5743,-9.765625
5744,-9.765625
5745,-9.765625
5746,-11.718750
5747,-11.718750
5748,-11.718750
5749,-11.718750
5750,-11.718750
5751,-11.718750
5752,-11.718750
5753,-13.671875
5754,-13.671875
5755,-13.671875
5756,-13.671875
5757,-15.625000
5758,-15.625000
5759,-15.625000
5760,-15.625000
5761,-15.625000
5762,-15.625000
5763,-17.578125
5764,-17.578125
5765,-17.578125
5766,-17.578125
5767,-17.578125
5768,-19.531250
5769,-19.531250
5770,-19.531250
5771,-19.531250
5772,-19.531250
5773,-19.531250
5774,-19.531250
5775,-19.531250
5776,-19.531250
5777,-19.531250
5778,-21.484375
5779,-21.484375
5780,-21.484375
5781,-21.484375
5782,-21.484375
5783,-21.484375
5784,-23.437500
5785,-21.484375
5786,-21.484375
5787,-21.484375
5788,-23.437500
5789,-21.484375
5790,-23.437500
5791,-23.437500
5792,-23.437500
5793,-23.437500
5794,-23.437500
5795,-23.437500
5796,-23.437500
5797,-23.437500
5798,-23.437500
5799,-23.437500
5800,-23.437500
5801,-23.437500
5802,-23.437500
5803,-23.437500
5804,-23.437500
5805,-23.437500
5806,-23.437500
5807,-23.437500
5808,-23.437500
5809,-23.437500
5810,-23.437500
5811,-23.437500
5812,-23.437500
5813,-23.437500
5814,-23.437500
5815,-23.437500
5816,-21.484375
5817,-21.484375
5818,-21.484375
5819,-23.437500
5820,-21.484375
5821,-21.484375
5822,-21.484375
5823,-21.484375
5824,-21.484375
5825,-21.484375
5826,-21.484375
5827,-21.484375
5828,-19.531250
5829,-21.484375
5830,-19.531250
5831,-19.531250
5832,-19.531250
5833,-19.531250
5834,-19.531250
5835,-19.531250
5836,-19.531250
5837,-17.578125
5838,-17.578125
5839,-17.578125
5840,-17.578125
5841,-17.578125
5842,-17.578125
5843,-17.578125
5844,-15.625000
5845,-15.625000
5846,-15.625000
5847,-15.625000
5848,-15.625000
5849,-15.625000
5850,-13.671875
5851,-13.671875
5852,-13.671875
5853,-13.671875
5854,-13.671875
5855,-11.718750
5856,-11.718750
5857,-11.718750
5858,-11.718750
5859,-11.718750
5860,-11.718750
5861,-9.765625
5862,-9.765625
5863,-9.765625
5864,-9.765625
5865,-9.765625
5866,-7.812500
5867,-7.812500
5868,-7.812500
5869,-7.812500
5870,-7.812500
5871,-5.859375
5872,-5.859375
5873,-5.859375
5874,-5.859375
5875,-3.906250
5876,-3.906250
5877,-5.859375
5878,-3.906250
5879,-3.906250
5880,-3.906250
5881,-3.906250
5882,-1.953125
5883,-1.953125
5884,-1.953125
5885,-1.953125
5886,-1.953125
5887,0.000000
5888,0.000000
5889,0.000000
5890,0.000000
5891,0.000000
5892,0.000000
5893,1.953125
5894,1.953125
5895,1.953125
5896,1.953125
5897,1.953125
5898,3.906250
5899,1.953125
5900,3.906250
5901,3.906250
5902,1.953125
5903,3.906250
5904,3.906250
5905,5.859375
5906,5.859375
5907,3.906250
5908,5.859375
5909,5.859375
5910,5.859375
5911,5.859375
5912,5.859375
5913,7.812500
5914,7.812500
5915,7.812500
5916,7.812500
5917,7.812500
5918,7.812500
5919,7.812500
5920,7.812500
5921,7.812500
5922,9.765625
5923,9.765625
5924,9.765625
5925,9.765625
5926,9.765625
5927,9.765625
5928,9.765625
5929,9.765625
5930,9.765625
5931,9.765625
5932,9.765625
5933,11.718750
5934,9.765625
5935,9.765625
5936,11.718750
5937,11.718750
5938,11.718750
5939,11.718750
5940,11.718750
5941,11.718750
5942,11.718750
5943,11.718750
5944,11.718750
5945,9.765625
5946,11.718750
5947,11.718750
5948,11.718750
5949,11.718750
5950,9.765625
5951,9.765625
5952,11.718750
5953,9.765625
5954,9.765625
5955,11.718750
5956,9.765625
5957,9.765625
5958,9.765625
5959,9.765625
5960,9.765625
5961,9.765625
5962,9.765625
5963,9.765625
5964,9.765625
5965,9.765625
5966,9.765625
5967,9.765625
5968,7.812500
5969,7.812500
5970,7.812500
5971,9.765625
5972,7.812500
5973,7.812500
5974,7.812500
5975,5.859375
5976,5.859375
5977,5.859375
5978,5.859375
5979,5.859375
5980,5.859375
5981,5.859375
5982,5.859375
5983,5.859375
5984,5.859375
5985,3.906250
5986,3.906250
5987,3.906250
5988,3.906250
5989,3.906250
5990,3.906250
5991,3.906250
5992,1.953125
5993,1.953125
5994,1.953125
5995,1.953125
5996,1.953125
5997,1.953125
5998,0.000000
5999,0.000000
6000,0.000000
6001,0.000000
6002,0.000000
6003,0.000000
6004,-1.953125
6005,-1.953125
6006,-1.953125
6007,-1.953125
6008,-3.906250
6009,-3.906250
6010,-3.906250
6011,-3.906250
6012,-3.906250
6013,-3.906250
6014,-5.859375
6015,-5.859375
6016,-5.859375
6017,-7.812500
6018,-7.812500
6019,-7.812500
6020,-7.812500
6021,-7.812500
6022,-7.812500
6023,-9.765625
6024,-9.765625
6025,-9.765625
6026,-9.765625
6027,-9.765625
6028,-11.718750
6029,-11.718750
6030,-11.718750
6031,-11.718750
6032,-11.718750
6033,-13.671875
6034,-11.718750
6035,-13.671875
6036,-13.671875
6037,-13.671875
6038,-13.671875
6039,-15.625000
6040,-15.625000
6041,-15.625000
6042,-15.625000
6043,-15.625000
6044,-17.578125
6045,-17.578125
6046,-17.578125
6047,-17.578125
6048,-17.578125
6049,-17.578125
6050,-17.578125
6051,-17.578125
6052,-17.578125
6053,-19.531250
6054,-19.531250
6055,-19.531250
6056,-19.531250
6057,-19.531250
6058,-19.531250
6059,-19.531250
6060,-19.531250
6061,-19.531250
6062,-19.531250
6063,-21.484375
6064,-21.484375
6065,-21.484375
6066,-23.437500
6067,-21.484375
6068,-21.484375
6069,-21.484375
6070,-21.484375
6071,-21.484375
6072,-21.484375
6073,-21.484375
6074,-21.484375
6075,-23.437500
6076,-23.437500
6077,-23.437500
6078,-23.437500
6079,-23.437500
6080,-23.437500
6081,-23.437500
6082,-23.437500
6083,-21.484375
6084,-23.437500
6085,-21.484375
6086,-21.484375
6087,-21.484375
6088,-23.437500
6089,-23.437500
6090,-23.437500
6091,-23.437500
6092,-23.437500
6093,-23.437500
6094,-23.437500
6095,-23.437500
6096,-23.437500
6097,-23.437500
6098,-21.484375
6099,-21.484375
6100,-21.484375
6101,-23.437500
6102,-21.484375
6103,-23.437500
6104,-21.484375
6105,-21.484375
6106,-21.484375
6107,-21.484375
6108,-21.484375
6109,-21.484375
6110,-21.484375
6111,-21.484375
6112,-21.484375
6113,-21.484375
6114,-19.531250
6115,-19.531250
6116,-19.531250
6117,-19.531250
6118,-19.531250
6119,-19.531250
6120,-13.671875
6121,-17.578125
6122,-17.578125
6123,-17.578125
6124,-17.578125
6125,-17.578125
6126,-17.578125
6127,-15.625000
6128,-15.625000
6129,-15.625000
6130,-15.625000
6131,-15.625000
6132,-15.625000
6133,-13.671875
6134,-13.671875
6135,-17.578125
6136,-13.671875
6137,-13.671875
6138,-11.718750
6139,-11.718750
6140,-11.718750
6141,-11.718750
6142,-11.718750
6143,-9.765625
6144,-9.765625
6145,-9.765625
6146,-9.765625
6147,-9.765625
6148,-9.765625
6149,-9.765625
6150,-7.812500
6151,-7.812500
6152,-7.812500
6153,-7.812500
6154,-1.953125
6155,-5.859375
6156,-5.859375
6157,-5.859375
6158,-5.859375
6159,-5.859375
6160,-3.906250
6161,-3.906250
6162,-3.906250
6163,-3.906250
6164,-1.953125
6165,-3.906250
6166,-3.906250
6167,-1.953125
6168,-1.953125
6169,-1.953125
6170,0.000000
6171,1.953125
6172,0.000000
6173,0.000000
6174,1.953125
6175,0.000000
6176,1.953125
6177,1.953125
6178,1.953125
6179,1.953125
6180,1.953125
6181,1.953125
6182,1.953125
6183,3.906250
6184,3.906250
6185,3.906250
6186,3.906250
6187,3.906250
6188,5.859375
6189,5.859375
6190,5.859375
6191,5.859375
6192,5.859375
6193,5.859375
6194,7.812500
6195,7.812500
6196,7.812500
6197,7.812500
6198,7.812500
6199,7.812500
6200,7.812500
6201,7.812500
6202,7.812500
6203,7.812500
6204,9.765625
6205,9.765625
6206,9.765625
6207,9.765625
6208,9.765625
6209,9.765625
6210,9.765625
6211,9.765625
6212,9.765625
6213,9.765625
6214,9.765625
6215,9.765625
6216,9.765625
6217,11.718750
6218,9.765625
6219,9.765625
6220,9.765625
6221,9.765625
6222,11.718750
6223,11.718750
6224,9.765625
6225,9.765625
6226,9.765625
6227,9.765625
6228,11.718750
6229,11.718750
6230,9.765625
6231,9.765625
6232,11.718750
6233,11.718750
6234,9.765625
6235,9.765625
6236,9.765625
6237,9.765625
6238,11.718750
6239,9.765625
6240,9.765625
6241,9.765625
6242,9.765625
6243,9.765625
6244,9.765625
6245,9.765625
6246,9.765625
6247,9.765625
6248,9.765625
6249,9.765625
6250,7.812500
6251,9.765625
6252,7.812500
6253,7.812500
6254,9.765625
6255,7.812500
6256,7.812500
6257,7.812500
6258,7.812500
6259,7.812500
6260,7.812500
6261,5.859375
6262,5.859375
6263,5.859375
6264,5.859375
6265,5.859375
6266,5.859375
6267,5.859375
6268,3.906250
6269,3.906250
6270,3.906250
6271,3.906250
6272,1.953125
6273,3.906250
6274,3.906250
6275,1.953125
6276,1.953125
6277,1.953125
6278,0.000000
6279,1.953125
6280,1.953125
6281,0.000000
6282,0.000000
6283,0.000000
6284,0.000000
6285,-1.953125
6286,-1.953125
6287,-1.953125
6288,-1.953125
6289,-1.953125
6290,-1.953125
6291,-3.906250
6292,-3.906250
6293,-3.906250
6294,-3.906250
6295,-3.906250
6296,-5.859375
6297,-5.859375
6298,-5.859375
6299,-7.812500
6300,-7.812500
6301,-7.812500
6302,-7.812500
6303,-7.812500
6304,-7.812500
6305,-9.765625
6306,-9.765625
6307,-9.765625
6308,-11.718750
6309,-11.718750
6310,-11.718750
6311,-9.765625
6312,-11.718750
6313,-11.718750
6314,-11.718750
6315,-11.718750
6316,-13.671875
6317,-13.671875
6318,-13.671875
6319,-13.671875
6320,-13.671875
6321,-13.671875
6322,-15.625000
6323,-15.625000
6324,-15.625000
6325,-15.625000
6326,-15.625000
6327,-17.578125
6328,-15.625000
6329,-17.578125
6330,-17.578125
6331,-17.578125
6332,-19.531250
6333,-17.578125
6334,-19.531250
6335,-19.531250
6336,-17.578125
6337,-19.531250
6338,-19.531250
6339,-19.531250
6340,-19.531250
6341,-21.484375
6342,-19.531250
6343,-19.531250
6344,-21.484375
6345,-21.484375
6346,-21.484375
6347,-21.484375
6348,-21.484375
6349,-21.484375
6350,-21.484375
6351,-19.531250
6352,-23.437500
6353,-23.437500
6354,-23.437500
6355,-23.437500
6356,-23.437500
6357,-23.437500
6358,-23.437500
6359,-21.484375
6360,-23.437500
6361,-23.437500
6362,-23.437500
6363,-23.437500
6364,-23.437500
6365,-23.437500
6366,-23.437500
6367,-23.437500
6368,-23.437500
6369,-23.437500
6370,-23.437500
6371,-23.437500
6372,-23.437500
6373,-23.437500
6374,-23.437500
6375,-21.484375
6376,-23.437500
6377,-23.437500
6378,-23.437500
6379,-21.484375
6380,-23.437500
6381,-21.484375
6382,-23.437500
6383,-21.484375
6384,-21.484375
6385,-21.484375
6386,-21.484375
6387,-21.484375
6388,-21.484375
6389,-21.484375
6390,-21.484375
6391,-21.484375
6392,-19.531250
6393,-21.484375
6394,-19.531250
6395,-21.484375
6396,-19.531250
6397,-19.531250
6398,-19.531250
6399,-19.531250
6400,-19.531250
6401,-19.531250
6402,-19.531250
6403,-17.578125
6404,-17.578125
6405,-17.578125
6406,-17.578125
6407,-17.578125
6408,-15.625000
6409,-15.625000
6410,-15.625000
6411,-15.625000
6412,-15.625000
6413,-15.625000
6414,-15.625000
6415,-15.625000
6416,-13.671875
6417,-13.671875
6418,-13.671875
6419,-13.671875
6420,-13.671875
6421,-11.718750
6422,-11.718750
6423,-11.718750
6424,-11.718750
6425,-11.718750
6426,-11.718750
6427,-9.765625
6428,-9.765625
6429,-9.765625
6430,-9.765625
6431,-9.765625
6432,-7.812500
6433,-7.812500
6434,-7.812500
6435,-7.812500
6436,-7.812500
6437,-7.812500
6438,-5.859375
6439,-5.859375
6440,-5.859375
6441,-5.859375
6442,-5.859375
6443,-3.906250
6444,-3.906250
6445,-3.906250
6446,-1.953125
6447,-1.953125
6448,-1.953125
6449,-1.953125
6450,-1.953125
6451,-1.953125
6452,0.000000
6453,0.000000
6454,0.000000
6455,0.000000
6456,0.000000
6457,1.953125
6458,1.953125
6459,1.953125
6460,1.953125
6461,1.953125
6462,3.906250
6463,3.906250
6464,3.906250
6465,3.906250
6466,3.906250
6467,3.906250
6468,3.906250
6469,5.859375
6470,5.859375
6471,5.859375
6472,5.859375
6473,5.859375
6474,5.859375
6475,5.859375
6476,5.859375
6477,5.859375
6478,7.812500
6479,5.859375
6480,7.812500
6481,7.812500
6482,7.812500
6483,7.812500
6484,7.812500
6485,7.812500
6486,7.812500
6487,7.812500
6488,9.765625
6489,7.812500
6490,9.765625
6491,9.765625
6492,9.765625
6493,9.765625
6494,9.765625
6495,9.765625
6496,9.765625
6497,9.765625
6498,11.718750
6499,9.765625
6500,11.718750
6501,9.765625
6502,9.765625
6503,9.765625
6504,9.765625
6505,11.718750
6506,11.718750
6507,11.718750
6508,11.718750
6509,11.718750
6510,11.718750
6511,11.718750
6512,9.765625
6513,9.765625
6514,11.718750
6515,11.718750
6516,9.765625
6517,11.718750
6518,11.718750
6519,11.718750
6520,9.765625
6521,9.765625
6522,9.765625
6523,11.718750
6524,9.765625
6525,9.765625
6526,9.765625
6527,9.765625
6528,9.765625
6529,9.765625
6530,9.765625
6531,9.765625
6532,7.812500
6533,7.812500
6534,7.812500
6535,7.812500
6536,7.812500
6537,7.812500
6538,7.812500
6539,7.812500
6540,7.812500
6541,7.812500
6542,5.859375
6543,5.859375
6544,5.859375
6545,5.859375
6546,5.859375
6547,5.859375
6548,3.906250
6549,3.906250
6550,3.906250
6551,3.906250
6552,3.906250
6553,3.906250
6554,3.906250
6555,1.953125
6556,1.953125
6557,1.953125
6558,1.953125
6559,1.953125
6560,1.953125
6561,0.000000
6562,0.000000
6563,0.000000
6564,0.000000
6565,0.000000
6566,-1.953125
6567,-1.953125
6568,-1.953125
6569,-1.953125
6570,-1.953125
6571,-3.906250
6572,-3.906250
6573,-3.906250
6574,-3.906250
6575,-3.906250
6576,-3.906250
6577,-3.906250
6578,-5.859375
6579,-5.859375
6580,-5.859375
6581,-5.859375
6582,-7.812500
6583,-7.812500
6584,-7.812500
6585,-7.812500
6586,-7.812500
6587,-7.812500
6588,-9.765625
6589,-9.765625
6590,-9.765625
6591,-9.765625
6592,-11.718750
6593,-9.765625
6594,-11.718750
6595,-11.718750
6596,-11.718750
6597,-11.718750
6598,-13.671875
6599,-13.671875
6600,-13.671875
6601,-13.671875
6602,-13.671875
6603,-13.671875
6604,-15.625000
6605,-15.625000
6606,-15.625000
6607,-15.625000
6608,-15.625000
6609,-17.578125
6610,-17.578125
6611,-17.578125
6612,-17.578125
6613,-17.578125
6614,-17.578125
6615,-17.578125
6616,-17.578125
6617,-19.531250
6618,-19.531250
6619,-19.531250
6620,-19.531250
6621,-19.531250
6622,-19.531250
6623,-21.484375
6624,-21.484375
6625,-21.484375
6626,-21.484375
6627,-21.484375
6628,-21.484375
6629,-21.484375
6630,-21.484375
6631,-21.484375
6632,-21.484375
6633,-21.484375
6634,-21.484375
6635,-21.484375
6636,-21.484375
6637,-21.484375
6638,-23.437500
6639,-23.437500
6640,-23.437500
6641,-23.437500
6642,-23.437500
6643,-21.484375
6644,-23.437500
6645,-23.437500
6646,-23.437500
6647,-23.437500
6648,-23.437500
6649,-23.437500
6650,-23.437500
6651,-23.437500
6652,-23.437500
6653,-23.437500
6654,-21.484375
6655,-23.437500
6656,-21.484375
6657,-23.437500
6658,-23.437500
6659,-23.437500
6660,-23.437500
6661,-21.484375
6662,-23.437500
6663,-23.437500
6664,-21.484375
6665,-21.484375
6666,-23.437500
6667,-21.484375
6668,-21.484375
6669,-21.484375
6670,-21.484375
6671,-21.484375
6672,-21.484375
6673,-21.484375
6674,-21.484375
6675,-21.484375
6676,-21.484375
6677,-19.531250
6678,-21.484375
6679,-19.531250
6680,-19.531250
6681,-19.531250
6682,-19.531250
6683,-19.531250
6684,-19.531250
6685,-17.578125
6686,-17.578125
6687,-17.578125
6688,-17.578125
6689,-17.578125
6690,-17.578125
6691,-15.625000
6692,-15.625000
6693,-15.625000
6694,-15.625000
6695,-15.625000
6696,-15.625000
6697,-13.671875
6698,-13.671875
6699,-13.671875
6700,-13.671875
6701,-13.671875
6702,-13.671875
6703,-11.718750
6704,-11.718750
6705,-13.671875
6706,-15.625000
6707,-9.765625
6708,-11.718750
6709,-9.765625
6710,-9.765625
6711,-9.765625
6712,-9.765625
6713,-9.765625
6714,-7.812500
6715,-7.812500
6716,-7.812500
6717,-5.859375
6718,-5.859375
6719,-5.859375
6720,-5.859375
6721,-5.859375
6722,-5.859375
6723,-5.859375
6724,-3.906250
6725,-3.906250
6726,-3.906250
6727,-3.906250
6728,-3.906250
6729,-1.953125
6730,-1.953125
6731,-1.953125
6732,-1.953125
6733,-1.953125
6734,0.000000
6735,0.000000
6736,0.000000
6737,0.000000
6738,0.000000
6739,0.000000
6740,3.906250
6741,1.953125
6742,1.953125
6743,1.953125
6744,1.953125
6745,1.953125
6746,1.953125
6747,3.906250
6748,3.906250
6749,3.906250
6750,3.906250
6751,3.906250
6752,3.906250
6753,5.859375
6754,5.859375
6755,3.906250
6756,5.859375
6757,5.859375
6758,7.812500
6759,7.812500
6760,5.859375
6761,5.859375
6762,7.812500
6763,7.812500
6764,7.812500
6765,7.812500
6766,7.812500
6767,7.812500
6768,9.765625
6769,7.812500
6770,9.765625
6771,9.765625
6772,9.765625
6773,9.765625
6774,9.765625
6775,9.765625
6776,9.765625
6777,11.718750
6778,9.765625
6779,9.765625
6780,9.765625
6781,9.765625
6782,9.765625
6783,9.765625
6784,9.765625
6785,11.718750
6786,9.765625
6787,11.718750
6788,11.718750
6789,11.718750
6790,9.765625
6791,11.718750
6792,9.765625
6793,9.765625
6794,11.718750
6795,11.718750
6796,9.765625
6797,11.718750
6798,11.718750
6799,9.765625
6800,11.718750
6801,9.765625
6802,9.765625
6803,9.765625
6804,9.765625
6805,9.765625
6806,9.765625
6807,9.765625
6808,9.765625
6809,9.765625
6810,9.765625
6811,9.765625
6812,7.812500
6813,9.765625
6814,9.765625
6815,7.812500
6816,7.812500
6817,9.765625
6818,7.812500
6819,7.812500
6820,7.812500
6821,7.812500
6822,5.859375
6823,7.812500
6824,5.859375
6825,5.859375
6826,5.859375
6827,5.859375
6828,5.859375
6829,5.859375
6830,5.859375
6831,3.906250
6832,5.859375
6833,3.906250
6834,3.906250
6835,3.906250
6836,3.906250
6837,3.906250
6838,1.953125
6839,3.906250
6840,1.953125
6841,1.953125
6842,1.953125
6843,1.953125
6844,0.000000
6845,0.000000
6846,0.000000
6847,0.000000
6848,0.000000
6849,0.000000
6850,-1.953125
6851,-1.953125
6852,-1.953125
6853,-1.953125
6854,-3.906250
6855,-3.906250
6856,-3.906250
6857,-3.906250
6858,-3.906250
6859,-3.906250
6860,-3.906250
6861,-5.859375
6862,-5.859375
6863,-5.859375
6864,-5.859375
6865,-5.859375
6866,-7.812500
6867,-7.812500
6868,-7.812500
6869,-7.812500
6870,-9.765625
6871,-9.765625
6872,-9.765625
6873,-9.765625
6874,-9.765625
6875,-11.718750
6876,-11.718750
6877,-11.718750
6878,-11.718750
6879,-13.671875
6880,-13.671875
6881,-11.718750
6882,-13.671875
6883,-13.671875
6884,-13.671875
6885,-15.625000
6886,-15.625000
6887,-15.625000
6888,-15.625000
6889,-15.625000
6890,-15.625000
6891,-15.625000
6892,-15.625000
6893,-15.625000
6894,-17.578125
6895,-17.578125
6896,-17.578125
6897,-17.578125
6898,-17.578125
6899,-17.578125
6900,-19.531250
6901,-19.531250
6902,-19.531250
6903,-19.531250
6904,-19.531250
6905,-21.484375
6906,-19.531250
6907,-19.531250
6908,-19.531250
6909,-19.531250
6910,-21.484375
6911,-21.484375
6912,-21.484375
6913,-21.484375
6914,-21.484375
6915,-21.484375
6916,-21.484375
6917,-21.484375
6918,-23.437500
6919,-23.437500
6920,-23.437500
6921,-23.437500
6922,-23.437500
6923,-23.437500
6924,-23.437500
6925,-23.437500
6926,-23.437500
6927,-23.437500
6928,-23.437500
6929,-23.437500
6930,-23.437500
6931,-23.437500
6932,-23.437500
6933,-23.437500
6934,-23.437500
6935,-23.437500
6936,-23.437500
6937,-23.437500
6938,-23.437500
6939,-23.437500
6940,-23.437500
6941,-23.437500
6942,-23.437500
6943,-23.437500
6944,-23.437500
6945,-23.437500
6946,-23.437500
6947,-23.437500
6948,-21.484375
6949,-23.437500
6950,-23.437500
6951,-21.484375
6952,-21.484375
6953,-21.484375
6954,-21.484375
6955,-21.484375
6956,-21.484375
6957,-21.484375
6958,-19.531250
6959,-21.484375
6960,-19.531250
6961,-19.531250
6962,-19.531250
6963,-19.531250
6964,-19.531250
6965,-19.531250
6966,-17.578125
6967,-17.578125
6968,-17.578125
6969,-17.578125
6970,-17.578125
6971,-17.578125
6972,-17.578125
6973,-15.625000
6974,-15.625000
6975,-15.625000
6976,-15.625000
6977,-15.625000
6978,-13.671875
6979,-13.671875
6980,-13.671875
6981,-13.671875
6982,-13.671875
6983,-13.671875
6984,-13.671875
6985,-11.718750
6986,-11.718750
6987,-11.718750
6988,-11.718750
6989,-9.765625
6990,-11.718750
6991,-9.765625
6992,-9.765625
6993,-9.765625
6994,-9.765625
6995,-9.765625
6996,-9.765625
6997,-9.765625
6998,-7.812500
6999,-7.812500
7000,-7.812500
7001,-7.812500
7002,-5.859375
7003,-5.859375
7004,-5.859375
7005,-5.859375
7006,-5.859375
7007,-5.859375
7008,-3.906250
7009,-3.906250
7010,-3.906250
7011,-1.953125
7012,-1.953125
7013,-1.953125
7014,-1.953125
7015,-1.953125
7016,-1.953125
7017,-1.953125
7018,0.000000
7019,0.000000
7020,0.000000
7021,0.000000
7022,1.953125
7023,1.953125
7024,1.953125
7025,1.953125
7026,1.953125
7027,1.953125
7028,3.906250
7029,3.906250
7030,3.906250
7031,3.906250
7032,3.906250
7033,3.906250
7034,5.859375
7035,5.859375
7036,5.859375
7037,5.859375
7038,5.859375
7039,5.859375
7040,5.859375
7041,5.859375
7042,5.859375
7043,7.812500
7044,7.812500
7045,7.812500
7046,7.812500
7047,7.812500
7048,7.812500
7049,7.812500
7050,9.765625
7051,9.765625
7052,9.765625
7053,9.765625
7054,9.765625
7055,9.765625
7056,9.765625
7057,9.765625
7058,9.765625
7059,9.765625
7060,9.765625
7061,9.765625
7062,9.765625
7063,9.765625
7064,11.718750
7065,9.765625
7066,9.765625
7067,9.765625
7068,11.718750
7069,9.765625
7070,9.765625
7071,9.765625
7072,9.765625
7073,9.765625
7074,9.765625
7075,11.718750
7076,9.765625
7077,11.718750
7078,9.765625
7079,9.765625
7080,11.718750
7081,9.765625
7082,11.718750
7083,11.718750
7084,11.718750
7085,9.765625
7086,9.765625
7087,9.765625
7088,9.765625
7089,9.765625
7090,9.765625
7091,9.765625
7092,9.765625
7093,9.765625
7094,9.765625
7095,9.765625
7096,9.765625
7097,9.765625
7098,9.765625
7099,7.812500
7100,7.812500
7101,7.812500
7102,7.812500
7103,7.812500
7104,7.812500
7105,5.859375
7106,5.859375
7107,5.859375
7108,5.859375
7109,5.859375
7110,5.859375
7111,5.859375
7112,5.859375
7113,3.906250
7114,5.859375
7115,3.906250
7116,3.906250
7117,3.906250
7118,3.906250
7119,3.906250
7120,3.906250
7121,1.953125
7122,1.953125
7123,1.953125
7124,1.953125
7125,1.953125
7126,1.953125
7127,0.000000
7128,0.000000
7129,0.000000
7130,0.000000
7131,0.000000
7132,-1.953125
7133,-1.953125
7134,-1.953125
7135,-1.953125
7136,-1.953125
7137,-3.906250
7138,-3.906250
7139,-3.906250
7140,-5.859375
7141,-3.906250
7142,-5.859375
7143,-5.859375
7144,-5.859375
7145,-5.859375
7146,-5.859375
7147,-7.812500
7148,-7.812500
7149,-7.812500
7150,-7.812500
7151,-9.765625
7152,-7.812500
7153,-9.765625
7154,-9.765625
7155,-9.765625
7156,-11.718750
7157,-9.765625
7158,-11.718750
7159,-11.718750
7160,-11.718750
7161,-11.718750
7162,-13.671875
7163,-13.671875
7164,-13.671875
7165,-13.671875
7166,-13.671875
7167,-13.671875
7168,-15.625000
7169,-15.625000
7170,-15.625000
7171,-15.625000
7172,-15.625000
7173,-15.625000
7174,-15.625000
7175,-17.578125
7176,-17.578125
7177,-17.578125
7178,-17.578125
7179,-17.578125
7180,-19.531250
7181,-19.531250
7182,-19.531250
7183,-19.531250
7184,-19.531250
7185,-19.531250
7186,-19.531250
7187,-19.531250
7188,-21.484375
7189,-21.484375
7190,-21.484375
7191,-21.484375
7192,-21.484375
7193,-21.484375
7194,-21.484375
7195,-21.484375
7196,-21.484375
7197,-21.484375
7198,-21.484375
7199,-21.484375
7200,-23.437500
7201,-23.437500
7202,-23.437500
7203,-23.437500
7204,-23.437500
7205,-23.437500
7206,-23.437500
7207,-23.437500
7208,-23.437500
7209,-23.437500
7210,-23.437500
7211,-23.437500
7212,-23.437500
7213,-23.437500
7214,-23.437500
7215,-23.437500
7216,-23.437500
7217,-23.437500
7218,-23.437500
7219,-21.484375
7220,-23.437500
7221,-23.437500
7222,-23.437500
7223,-23.437500
7224,-23.437500
7225,-23.437500
7226,-21.484375
7227,-23.437500
7228,-21.484375
7229,-21.484375
7230,-23.437500
7231,-21.484375
7232,-21.484375
7233,-21.484375
7234,-21.484375
7235,-21.484375
7236,-21.484375
7237,-21.484375
7238,-21.484375
7239,-19.531250
7240,-21.484375
7241,-19.531250
7242,-19.531250
7243,-19.531250
7244,-19.531250
7245,-19.531250
7246,-19.531250
7247,-19.531250
7248,-17.578125
7249,-17.578125
7250,-17.578125
7251,-17.578125
7252,-17.578125
7253,-17.578125
7254,-17.578125
7255,-15.625000
7256,-15.625000
7257,-17.578125
7258,-15.625000
7259,-15.625000
7260,-15.625000
7261,-13.671875
7262,-13.671875
7263,-13.671875
7264,-13.671875
7265,-13.671875
7266,-13.671875
7267,-13.671875
7268,-11.718750
7269,-11.718750
7270,-11.718750
7271,-11.718750
7272,-11.718750
7273,-9.765625
7274,-9.765625
7275,-9.765625
7276,-9.765625
7277,-9.765625
7278,-9.765625
7279,-7.812500
7280,-7.812500
7281,-7.812500
7282,-7.812500
7283,-7.812500
7284,-5.859375
7285,-5.859375
7286,-5.859375
7287,-5.859375
7288,-5.859375
7289,-3.906250
7290,-3.906250
7291,-3.906250
7292,-3.906250
7293,-1.953125
7294,-3.906250
7295,-1.953125
7296,-1.953125
7297,-1.953125
7298,-1.953125
7299,0.000000
7300,0.000000
7301,-1.953125
7302,0.000000
7303,0.000000
7304,0.000000
7305,1.953125
7306,1.953125
7307,1.953125
7308,1.953125
7309,1.953125
7310,3.906250
7311,3.906250
7312,1.953125
7313,3.906250
7314,3.906250
7315,3.906250
7316,5.859375
7317,3.906250
7318,5.859375
7319,5.859375
7320,5.859375
7321,5.859375
7322,5.859375
7323,5.859375
7324,7.812500
7325,5.859375
7326,5.859375
7327,7.812500
7328,7.812500
7329,7.812500
7330,7.812500
7331,7.812500
7332,7.812500
7333,9.765625
7334,7.812500
7335,9.765625
7336,9.765625
7337,9.765625
7338,9.765625
7339,9.765625
7340,9.765625
7341,9.765625
7342,9.765625
7343,9.765625
7344,9.765625
7345,9.765625
7346,9.765625
7347,9.765625
7348,9.765625
7349,9.765625
7350,11.718750
7351,9.765625
7352,11.718750
7353,11.718750
7354,11.718750
7355,11.718750
7356,9.765625
7357,11.718750
7358,11.718750
7359,11.718750
7360,11.718750
7361,11.718750
7362,11.718750
7363,11.718750
7364,9.765625
7365,11.718750
7366,9.765625
7367,9.765625
7368,9.765625
7369,9.765625
7370,9.765625
7371,9.765625
7372,9.765625
7373,9.765625
7374,9.765625
7375,9.765625
7376,9.765625
7377,9.765625
7378,9.765625
7379,7.812500
7380,7.812500
7381,9.765625
7382,7.812500
7383,7.812500
7384,7.812500
7385,7.812500
7386,5.859375
7387,7.812500
7388,7.812500
7389,5.859375
7390,5.859375
7391,5.859375
7392,5.859375
7393,5.859375
7394,5.859375
7395,5.859375
7396,3.906250
7397,3.906250
7398,3.906250
7399,3.906250
7400,3.906250
7401,1.953125
7402,1.953125
7403,1.953125
7404,1.953125
7405,1.953125
7406,0.000000
7407,1.953125
7408,0.000000
7409,0.000000
7410,0.000000
7411,0.000000
7412,0.000000
7413,-1.953125
7414,0.000000
7415,-1.953125
7416,-1.953125
7417,-1.953125
7418,-1.953125
7419,-1.953125
7420,-1.953125
7421,-3.906250
7422,-3.906250
7423,-3.906250
7424,-5.859375
7425,-3.906250
7426,-5.859375
7427,-5.859375
7428,-5.859375
7429,-5.859375
7430,-5.859375
7431,-7.812500
7432,-7.812500
7433,-7.812500
7434,-7.812500
7435,-7.812500
7436,-7.812500
7437,-9.765625
7438,-9.765625
7439,-11.718750
7440,-11.718750
7441,-11.718750
7442,-11.718750
7443,-11.718750
7444,-11.718750
7445,-13.671875
7446,-13.671875
7447,-13.671875
7448,-13.671875
7449,-13.671875
7450,-15.625000
7451,-13.671875
7452,-15.625000
7453,-15.625000
7454,-15.625000
7455,-15.625000
7456,-17.578125
7457,-17.578125
7458,-17.578125
7459,-17.578125
7460,-17.578125
7461,-17.578125
7462,-17.578125
7463,-17.578125
7464,-19.531250
7465,-19.531250
7466,-19.531250
7467,-19.531250
7468,-19.531250
7469,-19.531250
7470,-19.531250
7471,-21.484375
7472,-21.484375
7473,-21.484375
7474,-21.484375
7475,-21.484375
7476,-21.484375
7477,-21.484375
7478,-21.484375
7479,-21.484375
7480,-21.484375
7481,-21.484375
7482,-21.484375
7483,-23.437500
7484,-23.437500
7485,-23.437500
7486,-21.484375
7487,-23.437500
7488,-23.437500
7489,-23.437500
7490,-23.437500
7491,-23.437500
7492,-23.437500
7493,-23.437500
7494,-23.437500
7495,-23.437500
7496,-23.437500
7497,-23.437500
7498,-23.437500
7499,-23.437500
7500,-23.437500
7501,-23.437500
7502,-23.437500
7503,-23.437500
7504,-23.437500
7505,-23.437500
7506,-23.437500
7507,-23.437500
7508,-23.437500
7509,-23.437500
7510,-23.437500
7511,-23.437500
7512,-23.437500
7513,-21.484375
7514,-21.484375
7515,-23.437500
7516,-21.484375
7517,-21.484375
7518,-21.484375
7519,-21.484375
7520,-21.484375
7521,-21.484375
7522,-19.531250
7523,-21.484375
7524,-19.531250
7525,-19.531250
7526,-21.484375
7527,-19.531250
7528,-19.531250
7529,-19.531250
7530,-19.531250
7531,-19.531250
7532,-17.578125
7533,-17.578125
7534,-17.578125
7535,-17.578125
7536,-17.578125
7537,-17.578125
7538,-15.625000
7539,-15.625000
7540,-15.625000
7541,-15.625000
7542,-15.625000
7543,-13.671875
7544,-13.671875
7545,-13.671875
7546,-13.671875
7547,-13.671875
7548,-13.671875
7549,-13.671875
7550,-11.718750
7551,-11.718750
7552,-11.718750
7553,-11.718750
7554,-9.765625
7555,-11.718750
7556,-9.765625
7557,-9.765625
7558,-9.765625
7559,-9.765625
7560,-7.812500
7561,-7.812500
7562,-7.812500
7563,-7.812500
7564,-7.812500
7565,-7.812500
7566,-5.859375
7567,-5.859375
7568,-5.859375
7569,-5.859375
7570,-3.906250
7571,-3.906250
7572,-3.906250
7573,-3.906250
7574,-3.906250
7575,-3.906250
7576,-3.906250
7577,-1.953125
7578,-1.953125
7579,0.000000
7580,-1.953125
7581,-1.953125
7582,0.000000
7583,0.000000
7584,0.000000
7585,0.000000
7586,0.000000
7587,0.000000
7588,0.000000
7589,1.953125
7590,1.953125
7591,1.953125
7592,1.953125
7593,3.906250
7594,3.906250
7595,3.906250
7596,3.906250
7597,3.906250
7598,3.906250
7599,3.906250
7600,5.859375
7601,5.859375
7602,5.859375
7603,5.859375
7604,5.859375
7605,5.859375
7606,5.859375
7607,7.812500
7608,7.812500
7609,7.812500
7610,7.812500
7611,7.812500
7612,7.812500
7613,7.812500
7614,7.812500
7615,7.812500
7616,7.812500
7617,9.765625
7618,9.765625
7619,9.765625
7620,9.765625
7621,9.765625
7622,9.765625
7623,9.765625
7624,9.765625
7625,9.765625
7626,9.765625
7627,9.765625
7628,9.765625
7629,9.765625
7630,11.718750
7631,9.765625
7632,11.718750
7633,11.718750
7634,11.718750
7635,11.718750
7636,11.718750
7637,9.765625
7638,9.765625
7639,11.718750
7640,11.718750
7641,11.718750
7642,11.718750
7643,11.718750
7644,11.718750
7645,11.718750
7646,11.718750
7647,9.765625
7648,9.765625
7649,9.765625
7650,9.765625
7651,9.765625
7652,9.765625
7653,9.765625
7654,9.765625
7655,9.765625
7656,9.765625
7657,9.765625
7658,9.765625
7659,9.765625
7660,9.765625
7661,9.765625
7662,9.765625
7663,7.812500
7664,7.812500
7665,7.812500
7666,7.812500
7667,7.812500
7668,7.812500
7669,7.812500
7670,7.812500
7671,5.859375
7672,5.859375
7673,7.812500
7674,5.859375
7675,5.859375
7676,5.859375
7677,5.859375
7678,3.906250
7679,3.906250
7680,3.906250
7681,3.906250
7682,3.906250
7683,3.906250
7684,3.906250
7685,1.953125
7686,1.953125
7687,1.953125
7688,1.953125
7689,1.953125
7690,1.953125
7691,0.000000
7692,0.000000
7693,0.000000
7694,0.000000
7695,0.000000
7696,-1.953125
7697,-1.953125
7698,-1.953125
7699,-1.953125
7700,-1.953125
7701,-1.953125
7702,-3.906250
7703,-3.906250
7704,-3.906250
7705,-3.906250
7706,-3.906250
7707,-5.859375
7708,-5.859375
7709,-5.859375
7710,-5.859375
7711,-5.859375
7712,-7.812500
7713,-7.812500
7714,-7.812500
7715,-7.812500
7716,-7.812500
7717,-9.765625
7718,-9.765625
7719,-9.765625
7720,-9.765625
7721,-11.718750
7722,-11.718750
7723,-11.718750
7724,-11.718750
7725,-11.718750
7726,-11.718750
7727,-13.671875
7728,-13.671875
7729,-13.671875
7730,-13.671875
7731,-15.625000
7732,-15.625000
7733,-15.625000
7734,-15.625000
7735,-15.625000
7736,-15.625000
7737,-17.578125
7738,-15.625000
7739,-17.578125
7740,-17.578125
7741,-17.578125
7742,-17.578125
7743,-17.578125
7744,-17.578125
7745,-19.531250
7746,-19.531250
7747,-19.531250
7748,-19.531250
7749,-21.484375
7750,-19.531250
7751,-19.531250
7752,-19.531250
7753,-19.531250
7754,-19.531250
7755,-19.531250
7756,-21.484375
7757,-21.484375
7758,-21.484375
7759,-21.484375
7760,-21.484375
7761,-23.437500
7762,-21.484375
7763,-21.484375
7764,-21.484375
7765,-21.484375
7766,-23.437500
7767,-23.437500
7768,-23.437500
7769,-23.437500
7770,-23.437500
7771,-23.437500
7772,-23.437500
7773,-23.437500
7774,-23.437500
7775,-23.437500
7776,-23.437500
7777,-23.437500
7778,-23.437500
7779,-23.437500
7780,-23.437500
7781,-23.437500
7782,-23.437500
7783,-23.437500
7784,-23.437500
7785,-23.437500
7786,-23.437500
7787,-23.437500
7788,-23.437500
7789,-23.437500
7790,-21.484375
7791,-23.437500
7792,-23.437500
7793,-21.484375
7794,-23.437500
7795,-23.437500
7796,-21.484375
7797,-21.484375
7798,-23.437500
7799,-21.484375
7800,-21.484375
7801,-21.484375
7802,-21.484375
7803,-21.484375
7804,-21.484375
7805,-19.531250
7806,-19.531250
7807,-19.531250
7808,-19.531250
7809,-19.531250
7810,-19.531250
7811,-19.531250
7812,-17.578125
7813,-19.531250
7814,-17.578125
7815,-17.578125
7816,-17.578125
7817,-17.578125
7818,-17.578125
7819,-17.578125
7820,-15.625000
7821,-15.625000
7822,-15.625000
7823,-17.578125
7824,-15.625000
7825,-15.625000
7826,-15.625000
7827,-15.625000
7828,-13.671875
7829,-13.671875
7830,-11.718750
7831,-11.718750
7832,-13.671875
7833,-13.671875
7834,-11.718750
7835,-11.718750
7836,-11.718750
7837,-9.765625
7838,-11.718750
7839,-9.765625
7840,-9.765625
7841,-7.812500
7842,-7.812500
7843,-7.812500
7844,-7.812500
7845,-7.812500
7846,-7.812500
7847,-7.812500
7848,-7.812500
7849,-5.859375
7850,-5.859375
7851,-5.859375
7852,-5.859375
7853,-5.859375
7854,-3.906250
7855,-3.906250
7856,-3.906250
7857,-3.906250
7858,-3.906250
7859,-1.953125
7860,-1.953125
7861,-1.953125
7862,-1.953125
7863,0.000000
7864,0.000000
7865,-1.953125
7866,0.000000
7867,0.000000
7868,0.000000
7869,1.953125
7870,0.000000
7871,1.953125
7872,1.953125
7873,1.953125
7874,1.953125
7875,3.906250
7876,3.906250
7877,1.953125
7878,3.906250
7879,3.906250
7880,5.859375
7881,3.906250
7882,5.859375
7883,5.859375
7884,5.859375
7885,5.859375
7886,5.859375
7887,5.859375
7888,7.812500
7889,7.812500
7890,7.812500
7891,7.812500
7892,7.812500
7893,7.812500
7894,7.812500
7895,7.812500
7896,9.765625
7897,9.765625
7898,7.812500
7899,9.765625
7900,7.812500
7901,9.765625
7902,9.765625
7903,9.765625
7904,9.765625
7905,9.765625
7906,9.765625
7907,5.859375
7908,9.765625
7909,9.765625
7910,9.765625
7911,9.765625
7912,11.718750
7913,9.765625
7914,9.765625
7915,9.765625
7916,11.718750
7917,13.671875
7918,9.765625
7919,9.765625
7920,11.718750
7921,11.718750
7922,11.718750
7923,11.718750
7924,9.765625
7925,11.718750
7926,11.718750
7927,9.765625
7928,9.765625
7929,9.765625
7930,11.718750
7931,9.765625
7932,9.765625
7933,9.765625
7934,9.765625
7935,9.765625
7936,9.765625
7937,9.765625
7938,9.765625
7939,9.765625
7940,9.765625
7941,9.765625
7942,9.765625
7943,7.812500
7944,9.765625
7945,7.812500
7946,7.812500
7947,7.812500
7948,7.812500
7949,7.812500
7950,7.812500
7951,7.812500
7952,7.812500
7953,7.812500
7954,5.859375
7955,5.859375
7956,5.859375
7957,7.812500
7958,5.859375
7959,5.859375
7960,5.859375
7961,3.906250
7962,3.906250
7963,3.906250
7964,3.906250
7965,3.906250
7966,3.906250
7967,3.906250
7968,3.906250
7969,1.953125
7970,1.953125
7971,1.953125
7972,0.000000
7973,0.000000
7974,0.000000
7975,0.000000
7976,0.000000
7977,0.000000
7978,0.000000
7979,-1.953125
7980,-1.953125
7981,-3.906250
7982,-1.953125
7983,-1.953125
7984,-3.906250
7985,-3.906250
7986,-3.906250
7987,-3.906250
7988,-5.859375
7989,-5.859375
7990,-5.859375
7991,-5.859375
7992,-5.859375
7993,-7.812500
7994,-7.812500
7995,-7.812500
7996,-7.812500
7997,-7.812500
7998,-7.812500
7999,-9.765625
8000,-9.765625
8001,-9.765625
8002,-9.765625
8003,-9.765625
8004,-9.765625
8005,-11.718750
8006,-11.718750
8007,-11.718750
8008,-11.718750
8009,-11.718750
8010,-11.718750
8011,-13.671875
8012,-13.671875
8013,-13.671875
8014,-13.671875
8015,-15.625000
8016,-13.671875
8017,-15.625000
8018,-15.625000
8019,-15.625000
8020,-15.625000
8021,-15.625000
8022,-17.578125
8023,-19.531250
8024,-17.578125
8025,-17.578125
8026,-17.578125
8027,-17.578125
8028,-17.578125
8029,-17.578125
8030,-19.531250
8031,-19.531250
8032,-19.531250
8033,-19.531250
8034,-19.531250
8035,-19.531250
8036,-19.531250
8037,-21.484375
8038,-21.484375
8039,-21.484375
8040,-21.484375
8041,-21.484375
8042,-21.484375
8043,-21.484375
8044,-21.484375
8045,-23.437500
8046,-23.437500
8047,-23.437500
8048,-23.437500
8049,-23.437500
8050,-23.437500
8051,-21.484375
8052,-23.437500
8053,-23.437500
8054,-23.437500
8055,-23.437500
8056,-21.484375
8057,-23.437500
8058,-23.437500
8059,-23.437500
8060,-23.437500
8061,-19.531250
8062,-23.437500
8063,-23.437500
8064,-23.437500
8065,-23.437500
8066,-23.437500
8067,-23.437500
8068,-23.437500
8069,-21.484375
8070,-21.484375
8071,-23.437500
8072,-23.437500
8073,-23.437500
8074,-23.437500
8075,-23.437500
8076,-23.437500
8077,-23.437500
8078,-21.484375
8079,-21.484375
8080,-21.484375
8081,-21.484375
8082,-21.484375
8083,-21.484375
8084,-21.484375
8085,-21.484375
8086,-21.484375
8087,-21.484375
8088,-19.531250
8089,-19.531250
8090,-19.531250
8091,-19.531250
8092,-19.531250
8093,-19.531250
8094,-17.578125
8095,-17.578125
8096,-17.578125
8097,-19.531250
8098,-17.578125
8099,-17.578125
8100,-17.578125
8101,-17.578125
8102,-17.578125
8103,-17.578125
8104,-15.625000
8105,-15.625000
8106,-15.625000
8107,-15.625000
8108,-15.625000
8109,-15.625000
8110,-13.671875
8111,-15.625000
8112,-13.671875
8113,-13.671875
8114,-13.671875
8115,-11.718750
8116,-11.718750
8117,-11.718750
8118,-11.718750
8119,-11.718750
8120,-11.718750
8121,-9.765625
8122,-9.765625
8123,-9.765625
8124,-9.765625
8125,-7.812500
8126,-7.812500
8127,-7.812500
8128,-7.812500
8129,-7.812500
8130,-7.812500
8131,-7.812500
8132,-5.859375
8133,-5.859375
8134,-5.859375
8135,-3.906250
8136,-3.906250
8137,-3.906250
8138,-3.906250
8139,-3.906250
8140,-1.953125
8141,-1.953125
8142,-1.953125
8143,-1.953125
8144,-1.953125
8145,-1.953125
8146,0.000000
8147,0.000000
8148,0.000000
8149,0.000000
8150,1.953125
8151,1.953125
8152,1.953125
8153,1.953125
8154,1.953125
8155,1.953125
8156,1.953125
8157,1.953125
8158,1.953125
8159,3.906250
8160,3.906250
8161,3.906250
8162,3.906250
8163,5.859375
8164,3.906250
8165,5.859375
8166,5.859375
8167,5.859375
8168,5.859375
8169,5.859375
8170,5.859375
8171,5.859375
8172,5.859375
8173,7.812500
8174,7.812500
8175,7.812500
8176,7.812500
8177,7.812500
8178,7.812500
8179,7.812500
8180,7.812500
8181,9.765625
8182,9.765625
8183,9.765625
8184,9.765625
8185,9.765625
8186,9.765625
8187,9.765625
8188,9.765625
8189,9.765625
8190,9.765625
8191,9.765625
8192,11.718750
8193,9.765625
8194,9.765625
8195,9.765625
8196,9.765625
8197,9.765625
8198,9.765625
8199,11.718750
8200,11.718750
8201,11.718750
8202,11.718750
8203,11.718750
8204,11.718750
8205,11.718750
8206,11.718750
8207,11.718750
8208,11.718750
8209,11.718750
8210,9.765625
8211,11.718750
8212,11.718750
8213,11.718750
8214,9.765625
8215,11.718750
8216,11.718750
8217,9.765625
8218,9.765625
8219,9.765625
8220,9.765625
8221,9.765625
8222,9.765625
8223,9.765625
8224,9.765625
8225,9.765625
8226,9.765625
8227,9.765625
8228,7.812500
8229,7.812500
8230,7.812500
8231,7.812500
8232,7.812500
8233,7.812500
8234,7.812500
8235,7.812500
8236,5.859375
8237,5.859375
8238,5.859375
8239,5.859375
8240,5.859375
8241,5.859375
8242,5.859375
8243,3.906250
8244,3.906250
8245,3.906250
8246,3.906250
8247,3.906250
8248,1.953125
8249,3.906250
8250,3.906250
8251,1.953125
8252,1.953125
8253,1.953125
8254,1.953125
8255,0.000000
8256,0.000000
8257,0.000000
8258,0.000000
8259,0.000000
8260,0.000000
8261,0.000000
8262,-1.953125
8263,-1.953125
8264,-1.953125
8265,-1.953125
8266,-1.953125
8267,-3.906250
8268,-3.906250
8269,-3.906250
8270,-3.906250
8271,-3.906250
8272,-5.859375
8273,-5.859375
8274,-5.859375
8275,-5.859375
8276,-5.859375
8277,-7.812500
8278,-7.812500
8279,-7.812500
8280,-7.812500
8281,-7.812500
8282,-9.765625
8283,-9.765625
8284,-9.765625
8285,-11.718750
8286,-11.718750
8287,-9.765625
8288,-11.718750
8289,-11.718750
8290,-13.671875
8291,-11.718750
8292,-11.718750
8293,-13.671875
8294,-13.671875
8295,-13.671875
8296,-13.671875
8297,-15.625000
8298,-15.625000
8299,-15.625000
8300,-15.625000
8301,-15.625000
8302,-15.625000
8303,-15.625000
8304,-15.625000
8305,-17.578125
8306,-17.578125
8307,-17.578125
8308,-17.578125
8309,-19.531250
8310,-19.531250
8311,-19.531250
8312,-19.531250
8313,-19.531250
8314,-19.531250
8315,-19.531250
8316,-19.531250
8317,-19.531250
8318,-21.484375
8319,-21.484375
8320,-21.484375
8321,-21.484375
8322,-21.484375
8323,-21.484375
8324,-21.484375
8325,-21.484375
8326,-21.484375
8327,-21.484375
8328,-23.437500
8329,-23.437500
8330,-21.484375
8331,-23.437500
8332,-23.437500
8333,-23.437500
8334,-23.437500
8335,-23.437500
8336,-23.437500
8337,-23.437500
8338,-23.437500
8339,-23.437500
8340,-23.437500
8341,-23.437500
8342,-23.437500
8343,-23.437500
8344,-23.437500
8345,-23.437500
8346,-23.437500
8347,-23.437500
8348,-23.437500
8349,-23.437500
8350,-23.437500
8351,-23.437500
8352,-23.437500
8353,-23.437500
8354,-23.437500
8355,-23.437500
8356,-23.437500
8357,-23.437500
8358,-21.484375
8359,-23.437500
8360,-23.437500
8361,-21.484375
8362,-21.484375
8363,-23.437500
8364,-21.484375
8365,-21.484375
8366,-21.484375
8367,-21.484375
8368,-21.484375
8369,-21.484375
8370,-21.484375
8371,-19.531250
8372,-21.484375
8373,-19.531250
8374,-19.531250
8375,-19.531250
8376,-19.531250
8377,-19.531250
8378,-17.578125
8379,-17.578125
8380,-17.578125
8381,-17.578125
8382,-17.578125
8383,-17.578125
8384,-17.578125
8385,-17.578125
8386,-15.625000
8387,-15.625000
8388,-15.625000
8389,-15.625000
8390,-13.671875
8391,-15.625000
8392,-13.671875
8393,-13.671875
8394,-13.671875
8395,-13.671875
8396,-13.671875
8397,-11.718750
8398,-11.718750
8399,-11.718750
8400,-11.718750
8401,-11.718750
8402,-11.718750
8403,-9.765625
8404,-9.765625
8405,-9.765625
8406,-9.765625
8407,-7.812500
8408,-7.812500
8409,-7.812500
8410,-7.812500
8411,-7.812500
8412,-7.812500
8413,-5.859375
8414,-5.859375
8415,-5.859375
8416,-5.859375
8417,-3.906250
8418,-3.906250
8419,-5.859375
8420,-3.906250
8421,-3.906250
8422,-3.906250
8423,-1.953125
8424,-1.953125
8425,-1.953125
8426,-1.953125
8427,-1.953125
8428,-1.953125
8429,0.000000
8430,0.000000
8431,0.000000
8432,0.000000
8433,0.000000
8434,1.953125
8435,1.953125
8436,0.000000
8437,1.953125
8438,1.953125
8439,1.953125
8440,3.906250
8441,3.906250
8442,3.906250
8443,3.906250
8444,3.906250
8445,3.906250
8446,3.906250
8447,5.859375
8448,5.859375
8449,5.859375
8450,5.859375
8451,5.859375
8452,5.859375
8453,7.812500
8454,7.812500
8455,7.812500
8456,7.812500
8457,7.812500
8458,7.812500
8459,7.812500
8460,7.812500
8461,9.765625
8462,7.812500
8463,9.765625
8464,11.718750
8465,9.765625
8466,9.765625
8467,9.765625
8468,9.765625
8469,9.765625
8470,9.765625
8471,9.765625
8472,9.765625
8473,11.718750
8474,9.765625
8475,9.765625
8476,11.718750
8477,11.718750
8478,11.718750
8479,9.765625
8480,9.765625
8481,11.718750
8482,11.718750
8483,9.765625
8484,9.765625
8485,11.718750
8486,9.765625
8487,11.718750
8488,9.765625
8489,11.718750
8490,11.718750
8491,9.765625
8492,9.765625
8493,9.765625
8494,9.765625
8495,9.765625
8496,9.765625
8497,9.765625
8498,9.765625
8499,9.765625
8500,9.765625
8501,9.765625
8502,9.765625
8503,9.765625
8504,9.765625
8505,9.765625
8506,9.765625
8507,9.765625
8508,7.812500
8509,7.812500
8510,7.812500
8511,9.765625
8512,7.812500
8513,7.812500
8514,7.812500
8515,7.812500
8516,7.812500
8517,7.812500
8518,5.859375
8519,7.812500
8520,5.859375
8521,5.859375
8522,5.859375
8523,5.859375
8524,5.859375
8525,5.859375
8526,3.906250
8527,3.906250
8528,3.906250
8529,3.906250
8530,3.906250
8531,3.906250
8532,3.906250
8533,1.953125
8534,1.953125
8535,1.953125
8536,1.953125
8537,1.953125
8538,0.000000
8539,0.000000
8540,0.000000
8541,0.000000
8542,0.000000
8543,0.000000
8544,-1.953125
8545,-1.953125
8546,-1.953125
8547,-1.953125
8548,-1.953125
8549,-1.953125
8550,-3.906250
8551,-3.906250
8552,-3.906250
8553,-3.906250
8554,-5.859375
8555,-5.859375
8556,-5.859375
8557,-5.859375
8558,-5.859375
8559,-5.859375
8560,-7.812500
8561,-7.812500
8562,-7.812500
8563,-7.812500
8564,-7.812500
8565,-9.765625
8566,-9.765625
8567,-9.765625
8568,-9.765625
8569,-11.718750
8570,-11.718750
8571,-11.718750
8572,-11.718750
8573,-11.718750
8574,-13.671875
8575,-13.671875
8576,-13.671875
8577,-13.671875
8578,-13.671875
8579,-13.671875
8580,-13.671875
8581,-15.625000
8582,-15.625000
8583,-15.625000
8584,-15.625000
8585,-15.625000
8586,-15.625000
8587,-15.625000
8588,-17.578125
8589,-17.578125
8590,-17.578125
8591,-17.578125
8592,-17.578125
8593,-19.531250
8594,-19.531250
8595,-19.531250
8596,-19.531250
8597,-19.531250
8598,-19.531250
8599,-19.531250
8600,-19.531250
8601,-21.484375
8602,-21.484375
8603,-21.484375
8604,-21.484375
8605,-21.484375
8606,-21.484375
8607,-21.484375
8608,-21.484375
8609,-21.484375
8610,-21.484375
8611,-23.437500
8612,-23.437500
8613,-23.437500
8614,-23.437500
8615,-23.437500
8616,-21.484375
8617,-23.437500
8618,-23.437500
8619,-23.437500
8620,-23.437500
8621,-23.437500
8622,-23.437500
8623,-23.437500
8624,-23.437500
8625,-23.437500
8626,-23.437500
8627,-23.437500
8628,-23.437500
8629,-23.437500
8630,-23.437500
8631,-23.437500
8632,-23.437500
8633,-23.437500
8634,-23.437500
8635,-23.437500
8636,-23.437500
8637,-23.437500
8638,-23.437500
8639,-23.437500
8640,-23.437500
8641,-21.484375
8642,-23.437500
8643,-21.484375
8644,-21.484375
8645,-21.484375
8646,-21.484375
8647,-21.484375
8648,-21.484375
8649,-21.484375
8650,-21.484375
8651,-21.484375
8652,-19.531250
8653,-19.531250
8654,-19.531250
8655,-19.531250
8656,-19.531250
8657,-19.531250
8658,-19.531250
8659,-19.531250
8660,-19.531250
8661,-19.531250
8662,-17.578125
8663,-17.578125
8664,-17.578125
8665,-17.578125
8666,-17.578125
8667,-15.625000
8668,-15.625000
8669,-15.625000
8670,-15.625000
8671,-15.625000
8672,-15.625000
8673,-15.625000
8674,-13.671875
8675,-13.671875
8676,-13.671875
8677,-13.671875
8678,-13.671875
8679,-11.718750
8680,-11.718750
8681,-9.765625
8682,-11.718750
8683,-11.718750
8684,-11.718750
8685,-11.718750
8686,-9.765625
8687,-9.765625
8688,-9.765625
8689,-9.765625
8690,-5.859375
8691,-7.812500
8692,-7.812500
8693,-7.812500
8694,-7.812500
8695,-5.859375
8696,-5.859375
8697,-5.859375
8698,-5.859375
8699,-3.906250
8700,-5.859375
8701,-3.906250
8702,-3.906250
8703,-3.906250
8704,-3.906250
8705,-3.906250
8706,-3.906250
8707,-1.953125
8708,-1.953125
8709,-1.953125
8710,-1.953125
8711,0.000000
8712,0.000000
8713,0.000000
8714,0.000000
8715,0.000000
8716,1.953125
8717,0.000000
8718,1.953125
8719,1.953125
8720,1.953125
8721,1.953125
8722,1.953125
8723,3.906250
8724,3.906250
8725,3.906250
8726,3.906250
8727,3.906250
8728,3.906250
8729,3.906250
8730,5.859375
8731,5.859375
8732,5.859375
8733,5.859375
8734,5.859375
8735,5.859375
8736,7.812500
8737,7.812500
8738,7.812500
8739,7.812500
8740,7.812500
8741,7.812500
8742,7.812500
8743,7.812500
8744,7.812500
8745,9.765625
8746,9.765625
8747,9.765625
8748,9.765625
8749,9.765625
8750,9.765625
8751,9.765625
8752,9.765625
8753,9.765625
8754,9.765625
8755,9.765625
8756,11.718750
8757,9.765625
8758,9.765625
8759,9.765625
8760,9.765625
8761,9.765625
8762,9.765625
8763,9.765625
8764,9.765625
8765,11.718750
8766,11.718750
8767,11.718750
8768,11.718750
8769,9.765625
8770,9.765625
8771,11.718750
8772,11.718750
8773,9.765625
8774,11.718750
8775,11.718750
8776,9.765625
8777,9.765625
8778,9.765625
8779,9.765625
8780,9.765625
8781,9.765625
8782,11.718750
8783,9.765625
8784,9.765625
8785,9.765625
8786,9.765625
8787,9.765625
8788,9.765625
8789,9.765625
8790,9.765625
8791,9.765625
8792,9.765625
8793,7.812500
8794,9.765625
8795,7.812500
8796,7.812500
8797,7.812500
8798,7.812500
8799,7.812500
8800,7.812500
8801,5.859375
8802,5.859375
8803,5.859375
8804,5.859375
8805,5.859375
8806,5.859375
8807,5.859375
8808,3.906250
8809,3.906250
8810,3.906250
8811,3.906250
8812,3.906250
8813,3.906250
8814,3.906250
8815,1.953125
8816,1.953125
8817,1.953125
8818,1.953125
8819,1.953125
8820,0.000000
8821,0.000000
8822,0.000000
8823,0.000000
8824,0.000000
8825,-1.953125
8826,-1.953125
8827,-1.953125
8828,-1.953125
8829,-1.953125
8830,-1.953125
8831,-3.906250
8832,-3.906250
8833,-3.906250
8834,-3.906250
8835,-5.859375
8836,-5.859375
8837,-5.859375
8838,-5.859375
8839,-5.859375
8840,-5.859375
8841,-7.812500
8842,-5.859375
8843,-7.812500
8844,-7.812500
8845,-7.812500
8846,-9.765625
8847,-9.765625
8848,-9.765625
8849,-9.765625
8850,-9.765625
8851,-9.765625
8852,-11.718750
8853,-11.718750
8854,-11.718750
8855,-11.718750
8856,-11.718750
8857,-11.718750
8858,-13.671875
8859,-13.671875
8860,-13.671875
8861,-13.671875
8862,-13.671875
8863,-15.625000
8864,-15.625000
8865,-15.625000
8866,-15.625000
8867,-15.625000
8868,-17.578125
8869,-17.578125
8870,-17.578125
8871,-17.578125
8872,-17.578125
8873,-17.578125
8874,-19.531250
8875,-19.531250
8876,-19.531250
8877,-19.531250
8878,-19.531250
8879,-19.531250
8880,-19.531250
8881,-19.531250
8882,-19.531250
8883,-21.484375
8884,-21.484375
8885,-21.484375
8886,-21.484375
8887,-21.484375
8888,-21.484375
8889,-21.484375
8890,-23.437500
8891,-21.484375
8892,-23.437500
8893,-23.437500
8894,-23.437500
8895,-23.437500
8896,-23.437500
8897,-23.437500
8898,-23.437500
8899,-23.437500
8900,-23.437500
8901,-23.437500
8902,-23.437500
8903,-23.437500
8904,-23.437500
8905,-23.437500
8906,-23.437500
8907,-23.437500
8908,-23.437500
8909,-23.437500
8910,-23.437500
8911,-23.437500
8912,-23.437500
8913,-23.437500
8914,-23.437500
8915,-23.437500
8916,-23.437500
8917,-23.437500
8918,-23.437500
8919,-23.437500
8920,-23.437500
8921,-23.437500
8922,-23.437500
8923,-23.437500
8924,-21.484375
8925,-21.484375
8926,-23.437500
8927,-21.484375
8928,-21.484375
8929,-21.484375
8930,-21.484375
8931,-21.484375
8932,-21.484375
8933,-21.484375
8934,-21.484375
8935,-21.484375
8936,-19.531250
8937,-19.531250
8938,-19.531250
8939,-19.531250
8940,-19.531250
8941,-19.531250
8942,-19.531250
8943,-19.531250
8944,-17.578125
8945,-17.578125
8946,-17.578125
8947,-17.578125
8948,-17.578125
8949,-17.578125
8950,-17.578125
8951,-17.578125
8952,-15.625000
8953,-15.625000
8954,-15.625000
8955,-13.671875
8956,-15.625000
8957,-13.671875
8958,-13.671875
8959,-13.671875
8960,-13.671875
8961,-13.671875
8962,-13.671875
8963,-11.718750
8964,-11.718750
8965,-11.718750
8966,-11.718750
8967,-9.765625
8968,-9.765625
8969,-9.765625
8970,-9.765625
8971,-7.812500
8972,-9.765625
8973,-7.812500
8974,-7.812500
8975,-7.812500
8976,-7.812500
8977,-5.859375
8978,-5.859375
8979,-5.859375
8980,-5.859375
8981,-3.906250
8982,-3.906250
8983,-3.906250
8984,-3.906250
8985,-3.906250
8986,-3.906250
8987,-3.906250
8988,-1.953125
8989,-1.953125
8990,-1.953125
8991,-1.953125
8992,-1.953125
8993,0.000000
8994,0.000000
8995,0.000000
8996,0.000000
8997,1.953125
8998,0.000000
8999,0.000000
9000,1.953125
9001,1.953125
9002,1.953125
9003,1.953125
9004,3.906250
9005,1.953125
9006,3.906250
9007,3.906250
9008,3.906250
9009,3.906250
9010,3.906250
9011,3.906250
9012,5.859375
9013,5.859375
9014,5.859375
9015,5.859375
9016,5.859375
9017,5.859375
9018,5.859375
9019,5.859375
9020,7.812500
9021,7.812500
9022,7.812500
9023,7.812500
9024,7.812500
9025,7.812500
9026,7.812500
9027,7.812500
9028,7.812500
9029,9.765625
9030,9.765625
9031,9.765625
9032,9.765625
9033,9.765625
9034,9.765625
9035,9.765625
9036,9.765625
9037,11.718750
9038,9.765625
9039,9.765625
9040,9.765625
9041,11.718750
9042,9.765625
9043,9.765625
9044,9.765625
9045,9.765625
9046,11.718750
9047,11.718750
9048,11.718750
9049,9.765625
9050,11.718750
9051,11.718750
9052,11.718750
9053,9.765625
9054,9.765625
9055,11.718750
9056,11.718750
9057,9.765625
9058,9.765625
9059,11.718750
9060,9.765625
9061,9.765625
9062,9.765625
9063,9.765625
9064,9.765625
9065,9.765625
9066,9.765625
9067,9.765625
9068,9.765625
9069,9.765625
9070,9.765625
9071,9.765625
9072,9.765625
9073,7.812500
9074,7.812500
9075,7.812500
9076,7.812500
9077,7.812500
9078,7.812500
9079,7.812500
9080,7.812500
9081,7.812500
9082,5.859375
9083,5.859375
9084,5.859375
9085,5.859375
9086,5.859375
9087,5.859375
9088,5.859375
9089,3.906250
9090,3.906250
9091,3.906250
9092,3.906250
9093,3.906250
9094,3.906250
9095,3.906250
9096,3.906250
9097,1.953125
9098,1.953125
9099,1.953125
9100,1.953125
9101,1.953125
9102,0.000000
9103,0.000000
9104,0.000000
9105,0.000000
9106,0.000000
9107,-1.953125
9108,-1.953125
9109,-1.953125
9110,-1.953125
9111,-1.953125
9112,-1.953125
9113,-1.953125
9114,-3.906250
9115,-3.906250
9116,-3.906250
9117,-3.906250
9118,-3.906250
9119,-3.906250
9120,-5.859375
9121,-5.859375
9122,-5.859375
9123,-5.859375
9124,-5.859375
9125,-7.812500
9126,-7.812500
9127,-9.765625
9128,-7.812500
9129,-9.765625
9130,-9.765625
9131,-9.765625
9132,-9.765625
9133,-9.765625
9134,-11.718750
9135,-11.718750
9136,-11.718750
9137,-11.718750
9138,-11.718750
9139,-11.718750
9140,-13.671875
9141,-13.671875
9142,-13.671875
9143,-15.625000
9144,-15.625000
9145,-15.625000
9146,-15.625000
9147,-15.625000
9148,-17.578125
9149,-17.578125
9150,-17.578125
9151,-17.578125
9152,-17.578125
9153,-17.578125
9154,-17.578125
9155,-19.531250
9156,-19.531250
9157,-19.531250
9158,-19.531250
9159,-19.531250
9160,-19.531250
9161,-19.531250
9162,-21.484375
9163,-21.484375
9164,-21.484375
9165,-21.484375
9166,-19.531250
9167,-21.484375
9168,-21.484375
9169,-21.484375
9170,-21.484375
9171,-21.484375
9172,-21.484375
9173,-21.484375
9174,-21.484375
9175,-21.484375
9176,-21.484375
9177,-21.484375
9178,-23.437500
9179,-23.437500
9180,-23.437500
9181,-23.437500
9182,-23.437500
9183,-21.484375
9184,-23.437500
9185,-23.437500
9186,-23.437500
9187,-23.437500
9188,-23.437500
9189,-23.437500
9190,-23.437500
9191,-23.437500
9192,-23.437500
9193,-23.437500
9194,-23.437500
9195,-23.437500
9196,-23.437500
9197,-23.437500
9198,-23.437500
9199,-23.437500
9200,-23.437500
9201,-23.437500
9202,-23.437500
9203,-23.437500
9204,-23.437500
9205,-21.484375
9206,-23.437500
9207,-23.437500
9208,-23.437500
9209,-23.437500
9210,-21.484375
9211,-21.484375
9212,-21.484375
9213,-21.484375
9214,-21.484375
9215,-21.484375
9216,-21.484375
9217,-21.484375
9218,-19.531250
9219,-19.531250
9220,-19.531250
9221,-21.484375
9222,-19.531250
9223,-19.531250
9224,-19.531250
9225,-19.531250
9226,-19.531250
9227,-17.578125
9228,-17.578125
9229,-17.578125
9230,-17.578125
9231,-17.578125
9232,-15.625000
9233,-15.625000
9234,-15.625000
9235,-15.625000
9236,-15.625000
9237,-15.625000
9238,-15.625000
9239,-13.671875
9240,-13.671875
9241,-13.671875
9242,-13.671875
9243,-13.671875
9244,-13.671875
9245,-11.718750
9246,-11.718750
9247,-11.718750
9248,-11.718750
9249,-9.765625
9250,-11.718750
9251,-9.765625
9252,-9.765625
9253,-9.765625
9254,-7.812500
9255,-7.812500
9256,-7.812500
9257,-7.812500
9258,-7.812500
9259,-7.812500
9260,-7.812500
9261,-5.859375
9262,-5.859375
9263,-5.859375
9264,-5.859375
9265,-3.906250
9266,-3.906250
9267,-3.906250
9268,-3.906250
9269,-3.906250
9270,-3.906250
9271,-3.906250
9272,-3.906250
9273,-1.953125
9274,-1.953125
9275,-1.953125
9276,-1.953125
9277,0.000000
9278,0.000000
9279,0.000000
9280,1.953125
9281,0.000000
9282,1.953125
9283,1.953125
9284,1.953125
9285,1.953125
9286,1.953125
9287,1.953125
9288,3.906250
9289,3.906250
9290,3.906250
9291,3.906250
9292,3.906250
9293,3.906250
9294,3.906250
9295,5.859375
9296,5.859375
9297,5.859375
9298,5.859375
9299,5.859375
9300,5.859375
9301,5.859375
9302,5.859375
9303,7.812500
9304,7.812500
9305,7.812500
9306,7.812500
9307,7.812500
9308,7.812500
9309,9.765625
9310,9.765625
9311,9.765625
9312,9.765625
9313,9.765625
9314,9.765625
9315,9.765625
9316,9.765625
9317,9.765625
9318,9.765625
9319,9.765625
9320,9.765625
9321,9.765625
9322,9.765625
9323,9.765625
9324,9.765625
9325,9.765625
9326,9.765625
9327,9.765625
9328,9.765625
9329,9.765625
9330,11.718750
9331,9.765625
9332,11.718750
9333,11.718750
9334,11.718750
9335,9.765625
9336,11.718750
9337,9.765625
9338,9.765625
9339,9.765625
9340,9.765625
9341,9.765625
9342,11.718750
9343,9.765625
9344,9.765625
9345,9.765625
9346,9.765625
9347,9.765625
9348,9.765625
9349,9.765625
9350,9.765625
9351,9.765625
9352,9.765625
9353,9.765625
9354,9.765625
9355,9.765625
9356,9.765625
9357,7.812500
9358,7.812500
9359,7.812500
9360,7.812500
9361,7.812500
9362,7.812500
9363,7.812500
9364,7.812500
9365,7.812500
9366,7.812500
9367,7.812500
9368,5.859375
9369,5.859375
9370,5.859375
9371,5.859375
9372,5.859375
9373,5.859375
9374,3.906250
9375,3.906250
9376,3.906250
9377,3.906250
9378,3.906250
9379,3.906250
9380,1.953125
9381,1.953125
9382,1.953125
9383,1.953125
9384,1.953125
9385,0.000000
9386,0.000000
9387,0.000000
9388,0.000000
9389,-1.953125
9390,0.000000
9391,-1.953125
9392,-1.953125
9393,-1.953125
9394,-1.953125
9395,-1.953125
9396,-3.906250
9397,-3.906250
9398,-3.906250
9399,-3.906250
9400,-3.906250
9401,-5.859375
9402,-5.859375
9403,-5.859375
9404,-5.859375
9405,-5.859375
9406,-7.812500
9407,-7.812500
9408,-7.812500
9409,-9.765625
9410,-9.765625
9411,-9.765625
9412,-9.765625
9413,-9.765625
9414,-9.765625
9415,-11.718750
9416,-11.718750
9417,-11.718750
9418,-11.718750
9419,-11.718750
9420,-13.671875
9421,-13.671875
9422,-13.671875
9423,-13.671875
9424,-13.671875
9425,-13.671875
9426,-15.625000
9427,-15.625000
9428,-15.625000
9429,-15.625000
9430,-15.625000
9431,-15.625000
9432,-15.625000
9433,-17.578125
9434,-17.578125
9435,-15.625000
9436,-17.578125
9437,-17.578125
9438,-17.578125
9439,-17.578125
9440,-19.531250
9441,-19.531250
9442,-19.531250
9443,-19.531250
9444,-19.531250
9445,-19.531250
9446,-21.484375
9447,-21.484375
9448,-19.531250
9449,-21.484375
9450,-21.484375
9451,-21.484375
9452,-21.484375
9453,-21.484375
9454,-21.484375
9455,-21.484375
9456,-21.484375
9457,-23.437500
9458,-21.484375
9459,-23.437500
9460,-23.437500
9461,-23.437500
9462,-23.437500
9463,-23.437500
9464,-23.437500
9465,-23.437500
9466,-23.437500
9467,-23.437500
9468,-21.484375
9469,-23.437500
9470,-23.437500
9471,-23.437500
9472,-23.437500
9473,-23.437500
9474,-23.437500
9475,-23.437500
9476,-23.437500
9477,-23.437500
9478,-23.437500
9479,-23.437500
9480,-23.437500
9481,-23.437500
9482,-23.437500
9483,-23.437500
9484,-23.437500
9485,-23.437500
9486,-23.437500
9487,-23.437500
9488,-23.437500
9489,-23.437500
9490,-21.484375
9491,-21.484375
9492,-21.484375
9493,-21.484375
9494,-21.484375
9495,-21.484375
9496,-21.484375
9497,-21.484375
9498,-19.531250
9499,-19.531250
9500,-19.531250
9501,-19.531250
9502,-19.531250
9503,-19.531250
9504,-19.531250
9505,-19.531250
9506,-19.531250
9507,-17.578125
9508,-17.578125
9509,-17.578125
9510,-17.578125
9511,-17.578125
9512,-17.578125
9513,-17.578125
9514,-17.578125
9515,-15.625000
9516,-15.625000
9517,-15.625000
9518,-15.625000
9519,-15.625000
9520,-13.671875
9521,-13.671875
9522,-13.671875
9523,-13.671875
9524,-13.671875
9525,-13.671875
9526,-11.718750
9527,-11.718750
9528,-11.718750
9529,-11.718750
9530,-11.718750
9531,-11.718750
9532,-9.765625
9533,-9.765625
9534,-9.765625
9535,-9.765625
9536,-9.765625
9537,-7.812500
9538,-7.812500
9539,-7.812500
9540,-7.812500
9541,-7.812500
9542,-7.812500
9543,-5.859375
9544,-5.859375
9545,-5.859375
9546,-5.859375
9547,-5.859375
9548,-5.859375
9549,-3.906250
9550,-3.906250
9551,-3.906250
9552,-3.906250
9553,-1.953125
9554,-1.953125
9555,-1.953125
9556,-1.953125
9557,-1.953125
9558,0.000000
9559,0.000000
9560,0.000000
9561,0.000000
9562,0.000000
9563,1.953125
9564,1.953125
9565,1.953125
9566,1.953125
9567,1.953125
9568,1.953125
9569,3.906250
9570,3.906250
9571,3.906250
9572,5.859375
9573,3.906250
9574,3.906250
9575,3.906250
9576,5.859375
9577,5.859375
9578,5.859375
9579,5.859375
9580,5.859375
9581,5.859375
9582,5.859375
9583,5.859375
9584,7.812500
9585,7.812500
9586,7.812500
9587,7.812500
9588,7.812500
9589,7.812500
9590,7.812500
9591,7.812500
9592,7.812500
9593,7.812500
9594,7.812500
9595,9.765625
9596,9.765625
9597,9.765625
9598,9.765625
9599,9.765625
9600,9.765625
9601,9.765625
9602,9.765625
9603,9.765625
9604,11.718750
9605,9.765625
9606,9.765625
9607,9.765625
9608,9.765625
9609,9.765625
9610,11.718750
9611,11.718750
9612,11.718750
9613,11.718750
9614,9.765625
9615,11.718750
9616,11.718750
9617,11.718750
9618,11.718750
9619,9.765625
9620,9.765625
9621,11.718750
9622,11.718750
9623,9.765625
9624,9.765625
9625,11.718750
9626,11.718750
9627,9.765625
9628,9.765625
9629,9.765625
9630,9.765625
9631,9.765625
9632,9.765625
9633,9.765625
9634,9.765625
9635,9.765625
9636,9.765625
9637,9.765625
9638,9.765625
9639,9.765625
9640,7.812500
9641,7.812500
9642,7.812500
9643,7.812500
9644,7.812500
9645,7.812500
9646,7.812500
9647,7.812500
9648,7.812500
9649,5.859375
9650,5.859375
9651,5.859375
9652,5.859375
9653,5.859375
9654,5.859375
9655,3.906250
9656,3.906250
9657,3.906250
9658,3.906250
9659,3.906250
9660,3.906250
9661,1.953125
9662,1.953125
9663,3.906250
9664,1.953125
9665,1.953125
9666,0.000000
9667,0.000000
9668,1.953125
9669,0.000000
9670,0.000000
9671,-1.953125
9672,-1.953125
9673,-1.953125
9674,-1.953125
9675,-1.953125
9676,-1.953125
9677,-3.906250
9678,-3.906250
9679,-3.906250
9680,-3.906250
9681,-3.906250
9682,-5.859375
9683,-3.906250
9684,-5.859375
9685,-5.859375
9686,-5.859375
9687,-5.859375
9688,-7.812500
9689,-7.812500
9690,-7.812500
9691,-7.812500
9692,-7.812500
9693,-7.812500
9694,-9.765625
9695,-9.765625
9696,-9.765625
9697,-9.765625
9698,-11.718750
9699,-9.765625
9700,-11.718750
9701,-11.718750
9702,-11.718750
9703,-11.718750
9704,-13.671875
9705,-13.671875
9706,-13.671875
9707,-13.671875
9708,-13.671875
9709,-13.671875
9710,-15.625000
9711,-15.625000
9712,-15.625000
9713,-15.625000
9714,-15.625000
9715,-15.625000
9716,-17.578125
9717,-17.578125
9718,-17.578125
9719,-17.578125
9720,-17.578125
9721,-17.578125
9722,-19.531250
9723,-19.531250
9724,-19.531250
9725,-19.531250
9726,-19.531250
9727,-19.531250
9728,-21.484375
9729,-19.531250
9730,-21.484375
9731,-21.484375
9732,-21.484375
9733,-21.484375
9734,-21.484375
9735,-21.484375
9736,-21.484375
9737,-23.437500
9738,-21.484375
9739,-23.437500
9740,-23.437500
9741,-21.484375
9742,-21.484375
9743,-23.437500
9744,-23.437500
9745,-23.437500
9746,-23.437500
9747,-23.437500
9748,-23.437500
9749,-25.390625
9750,-23.437500
9751,-23.437500
9752,-23.437500
9753,-23.437500
9754,-23.437500
9755,-23.437500
9756,-23.437500
9757,-23.437500
9758,-23.437500
9759,-23.437500
9760,-23.437500
9761,-23.437500
9762,-23.437500
9763,-23.437500
9764,-23.437500
9765,-23.437500
9766,-23.437500
9767,-23.437500
9768,-23.437500
9769,-21.484375
9770,-21.484375
9771,-21.484375
9772,-21.484375
9773,-21.484375
9774,-21.484375
9775,-21.484375
9776,-21.484375
9777,-21.484375
9778,-21.484375
9779,-21.484375
9780,-21.484375
9781,-19.531250
9782,-19.531250
9783,-21.484375
9784,-21.484375
9785,-19.531250
9786,-19.531250
9787,-19.531250
9788,-19.531250
9789,-19.531250
9790,-19.531250
9791,-19.531250
9792,-17.578125
9793,-17.578125
9794,-17.578125
9795,-17.578125
9796,-15.625000
9797,-15.625000
9798,-15.625000
9799,-15.625000
9800,-15.625000
9801,-15.625000
9802,-15.625000
9803,-15.625000
9804,-13.671875
9805,-15.625000
9806,-13.671875
9807,-13.671875
9808,-11.718750
9809,-11.718750
9810,-11.718750
9811,-11.718750
9812,-11.718750
9813,-11.718750
9814,-11.718750
9815,-9.765625
9816,-9.765625
9817,-9.765625
9818,-9.765625
9819,-7.812500
9820,-7.812500
9821,-7.812500
9822,-7.812500
9823,-7.812500
9824,-5.859375
9825,-5.859375
9826,-5.859375
9827,-5.859375
9828,-3.906250
9829,-5.859375
9830,-3.906250
9831,-3.906250
9832,-3.906250
9833,-3.906250
9834,-1.953125
9835,-1.953125
9836,-1.953125
9837,-1.953125
9838,-1.953125
9839,-1.953125
9840,0.000000
9841,0.000000
9842,0.000000
9843,0.000000
9844,0.000000
9845,0.000000
9846,1.953125
9847,1.953125
9848,1.953125
9849,1.953125
9850,1.953125
9851,1.953125
9852,3.906250
9853,3.906250
9854,3.906250
9855,3.906250
9856,3.906250
9857,5.859375
9858,3.906250
9859,3.906250
9860,5.859375
9861,5.859375
9862,5.859375
9863,5.859375
9864,5.859375
9865,5.859375
9866,7.812500
9867,7.812500
9868,7.812500
9869,7.812500
9870,7.812500
9871,7.812500
9872,7.812500
9873,7.812500
9874,7.812500
9875,7.812500
9876,9.765625
9877,9.765625
9878,9.765625
9879,9.765625
9880,9.765625
9881,9.765625
9882,9.765625
9883,9.765625
9884,9.765625
9885,9.765625
9886,11.718750
9887,11.718750
9888,9.765625
9889,11.718750
9890,9.765625
9891,11.718750
9892,9.765625
9893,9.765625
9894,11.718750
9895,11.718750
9896,11.718750
9897,11.718750
9898,9.765625
9899,11.718750
9900,11.718750
9901,11.718750
9902,9.765625
9903,11.718750
9904,11.718750
9905,11.718750
9906,9.765625
9907,9.765625
9908,11.718750
9909,9.765625
9910,9.765625
9911,9.765625
9912,9.765625
9913,9.765625
9914,9.765625
9915,9.765625
9916,9.765625
9917,9.765625
9918,9.765625
9919,7.812500
9920,7.812500
9921,7.812500
9922,7.812500
9923,7.812500
9924,7.812500
9925,7.812500
9926,7.812500
9927,7.812500
9928,7.812500
9929,5.859375
9930,5.859375
9931,5.859375
9932,5.859375
9933,5.859375
9934,5.859375
9935,5.859375
9936,5.859375
9937,5.859375
9938,3.906250
9939,3.906250
9940,3.906250
9941,3.906250
9942,3.906250
9943,3.906250
9944,1.953125
9945,1.953125
9946,1.953125
9947,1.953125
9948,1.953125
9949,1.953125
9950,0.000000
9951,0.000000
9952,0.000000
9953,0.000000
9954,0.000000
9955,0.000000
9956,0.000000
9957,-1.953125
9958,-1.953125
9959,-1.953125
9960,-1.953125
9961,-3.906250
9962,-3.906250
9963,-3.906250
9964,-3.906250
9965,-3.906250
9966,-5.859375
9967,-5.859375
9968,-5.859375
9969,-7.812500
9970,-5.859375
9971,-7.812500
9972,-7.812500
9973,-7.812500
9974,-7.812500
9975,-9.765625
9976,-9.765625
9977,-9.765625
9978,-9.765625
9979,-9.765625
9980,-11.718750
9981,-11.718750
9982,-11.718750
9983,-11.718750
9984,-11.718750
9985,-11.718750
9986,-13.671875
9987,-13.671875
9988,-13.671875
9989,-13.671875
9990,-13.671875
9991,-13.671875
9992,-15.625000
9993,-15.625000
9994,-15.625000
9995,-15.625000
9996,-15.625000
9997,-15.625000
9998,-17.578125
9999,-17.578125
10000,-17.578125
